#   1 NUMBER                 Running object number                                     
#   2 MAG_AUTO               Kron-like elliptical aperture magnitude                    [mag]
#   3 X_IMAGE                Object position along x                                    [pixel]
#   4 Y_IMAGE                Object position along y                                    [pixel]
#   5 X_WORLD                Barycenter position along world x axis                     [deg]
#   6 Y_WORLD                Barycenter position along world y axis                     [deg]
#   7 A_WORLD                Profile RMS along major axis (world units)                 [deg]
#   8 B_WORLD                Profile RMS along minor axis (world units)                 [deg]
#   9 THETA_WORLD            Position angle (CCW/world-x)                               [deg]
#  10 FWHM_WORLD             FWHM assuming a gaussian core                              [deg]
#  11 ELONGATION             A_IMAGE/B_IMAGE                                           
#  12 ELLIPTICITY            1 - B_IMAGE/A_IMAGE                                       
         1 -12.2342      6.7136     36.8077   7.7690641414e+01   6.7007916663e+01     0.450258    0.2867116 -85.42  0.002536818    2.695    0.629
         2 -11.5313    240.7016      1.9704   8.5748240169e+00   2.4627562202e+01    0.3824738    0.1596274  70.80  0.001587419    2.197    0.545
         3 -13.2346    238.2335     17.0641   1.2200724217e+01   2.3473815657e+01     0.536336    0.3703102  31.10  0.002757189    2.287    0.563
         4 -13.4465    226.7126     13.3683   1.2404696708e+01   2.6638542272e+01    0.5589234    0.3932309 -54.67  0.002900636    1.297    0.229
         5 -13.8972    232.3397      6.9285   1.0378763367e+01   2.6028601618e+01     1.161212    0.5800337 -35.87  0.005773184    1.915    0.478
         6 -13.4601    247.0983     11.5664   1.0193904534e+01   2.2086241273e+01    0.9146637     0.587451 -52.27  0.005230469    1.349    0.259
         7 -12.0415    247.7859      2.7225   8.2051196692e+00   2.2935612568e+01    0.4397393    0.3243629  84.04  0.002745953    1.246    0.198
         8 -11.1272    217.9914     16.0817   1.3934792213e+01   2.8442568130e+01    0.3185601    0.1978013  -8.67  0.001477402    2.474    0.596
         9 -12.3856    201.8116     10.9548   1.4361582306e+01   3.3049390253e+01    0.4583587     0.268837  31.71   0.00202358    2.628    0.619
        10 -11.0380    174.8715     12.4967   1.8146083420e+01   3.9751847404e+01    0.2542561     0.222718  43.09 0.0008646906    1.224    0.183
        11 -10.8506    132.9642     12.6140   2.5152190929e+01   5.0275616329e+01    0.2290316    0.1934052 -36.11 0.0003509767    1.306    0.234
        12 -11.6057     31.4427     11.9147   5.7071563481e+01   6.9167402828e+01    0.3775508     0.164532 -35.70            0    1.960    0.490
        13 -10.4076    124.9719     11.9842   2.6559034121e+01   5.2249495144e+01    0.1628566    0.1448978  44.34 0.0003403462    1.006    0.006
        14 -11.6390     69.9283     11.5514   4.1402591360e+01   6.3718160108e+01    0.2203048    0.1709994  -9.09  0.000354939    1.171    0.146
        15 -13.1137    193.6441      5.5212   1.3826052510e+01   3.5684031035e+01    0.7610517     0.338152  54.04  0.003311422    2.189    0.543
        16 -10.6585     24.2720      7.5307   5.8413781251e+01   7.0557774468e+01    0.2025345    0.1172328 -34.36 0.0008892441    1.446    0.308
        17 -12.9036    217.4328      4.2015   1.1060304531e+01   2.9901421098e+01    0.4769592    0.4455596  83.54  0.002854698    1.174    0.148
        18 -10.9252    103.4876      7.1120   2.9600071275e+01   5.7604810426e+01    0.1865744    0.1253987 -18.57  0.001023052    1.561    0.360
        19 -10.1685     20.4441      6.0714   5.9598752763e+01   7.1145175507e+01    0.1668412   0.08677322 -35.49  0.001016529    1.577    0.366
        20 -10.5465    151.8028      4.8807   1.9195889887e+01   4.6372920196e+01    0.2769778    0.1663935 -79.21  0.001252951    2.189    0.543
        21 -11.5035    206.3522      2.0872   1.1591420095e+01   3.2846712896e+01    0.2436155      0.17169  86.08 0.0004172292    1.267    0.210
        22 -11.7285    160.5548      1.8792   1.6939162068e+01   4.4441419181e+01    0.3532942    0.2333734  66.30  0.001869342    1.320    0.242
        23 -10.8680     13.8151      3.9555   6.1953119520e+01   7.2055164499e+01    0.2290116    0.1408598  16.84  0.001151041    1.660    0.397
        24 -11.5595    179.7150      2.3268   1.4564238963e+01   3.9533866584e+01    0.4118036    0.1379369  57.87  0.001607576    2.507    0.601
        25 -11.8659     78.3519      3.7629   3.5128729860e+01   6.3038725686e+01    0.4191261    0.3049849  76.40  0.001131058    2.235    0.553
        26 -10.8582    115.8264      2.0547   2.4770442277e+01   5.5312108163e+01        0.187     0.172114 -87.22 0.0004822136    1.274    0.215
        27  -9.8872     23.7798      1.5735   5.5760154810e+01   7.1426741680e+01    0.1273492   0.09707424  25.26 0.0006128426    1.497    0.332
        28  -9.7541    190.5344    225.4706   6.6704480192e+01  -2.1120772202e-01    0.1281678    0.1047811  28.94 6.282495e-07    1.065    0.061
        29 -10.7310     49.8255    249.7841   9.4906995229e+01   1.7839178571e+01    0.2553427   0.09968803  49.10  0.001462774    1.896    0.473
        30 -10.8622    221.6912    221.7282   6.0393028670e+01  -4.9401704647e+00    0.2155732    0.1394173 -18.90  0.001236068    1.736    0.424
        31 -11.4143    228.6952    220.3869   5.8919746808e+01  -5.9022853931e+00    0.2360283    0.1915732  38.17 0.0006065842    1.276    0.217
        32 -11.4329    247.4549    217.4826   5.5161109694e+01  -8.4836818679e+00    0.3050276    0.2547962  79.59  0.001841606    2.446    0.591
        33 -10.4645    244.2926    218.7022   5.5913926429e+01  -8.1492639464e+00    0.1745364    0.1397914  -4.50 0.0004588584    1.146    0.127
        34 -10.5839    204.3948    217.5968   6.2851770653e+01  -1.4565018456e+00    0.2639911    0.1633054  10.88  0.001298881    2.213    0.548
        35 -11.2787    180.1250    216.6845   6.7287820306e+01   2.9477606587e+00    0.2369545    0.2200155 -17.26 0.0006999939    1.224    0.183
        36 -10.7551    212.7424    215.2339   6.0912654979e+01  -2.5511627715e+00    0.2902993    0.1727982  29.84  0.001111886    1.553    0.356
        37 -10.5409    209.5058    212.0859   6.0968726360e+01  -1.5416453741e+00    0.2390057    0.2253034 -50.17 0.0009660482    1.372    0.271
        38  -9.6275     11.6709    215.7208   9.9209863994e+01   2.8396332484e+01    0.0899167    0.0760062 -70.49 0.0004674541    1.599    0.375
        39  -9.9138    242.5032    214.5641   5.5495648580e+01  -7.3499029330e+00    0.1235211   0.09861264  13.41 0.0001149573    1.022    0.022
        40 -11.7398    231.6947    212.6787   5.7050975477e+01  -5.3707287823e+00    0.3929023    0.2566039  32.59   0.00195554    1.336    0.252
        41 -10.3802     80.8277    199.4895   8.4865480049e+01   2.3149850428e+01    0.1943355    0.1680582 -58.49   0.00125382    1.436    0.304
        42 -10.4002      5.0145    198.5689   9.9414944676e+01   3.2395872390e+01    0.2744273   0.08658861  87.99  0.001196311    3.331    0.700
        43  -9.3553    182.7010    198.3742   6.3719213277e+01   5.4759875473e+00    0.1333792    0.1063036  81.81  0.000702796    1.749    0.428
        44 -10.4948    157.9308    197.9057   6.8641211108e+01   1.0223494131e+01    0.2098246    0.1827964  59.90  0.000656089    1.121    0.108
        45  -9.6429    243.4614    197.4980   5.2220882950e+01  -5.2424259427e+00    0.1277314     0.105888   7.62 2.045419e-05    1.019    0.018
        46  -9.7646    165.0060    194.2814   6.6576537765e+01   9.5479762999e+00    0.1759538    0.1118054  43.30 0.0004160603    1.409    0.290
        47  -9.4556     73.4488    186.5825   8.4902596429e+01   2.6956771474e+01    0.1281146    0.1075619  77.54 0.0001421977    1.033    0.032
        48 -11.9062    249.4761    182.8481   4.8370793924e+01  -4.1915580614e+00    0.4093512    0.1954499 -39.18  0.001946146    2.158    0.537
        49 -11.2975    240.9740    181.8252   4.9633583154e+01  -2.5884376859e+00    0.3608846    0.2579711  19.27  0.001378182    1.382    0.276
        50  -9.7124    189.5908    174.5407   5.7870920879e+01   8.3215766139e+00    0.1391897    0.1328028  37.73 -2.083911e-06    1.058    0.055
        51  -9.7912    182.4914    162.3875   5.6852864813e+01   1.2035017708e+01    0.1460157    0.1357377  37.24 0.0001063778    1.026    0.026
        52 -10.3607     35.0293    158.0664   9.0120658955e+01   3.8123192747e+01    0.1882215    0.1490221  87.86 0.0004747166    1.023    0.023
        53 -10.3469    249.4687    153.5095   4.2357993822e+01   2.0029959324e-01    0.1349446    0.1195296 -11.40 0.0001086358    1.007    0.007
        54 -11.4093    236.6656    146.0394   4.2909250386e+01   3.8305188535e+00    0.3203449    0.2101502 -55.69 0.0007056869    2.008    0.502
        55  -9.5008    215.5403    141.5049   4.5696527402e+01   8.9222862429e+00    0.1454768    0.1372459  -5.80 0.0001482269    1.018    0.018
        56  -9.7527     25.5874    134.8132   8.9721715125e+01   4.4366719726e+01    0.1600918   0.09706061 -84.01 0.0003200835    1.439    0.305
        57 -12.5382    247.9967    132.0116   3.7908518459e+01   3.9096793918e+00    0.5408363    0.3178495 -40.37  0.002613922    1.592    0.372
        58 -10.3911    225.3620    133.5953   4.2096647473e+01   8.2455217778e+00    0.2069885    0.1688243 -70.44  0.000511524    1.565    0.361
        59  -9.9970      6.7294    134.4664   9.4297088568e+01   4.5978937422e+01    0.1295956    0.1126059 -22.04 0.0009416399    1.633    0.387
        60 -10.3069    208.7461    129.7488   4.4257752939e+01   1.2526095680e+01    0.2462991    0.1769727 -76.81  0.001065395    2.108    0.526
        61 -10.4574    233.8401    129.6202   3.9708272133e+01   7.1599030578e+00    0.1918364    0.1382375  63.67 0.0005103652    1.703    0.413
        62 -11.6585    241.0087    124.9891   3.7453028643e+01   6.4654353913e+00    0.2830364    0.2039574  51.09  0.001465064    1.511    0.338
        63 -10.0627      4.4890    125.0032   9.3897366265e+01   4.8257952175e+01    0.1727446   0.07721869  81.92 0.0007198745    2.562    0.610
        64 -10.1818    227.0171    124.9480   3.9801334839e+01   9.4028484946e+00    0.2286447    0.1751831 -67.49  0.001081041    1.671    0.402
        65  -9.9573    239.5338    118.4704   3.6191707742e+01   7.8631368062e+00    0.1422189    0.1307725 -25.97 2.593343e-05    1.019    0.018
        66 -10.1374     28.2696    117.9726   8.6803475623e+01   4.8014596995e+01    0.1788708    0.1337049 -74.91 0.0004809998    1.093    0.085
        67 -10.8266     21.3162    118.0077   8.8696017390e+01   4.8599298743e+01    0.2535371    0.1172502  56.33   0.00120026    2.726    0.633
        68 -10.0248    250.4667    116.5058   3.4024790906e+01   5.9450564843e+00    0.1394819    0.1253089 -30.07 0.0002565499    1.005    0.005
        69 -10.4528    233.2271    116.6493   3.6798726127e+01   9.5068263244e+00     0.204149    0.1296584  41.31 0.0004646919    1.727    0.421
        70  -9.7693     80.2715    115.3883   7.1723821252e+01   4.2368770127e+01    0.1463228    0.1026904 -34.04 0.0006991456    1.716    0.417
        71  -9.7388      4.3949    110.7552   9.2347138580e+01   5.1461612965e+01    0.1130153   0.07352994  66.52 0.0006936563    1.673    0.402
        72  -9.8307     21.2372    109.0355   8.7459923401e+01   5.0662487819e+01    0.1615536   0.08290748 -67.83 0.0003983174    1.538    0.350
        73 -10.3018    223.3316    106.3849   3.5998490452e+01   1.3464507474e+01    0.2882399    0.1354558  48.48  0.001001441    2.232    0.552
        74 -10.3894    239.3405    103.6442   3.2746638957e+01   1.0393082094e+01    0.3360546    0.2032529 -46.49  0.001561207    1.598    0.374
        75 -12.1871    243.3170     97.6677   3.0731469644e+01   1.0525683122e+01    0.5167433    0.2189233 -43.98  0.002044252    2.207    0.547
        76 -12.1022    246.5100     97.4978   3.0222745952e+01   9.8692497077e+00    0.5425183    0.2598023 -47.68  0.001906447    2.090    0.522
        77  -9.8506    126.3338     96.6803   5.4272658075e+01   3.8084980607e+01    0.1585209    0.1224558 -87.73 0.0007049183    1.699    0.411
        78 -10.0573    144.1682     87.6547   4.7170974700e+01   3.5942172307e+01    0.3094266    0.1121852 -42.59 0.0009971955    2.729    0.634
        79 -10.6108     25.7998     87.5954   8.2492341100e+01   5.5157867042e+01    0.1497983    0.1112811  44.29  0.000444475    1.627    0.385
        80 -10.2572      1.6904     86.6731   8.9945805898e+01   5.6963719488e+01    0.1211662   0.06439938 -48.11  0.000703954    1.659    0.397
        81 -10.6111     43.9045     79.0575   7.4669300992e+01   5.5371558684e+01    0.2759992    0.1750908 -77.43  0.001403187    1.988    0.497
        82  -9.8359     74.2032     79.0086   6.4596752208e+01   5.1510471170e+01    0.1888993    0.1010046 -49.80 0.0005385745    1.698    0.411
        83  -9.8998    193.0236     75.0316   3.3194549484e+01   2.6237161538e+01    0.1772269    0.1706957 -78.02 0.0009494334    1.004    0.004
        84 -10.4495      2.5374     72.9605   8.7471078103e+01   5.9889674590e+01    0.1771163   0.05069176 -50.54 0.0008089269    2.498    0.600
        85 -11.4992    143.6606     71.1048   4.2357451724e+01   3.9230846696e+01    0.2718396     0.241041  53.35 0.0003678504    1.120    0.108
        86 -10.7103     95.3173     72.0172   5.5850550187e+01   4.9423590233e+01    0.2749873    0.2106615  27.88  0.000862984    1.418    0.295
        87 -10.1349     64.8428     70.0526   6.5123038611e+01   5.4749695117e+01    0.2143905    0.1549103 -77.23  0.001082173    1.978    0.495
        88 -12.3471      6.6020     62.0770   8.3962361735e+01   6.1974852705e+01    0.2739435    0.2216746 -86.36 0.0005204171    1.404    0.288
        89 -11.2046      2.1820     65.8817   8.6307291036e+01   6.1409506737e+01    0.2116356     0.142697 -51.40 0.0003752702    1.166    0.142
        90 -10.0136     21.2988     68.6697   8.0090456892e+01   5.9638516019e+01    0.1132516   0.08709091  85.13 0.0002691776    1.642    0.391
        91 -11.1295    137.4202     65.2293   4.2036161822e+01   4.1773841212e+01    0.2457543    0.1989036  40.38 0.0007596411    1.246    0.197
        92 -10.7483     17.0106     63.9654   8.0571219776e+01   6.0937898674e+01    0.1823191    0.1416216 -51.74  0.000387113    1.006    0.006
        93 -11.2533    245.5615     62.7265   2.2138086537e+01   1.5560976124e+01    0.2452177    0.1626128 -80.74  0.001193581    1.798    0.444
        94  -9.6637    123.6577     62.2766   4.4594536551e+01   4.5466140054e+01    0.1468355    0.1189173 -85.58 0.0004186757    1.622    0.384
        95  -9.6785     43.6052     62.2545   7.0356608174e+01   5.8967348071e+01    0.1164944   0.09603993  69.03  0.000695848    1.693    0.409
        96 -10.4855    128.7231     60.2264   4.2604755443e+01   4.4679247264e+01    0.2955633    0.2309599 -63.50  0.001437597    1.551    0.355
        97  -9.6591    166.6772     60.3272   3.3992792466e+01   3.5400644826e+01    0.1602255    0.1168807 -71.94 0.0007048654    1.690    0.408
        98 -10.4844    119.5127     59.0195   4.4627649122e+01   4.6961484954e+01    0.2135054    0.1216999 -57.91 0.0008104609    2.579    0.612
        99  -9.9491     61.9967     58.2271   6.2473868843e+01   5.7522877140e+01    0.1617417    0.1083186  31.61 0.0005722232    1.633    0.387
       100 -10.9820     56.0605     56.9190   6.4188998108e+01   5.8568182309e+01    0.1890287    0.1645379 -32.05 0.0003332957    1.023    0.022
       101 -10.1916    226.2873     55.8284   2.2925090762e+01   2.1088616580e+01    0.2448187    0.1588601 -52.88 0.0008712419    1.489    0.328
       102 -10.9120     24.7119     55.3154   7.5523328951e+01   6.2149537379e+01     0.276116    0.1061952 -51.56  0.001342496    1.966    0.491
       103 -10.2414    123.1952     53.8132   4.1900922639e+01   4.7030593908e+01    0.3290008   0.09764269 -41.78  0.001020932    3.468    0.712
       104  -9.6277     61.4854     52.4475   6.0748377478e+01   5.8700238893e+01    0.1313662    0.1131966 -24.08 3.304486e-05    1.018    0.018
       105 -10.4617      1.2972     69.2905   8.7244396060e+01   6.0733415252e+01    0.1917008   0.08531853 -62.38 0.0002289098    1.624    0.384
       106 -10.1173     86.6457     49.1570   5.0939086037e+01   5.5278641861e+01    0.2677121    0.1623069  55.80  0.001233156    2.172    0.540
       107  -9.9943    136.5036     48.5154   3.6813184931e+01   4.4782150096e+01    0.1457241    0.1420685  50.79 -4.518868e-05    1.032    0.031
       108  -9.6336     48.3236     48.3009   6.4252390254e+01   6.1177454959e+01    0.1300133   0.08556025 -19.74 0.0007027894    1.632    0.387
       109  -9.8284    176.3235     47.3424   2.8283227722e+01   3.4955148877e+01    0.1553911    0.1134747  27.37 0.0007050714    1.730    0.422
       110 -10.0236     26.6944     47.0596   7.2379625153e+01   6.3620619561e+01    0.1677745     0.120821 -43.40 0.0003795654    1.108    0.097
       111 -10.4588    150.0776     44.4564   3.2454855955e+01   4.2069071221e+01    0.4247952    0.1746631 -50.63  0.001369563    3.476    0.712
       112 -10.1486      3.5977     45.8119   8.1414079382e+01   6.5437623494e+01    0.1494587   0.09101727 -68.61 0.0003468803    1.594    0.373
       113 -11.7009     61.7957     44.3580   5.7800671499e+01   6.0132065683e+01    0.2247548     0.193676 -28.91  0.000315097    1.081    0.075
       114 -10.6346    121.0085     42.4871   3.8553341548e+01   4.9323270935e+01    0.3158378    0.1762444 -63.34  0.001068973    3.816    0.738
       115 -10.7220    232.9913     41.0050   1.8425679769e+01   2.1619579227e+01    0.2877029    0.1850289  56.65  0.001266427    1.651    0.394
       116 -12.2155    238.7451     37.8912   1.7033339096e+01   2.0690723490e+01     0.300503    0.2703185  76.32 0.0003886641    1.176    0.150
       117 -12.3739    242.9047     33.7164   1.5613058406e+01   2.0285211100e+01    0.3750533    0.2131372 -32.93  0.001332205    1.745    0.427
       118 -12.9952    244.6665     26.6352   1.3802899803e+01   2.0800681471e+01    0.5279093    0.3687703 -58.65    0.0024724    1.268    0.211
       119 -12.4761    244.1998     21.1419   1.2592004550e+01   2.1596982399e+01    0.5351832    0.2229325  52.44  0.001686407    2.909    0.656
       120  -9.9353     94.3627     41.1529   4.5569895164e+01   5.5157343998e+01    0.1928027    0.1212076 -43.35 0.0009371224    1.700    0.412
       121 -10.3049     23.1187     40.9008   7.1942450402e+01   6.5094830763e+01     0.307072    0.1198484 -28.52  0.001237407    3.661    0.727
       122 -11.4747    171.9844    247.8720   7.3340898964e+01  -2.8593546961e-01    0.2660757    0.1702883 -59.98  0.001561359    2.285    0.562
       123 -10.0437     13.9284     39.0000   7.5238202629e+01   6.6139867068e+01    0.1551399   0.06356137  19.50 0.0006236734    2.885    0.653
       124 -10.2396     98.1298     35.1155   4.2155484322e+01   5.5327562420e+01     0.201508    0.1691599  16.29 0.0004038416    1.147    0.128
       125  -9.9499     36.9716     34.4746   6.3925784916e+01   6.4963368842e+01     0.150615   0.09994307  52.73 0.0008101202    2.596    0.615
       126 -10.7669     65.9187     32.8830   5.1918605364e+01   6.1435846695e+01    0.1876754    0.1591549  -6.72 0.0002602351    1.027    0.026
       127 -10.6125     44.1490     32.1311   6.0069273767e+01   6.4552539776e+01    0.2091987    0.1722393 -85.92  0.001080532    2.255    0.557
       128 -10.9380    134.0078     31.0930   3.1437254427e+01   4.7875562599e+01    0.2098145     0.193918  41.37  0.000322348    1.014    0.014
       129 -10.1527     90.8577     31.1729   4.2826720960e+01   5.7333336184e+01    0.1847524    0.1437325  14.62 0.0004053149    1.282    0.220
       130 -11.0585     78.1948     30.4796   4.6639864609e+01   5.9770752703e+01     0.238415    0.1708884 -27.70 0.0008291246    1.323    0.244
       131 -10.5664    107.1984     30.5705   3.7847844491e+01   5.4077581754e+01    0.1966582    0.1186257  40.76 0.0005299914    1.589    0.371
       132  -9.9294    146.5027     28.5672   2.7958760648e+01   4.5130148230e+01    0.1434989    0.1316248  52.16 9.595339e-05    1.020    0.020
       133 -10.2445    207.4120     27.2171   1.7988801126e+01   2.9725400424e+01    0.1984295    0.1180033 -45.25 0.0009420243    1.625    0.385
       134 -10.8216     37.6222     26.9491   6.0761301354e+01   6.6165914791e+01    0.2187346    0.1594403   5.12  0.001127346    1.367    0.268
       135 -10.0251     99.5118     24.9921   3.7826056813e+01   5.6435483699e+01    0.1968051    0.1279878 -28.44 0.0006937007    1.555    0.357
       136  -9.8437     40.9744     38.4866   6.3738427650e+01   6.3819639866e+01    0.1602613   0.09419109  -5.72 0.0005930152    2.277    0.561
       137 -10.9830     48.4989     21.5202   5.3947705947e+01   6.5681805227e+01    0.3327887    0.2652538  67.51  0.001959712    2.427    0.588
       138 -10.8973     26.4590     22.0474   6.3717263358e+01   6.8123896596e+01    0.2449681     0.142093 -26.66  0.001029134    1.526    0.345
       139 -10.9325     14.1323     23.0917   6.9826638062e+01   6.8998038617e+01    0.2193468    0.1433894  47.59  0.001323926    2.651    0.623
       140 -10.7081     76.4724    248.1870   9.0352265010e+01   1.4585001013e+01     0.295488     0.126985  55.93  0.001612547    1.880    0.468
       141 -10.3352     65.8154    248.5991   9.2186307707e+01   1.5970745773e+01    0.1690338   0.07295332  52.14 0.0009541606    1.744    0.427
       142 -10.6070    196.7717    246.4142   6.8704771834e+01  -4.1180908499e+00    0.1749462   0.09052238  32.74 0.0009418473    1.679    0.404
       143 -10.3204     46.2176    244.1757   9.5135537407e+01   1.9262621803e+01    0.1638835   0.09095865  63.38 0.0007793071    1.361    0.265
       144 -11.3179    249.4342    240.1623   5.8644735682e+01  -1.1414592036e+01    0.1937387    0.1008448 -24.65  0.001076428    2.035    0.509
       145 -11.3150    201.8358    240.4824   6.6934242251e+01  -4.1686600111e+00    0.2890257    0.1720343  32.52 0.0009711232    1.410    0.291
       146 -11.3223    221.8923     21.8582   1.4958311486e+01   2.6796801273e+01    0.2032606    0.1852208  58.04 0.0007465452    1.256    0.204
       147  -9.8539     62.5340     22.5177   4.8891068127e+01   6.3510267298e+01    0.1262279    0.1052877  -3.66 0.0001200665    1.007    0.007
       148 -10.3864    211.6566     21.6782   1.6042169825e+01   2.9345556033e+01    0.1390624    0.1010869  39.30 0.0005862185    1.728    0.421
       149 -10.9652    188.0316     21.0659   1.8815652305e+01   3.5413293148e+01    0.2266752    0.1966957  88.83  0.001029903    1.061    0.057
       150 -10.8374    174.1242     20.6003   2.0661778917e+01   3.9047716444e+01    0.3279845    0.2087662  53.81  0.001580519    1.486    0.327
       151 -10.3258    104.9683     20.9377   3.4732094000e+01   5.5786871567e+01    0.1914904    0.1614747 -67.17 0.0003129749    1.587    0.370
       152  -9.9014     90.3184     20.7174   3.8786244284e+01   5.8834716581e+01    0.1188546    0.1055524 -74.09 0.0002155956    1.584    0.369
       153  -9.5518    182.4766     18.4510   1.8829080377e+01   3.7143903396e+01    0.1404575    0.1265831  72.72 0.0001145893    1.047    0.045
       154  -9.9086    166.8228     18.1432   2.1033378765e+01   4.1203699784e+01    0.1886774    0.1525634  44.29 0.0003308426    1.266    0.210
       155 -10.2559    151.9844     17.9719   2.3432845802e+01   4.5001092282e+01    0.1678424    0.1534918  61.35            0    1.003    0.003
       156 -10.2952     15.1705     17.8134   6.7302987258e+01   6.9803077819e+01    0.1563338   0.09879791 -25.74 0.0002679035    1.309    0.236
       157 -10.6652      7.4888     17.8422   7.1047931747e+01   7.0357403760e+01    0.1578683   0.08535504 -47.47 0.0007826632    1.483    0.326
       158 -10.5821    187.5009    240.9814   6.9587713793e+01  -1.8905180983e+00    0.1546078   0.09967683  -7.41 0.0008092555    2.453    0.592
       159 -10.2158     46.0295     14.6814   5.1945649333e+01   6.6992184071e+01    0.1681104      0.13471  -0.43 0.0006591554    1.060    0.056
       160  -9.6584      2.5036     14.5404   7.2276851529e+01   7.1225779089e+01    0.1082356   0.07968826 -33.15 0.0002532166    1.024    0.024
       161 -10.2180     53.9648    239.2612   9.3507524943e+01   1.9161424434e+01    0.2342882    0.1013965  76.20  0.001165977    2.653    0.623
       162 -10.9497    162.9875    239.2983   7.3837059207e+01   2.4407457433e+00    0.1779427    0.1335856  41.44  0.000471833    1.077    0.072
       163 -11.2544    221.9331    237.5142   6.2920140514e+01  -6.9952087983e+00     0.342041    0.1505429  30.97  0.001684193    2.118    0.528
       164 -11.6575    178.5576    237.5611   7.0729558465e+01   7.6968889111e-02     0.327664    0.1570605  30.10   0.00137057    2.321    0.569
       165 -10.1023     61.1921    237.1514   9.2112191547e+01   1.8600182747e+01    0.1679744    0.0989534  63.60  0.001067821    1.340    0.254
       166 -11.2230    239.9129    235.3406   5.9465849957e+01  -9.4839568539e+00    0.2095367    0.1510285  -6.06 0.0005451988    1.347    0.258
       167 -10.4443      3.3208     10.3210   7.0203096947e+01   7.1867413788e+01    0.1150486   0.05880825 -27.47 0.0007044523    1.671    0.402
       168 -10.5216    191.6768    235.6639   6.8050207923e+01  -1.8531937013e+00    0.1251675   0.08538171  14.52 0.0005376331    1.713    0.416
       169 -10.3700     66.7204    234.9196   9.0970493162e+01   1.8263373518e+01    0.2155372    0.1108631  56.47  0.001184119    1.544    0.352
       170 -11.9447    244.8649    233.0875   5.8256253819e+01  -9.9581838453e+00    0.3200642    0.1824221 -22.85  0.001912174    1.844    0.458
       171 -10.1940    178.0083    231.9961   7.0027380299e+01   9.7886450385e-01    0.1518238    0.1293124  36.58 0.0006488193    1.042    0.041
       172 -10.8307    218.3303    231.0670   6.2529654616e+01  -5.6153265585e+00    0.1657443    0.1388263  10.24 0.0007446734    1.110    0.099
       173 -11.1902     11.3749    231.1471   1.0005476893e+02   2.5540697602e+01    0.1591016    0.1202443  55.87 0.0006584178    1.362    0.266
       174 -10.1304    225.8685    230.1690   6.1051860978e+01  -6.7027337225e+00    0.1696652    0.1206074  14.92 0.0006519267    1.298    0.230
       175  -9.7784    161.4620    230.5529   7.2922961635e+01   4.0374092958e+00    0.1275714    0.1035573  48.37 4.209921e-05    1.067    0.063
       176 -10.6725     62.0031    228.6202   9.1295085335e+01   2.0058187517e+01    0.3108133    0.1252055  58.32  0.001555744    2.209    0.547
       177 -10.6314    235.7055    225.2762   5.8521480675e+01  -7.6352224000e+00    0.1875585    0.1663786  23.47 0.0005953139    1.246    0.197
       178 -10.2509    144.0631     12.5098   2.3023904673e+01   4.7564574019e+01    0.2095713     0.125622  64.16 0.0004955595    1.521    0.343
       179 -10.1359    125.8001    225.8271   7.9097359330e+01   1.0903124667e+01    0.1757823    0.1294112  67.76 0.0007175793    1.322    0.244
       180  -9.7598     73.4714    226.4741   8.9033473853e+01   1.8889528660e+01    0.1232136   0.08953419  67.80 0.0001466785    1.078    0.073
