#   1 NUMBER                 Running object number                                     
#   2 MAG_AUTO               Kron-like elliptical aperture magnitude                    [mag]
#   3 X_IMAGE                Object position along x                                    [pixel]
#   4 Y_IMAGE                Object position along y                                    [pixel]
#   5 X_WORLD                Barycenter position along world x axis                     [deg]
#   6 Y_WORLD                Barycenter position along world y axis                     [deg]
#   7 A_WORLD                Profile RMS along major axis (world units)                 [deg]
#   8 B_WORLD                Profile RMS along minor axis (world units)                 [deg]
#   9 THETA_WORLD            Position angle (CCW/world-x)                               [deg]
#  10 FWHM_WORLD             FWHM assuming a gaussian core                              [deg]
#  11 ELONGATION             A_IMAGE/B_IMAGE                                           
#  12 ELLIPTICITY            1 - B_IMAGE/A_IMAGE                                       
         1 -11.9292     11.2177      2.4787   9.0034259929e+01   7.7267002369e+01    0.4185531    0.2481507  16.97  0.001510065    1.939    0.484
         2 -12.2786     41.0640     11.1965   7.6002162693e+01   7.1705447595e+01    0.5713545    0.4341747 -46.65  0.001654469    1.440    0.306
         3 -11.2472     21.0577     19.6287   9.3083200051e+01   7.2903118411e+01     1.040681    0.4647303 -59.74  0.004552724    2.462    0.594
         4 -10.8911     17.2393      6.0324   8.7753746858e+01   7.5959417521e+01    0.2922095    0.2236173 -53.43 0.0009684691    1.428    0.300
         5 -11.9299     22.9466      8.0964   8.5038027544e+01   7.4895282595e+01    0.7298048    0.4629775 -61.79  0.003044647    2.323    0.569
         6 -11.3338     35.6787     14.9877   8.1388361300e+01   7.1912304491e+01    0.3107106    0.2233087  17.33 0.0003569263    1.556    0.357
         7 -11.7985     31.1420     13.0606   8.2902598756e+01   7.2911471242e+01    0.3851579    0.2336967 -35.14  0.000388389    1.464    0.317
         8 -11.9559     31.6550      2.0057   7.5018606630e+01   7.4647041484e+01    0.2895281    0.2236292  14.67 0.0007369342    1.301    0.232
         9 -12.1615     25.7991      2.9631   7.9490442564e+01   7.5379941108e+01     0.277805    0.2408053  49.74 0.0004096741    1.539    0.350
        10 -11.1616     60.6621     23.8064   7.4019693807e+01   6.6151766353e+01    0.5551773     0.252487 -48.04  0.002209165    2.525    0.604
        11 -12.3377    128.8486     22.2861   5.3463034199e+01   5.0508612329e+01    0.6130491    0.3493184 -21.02  0.001127312    1.822    0.451
        12 -11.3160    103.5275     21.3338   5.8552393369e+01   5.7050421483e+01    0.4869536    0.3929491  39.64  0.001642255    1.261    0.207
        13 -10.5512    120.1106     21.7086   5.4946970114e+01   5.2833648699e+01    0.5162534    0.2692265 -10.46  0.001975517    2.495    0.599
        14 -10.3656      6.3945      8.1925   9.7610850337e+01   7.6609255141e+01    0.2311467    0.1789376 -62.68  0.001149977    1.364    0.267
        15 -10.8411      9.7332     15.8709   9.9062656413e+01   7.4755075756e+01    0.2922913    0.1795453 -32.61  0.001306154    1.539    0.350
        16 -11.8138      3.8481     18.1271   1.0442267264e+02   7.4696023708e+01    0.3893364    0.3706259  16.86  0.002218187    1.285    0.222
        17 -10.2372      5.4388     13.5239   1.0115941934e+02   7.5579900825e+01    0.2196454    0.1623084 -54.05 0.0005634879    1.148    0.129
        18 -11.8176    170.9962     18.8308   4.5863414501e+01   3.9903683875e+01    0.3838041    0.2885294  48.16 0.0003196909    1.449    0.310
        19 -10.7697    165.7916     16.7267   4.5764353264e+01   4.1476835043e+01    0.3114643    0.2719678  31.90  0.001726254    1.283    0.220
        20 -10.8179     61.9720     16.1409   6.9190408396e+01   6.7118277133e+01    0.3975347    0.2556836   1.24  0.001088068    2.092    0.522
        21 -10.4838     81.0460      6.9710   5.7249899049e+01   6.4167630277e+01    0.4139621     0.215138 -18.11  0.001540344    1.990    0.497
        22 -12.3699     76.2852     15.1569   6.3309004225e+01   6.4247512165e+01    0.6497555    0.5379195  19.51  0.002549437    1.227    0.185
        23  -9.5889     70.6620     13.7626   6.4479961165e+01   6.5659103362e+01    0.3431652    0.2122148 -21.29  0.001101544    1.619    0.382
        24 -10.9256     74.9215      5.4736   5.8231486758e+01   6.5737965242e+01    0.5796216    0.2791479  -6.38  0.002232002    2.858    0.650
        25  -9.9422     73.3050      2.2772   5.6825654174e+01   6.6445631149e+01    0.2024637    0.1757451  27.02   0.00049387    1.088    0.081
        26 -10.4939    158.1146     13.8741   4.5698705509e+01   4.3779036141e+01    0.4193239    0.1644862 -46.97  0.001532279    2.612    0.617
        27 -10.7441     55.0116     12.5545   7.0023092683e+01   6.9006606929e+01    0.4428815    0.1799155 -35.67  0.001391122    2.278    0.561
        28  -9.9329     50.1995     11.9318   7.1846779387e+01   6.9998525383e+01     0.287914    0.1592172 -10.22  0.001120674    2.757    0.637
        29 -11.3489    132.4083     10.9911   4.8190859813e+01   5.0840244870e+01    0.4195525    0.3649752  72.05 0.0009810493    1.142    0.124
        30 -10.4550    117.3570      9.1457   4.9955425555e+01   5.4956097244e+01    0.3400239    0.1840289 -36.24  0.001007886    1.810    0.448
        31 -10.4146     99.5463     12.4963   5.5283270765e+01   5.9111176442e+01    0.3300436    0.2286917  41.78 0.0009930687    1.455    0.313
        32 -12.1072    235.5657      9.7604   3.7749861895e+01   2.5443386039e+01    0.3704258    0.1791799  76.16  0.001839566    2.280    0.561
        33 -10.9892    145.6692      7.7046   4.4987224599e+01   4.7665142532e+01    0.3673303    0.2873763 -18.41  0.001522343    1.313    0.238
        34  -9.9371     59.6310      7.9220   6.5174828278e+01   6.8738500828e+01    0.4019222    0.1961743  -5.91 0.0008273016    3.816    0.738
        35  -9.5341     67.3790      7.7347   6.2110228842e+01   6.7140654456e+01    0.1763068    0.1221897 -10.31 0.0002505753    1.476    0.323
        36  -9.8207    121.9853      6.5067   4.7972618779e+01   5.4010635373e+01    0.3736598    0.1819207 -50.80  0.001484388    2.383    0.580
        37 -11.1662     92.6434      5.5819   5.3420026930e+01   6.1547414697e+01    0.4644336    0.2644902  19.86  0.001967806    2.233    0.552
        38  -9.6940    175.4803      5.9383   4.1091205765e+01   4.0052657073e+01    0.2041526    0.1313686 -24.24 0.0003823422    1.513    0.339
        39  -9.9580    164.9699      5.6669   4.2021860612e+01   4.2790008186e+01    0.1989254    0.1753743 -84.74 0.0007768438    1.105    0.095
        40 -11.4883    241.0566      2.3653   3.5594803942e+01   2.4983899284e+01    0.4568271      0.16299 -57.46  0.001906922    2.737    0.635
        41 -11.0962    237.0112      1.9883   3.5704966192e+01   2.5874437676e+01    0.3005592    0.1888879 -29.57  0.001726603    1.360    0.265
        42 -10.2920    118.6188     12.7435   5.1326389586e+01   5.4255896371e+01    0.2609089    0.2157235 -18.40 0.0005378032    1.222    0.182
        43 -10.6167    112.8768      2.6950   4.7806816090e+01   5.6723393503e+01    0.2567505    0.2036765 -49.33  0.000469059    1.328    0.247
        44  -9.4417    159.9819      1.0000   4.0883782320e+01   4.4503564504e+01    0.2313189   0.07710896  75.43 0.0008054718    2.964    0.663
        45 -11.6578      4.7326    207.7038   1.2594160596e+02   3.0575657461e+01    0.5071086    0.2129686  75.19  0.002951784    2.037    0.509
        46 -10.6141    250.1951    246.5072   8.5368085379e+01  -4.6096271707e+00    0.1867318    0.1132304  -6.29  0.001467707    1.402    0.287
        47 -10.1317     72.6688    249.9601   1.1530064490e+02   1.6456922558e+01    0.1611551     0.145031  -2.03  0.001344932    1.620    0.383
        48 -12.0450     29.0741    248.2334   1.2287068936e+02   2.1345351272e+01     0.463261    0.2278148  63.14  0.003213061    1.645    0.392
        49 -10.4461      5.5417    235.2125   1.2656359923e+02   2.5638743437e+01    0.2255768    0.1675887  46.26  0.001257561    1.236    0.191
        50 -12.1907     17.3267    238.2378   1.2457388851e+02   2.4073369637e+01    0.9708778    0.1516517  32.10  0.004082808    4.389    0.772
        51 -13.1096      6.7466    244.5943   1.2659084381e+02   2.3999079035e+01     0.933417    0.4049955  35.47  0.005309919    1.840    0.456
        52 -12.0563     22.0283    248.9136   1.2410694320e+02   2.1916354544e+01    0.3773773    0.1791467  44.36  0.001715554    1.442    0.306
        53 -10.8544     17.4982    247.4792   1.2483619205e+02   2.2566781389e+01     0.178479    0.1314461  86.91 0.0007841286    1.422    0.297
        54  -8.8713    188.3234    209.6568   8.9868240908e+01   6.9479164095e+00    0.1039372   0.08913899  60.25 0.0003866967    1.732    0.423
        55 -10.7405     10.7961    208.6505   1.2478534531e+02   2.9870357021e+01    0.1866493    0.1565393  81.34 0.0005134269    1.259    0.206
        56 -11.1418     18.0002    203.5073   1.2314665128e+02   3.0188372925e+01    0.3280808    0.1267371  44.39   0.00169552    1.891    0.471
        57 -10.5524     19.6858    200.6629   1.2267696762e+02   3.0578566155e+01    0.2087426    0.1281017 -64.69 0.0009854893    1.897    0.473
        58 -10.3878    175.4923    202.7649   9.1126173936e+01   9.7257077263e+00    0.2126139    0.1635836  39.84 0.0005732646    1.276    0.217
        59  -9.3187    243.3055    202.3101   7.9775343116e+01   3.7911718748e-01    0.1130876   0.06659666   5.52 0.0003011785    1.613    0.380
        60  -9.4659    223.6038    201.7868   8.2732096173e+01   3.0164097615e+00    0.1384344    0.0976926 -35.11 0.0005997051    1.681    0.405
        61  -9.6948      9.7969    202.4075   1.2475994727e+02   3.1140342284e+01    0.1332471   0.09748954  25.81 0.0009488079    1.642    0.391
        62  -9.5648     34.4784    201.4535   1.1965555165e+02   2.8969178650e+01    0.1124238   0.08956685  61.99 0.0003380995    1.052    0.050
        63 -10.1632    215.4911    194.9148   8.2915051355e+01   4.9521441403e+00    0.1605309    0.1028501 -25.61 0.0004072282    1.525    0.344
        64 -10.5536     15.6740    193.0250   1.2316887549e+02   3.2450120929e+01    0.2677924      0.15083  28.39  0.001041242    1.889    0.471
        65  -9.8551    186.8055    191.3613   8.7270699176e+01   9.6311420231e+00    0.2118504   0.09142772 -41.60  0.001019196    2.569    0.611
        66  -9.5544    211.3975    188.7324   8.2549791182e+01   6.3134124734e+00    0.1654958    0.0988317 -19.05 0.0009513149    1.714    0.416
        67  -9.5777      1.5361    188.4526   1.2597541711e+02   3.4578974086e+01     0.112285   0.08188804  66.03 0.0002174391    1.005    0.005
        68  -9.4667     61.6160    184.8331   1.1250455464e+02   2.9224947744e+01    0.1705627    0.1038941  88.30 0.0009465443    1.738    0.425
        69  -9.8965    167.0133    183.7545   8.9711954541e+01   1.3842769603e+01    0.1682657   0.09580269  38.01  0.000882479    1.586    0.370
        70 -11.3327     15.9978    182.7223   1.2261616872e+02   3.4516357744e+01    0.4137314    0.1800346  76.52  0.002160396    2.127    0.530
        71  -9.7069      1.9783    180.4837   1.2560570898e+02   3.6169319696e+01    0.1644061   0.05086192  50.18 0.0006076096    2.327    0.570
        72 -10.0054    244.4008    178.3086   7.5492429843e+01   2.8845608059e+00    0.2090929   0.09387545 -23.92  0.001040544    2.076    0.518
        73 -10.3444    224.0753    178.4658   7.8662914550e+01   5.7561575713e+00    0.2054063    0.1539657 -27.01 0.0003931873    1.337    0.252
        74 -10.1747     46.5168    177.4981   1.1532365602e+02   3.2529822944e+01    0.2272165     0.181705  60.50   0.00128957    1.051    0.048
        75  -9.4284     70.1737    177.6194   1.0981622593e+02   2.9634141344e+01     0.160906    0.1147892  24.51 0.0004881226    1.637    0.389
        76  -9.8471    200.5746    176.2575   8.2209265212e+01   9.6229939008e+00    0.1695866    0.1071127 -20.21 0.0009448968    1.637    0.389
        77 -11.1462     17.9959    173.3105   1.2167145696e+02   3.6322869918e+01    0.3311904    0.1901222  58.35   0.00168996    1.425    0.298
        78 -11.6438     36.9079    157.8101   1.1596969203e+02   3.7911889270e+01    0.2568805    0.1838558  69.63 0.0003109266    1.210    0.173
        79 -11.8557     35.9869    164.1718   1.1674158929e+02   3.6575234505e+01    0.4861995     0.274845 -76.72  0.001971172    1.645    0.392
        80 -11.6173     39.5445    163.4979   1.1580563874e+02   3.6348602541e+01     0.275107    0.2026908 -71.13  0.001258065    1.357    0.263
        81  -9.5938     67.1909    165.1936   1.0914012450e+02   3.2677805895e+01    0.1897388    0.1299641  61.64  0.001063089    1.371    0.270
        82 -11.7511     50.9797    162.7775   1.1289434363e+02   3.5223662174e+01    0.6129022    0.4009404  64.95  0.003492057    1.412    0.292
        83 -10.9321     44.6856    162.4850   1.1443606506e+02   3.6011058851e+01    0.3208235    0.1775236 -75.13  0.001709827    1.711    0.416
        84  -9.1691    200.3521    162.7075   7.9715142385e+01   1.1602001510e+01    0.1147825    0.1039639  85.76 0.0007029939    1.678    0.404
        85 -11.9323     21.9218    157.1300   1.1971253051e+02   3.9540949094e+01    0.4809408    0.4286802  35.86   0.00337402    1.338    0.253
        86 -10.3062     11.5930    153.7383   1.2210316767e+02   4.1208637154e+01    0.2442208    0.1799746  16.12  0.001553951    1.775    0.437
        87 -10.2924    178.0299    151.3881   8.1603615594e+01   1.7227502043e+01    0.2344547    0.2258595 -39.40  0.001042266    1.195    0.163
        88 -10.2982     18.1329    146.6885   1.1994981147e+02   4.2283383109e+01    0.2752772    0.1936938 -11.73 0.0008487162    2.285    0.562
        89 -11.3019     12.0574    145.7382   1.2149184268e+02   4.3012988111e+01    0.3656911    0.2221936  73.14  0.001200697    1.395    0.283
        90  -9.1984     41.6725    146.3127   1.1361030860e+02   4.0063878449e+01    0.1400365   0.08178976  64.51 0.0007042435    1.667    0.400
        91  -9.6897    220.3797    144.1470   7.2586539135e+01   1.0919684988e+01    0.1768179    0.1072233 -38.75 0.0007635571    1.662    0.398
        92 -10.5154      2.7936    143.5159   1.2380483558e+02   4.4234370554e+01    0.2310008    0.1399274 -85.40  0.001378545    1.370    0.270
        93 -10.1692     49.2257    141.9433   1.1105469473e+02   4.0240450146e+01    0.1973855    0.1958672  22.24  0.000212023    1.265    0.210
        94 -11.3250      9.1043    138.0150   1.2178627169e+02   4.5057997548e+01    0.4035562    0.1542982 -77.62    0.0011005    2.185    0.542
        95  -9.1918     57.3466    139.3163   1.0846692642e+02   3.9875909722e+01    0.1318411     0.101421 -34.86 6.277786e-05    1.723    0.419
        96 -10.1003    207.0564    146.3192   7.5252376919e+01   1.2885789439e+01    0.1800237    0.1571512  19.66 0.0006780109    1.126    0.112
        97 -10.7557      3.4379    135.5688   1.2319268834e+02   4.6050261379e+01    0.4299206    0.1736365 -55.21  0.001985375    2.769    0.639
        98 -10.5518     21.8168    135.9693   1.1809381153e+02   4.4501439583e+01    0.2838568    0.1816473  46.15  0.001359741    1.489    0.328
        99  -9.1871    122.6927    135.3306   9.0397663559e+01   3.0488184900e+01    0.1456043    0.1117655  82.27 0.0003083514    1.662    0.398
       100 -10.0406    249.8652    134.1064   6.6094765278e+01   7.4453566866e+00    0.1789799    0.1486219 -27.13 0.0006481235    1.226    0.184
       101 -10.3797    107.2524    133.2859   9.3880360857e+01   3.3701798180e+01    0.2382246    0.2211711   0.63  0.001048222    1.250    0.200
       102  -9.9964     79.8009    133.1645   1.0125214597e+02   3.8222115538e+01    0.1805068    0.1643012 -35.45 0.0004057285    1.297    0.229
       103 -10.2671     55.3396    132.9967   1.0816010979e+02   4.1647710718e+01    0.3099077     0.163928  42.79  0.001474638    1.829    0.453
       104 -11.0596     37.5405    130.4992   1.1300965618e+02   4.4308836092e+01    0.3132278    0.2446165  77.65 0.0005798619    1.138    0.121
       105 -10.8507     38.3150    127.0003   1.1235787542e+02   4.5086261961e+01    0.2185964    0.1769165  50.72 0.0003383609    1.238    0.192
       106 -10.8717     74.1599    129.5118   1.0221017495e+02   3.9929850951e+01    0.2824411    0.2441288  63.36 0.0008488387    1.115    0.103
       107  -9.4873    113.6673    129.6981   9.1488589185e+01   3.3351719158e+01    0.1432708    0.1155876  -7.93 0.0004090005    1.655    0.396
       108  -9.0018      9.3369    129.2831   1.2112137134e+02   4.7128362507e+01    0.1184351   0.08554052 -50.66 0.0003638717    1.624    0.384
       109 -10.5356     14.1056    126.1626   1.1948627579e+02   4.7522446297e+01    0.2661555    0.1731333  34.32  0.001267385    1.639    0.390
       110 -11.3029     10.5081    122.9470   1.2029557059e+02   4.8581916767e+01    0.2999264    0.2079527  49.78  0.001098068    1.402    0.287
       111 -11.0340      2.2783    124.3487   1.2283867646e+02   4.8812548063e+01    0.3681083    0.1628308 -75.05  0.001613883    1.857    0.461
       112  -9.2907     33.4745    121.5089   1.1314881462e+02   4.6945701525e+01    0.1340701    0.1130437  88.88 0.0002550905    1.001    0.001
       113 -10.7980     21.6594    121.1292   1.1674324202e+02   4.8139932476e+01    0.2040919    0.1893331  22.99 0.0001235286    1.346    0.257
       114 -11.2108     25.7880    108.8427   1.1402119989e+02   5.0852998728e+01     0.362809    0.1846955  59.16  0.001686565    2.112    0.527
       115 -11.6635     13.0069    103.9273   1.1773975261e+02   5.3127629642e+01    0.3956639    0.2273127  37.09  0.002133986    1.838    0.456
       116 -11.3793     17.4651    114.8322   1.1741149154e+02   5.0053816696e+01    0.3717483    0.2432876 -63.08  0.001139316    1.425    0.298
       117  -9.6618     11.5706    112.5118   1.1906795856e+02   5.1081136570e+01    0.1937076    0.1243389  69.41 0.0001236401    1.438    0.305
       118 -12.1014     15.3325    108.9418   1.1749259664e+02   5.1694347211e+01    0.5116445    0.4309503 -11.50  0.003238402    1.583    0.368
       119 -10.1090    249.8025    118.6027   6.2790231293e+01   9.4342591983e+00    0.1450665    0.1246746  63.06 0.0009037868    1.626    0.385
       120  -9.8752    219.7760    116.7357   6.6642490478e+01   1.4971862376e+01    0.2224041    0.1632549  39.80  0.001249881    1.470    0.320
       121  -9.1697    179.3236    116.3447   7.3524623011e+01   2.2983568767e+01    0.1504471    0.1093704   4.23  0.000705031    1.736    0.424
       122 -11.8625     36.1517    108.9999   1.1060245428e+02   4.9812988091e+01    0.4595384    0.2587678  73.37  0.001519958    2.033    0.508
       123 -10.7643    249.0404    112.4682   6.1538567094e+01   1.0354594335e+01    0.2061436    0.1425676 -25.87  0.000708357    1.183    0.155
       124  -9.6507      2.9534    112.5453   1.2181542034e+02   5.1652698608e+01    0.2278845    0.1476814 -85.55 0.0005562181    1.244    0.196
       125 -11.9812      3.0035    106.3879   1.2131841197e+02   5.3174326020e+01    0.3705963    0.2916789  80.03  0.001008635    1.086    0.079
       126  -9.5315     94.6976    112.3311   9.2846376667e+01   4.0707913734e+01    0.1517999    0.1127035  82.85 0.0007034697    1.652    0.395
       127 -12.6611     55.3164    110.3759   1.0454702817e+02   4.7236241142e+01    0.3075952    0.2781856 -89.52 0.0005215012    1.033    0.032
       128  -8.9658    207.3171    110.7030   6.7187938352e+01   1.8265539160e+01    0.1333801      0.10578 -60.84 0.0003774072    1.610    0.379
       129  -9.5493    103.7405    107.9543   8.9228152701e+01   4.0079264361e+01    0.2068278    0.1824795 -55.88 0.0002846794    1.094    0.086
       130  -9.9611     91.5052    107.9854   9.2774464696e+01   4.2291326543e+01    0.2174277    0.1397859 -55.13 0.0003198748    1.485    0.327
       131 -10.0931     62.0381    106.9280   1.0171531504e+02   4.7196205708e+01    0.2271697    0.1651055 -33.63  0.001022389    1.733    0.423
       132 -10.4140     51.0117    105.5914   1.0508874336e+02   4.8983706737e+01    0.3876889    0.1575092 -65.38  0.001545851    2.211    0.548
       133 -10.7181    243.9229    104.5117   6.0405283892e+01   1.2283730432e+01    0.1771998    0.1561695  -9.85 0.0007592553    1.097    0.088
       134 -10.8062    247.5943    102.2640   5.9424369289e+01   1.1932932414e+01     0.218732    0.1691923  54.82  0.001140753    1.614    0.381
       135  -9.5841    223.4544    103.9669   6.3081786739e+01   1.6131354215e+01    0.2051295    0.1168612 -31.03 0.0004364522    1.518    0.341
       136  -9.6195    119.4875    102.4575   8.3512144118e+01   3.8222206233e+01    0.3215146    0.1453913 -45.84  0.001202963    2.145    0.534
       137 -10.7503     35.8809    102.4271   1.0968220729e+02   5.1507445154e+01    0.3186437    0.2480962  -1.17  0.001759853    1.743    0.426
       138 -11.9804      3.0896     99.5817   1.2071015567e+02   5.4867037123e+01    0.4677367     0.229689  78.33 0.0006078885    1.933    0.483
       139 -10.2214    145.4985    100.5016   7.6551761903e+01   3.3120254202e+01    0.2246156    0.2061311 -45.91  0.001105576    1.061    0.058
       140 -10.8942    143.5210     97.5048   7.6187593867e+01   3.4145718560e+01    0.5027846    0.1924296  52.25  0.001696132    2.881    0.653
       141 -10.1453     91.4672    100.5097   9.0969148738e+01   4.4062776441e+01    0.1491938      0.13979 -70.35 8.051077e-05    1.003    0.003
       142 -11.0499     62.2641     98.6376   9.9908532864e+01   4.9230648825e+01    0.3483473    0.3029528  46.56 0.0009446449    1.228    0.186
       143 -10.7123     66.7345     97.8698   9.8233244919e+01   4.8771394621e+01     0.487479    0.1754776 -56.19  0.001776547    2.466    0.595
       144 -11.5611     17.1405     97.9831   1.1561521700e+02   5.4323048243e+01    0.3357747    0.2631588  48.44   0.00205052    1.357    0.263
       145 -11.4099     20.3476     95.7076   1.1416778168e+02   5.4648690448e+01    0.5441617    0.2144893 -85.85  0.002101702    2.773    0.639
       146  -8.9265     10.2846     99.3139   1.1818494755e+02   5.4480730211e+01    0.1289876   0.08245882 -53.16  0.000330151    1.579    0.367
       147 -10.3264     39.6292     96.9785   1.0744390128e+02   5.2494933848e+01    0.2842341      0.18588  83.71  0.001410772    1.649    0.394
       148 -10.0434    250.1159     95.8345   5.7641531138e+01   1.2324578549e+01     0.193403    0.1502158 -38.04 0.0005787073    1.223    0.182
       149  -8.9675     27.9763     95.9609   1.1145047208e+02   5.3925319816e+01    0.1542277    0.1297188 -79.79            0    1.005    0.005
       150 -11.6547    158.4673     89.9987   7.0772890057e+01   3.2240898317e+01    0.4373911    0.2897328 -27.89  0.001964522    1.576    0.365
       151 -11.3747    162.5276     92.2955   7.0578966426e+01   3.0901953083e+01      0.32168    0.2606655 -17.13 0.0004117139    1.322    0.244
       152 -12.5406    164.8813     85.3321   6.8125779019e+01   3.1618959560e+01    0.6955857    0.5842557  39.37  0.001668879    1.271    0.213
       153  -8.8850     77.2960     94.6830   9.3968769194e+01   4.7896288676e+01    0.1492961    0.1117921  83.23 0.0002570139    1.608    0.378
       154  -9.7214     51.0252     94.0000   1.0280608594e+02   5.1905666644e+01    0.2161482   0.08163621  30.74 0.0008039825    2.953    0.661
       155 -10.7972     22.8826     87.0133   1.1192550068e+02   5.6654767318e+01    0.2638858    0.1787665 -67.64 0.0004244097    1.240    0.193
       156 -10.5052     31.5260     93.0208   1.0967963383e+02   5.4339183432e+01    0.2221335    0.1718512  63.39 0.0003956461    1.337    0.252
       157 -10.9614     25.8917     91.0905   1.1144517450e+02   5.5355321685e+01    0.3160219    0.2763505  25.61  0.001393608    1.365    0.268
       158 -10.6440    103.9925     91.8099   8.4910500377e+01   4.3703250002e+01    0.2999527    0.2044681 -47.54  0.001380827    1.402    0.287
       159 -10.1512     92.0237     91.8248   8.8517073839e+01   4.5996420997e+01    0.2390779    0.1657954  70.00 0.0003626245    1.889    0.471
       160  -9.8751     47.3565     91.6760   1.0363525936e+02   5.2948360788e+01    0.2794557    0.1474184 -46.30  0.001228106    1.980    0.495
       161 -10.2222    109.4967     91.4662   8.3230027345e+01   4.2673226990e+01    0.1517654    0.1455636 -50.11 5.122137e-05    1.029    0.028
       162  -9.4353     37.6453     91.6636   1.0718511027e+02   5.4061017428e+01    0.1455701   0.09400241 -39.49 0.0007043054    1.799    0.444
       163 -11.4538     11.4534     91.1065   1.1682375400e+02   5.6477795209e+01    0.4733442    0.2380669  42.31  0.001458622    2.093    0.522
       164  -9.8475     97.6920     88.7350   8.5912295950e+01   4.5634210343e+01    0.3418499    0.1242181 -43.12  0.001113399    2.850    0.649
       165  -9.4506     83.0000     88.9640   9.0603820232e+01   4.8296456624e+01    0.2411635    0.0805207 -52.89 0.0007816918    2.801    0.643
       166  -9.0513    120.7012     87.2883   7.8931401813e+01   4.1222505558e+01    0.1516663    0.1205831 -82.40 0.0003362392    1.556    0.357
       167 -10.4977    112.5191     86.3927   8.0899193570e+01   4.3156849911e+01    0.3676215    0.2027703 -53.54  0.001043506    1.889    0.471
       168 -11.1026     67.1994     84.8736   9.4874729760e+01   5.1895887764e+01    0.3614642    0.2405042 -37.62  0.001092494    1.697    0.411
       169 -11.4579      4.4961     85.0042   1.1872895020e+02   5.8453342036e+01    0.5138163     0.228777 -61.99  0.002495976    1.842    0.457
       170 -10.5157      3.1159     78.8659   1.1855406387e+02   6.0077292612e+01     0.260095    0.2429437 -64.93 0.0009705015    1.196    0.164
       171 -12.0777      6.7937     73.6381   1.1634866935e+02   6.1192397577e+01    0.8391062    0.3239465  22.36  0.003788997    2.951    0.661
       172 -12.5395     16.3812     67.9502   1.1123948968e+02   6.1999723968e+01    0.3407531    0.2523798 -48.45 0.0004924245    1.301    0.232
       173 -11.6496     21.5135     66.2146   1.0859359582e+02   6.2034588354e+01     1.141806    0.5058245  77.43  0.003471232    5.318    0.812
       174 -10.7362     12.7460     81.3502   1.1502141993e+02   5.8866405339e+01    0.3352717    0.1728368  65.06 0.0005685518    2.252    0.556
       175 -10.6831     12.5113     77.9577   1.1461081249e+02   5.9742777452e+01     0.281517     0.194255 -84.46 0.0005982992    1.264    0.209
       176 -10.6454    158.4922     82.0210   6.8451576309e+01   3.3688938620e+01    0.4673071     0.250837  34.69  0.001753175    2.519    0.603
       177  -9.5739    211.8461     83.8100   5.9727527078e+01   2.1411567144e+01     0.187773    0.1521722 -52.37 0.0003341684    1.306    0.234
       178 -10.5255     87.7790     83.0377   8.7366399548e+01   4.8821483285e+01    0.4160119     0.234797 -67.58 0.0008176169    2.394    0.582
       179 -10.8184     43.7496     82.9715   1.0308978962e+02   5.5577573914e+01    0.5046184    0.2218735  44.65  0.001865542    2.539    0.606
       180  -9.2587    112.5919     94.5636   8.3235921113e+01   4.1358679753e+01    0.1509798    0.1428256 -60.62 4.501724e-05    1.018    0.017
       181 -10.2301    132.8569     83.0263   7.4533726311e+01   3.9406436609e+01    0.2601238    0.2264116  88.11 0.0006994503    1.308    0.236
       182  -9.4734    117.6122     83.2494   7.8544913169e+01   4.2740864916e+01    0.2243902    0.1421772 -34.59 0.0009511051    1.665    0.399
       183 -10.9921     75.2429     82.5892   9.1433079598e+01   5.1145855674e+01    0.3576384    0.2731537 -75.51  0.001775048    1.428    0.300
       184 -10.9653     31.3912     81.1114   1.0753094947e+02   5.7383587329e+01    0.4529419    0.2323995 -39.87  0.001992224    2.321    0.569
       185  -9.0332    146.3290     81.6599   7.0955785735e+01   3.6582495961e+01    0.1611646    0.1190744 -71.23 0.0007051647    1.738    0.425
       186 -10.4695     21.7149     80.9999   1.1137604293e+02   5.8282838019e+01    0.3480367    0.2110148 -26.98  0.001261407    2.231    0.552
       187 -11.3613     20.5947     77.7429   1.1125784815e+02   5.9201217994e+01    0.4723387    0.2825602 -30.21    0.0018528    2.155    0.536
       188 -10.0097    112.0774     79.1175   7.8792932320e+01   4.4806708871e+01    0.2136645    0.1771269 -66.06 0.0006257665    1.292    0.226
       189 -10.4586     54.2567     74.0613   9.6756089955e+01   5.6441027110e+01    0.3237711    0.2480566 -76.56   0.00115316    1.349    0.259
       190 -11.8733     58.5489     74.8890   9.5324627720e+01   5.5627649941e+01    0.7039229    0.4497294 -70.29  0.001770964    1.669    0.401
       191 -11.4504     62.3223     71.6567   9.2931883736e+01   5.5838971664e+01    0.3084494    0.2568497 -51.84 0.0004862286    1.095    0.086
       192 -10.7285     90.7675     76.4731   8.4394574922e+01   4.9750577002e+01    0.4557421    0.3766682 -75.42  0.001653558    1.343    0.255
       193 -12.2076     45.0811     75.3279   1.0073500548e+02   5.7330188091e+01    0.3722121    0.2631402  52.15 0.0004616666    1.600    0.375
       194  -9.4317    122.0010     76.2339   7.5170030517e+01   4.3219104842e+01    0.2016483    0.1306789  50.09 0.0008750048    1.613    0.380
       195  -9.1663    187.2973     75.7474   6.1310205044e+01   2.8057702468e+01    0.1412618    0.1092906 -64.08 0.0006880824    1.494    0.331
       196  -9.8500     74.6507     75.6921   8.9613905223e+01   5.2876478282e+01    0.1503095     0.114912 -18.20 0.0007043587    1.708    0.415
       197 -12.7266    150.0574     72.1365   6.7196546840e+01   3.7453789557e+01    0.4039861    0.3572139  34.85   0.00049107    1.220    0.180
       198 -11.8386    101.6529     72.0517   7.9548335535e+01   4.8520984557e+01    0.4798138    0.3551215  79.75  0.002161792    1.838    0.456
       199  -9.8960    128.9389     71.7189   7.1925920551e+01   4.2523670491e+01     0.206287    0.1959057  59.48 0.0002860556    1.100    0.091
       200 -10.9105     77.3163     71.6673   8.7410181989e+01   5.3343651561e+01     0.391714    0.2412215  49.07  0.001758351    1.801    0.445
       201 -10.6525     37.0593     68.0428   1.0219443657e+02   6.0074333880e+01    0.3914805    0.2400433 -50.49  0.001496985    1.463    0.317
       202 -11.4172    167.5700     70.0185   6.3060966736e+01   3.3620300519e+01    0.2492451    0.2290516  63.54 0.0003216329    1.162    0.140
       203 -12.0009     50.3308     68.2426   9.6670216547e+01   5.8393844119e+01    0.4973686    0.3440298   7.10  0.002399796    2.034    0.508
       204 -10.7633     51.0777     63.4524   9.4910364784e+01   5.9441732757e+01    0.3679991    0.2361253 -57.50 0.0008158439    1.398    0.285
       205 -11.7141     46.2730     57.3365   9.5012436539e+01   6.1541942132e+01    0.4757341     0.324167  50.40  0.001052083    1.748    0.428
       206 -10.8658     30.8362     67.9565   1.0486771309e+02   6.0750039564e+01    0.4825466    0.2627243 -40.62  0.002246933    1.985    0.496
       207 -10.1662     93.9280     73.5930   8.2455675435e+01   4.9768866954e+01    0.2418373    0.1914104 -47.39 0.0002894588    1.190    0.160
       208 -11.0157     94.2546     66.0177   7.9792607063e+01   5.1338434793e+01    0.6299898    0.2642224 -42.50  0.002054549    2.276    0.561
       209 -10.3321     68.7060     67.4094   8.9170826408e+01   5.5810822952e+01    0.4350615     0.169337 -47.48  0.001594778    2.354    0.575
       210 -10.1232    180.4916     67.5621   6.0056065876e+01   3.0933557096e+01    0.2516044     0.223989 -32.90  0.001364136    1.042    0.040
       211 -10.8013     76.8950     64.6466   8.5219961159e+01   5.5007147660e+01    0.5312508    0.2835869 -39.52  0.002194578    1.915    0.478
       212 -11.1272      5.8049     51.8287   1.1306466239e+02   6.6689130552e+01    0.3872567    0.2070627 -54.10  0.001301193    1.544    0.352
       213 -10.4926      3.6319     47.2435   1.1324347725e+02   6.7925656422e+01    0.2384191    0.1707501 -41.05  0.000749746    1.369    0.270
       214 -11.3746      5.2948     58.9250   1.1467296497e+02   6.4963204126e+01    0.3549164    0.2635263 -87.52 0.0004410871    1.242    0.195
       215 -10.4557      6.7564     67.6470   1.1546172489e+02   6.2702639793e+01    0.2030514    0.1797965 -61.68 0.0007346306    1.135    0.119
       216 -11.9141      3.2872     64.3377   1.1650522716e+02   6.3718716524e+01    0.3803453    0.3168153  84.51  0.001331112    1.171    0.146
       217  -9.7122    110.0000     64.4869   7.4500220972e+01   4.8269149695e+01      0.38931    0.1390418 -49.87   0.00117186    3.317    0.698
       218 -10.8714     84.1754     61.6366   8.1583812758e+01   5.4291345363e+01    0.4825501    0.3233353  47.28  0.002259413    1.606    0.377
       219 -10.4277     86.3058     58.2822   7.9620491852e+01   5.4578519103e+01    0.3912691    0.2920513 -63.57  0.001876131    1.525    0.344
       220 -11.3031     11.2826     62.5552   1.1251821942e+02   6.3703847120e+01    0.2318619    0.1862187 -64.39 0.0002594887    1.051    0.048
       221  -9.1588    222.7055     62.7291   5.2766916200e+01   2.2064291185e+01    0.1290842    0.1018058  12.93  0.000211421    1.518    0.341
       222 -10.4552    201.3524     61.6439   5.5188486271e+01   2.6942935019e+01    0.2520485    0.2179513 -14.87  0.000301338    1.169    0.145
       223 -11.1947    155.6355     60.4764   6.2308282131e+01   3.8100575193e+01     0.327995    0.2676799  -9.99 0.0002642011    1.367    0.269
       224  -9.6576    121.3283     62.3058   7.0655868338e+01   4.6094965421e+01    0.1561452    0.1219901  11.39 0.0004103734    1.653    0.395
       225 -11.0596     29.9631     60.8188   1.0344576091e+02   6.2603164731e+01    0.6420599    0.2793088  15.12  0.002522144    3.433    0.709
       226 -12.9389     36.8828     50.5122   9.7063269779e+01   6.4324218798e+01     1.000244    0.7589523  -4.07  0.005492411    1.637    0.389
       227 -10.7115     26.7586     49.4700   1.0172575628e+02   6.5666534161e+01    0.3426707    0.2144043 -65.70  0.001085909    1.445    0.308
       228  -8.9059    123.2793     68.3189   7.2227090589e+01   4.4492975910e+01    0.1525017    0.1223505   1.49 0.0003514817    1.579    0.367
       229 -11.3661     63.5852     60.0169   8.8650255072e+01   5.8350442537e+01    0.2665235    0.2235469  37.00  0.000611937    1.312    0.238
       230 -11.0961     58.3131     58.8728   9.0385590431e+01   5.9450209773e+01    0.2925048    0.2628267  44.31  0.001673093    1.234    0.190
       231 -10.1109    147.0606     56.9464   6.2841742432e+01   4.0804009857e+01    0.2302789    0.2140674 -43.22 0.0003122111    1.026    0.025
       232 -11.7878     75.3686     56.1105   8.2691534550e+01   5.7152004811e+01    0.2497105    0.2334521 -53.75  0.000286547    1.056    0.053
       233 -11.0911     70.5276     50.6548   8.2411366680e+01   5.9198373326e+01    0.5736237    0.3880087  73.86  0.002031346    2.449    0.592
       234 -11.7971    129.2789     49.4368   6.4039445918e+01   4.6461282505e+01    0.6210517    0.3836883 -14.30  0.001937211    2.134    0.531
       235  -9.1429    119.6639     56.7189   6.9080502758e+01   4.7522086669e+01    0.1544093    0.1201125  16.88 0.0003100349    1.618    0.382
       236 -10.1731     99.4462     55.8466   7.4450514632e+01   5.2309666396e+01    0.3128531    0.1924395  34.22  0.001313659    1.975    0.494
       237 -10.1522    129.9814     55.4817   6.6084069758e+01   4.5260581127e+01    0.2892324    0.2123271 -16.20  0.000634826    1.572    0.364
       238 -10.3304     61.8859     53.4597   8.6953684435e+01   6.0095975171e+01     0.347542       0.1746 -40.46  0.001358051    1.971    0.493
       239  -9.0722    213.4997     54.4932   5.1643106793e+01   2.5172262824e+01     0.141354    0.1232229 -36.62 -9.403996e-05    1.003    0.003
       240  -9.4487    120.1451     52.8872   6.7539974237e+01   4.8095150798e+01    0.2064812    0.1799879  10.68 0.0002836099    1.299    0.230
       241 -10.7201     87.4470     52.4920   7.7009661177e+01   5.5527056219e+01    0.2615662     0.235998 -42.16 0.0007025735    1.046    0.044
       242 -10.9764     12.3740     51.3231   1.0958416896e+02   6.6409762968e+01    0.2953701    0.2356312 -87.23 0.0005814967    1.256    0.204
       243 -10.5990    103.8021     48.9323   7.0457796665e+01   5.2638796601e+01    0.5134072       0.2402 -34.62  0.001952106    2.113    0.527
       244 -11.1914     11.9919     44.3516   1.0801311898e+02   6.8124771083e+01    0.4139569    0.3006202 -49.50  0.002190134    1.194    0.163
       245 -10.8399     78.1734     47.4754   7.8238143798e+01   5.8398014609e+01    0.5304747    0.2444607 -39.56  0.001787924    2.072    0.517
       246 -10.5181     53.2722     50.0414   8.9320016026e+01   6.2216275299e+01    0.2310761    0.2093563  30.08 0.0007600394    1.225    0.183
       247  -9.5229    167.1272     48.6534   5.6370613231e+01   3.7073580739e+01    0.2090504    0.1314848  51.22 0.0004688323    1.681    0.405
       248 -10.3615    155.8588     47.0023   5.7751497479e+01   4.0160207334e+01    0.3432561    0.2945967   1.59   0.00101713    1.311    0.237
       249 -10.8097    152.0023     47.3205   5.8564755621e+01   4.1089718023e+01    0.3833902    0.2683102  -4.22   0.00104815    1.823    0.451
       250 -10.5076    149.3065     41.7668   5.7108864477e+01   4.2600306603e+01    0.5173816    0.1971173 -40.89  0.001392819    2.466    0.595
       251 -10.4488    112.8772     46.8374   6.7104364753e+01   5.0889458030e+01     0.527667    0.3357895  68.06  0.002265375    1.906    0.475
       252 -11.5460     91.6251     43.9549   7.2141191472e+01   5.6270476741e+01    0.8370152    0.3657828 -54.20  0.002658375    3.542    0.718
       253  -8.9527     19.3596     48.3097   1.0517911009e+02   6.6614143990e+01    0.1411272   0.08337142 -37.54 0.0007041587    1.739    0.425
       254 -11.0141    119.9249     47.0157   6.5363144759e+01   4.9161214357e+01    0.2283701    0.2179837  54.26  0.000306405    1.085    0.079
       255 -10.4672    142.9479     45.7775   5.9762583959e+01   4.3620392687e+01    0.3244942    0.2439342 -74.44  0.000987882    1.588    0.370
       256  -9.1869     86.0000     45.9497   7.4842047580e+01   5.7103018554e+01    0.2534996    0.0806287 -40.05    0.0005332    2.965    0.663
       257 -10.3973     32.5063     44.4407   9.7113937720e+01   6.6238618199e+01     0.392536    0.2367483 -18.16  0.001529636    2.383    0.580
       258 -10.2686     51.1001     44.9617   8.8297244619e+01   6.3660604771e+01     0.208471    0.1843316 -40.63 0.0004054672    1.013    0.013
       259  -9.5551    174.8615     44.2155   5.3721425281e+01   3.5766271773e+01    0.1944236    0.1726427  14.66 0.0006682025    1.272    0.214
       260 -12.0128     23.1247     41.5058   1.0104170597e+02   6.7890792564e+01    0.6171706    0.3672871  87.30  0.002708844    2.780    0.640
       261 -12.2022     27.7124     38.0398   9.7273278645e+01   6.8223815842e+01    0.5358723    0.3436422 -40.92 0.0003475973    1.423    0.297
       262 -11.5805     24.5009     35.4233   9.8054709836e+01   6.9147460316e+01    0.2731505    0.2449204 -12.23 0.0007406568    1.202    0.168
       263 -10.2552      7.0649     41.4034   1.0997582121e+02   6.9147039215e+01    0.2750412     0.125648 -58.88 0.0006526616    1.673    0.402
       264  -9.5126    163.2027     42.1910   5.4863624257e+01   3.8991003109e+01    0.2071665    0.1600705 -53.34 0.0003677955    1.293    0.227
       265 -10.3456    110.9030     41.8280   6.5615841176e+01   5.2207970398e+01    0.4473982    0.2090884  62.58  0.001639514    2.543    0.607
       266 -11.3732     62.1749     40.7806   8.1654337086e+01   6.2723390817e+01    0.4225182    0.2016696  51.82  0.001670594    2.711    0.631
       267 -10.5218     71.0332     41.2432   7.8266214174e+01   6.1007748483e+01    0.2227874    0.1961716  25.03 0.0002983895    1.216    0.178
       268 -11.6633     69.2676     38.2146   7.7601090855e+01   6.1926654415e+01    0.6322339    0.3732363 -15.92 0.0006554471    2.754    0.637
       269 -10.0228     96.4780     40.5151   6.9157974834e+01   5.5801056378e+01    0.3556579    0.2055615 -44.58  0.001063063    1.725    0.420
       270 -11.2604    100.8461     37.6315   6.6624567443e+01   5.5282239236e+01    0.6300946    0.4243627  53.73  0.002198899    1.536    0.349
       271 -10.3656    105.0817     34.4641   6.4070414199e+01   5.4787944562e+01    0.3228293    0.2343743 -66.42 0.0007249967    1.749    0.428
       272 -11.4425    101.5416     29.3663   6.2769629257e+01   5.6411502152e+01    0.4295095    0.2969066 -45.67  0.002049761    1.496    0.331
       273 -10.8269     98.4817     31.5155   6.4596368922e+01   5.6812329082e+01    0.4181275    0.2897885  27.83  0.001510623    1.717    0.418
       274 -11.5909     51.1951     40.1680   8.6245461207e+01   6.4668758436e+01    0.3298277    0.2529123  37.22 0.0006643375    1.444    0.308
       275 -11.1308     41.5167     38.6708   9.0271601154e+01   6.6401463844e+01     0.631364    0.4349599 -50.57  0.003379709    1.294    0.227
       276  -9.5926    188.2022     39.3915   5.0367888989e+01   3.3102091232e+01    0.1839915    0.1360144 -88.40 0.0002459471    1.522    0.343
       277  -8.9903    123.6636     38.7021   6.1207609504e+01   4.9572915267e+01    0.1562322    0.1149421  24.21 0.0007032233    1.654    0.395
       278 -10.3857     75.6551     35.6761   7.3982423656e+01   6.1140462270e+01    0.2542794    0.1577313  48.52 0.0009021539    1.721    0.419
       279 -11.3656     81.3884     35.3641   7.1775535997e+01   6.0007649288e+01    0.5293896     0.386579 -24.37  0.002638799    1.397    0.284
       280 -10.6871     78.7844     31.8010   7.1015356540e+01   6.1170977377e+01     0.419384    0.2665696   2.95  0.001562057    2.573    0.611
       281  -9.6148    137.5226     36.5116   5.7411030383e+01   4.6379005611e+01    0.1490405    0.1448972 -39.00 0.0001558802    1.011    0.011
       282 -11.3454     57.3023     34.5061   8.0898989108e+01   6.4812167812e+01     0.378271    0.2616005 -59.53  0.001865206    1.729    0.422
       283 -11.0407     42.1250     19.8023   8.0648512876e+01   7.0067045594e+01    0.4573617    0.2493516  37.47  0.001468777    2.004    0.501
       284 -11.7094    236.4220    246.8616   8.7413425351e+01  -3.1328092670e+00    0.2844101    0.1436194  24.33  0.001991799    1.526    0.345
       285 -12.3519    226.1846    246.0218   8.8830382325e+01  -1.8964580853e+00    0.4330841      0.24066  -3.38  0.002957503    1.896    0.473
       286 -11.5943      9.7687     33.3365   1.0602840155e+02   7.0876373104e+01    0.5845231    0.3390561  31.88  0.003198045    2.029    0.507
       287 -10.8380     17.4000     31.0207   1.0052475875e+02   7.0809008098e+01    0.4400307    0.2438532  20.21  0.002285977    2.126    0.530
       288 -11.3327     37.7497    244.1927   1.2118740034e+02   2.1118683978e+01    0.3943134    0.1878797 -81.78  0.002436283    2.305    0.566
       289 -10.6817     35.4157    239.7664   1.2140844993e+02   2.2066815200e+01    0.2833717    0.1707291 -52.09  0.001901493    2.579    0.612
       290 -10.6119     26.5991     14.0833   8.6381153052e+01   7.3336149631e+01    0.2020264    0.1691294  -3.11  0.001279397    1.203    0.169
       291 -10.1761    147.5087    245.5151   1.0164088961e+02   7.8783536934e+00    0.1076979    0.0816934  30.39 5.114256e-05    1.027    0.026
       292 -12.3170     74.3227    238.8556   1.1426037985e+02   1.7960320197e+01    0.5512567     0.407748 -64.82  0.004191848    1.689    0.408
       293 -10.3780    156.5178    241.5059   9.9630421076e+01   7.2187904440e+00    0.1085058   0.08292122  28.86 0.0008103747    1.010    0.010
       294 -10.1579     89.0171    241.0021   1.1171800619e+02   1.5879939637e+01    0.1502279    0.1244769  -0.45  0.001123989    1.722    0.419
       295  -9.1737     50.3198    240.3117   1.1874445525e+02   2.0424436179e+01     0.087655   0.07927085   3.72 0.0004241453    1.647    0.393
       296 -11.3705    192.7805     33.1508   4.7906507449e+01   3.2763502938e+01    0.2608996     0.241307 -24.07 0.0002450724    1.104    0.095
       297  -9.7370    125.4942     32.9825   5.8507484144e+01   4.9955291767e+01    0.2342385    0.1942101  64.10 0.0005807242    1.240    0.193
       298  -9.7379    177.3689     31.7915   4.9359947406e+01   3.6764022207e+01    0.2023857    0.1356061 -14.94 0.0009422097    1.622    0.383
       299  -9.9674    166.9841     32.4933   5.1006905418e+01   3.9321675354e+01    0.2197136    0.1461728  71.66 0.0008159893    1.582    0.368
       300 -11.1454     49.2371     30.7231   8.2814074104e+01   6.6889963462e+01    0.4151551    0.2675111 -32.30  0.001364655    1.514    0.339
       301  -9.6627    145.1226     31.5305   5.4125253111e+01   4.5101220795e+01    0.2114689    0.1477058  68.50 0.0004901144    1.482    0.325
       302 -10.1454    120.5306     40.4886   6.2652170784e+01   5.0075751934e+01    0.2608402    0.1517409  74.58  0.000752528    2.298    0.565
       303  -9.6475    223.6619     30.3185   4.4006876073e+01   2.5876061696e+01     0.146978   0.08363356 -53.97 0.0007049254    1.706    0.414
       304  -9.2786    139.4049     30.4896   5.4755231403e+01   4.6722482448e+01    0.1465437    0.1419013 -23.85 9.085312e-05    1.040    0.039
       305  -9.0232     61.0097     28.9796   7.6568464970e+01   6.5184699781e+01     0.189167    0.1596658 -57.09 0.0004171695    1.348    0.258
       306 -10.1659    195.5137    238.6590   9.2689526799e+01   2.5452250668e+00    0.2273749    0.1391909  15.48  0.001548267    1.498    0.332
       307 -10.4954    215.0115     26.9695   4.3851624775e+01   2.8209662171e+01    0.2125948     0.184099 -44.46 0.0005676724    1.007    0.007
       308  -9.8096    151.9767     27.7538   5.1595195892e+01   4.3802938266e+01    0.1886646    0.1248741  67.19 0.0004985682    1.540    0.351
       309 -11.1537    111.7504     24.8870   5.8177271054e+01   5.4541440954e+01    0.3184294    0.3005244 -72.23 0.0003780379    1.119    0.107
       310 -10.8269    132.4464     25.5429   5.4107627580e+01   4.9169477022e+01    0.5700392    0.3009184  29.13  0.001495589    2.843    0.648
       311  -9.8626    134.8859    238.5560   1.0313488943e+02   1.0422992314e+01      0.21584    0.1165681 -33.68  0.001240884    2.801    0.643
       312  -9.8596    105.0675     25.6366   6.0147035866e+01   5.6093002747e+01    0.1958315    0.1806193  58.00 0.0002833579    1.114    0.102
       313  -9.7216    244.3648    238.6881   8.5128767430e+01  -3.2922513557e+00    0.0848268   0.07283445  28.54 0.0007039304    1.759    0.431
       314 -10.5016     70.4526     26.0113   7.1213788485e+01   6.3863306015e+01     0.269715    0.2115781  46.76  0.000766494    1.350    0.259
       315  -9.3139     16.5378     26.5448   9.9250144441e+01   7.1879028519e+01    0.1292235    0.1062638 -45.14 7.656254e-05    1.009    0.009
       316 -11.8412     29.8569    233.5683   1.2214775831e+02   2.3646754520e+01    0.3610578    0.1953335  75.43  0.002459783    1.697    0.411
       317 -11.6068     94.2815     24.1234   6.2348982470e+01   5.8897342116e+01    0.7448186    0.3074284  52.31  0.002869778    2.365    0.577
       318 -10.3154     86.8708     24.2705   6.4635573344e+01   6.0591835420e+01    0.2743716     0.207627 -59.50  0.001368065    1.605    0.377
       319 -10.2240     82.5132     20.1147   6.3911726989e+01   6.2176692081e+01    0.4608876    0.2886288  82.25  0.001418545    2.668    0.625
       320 -10.4251     10.2258     24.9820   1.0273049824e+02   7.2742279949e+01    0.2586743    0.1748428  -5.09 0.0004868258    1.743    0.426
       321 -10.2450    236.4072     24.2155   4.1387603313e+01   2.3778261186e+01    0.2024731   0.08994098 -37.25 0.0009501577    1.750    0.428
       322  -8.9882    197.2948     24.6856   4.4867565567e+01   3.2656358515e+01    0.1496896   0.09124582 -54.00 0.0002357691    1.600    0.375
       323 -10.1399     34.5413     23.0711   8.6626870367e+01   7.0566595590e+01    0.2592643    0.1732983  18.85  0.000848694    1.763    0.433
       324 -10.8947    155.0361     21.0779   4.8709976673e+01   4.3801141211e+01    0.4964232    0.2562088 -62.20  0.001771188    2.464    0.594
       325  -9.3988    185.4944     21.4589   4.5096392749e+01   3.5929237731e+01    0.1442326       0.1265 -52.76 6.614804e-05    1.048    0.046
       326 -10.2759    159.9919    235.9922   9.8382328058e+01   7.4564981292e+00    0.1699877    0.1144002   9.57 0.0005966947    1.671    0.402
       327 -10.0482    109.9524    243.4188   1.0810919335e+02   1.2942095128e+01    0.1908134    0.1356589  71.10  0.001357479    1.712    0.416
       328  -9.8282    177.5053    234.9412   9.5222071853e+01   5.2823279120e+00    0.1391405    0.1029097 -28.71   0.00102435    1.572    0.364
       329  -9.8757    167.3637    233.7649   9.6823650953e+01   6.7610793227e+00    0.1327404   0.09664047 -22.67  0.000943352    1.608    0.378
       330 -10.2322    161.8738     20.1375   4.7444419693e+01   4.2122456978e+01     0.214271    0.2018169 -52.44 0.0003077876    1.007    0.007
       331 -10.9909    153.7255    233.7827   9.9227833665e+01   8.5719642799e+00    0.1928327     0.144813   2.37 0.0008455922    1.511    0.338
       332  -9.8517     79.9520    231.5130   1.1266881102e+02   1.8457132452e+01    0.1670187   0.08546457  38.44 0.0005453997    1.530    0.346
       333  -9.7847    108.5159     17.8762   5.5755067086e+01   5.6246318110e+01    0.2178342     0.189083  55.32 0.0006787752    1.151    0.131
       334 -10.3470     86.6124    233.1004   1.1153711295e+02   1.7392839040e+01    0.2093142    0.1126072  45.50  0.001085467    1.436    0.304
       335  -9.5855     66.5567     13.5149   6.5852897924e+01   6.6561312192e+01    0.1750875    0.1367344  65.41 8.216376e-06    1.544    0.352
       336  -9.8557    190.5592    226.6447   9.1911847604e+01   4.5474491500e+00    0.1716979    0.1000094 -29.20 0.0007491033    1.929    0.482
       337 -11.0513    120.2501    226.3573   1.0454470937e+02   1.4109148477e+01    0.1702701    0.1509871  50.80 0.0006185076    1.146    0.127
       338 -10.8491      5.0012    226.7895   1.2643951173e+02   2.7116798412e+01    0.3831718    0.1146386  59.01  0.002092852    2.398    0.583
       339 -10.0664     66.1914    226.1622   1.1490043480e+02   2.0975284054e+01    0.1807487    0.1303723  33.35 0.0006429212    1.352    0.260
       340  -9.9583     24.2365    232.3184   1.2312266381e+02   2.4406481141e+01    0.2127028    0.1339404  36.46 0.0009264458    1.437    0.304
       341 -10.1522    123.4930    222.0999   1.0346709418e+02   1.4317525473e+01    0.1448145    0.1143875 -54.26  0.001019627    1.555    0.357
       342 -10.1983    141.8638    220.9493   9.9856948511e+01   1.1957326079e+01    0.2476981    0.1439469  20.87  0.001391004    1.955    0.488
       343  -9.9896     51.0199     15.3767   7.3574070213e+01   6.9315049524e+01     0.307193    0.1641978  53.57  0.001341225    2.322    0.569
       344  -9.2656     41.6850    220.6960   1.1929634031e+02   2.4653971551e+01   0.09046172   0.08446451 -17.70 0.0005504979    1.620    0.383
       345  -9.6700     15.2449     14.0552   9.4107931778e+01   7.4632571714e+01    0.1743015     0.135587 -45.87 0.0003770158    1.111    0.100
       346  -9.6182    173.8174    219.6265   9.3850598395e+01   7.6878635630e+00    0.1660628   0.08780304  42.49 0.0009516806    1.753    0.430
       347  -9.2745     77.6653    219.0319   1.1211254920e+02   2.0812234784e+01    0.1616934   0.07153678 -43.88 0.0006153327    4.247    0.765
       348 -11.3607      9.5363    217.0548   1.2531231980e+02   2.8438576461e+01    0.2861929    0.1451829  54.90  0.001122998    1.416    0.294
       349 -11.0557    235.8997    214.9266   8.2896786066e+01  -8.1870152598e-03    0.3567154     0.178986 -11.29  0.001861819    2.243    0.554
       350 -10.9103    241.0729    211.8578   8.1638047582e+01  -3.3402582753e-01    0.3763595    0.2972223  37.41  0.002857687    1.687    0.407
       351  -9.7959     37.9330    217.4974   1.1985312717e+02   2.5618759432e+01    0.1606887    0.0898062  36.28 0.0007622147    1.560    0.359
       352 -11.4772     30.4086    216.0052   1.2124903967e+02   2.6657399436e+01    0.3992015    0.2059508  17.93  0.002123801    3.004    0.667
       353 -10.9783    247.2191     33.2067   4.2844062250e+01   2.0554712561e+01    0.2182316    0.1831685 -55.66  0.000469395    1.155    0.134
       354  -8.8513    201.6713    215.6801   8.8480637618e+01   4.3578895915e+00    0.1165903   0.07220983   8.23 0.0007047802    1.687    0.407
       355  -9.6178    194.5013    215.4921   8.9664152320e+01   5.3559322531e+00    0.1135316   0.08931629  16.94 -0.0002185634    1.002    0.002
       356  -9.3583    136.9826    216.0000   1.0017507739e+02   1.3373803750e+01    0.1946202   0.05546887  37.09 0.0007948332    2.890    0.654
       357 -10.0795    179.3219    243.6824   9.5998017900e+01   4.0328033462e+00   0.09728032   0.07353342  49.10 0.0007042954    1.666    0.400
       358 -10.8850     21.4938    212.4440   1.2283293279e+02   2.8180429409e+01    0.3209969    0.1197506  45.76  0.001818171    1.899    0.474
       359 -10.1896    208.9637    212.0528   8.6724255723e+01   3.8009983399e+00    0.1717401    0.1311022  11.50  0.000496137    1.043    0.041
       360  -9.4866     76.3441    212.2969   1.1180844192e+02   2.2152614541e+01    0.1040051    0.0883951  -0.71 0.0007033717    1.669    0.401
       361  -9.9808      2.0225    212.0511   1.2659213076e+02   2.9999453367e+01    0.1661668    0.1154756  62.44 0.0009213114    1.021    0.021
