#   1 NUMBER                 Running object number                                     
#   2 MAG_AUTO               Kron-like elliptical aperture magnitude                    [mag]
#   3 X_IMAGE                Object position along x                                    [pixel]
#   4 Y_IMAGE                Object position along y                                    [pixel]
#   5 X_WORLD                Barycenter position along world x axis                     [deg]
#   6 Y_WORLD                Barycenter position along world y axis                     [deg]
#   7 A_WORLD                Profile RMS along major axis (world units)                 [deg]
#   8 B_WORLD                Profile RMS along minor axis (world units)                 [deg]
#   9 THETA_WORLD            Position angle (CCW/world-x)                               [deg]
#  10 FWHM_WORLD             FWHM assuming a gaussian core                              [deg]
#  11 ELONGATION             A_IMAGE/B_IMAGE                                           
#  12 ELLIPTICITY            1 - B_IMAGE/A_IMAGE                                       
         1 -13.2112    182.0691     32.0849   6.8888052100e+01   3.5362781609e+01     1.256039    0.8947114  26.08  0.006527138    1.939    0.484
         2 -12.7034    186.3876     24.6232   6.6399722177e+01   3.5192029810e+01    0.9315408    0.7201889  46.54  0.001538552    1.400    0.286
         3 -10.6629    203.4058      1.8231   5.9072228094e+01   3.3556229374e+01    0.5002282    0.1537031  67.82  0.002111375    2.586    0.613
         4  -7.9656    138.6597    215.3129   1.2089271535e+02   1.0192361692e+01    0.1442219    0.1020249  69.44  0.000597036    1.698    0.411
         5 -10.1309    139.4392    249.2336   1.2566351511e+02   3.8155074533e+00    0.3417629    0.2273027  62.58  0.001703954    1.652    0.395
         6 -19.4197     31.4945    138.1006   1.3437916657e+02   4.3631092076e+01     19.47334     2.663761 -65.78    0.0486092    6.975    0.857
         7  -9.6556     85.8128    204.7581   1.3079969620e+02   2.1397619598e+01    0.3413412    0.2411202  10.73  0.001416785    2.452    0.592
         8  -9.2247     94.6025    200.1641   1.2823333583e+02   2.1009585999e+01    0.5115967    0.2570672  87.01  0.001545435    5.150    0.806
         9 -10.6912    193.8980    193.3182   1.0517757752e+02   3.9663595517e+00    0.7006992    0.5906458  75.84  0.003756658    1.573    0.364
        10  -9.0766    111.9734    197.3608   1.2391638312e+02   1.8698453355e+01    0.3214576    0.1804786  26.90  0.001336298    2.419    0.587
        11  -8.7001     64.1252    195.6808   1.3436023002e+02   2.6566529809e+01    0.1744048    0.1541266  68.39 0.0004969389    1.104    0.094
        12  -8.7012    102.2828    194.6424   1.2568601109e+02   2.0957010410e+01    0.1457115    0.1014028  77.74 0.0005016249    1.669    0.401
        13  -8.5725     90.5771    193.7705   1.2821003764e+02   2.3070329665e+01    0.1903075     0.124572 -78.97 0.0009362451    1.670    0.401
        14  -9.4484    115.8457    211.7770   1.2526704068e+02   1.4962286928e+01    0.3806431    0.2298945  78.46  0.001297752    2.515    0.602
        15  -9.9944    208.0000    184.0238   1.0045218238e+02   2.9680084499e+00    0.3240615    0.2365824 -32.88   0.00103557    1.375    0.273
        16 -10.1254    210.4961    181.5192   9.9444459040e+01   2.9458584016e+00    0.3583629    0.2549004 -16.30  0.001767523    1.612    0.380
        17  -7.9228     91.6664    185.2667   1.2667861756e+02   2.4811079431e+01    0.1433594   0.09882091  68.87 0.0003311971    1.585    0.369
        18  -9.1885     88.2263    182.7005   1.2708515226e+02   2.5945896631e+01    0.2995745    0.1260894  35.49  0.001182327    2.545    0.607
        19  -9.5624     98.2432    180.7491   1.2440982168e+02   2.4759489118e+01    0.3764985    0.1799655  43.61  0.001590486    2.020    0.505
        20 -10.4709     89.1190    167.5250   1.2439365782e+02   2.9313040537e+01    0.4485394    0.3216178 -19.75   0.00208709    2.200    0.545
        21 -10.8686     86.9790    177.7153   1.2659751357e+02   2.7287877776e+01    0.4310002     0.279205 -42.13  0.002078829    1.857    0.461
        22 -10.7164     89.6103    173.1520   1.2522323554e+02   2.7924773519e+01    0.3981207    0.2723977 -46.07  0.001363981    1.597    0.374
        23  -9.9950    197.8125    175.3174   1.0072307513e+02   6.5872289219e+00    0.4274839    0.3060567 -51.20  0.001269015    1.547    0.354
        24  -9.1521    125.1807    172.4355   1.1648194796e+02   2.1824154481e+01    0.2418645     0.179103 -61.31 0.0006270605    1.410    0.291
        25  -9.7253    118.5990    173.2882   1.1822535301e+02   2.2866906311e+01    0.2759924    0.1704964  51.60 0.0009362993    1.642    0.391
        26  -9.1950    136.3913    171.3927   1.1360282906e+02   1.9885152151e+01    0.3020106     0.137252  29.13 0.0009534572    3.418    0.707
        27 -10.4185    100.3987    169.1575   1.2190036322e+02   2.7062639378e+01    0.3716308    0.1965394  46.46  0.001451456    1.885    0.469
        28  -9.3707    203.1438    167.6559   9.8016477488e+01   6.9779068410e+00    0.3156178    0.2545118  81.42  0.001321341    1.722    0.419
        29 -10.3915     95.6147    163.8918   1.2213901776e+02   2.9097020095e+01    0.4231854    0.2450563 -49.19  0.001911343    1.748    0.428
        30 -11.1049     71.9474    161.5701   1.2766677140e+02   3.3316116441e+01    0.5094193    0.3866454 -87.77  0.002771538    1.362    0.266
        31 -10.8597    100.6206    156.2442   1.1944280340e+02   3.0031624033e+01    0.6026667    0.3872608 -35.76   0.00261899    1.932    0.482
        32  -8.0905    119.4364    155.5014   1.1452668440e+02   2.6775074085e+01    0.1508368    0.1422143  85.69 0.0008066028    1.055    0.052
        33  -9.7136    134.2633    147.0947   1.0901380875e+02   2.5754611603e+01    0.6503873    0.1575273 -50.83  0.001689871    4.525    0.779
        34  -8.7324    174.6902    149.3110   9.9996612932e+01   1.6648392394e+01    0.1541357    0.1235698 -89.09 0.0002883608    1.624    0.384
        35  -9.7859    145.6143    146.0012   1.0598487521e+02   2.3634547190e+01    0.2932194    0.2280873  46.75 0.0002843671    1.271    0.213
        36 -10.5992    110.3846    140.8938   1.1374681933e+02   3.1846594614e+01    0.5449654     0.294591 -37.70  0.002149386    2.206    0.547
        37 -10.6840     99.4349    141.0608   1.1667880696e+02   3.3781675105e+01     0.287794    0.2679754  -4.27 0.0003944985    1.209    0.173
        38 -10.4076      3.6596    137.5212   1.4139751797e+02   4.6022894267e+01    0.2147718    0.1992319 -18.00 0.0008924719    1.388    0.280
        39  -9.6477     10.1542    137.0186   1.3972032273e+02   4.5675670658e+01    0.1767643    0.1604863  83.99 0.0002740967    1.187    0.158
        40  -9.6935    116.8193    131.2991   1.0987940612e+02   3.2812819616e+01    0.3109986    0.2650976  22.48 0.0007489876    1.295    0.228
        41 -10.3224    105.4053    129.1940   1.1244825215e+02   3.5448135296e+01    0.6041369    0.3146727 -59.66  0.002369012    2.196    0.545
        42  -9.1948    125.1916    127.1824   1.0670274962e+02   3.2066639539e+01    0.2146489    0.1844789  83.65 0.0006798209    1.348    0.258
        43  -9.1816    135.2331    123.9711   1.0333537866e+02   3.0678981691e+01    0.2110777    0.1288588 -46.36 0.0007737682    1.644    0.392
        44  -8.7291    120.5261    124.5196   1.0728141664e+02   3.3599144130e+01    0.1500378    0.1486481 -47.21 0.0001147969    1.001    0.001
        45  -9.2932    111.8145    119.8254   1.0847047646e+02   3.6349506369e+01    0.2254855    0.2037004  -2.31 0.0007047481    1.212    0.175
        46  -9.2063    168.3919    113.5471   9.2801370640e+01   2.5423757459e+01    0.3115155    0.2306564 -69.60 0.0009044779    1.695    0.410
        47  -8.6708     10.6396    213.6200   1.4679293421e+02   2.8933815506e+01    0.1603005    0.1086833  25.28 0.0009223375    2.126    0.530
        48  -9.1597     93.0365    207.0024   1.2953401841e+02   1.9776677830e+01     0.267269    0.1818022 -59.76 0.0007252584    1.519    0.342
        49 -10.8408    107.4936    204.1208   1.2595568197e+02   1.8010607131e+01    0.3889861    0.3065785 -45.12  0.002152151    1.488    0.328
        50  -8.7996    206.1110    110.1042   8.4326321396e+01   1.7345461266e+01    0.2224781    0.2039068  17.60 0.0006008536    1.236    0.191
        51 -11.8306    168.4647     46.0483   7.4776193347e+01   3.6894665917e+01    0.4906613    0.4400924  27.53  0.001281743    1.257    0.204
        52  -8.2098    182.5282    241.5094   1.1602943673e+02  -2.2775578319e+00    0.1302467    0.1108448  35.96  0.000808998    1.069    0.064
        53  -8.4030    176.9682    235.3002   1.1614451920e+02  -3.1425148484e-01    0.1856972    0.1497289  34.16  0.000350982    1.066    0.062
