#   1 NUMBER                 Running object number                                     
#   2 MAG_AUTO               Kron-like elliptical aperture magnitude                    [mag]
#   3 X_IMAGE                Object position along x                                    [pixel]
#   4 Y_IMAGE                Object position along y                                    [pixel]
#   5 X_WORLD                Barycenter position along world x axis                     [deg]
#   6 Y_WORLD                Barycenter position along world y axis                     [deg]
#   7 A_WORLD                Profile RMS along major axis (world units)                 [deg]
#   8 B_WORLD                Profile RMS along minor axis (world units)                 [deg]
#   9 THETA_WORLD            Position angle (CCW/world-x)                               [deg]
#  10 FWHM_WORLD             FWHM assuming a gaussian core                              [deg]
#  11 ELONGATION             A_IMAGE/B_IMAGE                                           
#  12 ELLIPTICITY            1 - B_IMAGE/A_IMAGE                                       
         1 -10.8206     32.1716     64.3000   9.5739104188e+01   6.0695693373e+01      1.77098    0.5033371 -35.60  0.004995767    5.721    0.825
         2 -11.0489     23.9315     31.9733   8.8419984735e+01   6.7696007060e+01     1.267234    0.4546019 -35.83  0.004032278    2.557    0.609
         3  -9.7934    130.5978     46.4016   5.6352443937e+01   4.6406312310e+01     1.009533    0.3714242 -25.32  0.002573102    3.680    0.728
         4 -10.8524    134.1096     30.8466   5.0436498423e+01   4.7609391012e+01    0.3800856    0.2763931   1.68  0.001963292    1.723    0.420
         5  -9.1431     96.0100     15.3995   5.3557976521e+01   5.8046525855e+01    0.5052533    0.2730302  -7.25  0.001876553    2.365    0.577
         6  -9.7474     91.5837     25.6657   5.8877376540e+01   5.7867234205e+01    0.8733627    0.2422134 -30.57  0.003111399    3.673    0.728
         7  -9.4698     77.8338      4.4881   5.3986869837e+01   6.2862180757e+01     0.461082    0.2837358  -5.47  0.002088814    1.772    0.436
         8  -8.2285     71.9830      8.6497   5.7641327829e+01   6.3639091367e+01    0.2039128    0.1499924   5.79  0.000465074    1.315    0.240
         9 -10.0665     73.5410     17.9694   6.1277160195e+01   6.2367569948e+01    0.9912277    0.2284437 -29.39  0.003381687    4.414    0.773
        10 -10.1636     69.8163     40.5085   7.2053223179e+01   6.0020174178e+01     1.012197    0.4555204 -33.08   0.00324945    2.223    0.550
        11  -9.9744     76.1287     32.1405   6.6412114659e+01   6.0107912733e+01    0.5153041    0.3954209  75.31 0.0009664858    2.186    0.542
        12  -9.6438     63.2762     21.3704   6.6413012577e+01   6.3841878043e+01    0.4141118    0.2823566 -49.89  0.001097253    2.222    0.550
        13 -10.1869     64.4027     13.2462   6.2314641661e+01   6.4589127825e+01    0.4768833    0.3542876 -26.24  0.001820367    1.439    0.305
        14 -10.3276     51.3126     15.2304   6.8280153262e+01   6.6599431720e+01     1.034111    0.5235705   8.00  0.004276831    3.217    0.689
        15 -10.2606     46.2760     29.5447   7.6944028660e+01   6.5407576497e+01    0.4845892    0.2745382 -45.05  0.001225927    2.056    0.514
        16  -8.8943    128.6952     24.5448   4.9419907359e+01   4.9627499935e+01    0.4974146    0.2793829 -11.35  0.001553261    2.360    0.576
        17  -8.3988    141.4635     13.1797   4.3362398431e+01   4.7724851891e+01    0.2939213    0.1373907 -19.68  0.001300435    2.599    0.615
        18  -8.7503    119.7851     16.2947   4.8380541459e+01   5.2589789082e+01    0.3421425    0.2240436  24.90  0.001418924    1.756    0.430
        19  -9.2334    102.9387     21.1515   5.4026888190e+01   5.5931917389e+01    0.2768742    0.2310481 -46.13 0.0006359302    1.434    0.303
        20  -9.8735     10.4181     18.3137   8.9792804705e+01   7.1185156961e+01    0.7071822    0.3131979 -19.24  0.003198545    2.712    0.631
        21  -8.9046     40.8716     20.4471   7.5274200348e+01   6.7484201078e+01    0.2971525    0.1567247 -38.48  0.001593991    1.945    0.486
        22 -10.3004     18.2028      5.2463   7.9113673739e+01   7.2349993874e+01    0.5585417    0.4033419 -41.23    0.0028234    1.800    0.445
        23 -10.7782     37.2873      9.7989   7.1761840892e+01   6.9373173555e+01    0.8389708    0.3115318 -38.68  0.002396132    3.004    0.667
        24 -10.6014     27.1924     11.4192   7.7511873490e+01   7.0492929662e+01    0.8222765    0.4206136  35.20  0.004668377    2.033    0.508
        25  -9.4999      2.2643     14.1331   9.2624711702e+01   7.2477309247e+01    0.4141176    0.2259355 -59.82  0.002124494    2.773    0.639
        26 -10.4563      5.3446      4.5705   8.6239098871e+01   7.3696587299e+01    0.5052204    0.3575385  -0.77  0.001748251    1.181    0.153
        27  -8.0097    136.5065      1.4875   4.0416084756e+01   4.9931712658e+01    0.2015368   0.09698021  57.38 -2.325421e-05    1.716    0.417
        28  -9.1901    132.2194      4.9431   4.2209587511e+01   5.0674595231e+01     0.449532    0.2024281  44.87  0.001814055    2.157    0.536
        29  -9.5327    133.5890     11.7394   4.4216140611e+01   4.9753237954e+01    0.5497142    0.2070898 -41.87  0.002221668    3.054    0.673
        30  -9.2601    115.3828      4.3103   4.4978770514e+01   5.4683798154e+01    0.4646388    0.2835459  85.30   0.00184069    2.061    0.515
        31  -9.2381    110.3953      4.6313   4.6083731999e+01   5.5804952616e+01    0.7769204     0.278242 -22.13  0.003278821    3.102    0.678
        32  -8.6547    112.1420     15.4804   4.9717537022e+01   5.4438662394e+01    0.3086675    0.2043807 -45.13  0.001084464    1.817    0.450
        33  -8.9639    113.9907      9.9880   4.7312160034e+01   5.4525053724e+01    0.2918983    0.1729356  41.57            0    1.568    0.362
        34  -8.9343    125.1340     12.8799   4.6130513830e+01   5.1659229979e+01    0.2584051    0.1979734 -68.07 0.0006569941    1.586    0.369
        35  -8.7546    126.8167      9.1204   4.4533441964e+01   5.1601606758e+01    0.2465101    0.1971091  57.53 0.0004581236    1.083    0.076
        36  -9.5771    125.6799      4.9874   4.3328223870e+01   5.2221588996e+01     0.614186    0.2194329  50.76  0.002602624    2.327    0.570
        37  -9.5661     85.2718     12.9727   5.5496584804e+01   6.0559992667e+01    0.3874755    0.2460409 -54.02  0.001645867    2.530    0.605
        38  -7.8252     80.6391     12.6786   5.6729996215e+01   6.1535002712e+01    0.2469281     0.143174 -31.68  0.001311509    1.894    0.472
        39  -8.3256    104.1781      2.2951   4.6498948549e+01   5.7399124659e+01    0.3815316    0.1611544  47.67  0.001441818    1.957    0.489
        40  -9.1890    102.2954      8.4413   4.9281839504e+01   5.7314741431e+01    0.3280258     0.213637 -68.07  0.001301145    2.486    0.598
        41  -7.8255    156.0000      8.5765   3.9800059923e+01   4.4635742550e+01     0.257689   0.07507291 -24.06 0.0009322091    3.914    0.745
        42  -7.8192    192.9189      8.4582   3.5494854976e+01   3.5828817173e+01    0.1832885    0.1097697  75.32 0.0002981788    1.486    0.327
        43  -8.5806     97.7156      5.6781   4.9265865607e+01   5.8564156418e+01    0.2989827    0.1782001  23.03 0.0009998729    1.856    0.461
        44  -8.5180     95.9974      3.0037   4.8603606138e+01   5.9158406827e+01    0.2855458    0.1894673  34.62 0.0006700702    1.381    0.276
        45  -8.0921     85.9445      5.2632   5.2055147564e+01   6.1127799887e+01    0.2499734    0.1812733 -15.05  0.001516778    1.481    0.325
        46  -8.1357    143.3496      5.1067   4.0538134446e+01   4.7995503163e+01      0.17477    0.1085796 -40.13 0.0005649413    1.769    0.435
        47  -6.8852    214.6739      3.7198   3.2463937629e+01   3.1353600634e+01    0.1130243   0.08597039  52.19 0.0002221914    1.595    0.373
        48  -8.1878     89.0977      2.6779   5.0149542271e+01   6.0674468626e+01    0.1931164    0.1638586 -21.89  0.000778069    1.346    0.257
        49  -9.9532     62.9864      3.0962   5.8043689644e+01   6.5857215809e+01     0.399602    0.3062572  49.47  0.001639797    1.364    0.267
        50 -10.4423     58.6835    124.9313   1.0067860303e+02   4.3559048865e+01     1.151956    0.6145333  80.30  0.003616116    4.506    0.778
        51 -10.8714    188.1044    246.4218   9.0161361974e+01  -3.3444590704e+00    0.4752179    0.2768065  30.06  0.002682158    1.455    0.313
        52 -10.5864    169.7722    249.5427   9.4204553825e+01  -1.0981511766e+00    0.5573921    0.2015788  35.41   0.00245437    2.333    0.571
        53  -9.5350     67.8919    129.2577   9.8706632813e+01   4.1249779611e+01    0.4811169    0.3747032  85.19  0.001516035    1.487    0.327
        54 -10.1745     71.2943    125.8176   9.6962588832e+01   4.1627525293e+01    0.6235832    0.4192643  89.91  0.001270777    2.041    0.510
        55  -8.7160    112.2679    133.6961   8.6693220063e+01   3.2817072609e+01    0.3211309    0.2456146  80.41  0.001039701    1.721    0.419
        56  -9.2901     83.6737    131.8695   9.4509149314e+01   3.8248338378e+01    0.6914644    0.4047798  72.16  0.002445521    3.197    0.687
        57  -7.0331     55.3184    134.6420   1.0350684027e+02   4.1540588866e+01    0.1490337    0.1030533  74.80 0.0007044509    1.758    0.431
        58  -8.3346    194.1138    133.1682   6.6918394343e+01   1.5948306310e+01    0.2519709    0.2091406  54.52 0.0007148087    1.334    0.250
        59  -7.8523    142.4772    131.3408   7.8115332989e+01   2.7306459061e+01    0.3435353    0.2332941  85.87  0.001273653    2.653    0.623
        60 -10.0660     98.2588    128.5090   8.9477271344e+01   3.6631335742e+01    0.6781467      0.41748  65.01  0.002404265    2.457    0.593
        61 -10.0216    127.7414    102.6568   7.4466458340e+01   3.6808033685e+01    0.6250044    0.3873656 -44.00  0.001459127    1.585    0.369
        62  -9.9472     42.0267    122.8067   1.0547987591e+02   4.6024454052e+01    0.7014147     0.357048 -89.59  0.002592245    3.247    0.692
        63 -10.0614     27.2448    122.9275   1.1009068541e+02   4.7406007397e+01    0.5852166    0.3221712  71.54  0.002262465    2.546    0.607
        64  -7.0971    218.0347    123.0000   6.0096120715e+01   1.2977800466e+01    0.2094298   0.08343759  49.91            0    2.784    0.641
        65  -8.2750    157.8674    121.7159   7.1962805775e+01   2.6105277586e+01    0.2978019    0.2030434 -68.98 0.0008040685    2.059    0.514
        66  -8.6175     97.8124    121.3077   8.7908949476e+01   3.8453823828e+01    0.5348074    0.2493508 -30.26  0.001500765    4.409    0.773
        67  -8.4851      1.5368    116.6655   1.1708758255e+02   5.0744326228e+01     0.353198    0.1255445 -81.00  0.001351533    2.810    0.644
        68 -10.1806     92.1048    112.8883   8.7553057335e+01   4.1475429839e+01      0.66772    0.5117564  74.90  0.001957059    1.743    0.426
        69  -8.9828     92.5788    104.1162   8.5126993340e+01   4.3450541219e+01    0.7216478    0.4285815  13.53  0.002677939    2.790    0.642
        70 -10.2902     78.2133    112.9391   9.1905247903e+01   4.3757660914e+01     0.575047    0.3612284 -77.75  0.001714421    2.325    0.570
        71  -8.3175     78.2973    104.9850   8.9908992905e+01   4.5648410002e+01    0.4029453    0.2723874  -6.63  0.001738735    2.157    0.536
        72  -9.6171     81.5459    100.4063   8.7655313997e+01   4.6197739605e+01    0.8413371    0.3090906 -52.49  0.001047037    2.627    0.619
        73  -8.5275    153.0226    115.5038   7.1512733195e+01   2.8498227193e+01    0.2298385    0.1563872  47.66 0.0005325723    1.509    0.337
        74  -7.6859    167.2299    114.1173   6.7875315725e+01   2.5615281709e+01    0.2126598     0.180605 -71.66 0.0004078366    1.346    0.257
        75  -8.2314     63.0376     81.3962   8.8715658977e+01   5.3331324276e+01    0.2441264     0.199769 -83.05  0.001288993    1.660    0.398
        76  -8.9190     65.3027     85.5874   8.9107394881e+01   5.2080369124e+01    0.6573276    0.3742856  -3.20  0.002353062    3.373    0.704
        77 -10.5791     62.9793     95.6058   9.2640492837e+01   5.0122093224e+01     1.040311    0.5957427 -78.77  0.001666108    3.394    0.705
        78 -10.3586     65.6707    110.8584   9.5456021624e+01   4.6110404298e+01     0.798992    0.5436885 -79.19  0.001098942    1.862    0.463
        79  -9.2682     59.0917    109.5747   9.7326710728e+01   4.7304530521e+01    0.4812447    0.2743549 -70.53  0.001042136    2.034    0.508
        80 -11.0323     22.2835    103.1355   1.0843896389e+02   5.2659589189e+01     1.652707    0.8015501 -87.22  0.005874642    3.108    0.678
        81  -7.7336     23.3087     68.9804   1.0071298419e+02   6.0473993285e+01    0.1774873    0.1720652 -81.79 0.0002893318    1.287    0.223
        82 -10.6630     25.6774     77.9228   1.0199195008e+02   5.8298933462e+01    0.6919677    0.5479668 -71.36  0.002302309    1.355    0.262
        83  -9.7684    179.7642    249.9747   9.2310151901e+01  -2.6433711178e+00    0.3404646    0.1862423  24.93  0.001807426    1.713    0.416
        84  -9.9892     34.4594     90.4676   1.0158848013e+02   5.4638693491e+01    0.5383437    0.2923036 -79.88  0.002155513    2.723    0.633
        85 -10.0901     36.7956     81.1508   9.8480718696e+01   5.6558912733e+01    0.8962705    0.4388161 -14.97  0.003339069    3.691    0.729
        86  -7.9133     14.2628    105.0094   1.1144777527e+02   5.2784099933e+01    0.1859443    0.1234117 -51.78 0.0005013926    1.280    0.219
        87  -8.1967    158.7941    112.0524   6.9250454206e+01   2.7935187757e+01    0.2318429    0.2065953 -59.35 0.0004608801    1.166    0.142
        88 -10.4079    123.7235     89.8887   7.1889202154e+01   4.0362159826e+01     1.254199    0.6725043 -27.80  0.002531057    2.449    0.592
        89  -9.0720     35.6947    110.8935   1.0535637222e+02   4.9611234435e+01     0.193147    0.1566748 -65.45 0.0006933049    1.091    0.083
        90  -8.4450    149.7673    109.7981   7.0790154526e+01   3.0431886782e+01    0.2858106     0.190616 -38.91 0.0008210941    1.488    0.328
        91 -10.8698     44.7429    102.4429   1.0059451157e+02   5.0744753588e+01    0.9414785    0.5696662  72.23  0.003133172    2.866    0.651
        92  -8.3010     40.0656    106.9582   1.0313477800e+02   5.0142266044e+01    0.2400874    0.1633573 -78.83 0.0005286633    1.605    0.377
        93  -9.4842    244.4743    105.8025   5.2102422804e+01   1.0810198779e+01     0.291636    0.1849083  60.38  0.001514158    1.904    0.475
        94  -9.5173      6.2995    103.9242   1.1391318509e+02   5.3537101280e+01    0.3877997    0.2592255  80.09  0.001296996    1.693    0.409
        95  -9.0049    150.0067     89.9276   6.5241304052e+01   3.4407734270e+01    0.5698713    0.2309349 -33.57  0.001872067    2.852    0.649
        96  -9.6021    149.4723    103.1217   6.9055973499e+01   3.1890024196e+01    0.4458549    0.2886617 -55.55 0.0009813958    1.739    0.425
        97  -8.5083    150.1807     96.9712   6.7187057888e+01   3.2978521793e+01    0.4329134    0.2852451  -5.74  0.001617795    2.616    0.618
        98  -8.1635     36.4034    105.2323   1.0403019980e+02   5.0926146648e+01    0.1909779    0.1194175 -73.99 0.0005312962    1.645    0.392
        99  -8.3133    165.9741    104.0358   6.5509532028e+01   2.7937032994e+01    0.2351687    0.2188225 -55.99 0.0004210575    1.076    0.071
       100  -8.2014     73.8490    102.7583   9.0798454929e+01   4.6865247893e+01    0.2785611    0.1964407 -65.33 0.0005299019    1.551    0.355
       101  -9.1731    159.0170    101.0602   6.6262492626e+01   3.0127816425e+01     0.443474    0.2117298 -41.68   0.00110733    2.042    0.510
       102  -9.5527     94.3549     97.1138   8.2646868876e+01   4.4725634024e+01    0.3699142      0.28885 -63.48 0.0007063283    1.449    0.310
       103  -9.6157     96.9799     89.0382   7.9485248448e+01   4.6010290467e+01    0.5371954    0.3412395 -22.68  0.001151055    2.034    0.508
       104  -9.2805    239.1823     96.8371   5.0848793634e+01   1.3310215187e+01    0.2169083    0.1827255  87.18 0.0005097647    1.364    0.267
       105  -8.3732    164.4842     94.4709   6.3252565814e+01   3.0154258920e+01    0.2734795    0.2442008 -49.54 0.0005755531    1.104    0.095
       106 -10.1819      4.4765     89.4443   1.1228983606e+02   5.7056029827e+01    0.6363108    0.3060018  89.56  0.002077871    2.956    0.662
       107  -9.4574      5.7044     79.0412   1.0998426838e+02   5.9387083737e+01    0.5736578    0.2282165 -34.19  0.002600564    2.633    0.620
       108  -8.7564    157.5661     90.7506   6.3744736128e+01   3.2484925708e+01    0.4461132    0.2132997 -31.99  0.001576253    2.386    0.581
       109  -8.5406    193.1578     90.1608   5.6463392029e+01   2.4298450030e+01     0.290767    0.2248406 -31.76 0.0007750185    1.308    0.235
       110 -10.2848     47.9898     84.4893   9.5118046260e+01   5.4590958854e+01    0.6222238    0.4333768 -72.44  0.002183363    1.759    0.432
       111  -9.4240     48.4225     77.4176   9.3021258222e+01   5.6119001294e+01    0.6432118    0.3665417 -11.69  0.002735455    2.632    0.620
       112  -8.1892    163.7302     86.4611   6.1201031906e+01   3.1843589081e+01    0.4662605     0.182892 -31.99       0.0015    3.059    0.673
       113 -10.1569     85.3105     86.6825   8.2544281456e+01   4.8643343441e+01    0.4577795    0.3648011  80.26  0.001005682    1.813    0.448
       114  -9.5966     87.3087     78.9914   7.9533365218e+01   4.9916654097e+01    0.6855441      0.40617  15.68  0.001987321    2.551    0.608
       115  -9.5953     14.1624    111.3242   1.1244871118e+02   5.1262877725e+01    0.4761581    0.2437622  84.97  0.001892554    2.614    0.617
       116  -9.9789    139.4495    104.5566   7.1928357852e+01   3.3840302686e+01    0.6840143    0.3705865 -52.64 0.0007360611    2.053    0.513
       117 -10.3017    103.9251     82.5208   7.5362675597e+01   4.6019874195e+01    0.5491228    0.3135171 -52.07 0.0009031142    1.953    0.488
       118  -9.5366    105.1174     71.4867   7.1493083006e+01   4.7944648247e+01     0.694638      0.40062 -27.50  0.002769711    2.008    0.502
       119  -8.6993    157.7560     83.0742   6.1532638191e+01   3.3882121579e+01    0.4436277    0.2007084 -33.41  0.001514962    2.398    0.583
       120  -9.1351    140.3738     82.1964   6.5292731681e+01   3.8126517015e+01    0.5388413    0.2726075 -36.09  0.001355349    2.034    0.508
       121  -9.0341    139.9520     75.2809   6.3318891001e+01   3.9504367556e+01     0.589102    0.2450827 -36.58  0.001849498    2.460    0.594
       122  -7.9290    170.4577     83.2401   5.8916809409e+01   3.0838793467e+01    0.2161565    0.1350286 -50.67 0.0009309697    1.673    0.402
       123  -8.5459    149.9500     80.8202   6.2625757476e+01   3.6142826733e+01    0.3792351    0.2039231 -45.50 0.0006169168    1.901    0.474
       124  -8.6356    118.9873     80.4745   7.0347109912e+01   4.3274828451e+01    0.3750465    0.2496824 -56.90 0.0007608274    1.817    0.450
       125  -8.4828    119.9409     75.8369   6.8636562937e+01   4.3956671966e+01    0.3008133    0.2508016  16.81  0.000832685    1.310    0.237
       126  -9.1248     74.2712     80.2527   8.4366516569e+01   5.1876916865e+01    0.4154398    0.2749893 -66.80   0.00140795    2.117    0.528
       127  -8.4672     74.3509     75.3147   8.2807584673e+01   5.2902846950e+01    0.3471348    0.2170787  10.91  0.001506463    2.198    0.545
       128  -8.1102     68.7874     79.2388   8.6000550196e+01   5.2951901662e+01    0.2972187    0.1575408 -45.38  0.001028228    1.736    0.424
       129  -8.1683    184.1469     78.1876   5.4942358566e+01   2.8483482398e+01    0.2591063    0.2054511 -52.66 0.0006616052    1.239    0.193
       130  -8.4213    166.6461     77.9585   5.8214238727e+01   3.2685260278e+01    0.4544352    0.1845183 -30.23  0.001506171    3.022    0.669
       131  -7.6424    174.4948     78.5480   5.6832015128e+01   3.0709465353e+01    0.1497898    0.1408542 -72.52 0.0008081822    1.051    0.048
       132  -9.2320    156.9861     75.4250   5.9498605590e+01   3.5441368795e+01    0.4768091    0.2389995 -42.88  0.001898178    1.992    0.498
       133  -8.6195    129.0148     69.3647   6.4191078643e+01   4.3098557176e+01    0.5223901    0.3008697  22.39  0.001866315    2.969    0.663
       134  -8.3450    130.5323     64.3515   6.2216239836e+01   4.3615855841e+01    0.3835332    0.1705844 -40.15  0.001057581    2.277    0.561
       135  -8.0019     18.3510     77.2511   1.0470827027e+02   5.9012314094e+01    0.1303346   0.07888389 -32.67 0.0006949548    1.593    0.372
       136  -9.9005     81.6626     72.3859   7.9323607290e+01   5.2263791081e+01    0.4355965    0.3279425 -71.34 0.0009709332    1.956    0.489
       137  -9.1161     83.4625     64.7113   7.6145772619e+01   5.3433391841e+01    0.5758099    0.3491656  -0.13  0.002241622    2.838    0.648
       138 -10.5981     54.8681     70.7750   8.8575942564e+01   5.6732267934e+01    0.7055911    0.3985164  52.86  0.001178407    2.895    0.655
       139  -9.3711     54.9170     63.4483   8.6211275593e+01   5.8226489951e+01    0.4243156    0.2787282   0.98  0.001655881    1.848    0.459
       140 -10.0137     73.1572     59.2884   7.7878419347e+01   5.6247260387e+01    0.5460726    0.2974667 -51.70 0.0008969374    2.210    0.548
       141  -9.2923    115.2018     72.2675   6.8817999243e+01   4.5660751445e+01    0.5632488    0.2976553 -35.25  0.001894973    1.950    0.487
       142  -8.8595      1.5869     28.2364   9.8581052014e+01   7.0101911758e+01       0.3408    0.1821007 -47.87   0.00129833    1.485    0.327
       143  -9.8613    156.3336    248.3374   9.6701908569e+01   1.1117594633e+00     0.366708    0.1543732  47.80   0.00146284    2.615    0.618
       144  -9.4514     16.0774     70.2347   1.0399249442e+02   6.0735942307e+01    0.4484383    0.2015369 -54.75  0.001389322    1.720    0.419
       145  -9.4903     17.0858     61.6082   1.0139106249e+02   6.2531941037e+01    0.6270748    0.2596035 -51.47  0.003023039    1.847    0.459
       146 -10.9854     21.6960     53.4551   9.7026834092e+01   6.3867469879e+01    0.8066512    0.5599752  84.84  0.003088166    2.903    0.655
       147 -10.2180     12.0996     45.6741   9.9057640188e+01   6.6142168206e+01    0.7853928    0.3754891  -3.52  0.003022006    2.626    0.619
       148 -10.1265      4.7954     41.7016   1.0135907184e+02   6.7380962659e+01    0.6350153    0.2610834 -58.10  0.002480203    2.119    0.528
       149  -9.6926      6.9018     32.5008   9.7282264838e+01   6.8995814686e+01    0.2856736    0.1885719  -8.78 0.0008513288    1.439    0.305
       150 -10.1018      7.3108     28.2636   9.5527674854e+01   6.9733370840e+01    0.3056906    0.2812005  65.85  0.001020306    1.774    0.436
       151  -8.2790    162.7842     72.7877   5.7529193170e+01   3.4508035431e+01    0.3395625    0.1902844 -42.67  0.001022205    1.772    0.436
       152  -7.4155    175.4798     72.5253   5.4989100544e+01   3.1503168280e+01    0.1489884    0.1384381 -72.88 0.0008090865    1.059    0.056
       153  -8.2526    169.4125     71.2263   5.5774454696e+01   3.3177838456e+01    0.2115575    0.1318267 -48.24 0.0004358073    1.640    0.390
       154  -9.2923    146.9833     69.2908   5.9872678288e+01   3.8896994722e+01    0.4044853    0.2652777 -62.63 0.0009032469    2.004    0.501
       155  -9.3180    127.4959     75.3011   6.6445847707e+01   4.2370162959e+01     0.395815    0.2879333 -71.83 0.0008617213    1.949    0.487
       156  -8.9186     98.5259     57.1360   6.8628265158e+01   5.1874926868e+01    0.6349048    0.5111279  61.95  0.003344826    1.493    0.330
       157  -9.8318     94.7598     68.2253   7.3614537850e+01   5.0642725648e+01    0.4677354    0.2714782 -46.12 0.0009109944    1.799    0.444
       158  -8.3534     94.8499     61.6287   7.1341024207e+01   5.1834461172e+01    0.2641653    0.2291406 -26.39 0.0006041841    1.129    0.114
       159 -10.2345     62.9593     60.8127   8.2204050638e+01   5.7588819998e+01    0.7121312    0.2802614  34.50  0.002481777    2.654    0.623
       160  -9.3095    138.1000     66.1549   6.0954281449e+01   4.1539422788e+01    0.3281815     0.288828 -80.79 0.0005765045    1.294    0.227
       161  -8.6095    139.0112     61.8223   5.9387084051e+01   4.2045360283e+01    0.4260269    0.2443786  26.72  0.001603777    2.691    0.628
       162  -9.1181    121.2085     66.1150   6.5182096979e+01   4.5442885562e+01    0.3345959    0.2499719 -57.82 0.0006384196    1.609    0.379
       163  -8.3627    122.2112     61.2200   6.3316236376e+01   4.6053910854e+01    0.3631225    0.2178977  30.14 0.0008235358    2.050    0.512
       164  -7.9237    118.4788     51.3179   6.0965193993e+01   4.8490344338e+01    0.3395369    0.1737074  57.65  0.001400118    2.068    0.516
       165  -9.4186    109.7573     63.8162   6.7590467652e+01   4.8363714945e+01    0.3774131    0.2897413 -53.36 0.0007504416    1.508    0.337
       166  -8.6323    111.1754     57.8874   6.5180767524e+01   4.9069131904e+01     0.406267    0.2551625  32.70  0.001504264    1.727    0.421
       167  -9.3310    117.9324     55.5195   6.2536736711e+01   4.7955316470e+01     0.474779    0.3166691  66.29  0.001614528    1.834    0.455
       168  -9.2408     75.2761     51.0904   7.4142437998e+01   5.7340695093e+01    0.6193982    0.3735474   4.11   0.00262492    2.532    0.605
       169  -8.0638    170.5318     64.9635   5.3798703317e+01   3.3936061033e+01    0.2140393    0.1423248 -36.85 0.0003274823    1.508    0.337
       170  -9.1379    153.5007     41.1568   4.9972022711e+01   4.1599644226e+01    0.3149177    0.2226204 -50.16 0.0008916114    1.515    0.340
       171  -9.6782    149.8669     46.6798   5.2351966000e+01   4.1730812896e+01    0.5303992    0.2147118 -30.27  0.001581145    2.682    0.627
       172  -9.2363    146.8264     57.7674   5.6391387416e+01   4.0822080725e+01    0.8039845    0.2258567 -32.35  0.002408125    3.944    0.746
       173  -8.3078    157.5461     62.9396   5.5725968374e+01   3.7408433778e+01    0.2765965    0.2194662 -76.52 0.0007832493    1.464    0.317
       174  -9.7260     44.3476     53.8199   8.7246868511e+01   6.1478558604e+01    0.3348489    0.2043451 -27.79 0.0001737182    1.585    0.369
       175  -9.3078     38.5056     58.3815   9.1247651285e+01   6.1261064150e+01    0.3168882    0.2314012  33.44  0.001706533    1.583    0.368
       176  -8.7079     53.6083     38.8272   7.7711174537e+01   6.2891507070e+01    0.2246098    0.1698169 -45.39  0.001307012    1.547    0.354
       177 -10.2304     50.0335     53.8778   8.4899769876e+01   6.0742872796e+01    0.6823019    0.3394331 -52.82   0.00240669    2.284    0.562
       178  -9.4862     55.9946     43.4862   7.8585202759e+01   6.1765444389e+01    0.7286261    0.3932071   2.65  0.002828171    3.379    0.704
       179  -8.4285     10.7445     61.3666   1.0405898272e+02   6.3005491204e+01    0.2907097    0.2047451  67.72  0.001644238    2.264    0.558
       180  -7.8613    164.5377     60.0741   5.3523891066e+01   3.6164303553e+01    0.2153378    0.1414081 -37.40  0.001008817    1.535    0.348
       181  -7.2310    152.5384     60.5005   5.6022669294e+01   3.9011174663e+01    0.1486619    0.1374626 -80.22 0.0001209054    1.120    0.107
       182  -8.4556     87.6169     58.5104   7.2590824576e+01   5.3793115943e+01    0.2593956    0.2106817 -48.39 0.0006785868    1.389    0.280
       183  -8.7416     89.1851     52.9597   7.0084571855e+01   5.4445041887e+01      0.45704    0.2778596  18.49   0.00198902    2.182    0.542
       184  -8.8052    138.8460     56.8875   5.7869558158e+01   4.2874534702e+01    0.2991857    0.2069503 -37.39 0.0006141122    1.485    0.327
       185  -8.7480    129.9505     57.8512   6.0264434314e+01   4.4822271140e+01    0.3948928    0.2187003 -31.16  0.001398371    1.920    0.479
       186  -8.9048    149.8119    249.5944   9.8174872285e+01   1.8974248928e+00    0.1875919   0.09714593  43.63  0.000957202    1.719    0.418
       187  -8.9953    133.0046     35.9993   5.2371801988e+01   4.7238813738e+01    0.2982968    0.2419682  46.44  0.001081108    1.157    0.136
       188  -8.7193     93.8951    246.8183   1.0908350993e+02   1.0682880324e+01    0.1720154    0.1506803  40.36 0.0003739041    1.168    0.144
       189  -7.4343    157.5035     55.4930   5.3527857865e+01   3.8581284048e+01    0.1442025    0.1380162  81.14 0.0008106045    1.014    0.014
       190  -8.7862    162.5891     53.7394   5.2047103501e+01   3.7603841278e+01     0.289001    0.2257832 -53.55 0.0008854074    1.327    0.246
       191  -8.1832    152.7175     52.8311   5.3668713445e+01   4.0146329473e+01    0.4159597    0.1650293 -36.64  0.001050605    2.513    0.602
       192  -8.9262    105.5839     51.9807   6.4714204096e+01   5.1239278633e+01     0.545629    0.2708581 -29.36  0.001792814    2.198    0.545
       193  -8.2968    139.3999     51.7912   5.6127593845e+01   4.3521759797e+01     0.298274     0.256503  56.41  0.001625203    1.116    0.104
       194  -8.6240    142.0451     48.4627   5.4500728065e+01   4.3373968618e+01    0.2871399    0.2076432 -33.78 0.0003740061    1.445    0.308
       195  -8.9041    205.6307    243.0423   8.6278714416e+01  -5.3866438461e+00    0.2244351    0.1667333  28.18 0.0004960644    1.210    0.174
       196  -9.7917    166.5823    245.6741   9.4282864593e+01  -2.0114572306e-02      0.31844      0.18669 -34.74  0.001648325    2.010    0.502
       197 -10.2274     85.1192     48.0459   6.9608341792e+01   5.6035476603e+01    0.4339059    0.3032794 -52.00 0.0009937667    1.834    0.455
       198 -10.3397     90.6989     37.9570   6.3973234882e+01   5.6453745377e+01     1.027628    0.3513142  35.70  0.003259903    4.026    0.752
       199  -8.1165    157.9466     49.7487   5.1733400792e+01   3.9321717412e+01    0.4278713    0.2259662 -63.51  0.001180997    3.084    0.676
       200  -9.0317    121.1361     47.0125   5.8818716635e+01   4.8527220622e+01    0.2985498    0.2236334 -50.25 0.0004124004    1.532    0.347
       201  -8.6046    111.9635     46.9279   6.1158551083e+01   5.0618267397e+01    0.2240676    0.2025649 -29.72 0.0004813942    1.161    0.139
       202  -7.3707    162.4928     46.4887   4.9942702271e+01   3.8671772430e+01     0.143239    0.1311804 -85.49 -9.840239e-05    1.075    0.070
       203  -6.9047     96.3210     45.3332   6.5040628059e+01   5.4223363744e+01    0.1477992    0.1025385  13.73 0.0003365386    1.701    0.412
       204  -9.2450    161.5091    243.4936   9.4985516387e+01   1.0993893192e+00     0.238052   0.09701771  44.86   0.00103036    2.419    0.587
       205  -7.2607     15.6931    240.3248   1.2353396039e+02   2.1559338193e+01    0.1201606   0.05972115  64.14 0.0001905851    1.648    0.393
       206  -9.0238     70.8135     26.4634   6.5891594278e+01   6.1847971690e+01    0.3288512    0.2520934  15.97  0.001533525    1.191    0.160
       207  -8.0036    244.2888    237.0906   7.8269253240e+01  -9.7834996377e+00    0.1634516    0.1235871  -6.07 0.0004452129    1.071    0.066
       208  -9.4210    188.2711    234.0580   8.8201362829e+01  -1.5025028047e+00    0.2614083     0.223198 -49.89  0.001659362    1.536    0.349
       209  -9.0149    204.4798    225.4298   8.3598015880e+01  -2.6233195749e+00    0.2605967    0.2343262  81.50 0.0006775073    1.844    0.458
       210  -9.7191     79.5249     23.9521   6.1874410322e+01   6.0513896320e+01    0.5161234    0.2591678  27.26   0.00165781    2.379    0.580
       211  -8.9278     84.5452     21.5219   5.9284671575e+01   5.9799237693e+01    0.2452513    0.2121125  22.40 0.0006557025    1.014    0.014
       212  -9.8697     37.8029     41.9909   8.5790196476e+01   6.4449967434e+01    0.3441539    0.2990729  73.10  0.001310628    1.961    0.490
       213 -10.4599     35.8996     37.9922   8.5106145813e+01   6.5374061591e+01    0.6702787    0.3478241 -17.18 0.0003678106    2.483    0.597
       214  -8.5749    113.8127     40.9493   5.8557231788e+01   5.1059765860e+01    0.4806022    0.2593239  -9.35  0.001838965    3.024    0.669
       215  -9.1981    110.3267     33.0653   5.6609187569e+01   5.2887943415e+01    0.6415623    0.2160893 -34.31  0.002406979    3.026    0.670
       216  -8.9160    105.0052     40.9040   6.0891505129e+01   5.3022304125e+01    0.3530985     0.239602 -54.06 0.0008514781    1.959    0.490
       217  -8.5407    106.3426     36.1867   5.8794269887e+01   5.3372636724e+01    0.2962277    0.2193764  31.95 0.0009629238    1.315    0.240
       218  -9.1214    139.6656     40.4066   5.2424211241e+01   4.5064870429e+01    0.3085981    0.2228667 -56.68 0.0005567207    1.611    0.379
       219  -8.3599    122.9943     40.6432   5.6183366127e+01   4.8993737561e+01    0.4590131    0.2086378  33.18  0.001603227    3.252    0.693
       220  -7.2300    190.2648     37.3021   4.3128614865e+01   3.3164040412e+01    0.1252709    0.1037523  31.48 0.0002688425    1.521    0.343
       221  -8.9793    144.2482     36.4712   5.0257860598e+01   4.4466159446e+01    0.2747719    0.2075444 -61.18 0.0005792323    1.518    0.341
       222  -8.4933    158.2530     35.6319   4.7469762806e+01   4.1150827104e+01    0.2167046    0.2017161 -12.97 0.0006082648    1.211    0.174
       223  -9.2612    100.9782     32.3625   5.8822908938e+01   5.5042426405e+01      0.45441    0.2418736 -25.38  0.001326782    2.033    0.508
       224  -9.1465    153.1321     34.5237   4.8020143123e+01   4.2543255286e+01    0.2616075    0.2179379  74.35  0.001477675    1.150    0.130
       225  -9.8494    153.4938     26.7548   4.5599062872e+01   4.3380276811e+01    0.5369954    0.2103379  59.16  0.002197282    2.206    0.547
       226  -8.5334    118.8630     34.6054   5.5064107839e+01   5.0745227341e+01    0.2458999    0.1901698 -35.21 0.0005844657    1.392    0.281
       227  -9.4983     60.0930     33.7387   7.2996083980e+01   6.2681527666e+01    0.4065672    0.3302923  43.82  0.001744465    1.465    0.317
       228  -8.6475     62.8645     26.8029   6.8961135811e+01   6.3207521875e+01    0.4564579    0.1955255  32.00  0.001581113    2.500    0.600
       229  -7.7920    110.3191    223.6953   1.0298949243e+02   1.2673124989e+01    0.1362025   0.09223363  63.58 0.0006340632    1.631    0.387
       230 -10.3128    224.4525    219.1456   7.8721352452e+01  -4.6233847826e+00    0.2252889    0.1888952  23.11 3.029258e-05    1.249    0.199
       231  -7.3677    163.6585     33.7315   4.6020382775e+01   4.0063572063e+01    0.1400094   0.09828427  39.68 0.0002518432    1.605    0.377
       232  -8.0273     45.4869     15.4722   7.0863511839e+01   6.7475311338e+01    0.2334618      0.14134  17.94 0.0009309821    1.615    0.381
       233  -8.6936    192.6560    219.6567   8.4934666911e+01   1.1747352641e-01    0.2357638    0.2019784  30.71 0.0008346429    1.193    0.162
       234  -8.9534    193.9405    215.0646   8.3878282621e+01   6.7109321203e-01    0.2121743     0.174328 -15.74 0.0003243112    1.174    0.148
       235  -8.5962     42.3662     27.8543   7.7940130198e+01   6.6204506867e+01    0.2043758    0.1304676  -1.88            0    1.652    0.395
       236  -7.8516    119.0000     28.0187   5.2706014419e+01   5.1514888299e+01      0.20888    0.0783529 -27.50 0.0007047001    2.899    0.655
       237  -8.6197    144.2405     26.0781   4.6972901528e+01   4.5713384518e+01    0.2399521    0.1736114 -50.85 0.0008162968    1.527    0.345
       238  -8.4213    194.5423    210.4201   8.2932141617e+01   1.3530152894e+00    0.2259271    0.1920063  -0.73 0.0004545805    1.065    0.061
       239  -8.5596    232.0294     22.5482   3.5153114788e+01   2.5510278764e+01    0.2005514    0.1662612 -41.63 0.0005478892    1.278    0.218
       240  -9.9889     10.1284    207.5535   1.2272647678e+02   2.8818519705e+01    0.5451705    0.2801763  19.76  0.002876494    2.859    0.650
       241  -8.7810    140.3521     22.2805   4.6455989999e+01   4.7074070427e+01    0.2772219    0.1529107 -32.31  0.001333757    1.939    0.484
       242  -8.0500    139.5613     17.9803   4.5213612555e+01   4.7713455933e+01    0.2228444    0.1939044 -39.81 0.0009801782    1.265    0.210
       243  -9.1379    118.9717     21.3347   5.0340425631e+01   5.2264907045e+01    0.2628413    0.2288344 -43.96 0.0006216886    1.303    0.233
       244  -7.6238    221.1983    207.1962   7.7161955352e+01  -2.3175120599e+00    0.1561305    0.1492756   0.90 0.0003237595    1.331    0.249
       245  -8.1815    111.3027     21.3601   5.2073273342e+01   5.4029987102e+01    0.2712871    0.1860206 -15.54  0.001455542    1.630    0.387
       246 -10.2933    161.7016    204.9312   8.8840811013e+01   7.8623839778e+00    0.2560117    0.2414253 -19.85 0.0004166806    1.110    0.099
       247  -8.6417    113.9287    202.0563   9.9149237214e+01   1.6583284420e+01    0.1989584     0.187649  43.73 0.0002825323    1.053    0.050
       248  -9.1721    192.5237    195.5387   8.0589706786e+01   4.2860543641e+00    0.8448355     0.421524 -61.04  0.002498972    5.837    0.829
       249  -8.9884     46.0941    192.2760   1.1373373990e+02   2.8501333696e+01    0.2102157    0.1791101 -69.47 0.0003425502    1.215    0.177
       250  -8.8560    183.8866    190.0817   8.1336808620e+01   6.7937220728e+00     0.216957    0.1871459  25.57 0.0002878904    1.107    0.097
       251  -7.7440    169.4527    187.4425   8.3934290889e+01   9.8939567927e+00    0.2291573    0.1389341 -56.91 0.0005935762    2.078    0.519
       252  -7.3492    237.3126    182.6980   6.9530963744e+01  -8.8373912830e-01    0.1166644    0.1045931 -61.54 0.0004292473    1.611    0.379
       253  -7.1746     92.7636    180.0021   1.0084271619e+02   2.4992795214e+01    0.1736274    0.1168569 -62.22 0.0002105584    1.481    0.325
       254  -7.2137    151.4730     20.4611   4.4015515074e+01   4.4564896361e+01    0.1341707    0.1202603  75.79 0.0001688673    1.027    0.026
       255  -8.3824    244.0074     17.0142   3.3042639984e+01   2.3658082543e+01    0.1554185    0.1382195  45.95            0    1.577    0.366
       256  -8.2154    155.0245     17.0599   4.2445438136e+01   4.4052527817e+01    0.2177315    0.1463967 -66.92  0.001127964    1.701    0.412
       257  -7.1038    111.4754    178.5713   9.5935043726e+01   2.2252538700e+01    0.1425309    0.1397492  41.65 9.810756e-05    1.059    0.056
       258  -8.9879     47.8572    176.8911   1.1162891003e+02   3.1932870507e+01    0.2054488    0.1815451  83.04 0.0003048275    1.036    0.035
       259  -8.9013    132.6248     16.8227   4.6068930252e+01   4.9497859994e+01     0.280051    0.1853829 -44.88 0.0008556367    1.708    0.415
       260  -7.3548    100.9536    176.0227   9.8135639344e+01   2.4615927400e+01     0.163896    0.1537786  61.26            0    1.032    0.031
       261  -7.6245    230.3897    167.2221   6.7619247469e+01   2.8113529727e+00    0.1894738    0.1162225 -44.59 0.0004168052    1.654    0.395
       262  -7.3800    203.6313    167.1610   7.2626302650e+01   7.5325999040e+00     0.197031    0.1243793 -28.52            0    1.596    0.373
       263  -7.2000    142.6969    160.2545   8.4646814139e+01   2.0723882817e+01    0.1468304    0.1196854  73.44 0.0002488631    1.507    0.336
       264  -8.7382    133.7672    146.7452   8.3938767989e+01   2.5563900322e+01    0.7861841    0.2065485 -53.59  0.001947222    4.905    0.796
       265  -8.6176    234.5755    146.8102   6.2585688449e+01   5.6157086754e+00    0.1967118    0.1161434 -45.36 0.0008892777    1.643    0.391
       266  -9.6352     66.7339    143.4556   1.0172266715e+02   3.7840907883e+01    0.5062429    0.3889974  78.39  0.002282755    1.449    0.310
       267  -9.3868    189.2027    136.5725   6.8713738646e+01   1.6294623037e+01    0.2861457    0.2403249 -29.94 0.0002909187    1.146    0.128
       268  -8.5437    132.2773    135.9840   8.1845019155e+01   2.8352994088e+01    0.2694589    0.2268221  33.05 0.0004281308    1.230    0.187
       269 -10.0064    133.9422    131.0368   8.0224450062e+01   2.9151733047e+01    0.9701557    0.7316846 -74.00  0.004328853    1.691    0.409
       270  -9.8648    138.6721     92.7006   6.8788398982e+01   3.6465313834e+01    0.8719277    0.3802123 -46.01  0.002868004    2.343    0.573
       271  -9.6939    110.6694     90.1532   7.5664467211e+01   4.3069785419e+01    0.8817137    0.3702744  37.75   0.00308142    2.623    0.619
       272 -10.1721    140.5974    118.3714   7.5326080715e+01   3.0598801393e+01    0.5045427    0.3773117 -64.43  0.001233173    1.573    0.364
       273 -10.1709    117.2414    125.4946   8.3355046744e+01   3.3806907874e+01    0.9230142    0.5710124 -81.87  0.002315785    3.350    0.702
       274 -10.5784    131.5648    119.6739   7.8004804258e+01   3.2232858549e+01    0.9501669    0.6173584  68.61  0.002261642    2.323    0.570
       275 -11.1319    133.5525    109.4799   7.4793490682e+01   3.4073603224e+01     1.676476    0.5822768 -49.93  0.005071962    3.193    0.687
       276 -11.2880    121.2615    108.6841   7.7896448609e+01   3.6855320386e+01     1.767892    0.6679662 -44.59  0.005051884    2.588    0.614
       277 -10.7739    108.9882    111.4900   8.2138347215e+01   3.8686355176e+01     1.400496    0.5805116 -48.10  0.003306838    2.334    0.572
       278 -10.4464    108.4539     99.4744   7.9017445489e+01   4.1506691518e+01     1.058759    0.6076443  66.46  0.003305654    3.430    0.708
       279  -7.4481     95.5966    135.7697   9.1871513109e+01   3.5316855080e+01    0.2169532    0.1426492 -68.08 0.0004532912    1.703    0.413
