#   1 NUMBER                 Running object number                                     
#   2 MAG_AUTO               Kron-like elliptical aperture magnitude                    [mag]
#   3 X_IMAGE                Object position along x                                    [pixel]
#   4 Y_IMAGE                Object position along y                                    [pixel]
#   5 X_WORLD                Barycenter position along world x axis                     [deg]
#   6 Y_WORLD                Barycenter position along world y axis                     [deg]
#   7 A_WORLD                Profile RMS along major axis (world units)                 [deg]
#   8 B_WORLD                Profile RMS along minor axis (world units)                 [deg]
#   9 THETA_WORLD            Position angle (CCW/world-x)                               [deg]
#  10 FWHM_WORLD             FWHM assuming a gaussian core                              [deg]
#  11 ELONGATION             A_IMAGE/B_IMAGE                                           
#  12 ELLIPTICITY            1 - B_IMAGE/A_IMAGE                                       
         1 -13.1882     26.7441     37.7995   7.2727063307e+01   6.7327863929e+01    0.5865321    0.4723853  -7.84  0.001388166    1.065    0.061
         2 -11.5304      2.0602     25.7116   8.3247938575e+01   7.1907228086e+01    0.6278699    0.2067293 -50.03  0.002855893    2.709    0.631
         3 -11.6326      3.3854     16.4707   7.8367792494e+01   7.3369228053e+01    0.4102841    0.3385336  57.36   0.00212068    2.239    0.553
         4 -11.1648     19.3905      3.8804   6.0953021315e+01   7.3276755792e+01    0.5300356    0.3001266  28.31  0.003144833    1.430    0.301
         5 -10.5054     18.5398     16.1378   6.7954546966e+01   7.1787413999e+01    0.3767397    0.2296407   4.72  0.002139433    1.614    0.380
         6 -11.0574      9.3569      8.4337   7.0109370823e+01   7.3982446008e+01    0.3386148    0.2176483  29.84  0.001396617    1.516    0.341
         7 -11.0656     10.9245      3.3441   6.6217589505e+01   7.4477612872e+01    0.2450442    0.1877031  32.11  0.001236885    1.495    0.331
         8 -11.4887     10.8633     14.7961   7.2318741001e+01   7.2892829273e+01    0.3873642    0.2017002  -3.49  0.001194095    2.294    0.564
         9 -10.0709     15.2601     13.3435   6.8655825710e+01   7.2594697096e+01    0.1845676    0.1238712 -13.65 0.0003152564    1.382    0.276
        10 -10.8174    186.1833     22.7033   2.5428642378e+01   3.6221967686e+01    0.3464356    0.1250894 -36.56  0.001277642    2.641    0.621
        11 -12.4699    132.5552     19.0112   3.1058180342e+01   4.8408585910e+01    0.4091027    0.2185604  61.84 0.0004823696    1.575    0.365
        12 -10.8693    120.5044     17.3645   3.2550418884e+01   5.1344423295e+01    0.4512962    0.2736908 -20.96  0.002429363    2.107    0.525
        13 -10.1483     74.0395      1.9063   3.7060948150e+01   6.3198409606e+01    0.3276411    0.2167128 -65.07  0.001788063    2.329    0.571
        14 -10.4878     76.1236     15.8329   4.2122888171e+01   6.1512978367e+01    0.3699052    0.1911105  44.86  0.001187257    1.622    0.384
        15 -10.0703     70.6954     13.5785   4.2855323427e+01   6.2894378954e+01    0.3940294    0.2084204 -29.94  0.002060589    2.211    0.548
        16 -11.6089     76.8625     10.2603   3.9679928436e+01   6.1882523482e+01    0.5677704    0.3335712  60.50   0.00257198    1.484    0.326
        17 -11.2703     28.8088     19.7016   6.3601346853e+01   6.9880105752e+01    0.3131731    0.2048139  -4.43 0.0003906249    1.595    0.373
        18 -12.2299     31.0073     12.9110   5.9045281081e+01   7.0436695634e+01    0.2768998    0.2643107 -39.24 0.0003856996    1.585    0.369
        19 -11.1080    193.5251     17.4210   2.3632219505e+01   3.5286746194e+01    0.3611851    0.2585797  52.46  0.001022998    1.744    0.427
        20 -11.2851     51.1064     15.1381   5.0604992649e+01   6.6674864989e+01    0.4063306    0.3277879  36.74  0.002637386    1.083    0.077
        21 -12.8254    237.9428     17.4089   2.0442022085e+01   2.6994037988e+01    0.2996379    0.1805474 -72.85  0.000607554    1.378    0.274
        22 -11.8635    233.0289      6.2458   1.8783330496e+01   2.9001167412e+01     0.400134     0.149488 -88.66  0.001883172    2.910    0.656
        23 -11.5675     60.3235     13.9909   4.6519960184e+01   6.4996565297e+01    0.4100302    0.2845906  43.55   0.00154241    1.168    0.144
        24  -9.5056     60.0000      9.0636   4.4447033832e+01   6.5548665473e+01    0.2071484    0.1288245 -12.62  0.000586021    1.947    0.486
        25 -11.7104    165.5222     14.5933   2.5663784676e+01   4.1452215028e+01    0.5221641    0.2378828 -37.06  0.002764417    2.222    0.550
        26 -10.2972    155.5806     13.2491   2.6433045959e+01   4.3767176376e+01    0.2384132    0.1751529  18.42  0.001424661    2.139    0.532
        27 -10.2399    154.5281      9.0117   2.5489849100e+01   4.4399939477e+01    0.2563822    0.1437243 -57.70 0.0009898422    1.821    0.451
        28 -12.0156    235.1673     10.1141   1.9336502791e+01   2.8237184262e+01    0.2749698    0.2011925 -36.91  0.001213238    1.571    0.364
        29 -11.2813    129.4552     11.0184   2.9230401331e+01   4.9880250491e+01    0.4266768    0.2618038 -86.92  0.002337799    1.732    0.423
        30 -10.2308    176.5008     11.2434   2.3801001005e+01   3.9429086417e+01    0.3081019    0.1440469 -66.53  0.001559475    2.305    0.566
        31 -10.0261    138.5388     11.4866   2.8086641650e+01   4.7763587564e+01    0.2396767    0.1519966 -49.33  0.001406262    1.676    0.403
        32  -9.9936      5.1936     11.8620   7.4852860988e+01   7.3923304805e+01    0.1733947     0.141586  -3.49  0.001224086    1.162    0.139
        33  -9.6462    206.3386     10.9324   2.1316829365e+01   3.3428421022e+01    0.1428787    0.1133379 -65.79 0.0003117426    1.099    0.090
        34 -11.4810    145.8246      7.5377   2.6108820585e+01   4.6474822794e+01    0.3930962    0.2740375 -23.24  0.002462497    1.819    0.450
        35 -11.0997    148.6319      2.0152   2.4362544707e+01   4.6325468620e+01    0.2117765    0.1630864  81.63 0.0002096149    1.054    0.051
        36 -10.0496    118.7405      8.8557   3.0240025637e+01   5.2532294027e+01     0.274841      0.21595 -60.16  0.001019764    1.404    0.288
        37 -11.3536    213.5062      6.7081   2.0021338197e+01   3.2488418880e+01    0.3616397    0.2770013 -82.84  0.002225092    1.101    0.092
        38 -10.9019    210.3863      2.2816   1.9380781068e+01   3.3506328541e+01    0.2688529    0.1548676 -82.68   0.00168381    1.469    0.319
        39  -9.0781    160.2746      8.6901   2.4793982087e+01   4.3164008256e+01    0.1194739   0.07465877 -68.69 0.0002047068    1.553    0.356
        40  -9.5501     64.9984      8.3279   4.2439925558e+01   6.4586989638e+01      0.17735    0.1333749  47.00 0.0007901077    1.071    0.066
        41 -10.5771     36.5221      7.1535   5.3266823734e+01   7.0186288180e+01    0.3312477     0.212143  51.39   0.00192042    1.716    0.417
        42 -11.5390     27.5859      2.9992   5.5678769059e+01   7.2125369363e+01    0.2689114    0.2204286  52.33  0.001167653    1.677    0.404
        43 -11.2145     34.2458      2.0069   5.1679403116e+01   7.1110157129e+01    0.4127925    0.1776239  45.78  0.002089278    1.935    0.483
        44 -10.0208     91.9146      6.7221   3.4592367388e+01   5.8846160370e+01    0.2057196    0.1427282  40.82 0.0004609699    1.383    0.277
        45 -10.8690    222.9700      5.5103   1.9221862328e+01   3.0862644068e+01    0.1814248    0.1248523 -51.46 -0.0001162483    1.267    0.211
        46  -9.5977     68.6044      5.7204   4.0195031914e+01   6.4057125735e+01    0.1377424    0.1178284 -32.37 0.0002731927    1.451    0.311
        47  -9.8563    171.6993      4.6432   2.2742516393e+01   4.1070068597e+01    0.1978179     0.105012 -54.41 0.0008639733    1.780    0.438
        48 -10.2791    164.5201      4.6777   2.3410453001e+01   4.2606481570e+01    0.1901213    0.1507397 -53.20 0.0007209295    1.287    0.223
        49 -11.4313    106.5820     12.0050   3.3399224868e+01   5.5050031853e+01     0.474644     0.209517  41.80 0.0007441249    2.497    0.599
        50  -9.9828     59.5648      5.4665   4.2979489572e+01   6.5966172081e+01    0.2698268    0.1031117  55.72  0.001215357    2.202    0.546
        51 -11.5651    243.9611      2.8481   1.7643703505e+01   2.7473279515e+01    0.2403309    0.1388801 -72.74  0.001565865    1.362    0.266
        52  -9.5735    201.1916      3.8041   2.0271684382e+01   3.5127456392e+01    0.1313416    0.1147534  80.87 0.0002856716    1.309    0.236
        53 -10.9347    236.7681      2.0522   1.7865741195e+01   2.8769506868e+01    0.2219467   0.09968412 -60.77   0.00142614    1.752    0.429
        54  -9.9086    125.9898      2.7754   2.7334042273e+01   5.1376990941e+01    0.1856754     0.133584  54.60 0.0008789766    1.318    0.241
        55 -10.2973     90.9737      2.1407   3.3127142713e+01   5.9422739872e+01    0.1746318    0.1605177  45.64 0.0002688244    1.168    0.144
        56 -10.6271    168.0436      1.9336   2.2446287776e+01   4.2092760462e+01    0.1699323    0.1339928 -86.18 0.0003176843    1.008    0.008
        57  -8.8984    183.3351      1.3255   2.1050147019e+01   3.8937973003e+01    0.1056245   0.07717628  51.84 0.0007051381    1.717    0.417
        58  -9.1482    141.2720      1.6902   2.5097967089e+01   4.7998620063e+01    0.1181049   0.07670517 -70.20 0.0001967388    1.548    0.354
        59 -10.8506     17.9576    172.4560   1.0419387925e+02   3.5479717578e+01    0.3886243    0.1921151  55.59  0.001640374    2.265    0.559
        60 -11.0727    247.4729    249.9533   5.9992558842e+01  -8.0178615394e+00    0.2242906    0.1264658 -11.39  0.001481565    1.459    0.314
        61 -12.4125    226.0765    246.7075   6.3137046103e+01  -5.6667311272e+00     0.612565    0.3044455 -25.20  0.003560652    1.703    0.413
        62 -12.2657    232.8881    246.0348   6.1844918399e+01  -6.2040056072e+00    0.4495589    0.2408827 -29.76  0.002818377    1.487    0.328
        63 -12.6777      6.9482    245.4656   1.1186126628e+02   1.9001441310e+01    0.7154366    0.4961911  63.04  0.004174375    1.273    0.215
        64 -11.7897     14.4156    244.7399   1.1016845518e+02   1.8511668837e+01     0.401895    0.2389514 -84.46  0.001438428    1.739    0.425
        65 -11.9914     22.5239    248.6805   1.0856253708e+02   1.6952667192e+01    0.4353361    0.2718872  32.72  0.002145404    1.377    0.274
        66 -10.6342     17.3586    247.2763   1.0964335291e+02   1.7717212324e+01    0.2104267    0.1755354 -24.99 0.0007458391    1.545    0.353
        67 -10.0114    177.1402    168.8069   5.9064289935e+01   1.3845298400e+01    0.1966988    0.1515653 -15.47 0.0003904998    1.306    0.235
        68 -12.0071     34.1677    166.1911   9.8519229733e+01   3.5722575528e+01    0.5878654    0.2986052  26.66  0.002534507    1.939    0.484
        69 -11.0488     35.4875    161.2855   9.7488682897e+01   3.6901343671e+01    0.3948408    0.2685337 -13.18 0.0001566158    1.758    0.431
        70 -10.8174      5.3812    168.1071   1.0758824405e+02   3.7514538706e+01    0.2199404    0.1878358 -15.02 0.0008297872    1.322    0.244
        71 -11.5972     51.5895    162.1472   9.2403001797e+01   3.4957180139e+01    0.7870658    0.4923171 -77.03   0.00301725    1.780    0.438
        72  -8.8572     93.3130    166.7109   8.0125098048e+01   2.8078627891e+01    0.1543385    0.1187594  61.12 0.0003082127    1.586    0.369
        73  -9.8517     67.2734    165.2413   8.7877962259e+01   3.2194410499e+01    0.2521078    0.1017159  37.59 0.0008915592    2.389    0.581
        74  -9.1837    210.5678    166.4669   5.2179639367e+01   9.2362966034e+00    0.1313464    0.1076117 -26.40 0.0001357966    1.027    0.026
        75  -9.2237    221.3060    161.2683   4.9387787518e+01   8.6340082153e+00    0.1224146   0.08693644 -13.36 0.0002236238    1.534    0.348
        76  -9.2140    132.4949    161.4969   6.8085027246e+01   2.2874400375e+01    0.1509881    0.1444634  -5.62 -0.0001444061    1.044    0.042
        77 -11.6323     21.1765    156.8440   1.0159428582e+02   3.9351133048e+01    0.5462324    0.3560722 -11.26  0.002441893    1.833    0.455
        78 -10.0412    216.2482    154.5972   4.8959516468e+01   1.0513626172e+01     0.155978    0.1190901  18.94 0.0002873933    1.524    0.344
        79 -10.7155     11.0584    153.0498   1.0447860666e+02   4.1100662346e+01    0.3460905    0.2325673  19.87  0.001783492    1.588    0.370
        80 -10.1423    235.8915    153.1328   4.5628046710e+01   8.0099532647e+00    0.1868466    0.1424814 -47.62 0.0005872744    1.271    0.214
        81  -9.8137    176.8128    150.0626   5.5334933615e+01   1.7624185512e+01    0.2067199    0.1893873 -65.34 0.0006499427    1.273    0.215
        82 -10.3189     20.5532    147.1845   1.0068209008e+02   4.1980596188e+01    0.3539969    0.1988633  64.03 0.0009452719    2.221    0.550
        83  -9.8764    207.4684    146.5320   4.8868446214e+01   1.3268404183e+01    0.1320277     0.112111 -31.18 0.0001980597    1.025    0.025
        84 -10.1661    216.8620    145.1721   4.7051430196e+01   1.2068049756e+01    0.1752165    0.1381459 -16.61 0.0006394506    1.324    0.245
        85 -10.4676      7.7301    145.0284   1.0476983516e+02   4.3441295135e+01    0.3460962    0.1215001  22.35  0.001334302    2.834    0.647
        86  -9.9694    187.4788    144.0468   5.1971709712e+01   1.6980199036e+01    0.1969467    0.1802807  21.32 0.0004656596    1.177    0.150
        87 -10.2652     29.3290    144.0479   9.7262966074e+01   4.2092096552e+01    0.2040286    0.1767924 -67.45 0.0003716786    1.105    0.095
        88 -10.5492     76.4097    142.4738   8.0788653707e+01   3.6846158004e+01    0.2902734    0.2397238  57.19 0.0008297101    1.382    0.276
        89 -10.4143    240.0094    140.0739   4.2658630443e+01   9.5794986694e+00    0.1833827    0.1463119 -38.69 0.0004489287    1.019    0.019
        90  -9.7042     14.1571    140.1716   1.0204431850e+02   4.4319572604e+01    0.1951105    0.1569016  56.89 0.0003981247    1.350    0.259
        91  -9.7778    143.9950    137.2809   5.9933762392e+01   2.6201754644e+01    0.2024165    0.1943313   9.80 0.0004417338    1.044    0.042
        92 -10.3320      9.2155    136.2918   1.0332436622e+02   4.5670120655e+01     0.234072    0.1613576 -61.11 0.0003149548    1.288    0.224
        93 -10.5402      2.9048    135.0145   1.0539607632e+02   4.6364739172e+01    0.3749985     0.150765 -67.30   0.00155668    2.077    0.519
        94 -10.9746    241.3349    134.2874   4.1421995386e+01   1.0325837943e+01    0.2118852    0.1667958 -45.97 0.0004495234    1.115    0.103
        95  -9.2386     88.6623    135.3344   7.5260164797e+01   3.6723116814e+01    0.1621599    0.1232875  68.04 0.0007051817    1.746    0.427
        96  -9.9999     20.7745    134.5108   9.8984113978e+01   4.5352397797e+01    0.2642317    0.1848709 -71.73 0.0007474674    1.366    0.268
        97 -11.2292     54.2391    132.4617   8.6489543675e+01   4.2521678600e+01    0.5192863    0.2349869  23.91  0.001267744    2.264    0.558
        98 -12.6479     36.9245    131.1142   9.2566023287e+01   4.4833400833e+01    0.4624057    0.2748137 -48.39 0.0007488088    1.571    0.363
        99  -9.9275     79.8147    132.1619   7.7485224002e+01   3.8954724825e+01    0.2167571    0.1777267 -12.72 0.0003839421    1.308    0.235
       100 -11.0211     73.6636    128.8447   7.8860834721e+01   4.0751291173e+01    0.3638721    0.3464561  19.03  0.001764588    1.057    0.054
       101 -10.7909     66.7871    127.9964   8.1090292506e+01   4.1988957621e+01     0.271107    0.2227047  23.31 0.0008925643    1.212    0.175
       102  -9.7568    241.9966    127.0106   4.0003562810e+01   1.1391195195e+01    0.1873512    0.1274369  89.36  0.001023086    2.661    0.624
       103  -9.5290     56.7433    126.6696   8.4433893552e+01   4.3713151657e+01    0.2002362    0.1349525  32.83 0.0002449145    1.494    0.331
       104 -10.9822     15.1391    125.5674   9.9836387563e+01   4.8134826375e+01     0.429324     0.243626  14.95  0.001997924    1.881    0.468
       105 -11.3733     10.6955    121.9422   1.0102314899e+02   4.9375541566e+01    0.4015707    0.2946394 -84.98  0.001774444    1.414    0.293
       106 -10.7409    243.7827    122.1534   3.8888913791e+01   1.1900201794e+01    0.1795025    0.1314287 -49.29 0.0006168554    1.170    0.145
       107 -10.3962     19.8959    121.2127   9.7397520862e+01   4.8946315725e+01    0.3641174     0.171903 -61.47  0.001469022    1.847    0.458
       108  -9.6163    219.3414    124.3150   4.2607657723e+01   1.5257989390e+01     0.123626   0.09353371 -10.06 0.0007047824    1.706    0.414
       109 -10.0613     70.8430    121.1889   7.8139480548e+01   4.3112156063e+01    0.2218909    0.1765035 -12.70 0.0007303146    1.357    0.263
       110 -10.2634      1.3529    118.7287   1.0416759456e+02   5.0716529448e+01    0.2317418    0.1194001 -76.15 0.0004302076    1.821    0.451
       111 -10.2023     77.9150    118.0525   7.4905004287e+01   4.2771422899e+01    0.2184826    0.2123393  -2.70            0    1.045    0.043
       112 -11.7239     52.5831    115.8219   8.3703531327e+01   4.7040024584e+01    0.3734203    0.2810238 -74.98 0.0001220947    1.563    0.360
       113 -11.4897     54.8980    108.9621   8.1258467020e+01   4.8460458510e+01    0.4167639    0.3146238 -47.79  0.001053371    1.279    0.218
       114  -9.5604     44.8932    118.1794   8.7161186781e+01   4.7371555644e+01    0.1966673    0.1586884 -18.73  0.000253691    1.254    0.203
       115 -10.8183     30.1610    117.6814   9.2815274009e+01   4.9022499197e+01    0.3560831    0.2037863  -6.73 0.0007638258    2.113    0.527
       116 -10.4382     24.3368    118.0357   9.5163811977e+01   4.9433608419e+01    0.2695421    0.2080567  25.56 0.0006995958    1.368    0.269
       117 -10.5607     72.1115    115.9008   7.6448221030e+01   4.4228423470e+01    0.3706129    0.2756076 -66.88  0.001724111    1.560    0.359
       118  -9.9580    179.3204    116.3062   4.7564338746e+01   2.3680369377e+01    0.2372801    0.1852269 -60.30  0.001067509    1.355    0.262
       119 -10.6431    182.8238    114.0240   4.6415632398e+01   2.3437243381e+01    0.2604818    0.2404586  22.10  0.000771761    1.217    0.178
       120  -9.4721     86.3558    116.2023   7.1554138888e+01   4.1794646917e+01    0.2120162    0.1483658 -62.12 0.0006157848    1.645    0.392
       121 -12.3139     15.6256    114.1509   9.7984597344e+01   5.1099405088e+01    0.7703443    0.4923699  54.79  0.002367805    1.943    0.485
       122 -11.9916     17.8511    109.5608   9.6347249399e+01   5.2134273510e+01    0.6867617    0.3695437  49.60  0.002929825    2.400    0.583
       123 -10.4444     37.3412    114.8203   8.9445950506e+01   4.9066169891e+01    0.3690177    0.1600466  37.12  0.001412331    2.431    0.589
       124 -10.7051     94.0828    112.3294   6.8018923492e+01   4.1320628395e+01    0.3754227    0.3157419  26.38  0.001884959    1.169    0.144
       125  -9.1038    121.2980    111.6907   5.9689214742e+01   3.6182500905e+01    0.1495729    0.1225173  86.19 0.0004402175    1.596    0.373
       126 -10.4215     41.5748    108.4126   8.6432664954e+01   5.0246659438e+01    0.2455504    0.2270708  -9.30 0.0001684412    1.046    0.044
       127 -11.1593      2.5519    107.0929   1.0222042719e+02   5.3670409863e+01    0.4973034    0.2400099 -59.96  0.002293127    1.710    0.415
       128  -9.9417    201.6349    108.1381   4.1996724695e+01   2.1005709272e+01    0.1887042    0.1113831 -32.71  0.000922096    1.758    0.431
       129 -10.1532     84.9801    107.7282   6.9872438033e+01   4.4030306048e+01    0.3099498    0.2161171 -39.89  0.001107549    1.455    0.313
       130 -10.7922    249.5486    111.9512   3.6350583923e+01   1.2642099638e+01    0.1832886    0.1732876 -85.66 0.0005208093    1.281    0.219
       131 -10.4393     30.7850    106.6780   9.0488943200e+01   5.1803023195e+01    0.2588181    0.1886946  12.08 0.0009855836    1.403    0.287
       132 -11.2014     25.0984    106.1328   9.2744102624e+01   5.2449828730e+01    0.4830532    0.3218934 -23.91  0.001338373    1.536    0.349
       133 -10.2723    111.7064    105.9213   6.0909924269e+01   3.9349589761e+01     0.305772    0.1998444  39.45 -0.000275831    1.504    0.335
       134 -10.3313    119.3112    103.7358   5.8176466880e+01   3.8267105828e+01    0.4224634    0.2027017 -35.02  0.001528391    2.495    0.599
       135 -10.1779     51.5508    103.9713   8.1400242779e+01   5.0137349800e+01    0.2367892    0.1929515  16.36 0.0005326629    1.210    0.174
       136 -10.2352     34.0190     97.7669   8.7238001061e+01   5.3718743790e+01    0.3314115    0.1837479 -37.79  0.001426572    1.761    0.432
       137 -11.8635     62.0318     99.1264   7.6033166413e+01   4.9824820731e+01    0.4977163    0.3327083 -31.06  0.001121894    1.588    0.370
       138  -9.9031    107.7579     99.7373   6.0418349428e+01   4.1458564746e+01    0.2005752    0.1790608  84.21 0.0004929517    1.333    0.250
       139 -10.7026     37.3790    102.0642   8.6771858449e+01   5.2301206789e+01    0.4787986    0.2877436  53.72  0.001694185    2.317    0.568
       140 -10.9597     21.0990     98.3838   9.2952752221e+01   5.4734978038e+01    0.3917832    0.2561915 -59.68  0.001657575    1.423    0.297
       141 -10.3547    144.3303     98.8168   5.0616526364e+01   3.4015529992e+01    0.2965469    0.2305102 -77.02  0.001468422    1.611    0.379
       142 -10.0532      9.6634     99.1568   9.8041650297e+01   5.5320373413e+01    0.2020436    0.1802046  24.45 0.0005064604    1.255    0.203
       143 -10.2268     41.1847     96.8516   8.3967464523e+01   5.3159630627e+01    0.2091952    0.1999824  61.42 0.0005172591    1.240    0.194
       144 -10.5029     15.6372     96.7438   9.5020542278e+01   5.5548114157e+01    0.3461117    0.1312877  30.48   0.00135722    2.714    0.632
       145 -10.2060    101.7194     95.5996   6.1112410606e+01   4.3540453590e+01    0.3723984    0.1413556  43.14  0.001193045    2.558    0.609
       146 -12.0691    159.1286     89.0674   4.5050815480e+01   3.2665306279e+01     0.845538    0.5021473 -62.74  0.003700083    2.204    0.546
       147 -10.5879    227.4692     92.9673   3.5398088069e+01   1.8963962300e+01     0.197949    0.1749501  89.56 0.0005748028    1.236    0.191
       148 -10.4222     37.6915     91.6658   8.4214206979e+01   5.4808594878e+01    0.2504294    0.1879487  -5.82 0.0006502352    1.341    0.254
       149 -10.1113     38.6197     87.7152   8.2814760810e+01   5.5640266220e+01    0.4394731     0.140691 -52.84   0.00155538    2.766    0.638
       150  -9.9454      1.6217     92.7629   1.0051134878e+02   5.7332503804e+01    0.1830644    0.1212583 -79.97  0.000632789    1.601    0.376
       151 -10.8542     55.6578     90.6884   7.6328829237e+01   5.2729782466e+01      0.29815    0.1855803  31.31  0.001219124    1.568    0.362
       152  -9.8221     25.2432     90.9870   8.9578531128e+01   5.6217089755e+01    0.2019382    0.1882877  71.72 0.0008473605    1.309    0.236
       153 -10.5472     10.3503     90.9056   9.6287045261e+01   5.7338765068e+01    0.2342675    0.1787866 -13.33 0.0004073199    1.276    0.216
       154  -9.0801    184.5452     90.6052   4.0890303430e+01   2.7190411734e+01    0.1316723    0.1171325 -68.91 7.849019e-05    1.075    0.070
       155 -10.7846     83.7156     88.8918   6.5123884918e+01   4.8441994089e+01    0.3477451    0.2896893  61.93  0.001709943    1.449    0.310
       156 -10.4011     97.4933     88.9830   6.0560083438e+01   4.5752280582e+01    0.2417419    0.1984262  37.91 0.0005047536    1.166    0.142
       157 -10.2312     78.6346     87.3703   6.6486178462e+01   4.9699003249e+01    0.2884098    0.2478365 -64.58  0.001420165    1.398    0.285
       158  -9.4540     62.7487     82.5786   7.1130924916e+01   5.3450600753e+01    0.4533556    0.1826417  44.44  0.001392819    2.895    0.655
       159 -10.5708     65.5363     87.4621   7.1453400528e+01   5.1935797202e+01    0.3203567    0.2640949  39.73 0.0007905561    1.266    0.210
       160 -11.2163     67.2969     84.3125   6.9844848520e+01   5.2330495427e+01    0.4207025     0.282058   1.36  0.001799124    1.903    0.475
       161  -9.6123     47.7667     88.2179   7.8964417853e+01   5.4391478329e+01    0.1981251    0.1533902 -19.84 0.0003288179    1.278    0.218
       162  -9.4901    120.5285     87.0663   5.3328800840e+01   4.1327093211e+01    0.2106741    0.1457016 -41.30 0.0005439903    1.497    0.332
       163 -11.0140     22.5835     86.7993   8.9851386023e+01   5.7459187311e+01    0.2506943    0.2203132 -22.40 0.0002711705    1.027    0.026
       164 -10.1143      9.8067     86.2384   9.5651218229e+01   5.8513857027e+01    0.2989326    0.1756655  41.30  0.001014322    2.084    0.520
       165  -9.2615      4.8649     86.1180   9.7920527898e+01   5.8814989821e+01    0.1917798    0.1283856 -38.89  0.000368094    1.290    0.225
       166 -11.9548    166.4756     83.5507   4.2325307521e+01   3.2058103235e+01    0.6848025    0.3097022  55.35  0.002926658    2.257    0.557
       167 -10.8838    107.3981     84.7993   5.6334402115e+01   4.4548598261e+01    0.2628801    0.2311737  39.30 0.0002776299    1.085    0.079
       168 -11.4607     30.3245     81.8938   8.5085750142e+01   5.7900132377e+01    0.3721707    0.3002844 -46.22  0.001001892    1.189    0.159
       169  -9.3825    116.8109     83.6239   5.3354003070e+01   4.2772338232e+01    0.2046727    0.1349822  56.09 0.0007696725    1.585    0.369
       170 -11.5052     75.6278     82.1963   6.6045752918e+01   5.1327903012e+01    0.6326189    0.2805337  38.49  0.002450687    2.147    0.534
       171 -10.8383     42.9039     81.9873   7.9380647813e+01   5.6443857071e+01     0.595341    0.2493875  44.74  0.002089696    3.303    0.697
       172  -9.3053     16.2198     83.6003   9.2106561204e+01   5.8726132164e+01    0.1805112    0.1198768  -8.27  0.000391864    1.509    0.337
       173 -10.4600     21.4685     81.3769   8.9118872430e+01   5.8842930912e+01    0.3435629    0.1692117 -34.20  0.001494347    1.993    0.498
       174 -10.2465      7.3871     81.3627   9.5833771565e+01   5.9829852164e+01    0.3391605    0.2076398 -36.64  0.001759205    1.429    0.300
       175  -9.9099      2.7744     78.6248   9.7519257934e+01   6.0721839234e+01    0.3045974    0.1464273 -58.24  0.001440843    1.742    0.426
       176  -9.5150     58.0802     79.4714   7.2108030770e+01   5.4856730094e+01    0.2259913    0.1366939  29.29  0.001029363    1.586    0.369
       177  -9.7328     88.7691     78.0281   6.0140373469e+01   4.9669741831e+01     0.230534    0.2061856  78.19  0.001235611    1.373    0.272
       178 -12.8021      4.4635     66.4595   9.4118579359e+01   6.3463812205e+01     1.355797    0.7770133 -81.13  0.006421423    2.397    0.583
       179 -10.5015     11.8400     56.7693   8.7645470373e+01   6.5120562874e+01    0.2426767    0.2112864  69.71 0.0006737612    1.652    0.395
       180 -12.1978      5.5868     46.9921   8.8352273180e+01   6.7595269063e+01     1.067075        0.398 -49.72  0.004878098    2.202    0.546
       181 -12.0574     12.5389     47.6947   8.4484144239e+01   6.6938342601e+01    0.5920732    0.3740945 -63.83  0.002207036    1.984    0.496
       182 -14.4505     16.6669     67.4768   8.8015008390e+01   6.2419777181e+01     0.632853     0.516654 -55.23  0.001323494    1.289    0.224
       183 -11.6459     10.9983     61.9132   8.9522251913e+01   6.4072277847e+01    0.2592303    0.2173153 -32.27 0.0002893841    1.066    0.062
       184  -9.9092    184.2874     76.6042   3.7762743691e+01   2.9494402930e+01    0.2313988    0.1380826 -51.40 0.0006060254    1.600    0.375
       185 -10.9729     99.8838     76.5971   5.6148637484e+01   4.7675629201e+01    0.2582192    0.2133084 -47.83 0.0003484423    1.315    0.240
       186 -11.6387     44.6854     74.7995   7.6506470855e+01   5.7801493826e+01    0.3287044    0.2651733  58.35 0.0009451587    1.687    0.407
       187 -12.3529     51.1719     69.2573   7.1887386241e+01   5.8046029910e+01     0.609476    0.4609065  84.13  0.002102788    2.409    0.585
       188 -11.3799    167.7932     73.3742   3.9630905631e+01   3.3427717737e+01    0.2718239    0.2291294 -68.37 0.0003371368    1.157    0.136
       189  -9.9169    167.7437     69.4569   3.8688229642e+01   3.4046137163e+01    0.1899686    0.1264459  60.80 0.0003842947    1.488    0.328
       190  -9.7682    107.5164     74.0769   5.3139862462e+01   4.6516563936e+01    0.2122757    0.1448377 -40.86  0.000347136    1.554    0.357
       191 -10.5970     93.9181     72.4602   5.6733496554e+01   4.9676678436e+01    0.3643074    0.2078301 -41.72  0.001617816    1.867    0.464
       192  -9.3889     61.5178     73.4952   6.8842753771e+01   5.5554417641e+01    0.1459554    0.1313167   6.24 -3.950946e-05    1.002    0.002
       193  -9.0239    115.2753     71.6715   5.0299954611e+01   4.5251904963e+01    0.1407235    0.1126167 -81.27 0.0004264665    1.591    0.371
       194  -9.1986     70.2581     76.3134   6.6261037435e+01   5.3490277570e+01    0.1450122    0.1082968  -9.05 0.0002075086    1.531    0.347
       195 -10.2918    106.8900     69.6123   5.1965697523e+01   4.7436237389e+01    0.3911722     0.252292  77.73 0.0008629916    2.646    0.622
       196 -11.5747    122.7170     67.1952   4.7107022351e+01   4.4354247794e+01    0.2922428    0.2353044 -44.29 0.0002933372    1.317    0.240
       197 -10.5367    120.0340     60.9932   4.5929573459e+01   4.5945240620e+01    0.3861577    0.2499673  58.60  0.001353317    1.487    0.328
       198  -9.1149    136.2949     68.2845   4.4316882918e+01   4.1141449333e+01    0.1344059    0.1075732  23.97 0.0001908738    1.542    0.352
       199 -10.6385     43.3734     67.6632   7.4904961601e+01   5.9487383707e+01    0.2240416    0.1982872  35.23  0.000640522    1.280    0.219
       200 -11.8205      8.0647     31.8383   8.1631672931e+01   7.0333903978e+01    0.4615509    0.3721435  43.85  0.002311579    1.787    0.440
       201 -11.9406     30.1616     62.5041   7.9670100102e+01   6.2198837392e+01    0.6596556    0.5317855 -22.29  0.003854728    1.105    0.095
       202 -12.9003     38.1322     49.7417   7.1296886489e+01   6.3705387610e+01    0.8323555    0.6408796  10.06  0.003708641    1.152    0.132
       203 -11.1775     35.0328     42.0678   6.9956971768e+01   6.5501651179e+01    0.6037951    0.3104327   0.58  0.002268636    3.453    0.710
       204 -10.3429     18.2302     42.2224   7.9287061708e+01   6.7482553607e+01    0.3086584    0.1593111 -28.76  0.001026053    1.932    0.483
       205 -10.0828     18.3900     30.9969   7.4813046510e+01   6.9475114822e+01    0.5203812    0.2373026  23.25  0.002539937    1.985    0.496
       206 -10.4612     27.1649     51.0236   7.7437126326e+01   6.4847311782e+01    0.6320667    0.4027096 -65.48  0.003095411    2.367    0.578
       207 -11.7861     28.6219    245.6581   1.0699428904e+02   1.7011561888e+01    0.5117635    0.2713239  82.74  0.002606484    2.182    0.542
       208 -10.5652    140.0506     66.0532   4.2914753196e+01   4.0654935862e+01    0.2130229    0.1891346  70.37 0.0007095304    1.072    0.067
       209 -11.6228    156.0497     63.5350   3.9203404260e+01   3.7483628298e+01    0.2390808    0.2221042 -62.41 0.0003470332    1.082    0.076
       210  -9.4558    130.9899     64.9742   4.4551341896e+01   4.2857301968e+01    0.1623316    0.1557797 -57.57  0.000380491    1.095    0.086
       211  -9.5458     98.7333     64.9919   5.2894151080e+01   4.9982584009e+01    0.1719216    0.1267679 -37.29 0.0004489659    1.463    0.316
       212 -11.1986     86.2169     58.8757   5.4822994888e+01   5.3638947303e+01    0.6681172    0.2771788  32.05  0.002194862    3.521    0.716
       213 -10.7064     82.5969     64.2575   5.7843764684e+01   5.3449959060e+01    0.4879588    0.2692918  33.32  0.001229306    1.847    0.459
       214 -10.4713     76.9413     62.1268   5.9127702504e+01   5.4939083554e+01    0.2599807    0.2164634  17.53  0.000289939    1.168    0.144
       215 -11.7226    201.9894     62.5865   3.2307438020e+01   2.8049980767e+01    0.2114678    0.1804005 -62.24 0.0001810858    1.036    0.035
       216 -10.0998     51.7246     62.5662   6.9433062892e+01   5.9292269888e+01    0.2995502    0.1940057 -18.99  0.001425644    1.785    0.440
       217 -11.3790     46.3467     59.5509   7.0839702777e+01   6.0688012945e+01    0.5631633    0.2739843 -43.21 0.0001422566    2.077    0.519
       218  -9.6281    211.1784     62.5736   3.1245767317e+01   2.6300452245e+01    0.1568957    0.1054013  53.42 0.0009446162    1.756    0.431
       219 -10.0918     69.5670     58.5092   6.0631841834e+01   5.6979167716e+01    0.2040677     0.133247 -25.03 0.0006582369    1.757    0.431
       220  -9.6777    113.5191     60.9369   4.7531454535e+01   4.7412434479e+01     0.192971    0.1392501 -42.20 0.0004692485    1.496    0.332
       221 -10.8553     98.1692     60.0069   5.1464588846e+01   5.0931594468e+01    0.2650832    0.2251308  44.62  0.001483396    1.077    0.072
       222 -10.4597    100.0413     55.7649   4.9544988727e+01   5.1199623263e+01    0.3401295    0.1968983  33.80  0.001514498    1.942    0.485
       223 -12.3533    105.0573     52.4387   4.7082727188e+01   5.0599436927e+01    0.4045411    0.3174151  73.67 0.0001181613    1.438    0.304
       224 -10.6698    102.4957     47.4679   4.6151040183e+01   5.1891084428e+01    0.3829164    0.2128667  41.05  0.001402507    1.771    0.435
       225  -9.9166    169.0194     60.0017   3.6189678763e+01   3.5177287690e+01    0.1898255    0.1736217 -81.69  0.000324426    1.026    0.025
       226  -9.9013    138.1412     60.1444   4.1681968848e+01   4.1989952872e+01    0.2063733    0.1866591  87.67  0.000258676    1.084    0.078
       227 -11.1137    133.7424     58.0542   4.2001582606e+01   4.3295916195e+01    0.2597873    0.1969899  63.15   0.00039901    1.243    0.195
       228 -10.9888     58.0328     58.8547   6.5412430869e+01   5.8969548868e+01    0.4105581    0.2583922  27.82  0.001251856    1.498    0.332
       229  -9.9462    127.3272     58.9154   4.3629835037e+01   4.4619214596e+01     0.221356    0.1739523  66.62 0.0001942162    1.239    0.193
       230 -10.8758     80.7726     55.7992   5.5607396284e+01   5.5258318140e+01    0.4312041    0.2755573   1.39    0.0018426    2.491    0.599
       231 -10.1343    115.6048     56.4787   4.5646052160e+01   4.7634068682e+01    0.2841544    0.1280902  54.20 0.0009517608    2.041    0.510
       232  -9.5068     74.8507     56.1719   5.7836010386e+01   5.6372090568e+01    0.1924905    0.1504451  18.02 0.0005104749    1.293    0.227
       233 -10.5251    182.1102     54.8200   3.3098985090e+01   3.3130881863e+01    0.1907295    0.1626361 -54.26 0.0002885912    1.133    0.118
       234  -9.3658    230.3336     54.7111   2.7777454869e+01   2.3892718010e+01    0.1175504   0.06950773 -66.79 0.0006087549    1.629    0.386
       235 -12.1443    129.4860     49.3955   4.0404238400e+01   4.5505203136e+01    0.6214973    0.4928286  73.56  0.002506669    1.229    0.186
       236 -10.3311    154.0878     52.6396   3.6734737880e+01   3.9489758604e+01    0.2093631    0.1923371 -30.05 0.0003894073    1.261    0.207
       237  -9.8045     62.0342     53.1696   6.1713352475e+01   5.9281437625e+01    0.2277322    0.1713968 -49.68 0.0009206504    1.622    0.384
       238 -10.3015     57.6314     51.0769   6.2779644765e+01   6.0415382178e+01    0.4521239    0.2630381  -7.10  0.001820876    2.871    0.652
       239 -11.7204     52.0258     47.1639   6.3749026307e+01   6.2032506361e+01    0.7198563    0.3966285 -35.19  0.003050974    1.931    0.482
       240 -10.3229     54.2296     37.0171   5.8780608880e+01   6.3260220250e+01    0.3438407    0.2467895 -63.39   0.00131736    2.471    0.595
       241 -12.1428     57.6054     33.9737   5.6113320252e+01   6.3087008893e+01    0.3004145    0.2682135 -10.78 0.0005125609    1.200    0.167
       242 -10.2001     76.0685     50.4534   5.5369294319e+01   5.7064604727e+01    0.5513836    0.1465486  42.72  0.001776139    3.421    0.708
       243 -10.3323     88.8469     50.1682   5.1009894915e+01   5.4470987943e+01    0.2068574    0.1805577  57.57 0.0004513796    1.181    0.153
       244 -10.2986     69.0539     48.0061   5.7051735658e+01   5.8826632647e+01    0.2056278     0.175372  24.12 0.0003337601    1.038    0.037
       245 -10.6637    120.0755     45.6805   4.1306397333e+01   4.8163117326e+01    0.4559692    0.2850109  27.35  0.001806872    2.287    0.563
       246  -9.6188     78.4103     47.2324   5.3390789835e+01   5.7090351453e+01    0.2284191    0.1357755 -30.19 0.0002329723    1.911    0.477
       247 -10.1479    151.4018     45.5323   3.5324021241e+01   4.1047627282e+01    0.2565177     0.170399 -65.70  0.001221396    1.673    0.402
       248 -10.6900    147.9544     39.1743   3.4197706704e+01   4.2634137291e+01    0.3202865    0.1938599 -51.88 0.0004901592    1.740    0.425
       249  -9.6842    143.1954     45.7590   3.6770443970e+01   4.2871122826e+01     0.170503    0.1475835  38.62 0.0005972076    1.319    0.242
       250 -11.3812     95.3365     43.4689   4.6777378053e+01   5.4035373737e+01     0.526036    0.3407951   9.96  0.001499484    2.394    0.582
       251 -11.1779     44.8338     43.6941   6.5721721949e+01   6.3778508751e+01    0.3692995    0.2945666 -68.96  0.001543931    2.076    0.518
       252 -11.7111     44.7546     38.0769   6.3511230734e+01   6.4705924279e+01     0.286472    0.2332746  48.69  0.001690866    1.530    0.346
       253  -9.5443    171.3510     44.7853   3.2188155445e+01   3.6747514242e+01     0.153185     0.118034 -26.89 0.0009131533    1.577    0.366
       254 -10.6775    112.4547     44.3277   4.2629510142e+01   5.0082637889e+01    0.3661875    0.3262466 -78.65  0.002210578    1.239    0.193
       255 -10.9866     72.4065     42.8609   5.3894369535e+01   5.8954752321e+01     0.311917    0.2544674  50.41            0    1.245    0.197
       256  -9.8701     61.9628     48.0612   5.9855592892e+01   6.0147105451e+01    0.2568101    0.1972213  10.92  0.001123111    1.315    0.239
       257  -9.8063     59.3161     41.3343   5.8359597475e+01   6.1691335746e+01    0.1412567   0.09613686   9.97 0.0007047417    1.691    0.409
       258  -9.4977     62.4713     40.4556   5.6737337702e+01   6.1238507999e+01    0.2664403    0.1216354  46.15  0.001157074    2.040    0.510
       259 -11.4736     67.5946     38.8025   5.4114174096e+01   6.0495588494e+01    0.7355256    0.3529331 -29.64  0.003267227    2.464    0.594
       260 -11.0236     79.6315     28.2883   4.5930937607e+01   5.9397566836e+01    0.3384368    0.2369116 -16.72  0.001261121    1.706    0.414
       261 -12.1830     75.2377     35.2829   5.0031608004e+01   5.9440809963e+01    0.4372465    0.3021743  19.34 0.0009801935    1.644    0.392
       262 -10.2650     71.7769     29.0236   4.8772990956e+01   6.0958157011e+01    0.3297857    0.2255211 -62.78 0.0009174991    2.471    0.595
       263  -9.1690    163.0221     42.0412   3.2669733665e+01   3.8911841111e+01    0.1482229    0.1308593 -85.29            0    1.018    0.018
       264 -10.0311    130.3290     41.1240   3.7833196482e+01   4.6410625224e+01    0.2040805    0.1695428  15.20  0.001188195    1.544    0.352
       265 -10.1294     89.4059     41.3642   4.7765902702e+01   5.5619239398e+01    0.2551971    0.1534686  53.78 0.0006495281    1.516    0.341
       266 -11.2216     80.9400     37.2289   4.8885310124e+01   5.7989972870e+01    0.4170896     0.284117 -54.23  0.001538849    2.014    0.504
       267 -10.7929     82.5899     34.3038   4.7280485281e+01   5.8021657264e+01    0.3474495    0.1984362  59.40  0.001090568    1.791    0.442
       268 -10.6704    225.2958     38.1518   2.5094691879e+01   2.6862240343e+01     0.217009    0.1132833 -54.50  0.001061376    1.594    0.372
       269  -9.6236    159.6868     38.3729   3.2225884395e+01   4.0104977609e+01    0.1734422    0.1044412  58.77  0.000407209    1.567    0.362
       270 -10.5963    101.2304     36.6339   4.2871638574e+01   5.3624761401e+01    0.3078421    0.2183492  21.12  0.001558601    1.765    0.433
       271 -10.8452    111.6873     35.1721   3.9892363932e+01   5.1430851787e+01    0.4094814    0.2808041  89.17  0.001806116    1.862    0.463
       272  -9.8998    248.0728     36.5024   2.3094295054e+01   2.3148011214e+01     0.135675    0.0912912  84.42 0.0003652789    1.491    0.329
       273 -10.3305    193.7063     35.2364   2.7395864630e+01   3.3253224962e+01    0.3350487    0.1498154 -50.50 0.0009490254    2.042    0.510
       274  -9.5865    172.1017     36.1156   3.0027488496e+01   3.7664415459e+01     0.209768    0.1243224  43.61  0.001082872    2.236    0.553
       275  -9.7952    128.8018     35.9280   3.6607223860e+01   4.7406542975e+01    0.1946366     0.160093  46.82 0.0004638414    1.239    0.193
       276 -12.2011    140.1081     33.7978   3.4009359358e+01   4.5067413799e+01    0.2443435    0.2098674 -89.56 0.0003436801    1.091    0.083
       277 -10.1826    135.1711     34.8745   3.5148592138e+01   4.6069869698e+01    0.2248706    0.1687532  70.84 0.0005266399    1.193    0.162
       278 -10.1096    202.2460     34.0385   2.6306190194e+01   3.1693039835e+01    0.1586534    0.1270331 -62.83 0.0003681454    1.081    0.075
       279 -10.2964    177.8749     33.6761   2.8767291913e+01   3.6720439157e+01    0.1996695    0.1641773 -29.75  0.001312509    1.474    0.322
       280 -11.9586    221.6751     31.8327   2.4191526196e+01   2.8266760516e+01    0.2067908    0.1533868 -60.40 0.0002393388    1.086    0.080
       281 -10.2302    122.0420     32.8832   3.6999668569e+01   4.9325499414e+01    0.3782091    0.1467615  57.35  0.001611357    2.164    0.538
       282  -9.3018     34.3232     33.6637   6.6899503561e+01   6.6998583517e+01    0.2121739    0.1864759  86.03  0.001262884    2.013    0.503
       283  -9.5308     30.7023     32.3443   6.8280308221e+01   6.7719825619e+01    0.2415788    0.2111848  61.94  0.001483801    1.839    0.456
       284 -11.0100    207.2718     31.3440   2.5299116232e+01   3.1030285431e+01    0.2284438    0.1693534  41.58 0.0009120291    2.026    0.506
       285  -9.3722    161.4110     32.5122   3.0523494174e+01   4.0424119876e+01    0.1222064    0.1076531  87.54 5.832704e-05    1.047    0.045
       286 -11.0306    101.5304     29.1242   4.0253877513e+01   5.4459405268e+01    0.3529721    0.2747543 -55.54  0.001869353    1.536    0.349
       287 -10.5227     49.5906     29.0624   5.7483584368e+01   6.5222109463e+01    0.3624855    0.2182515 -19.32  0.001432318    1.954    0.488
       288 -10.8380     12.8475     23.3336   7.4994775692e+01   7.1346176694e+01    0.7586806    0.2829844  11.72   0.00269156    4.184    0.761
       289 -11.9602     37.4011    243.1922   1.0478567773e+02   1.6673434307e+01    0.4802981    0.3385303  85.16  0.002099076    1.535    0.348
       290 -10.1581    109.8405    249.5297   8.8075009507e+01   7.0698584617e+00     0.218754    0.1931807 -42.20  0.001316289    1.299    0.230
       291 -13.0585     75.2565    239.3019   9.5284967572e+01   1.3344718866e+01    0.8556453    0.5719554 -42.76  0.004602632    1.711    0.416
       292 -10.8649     88.5268    241.0114   9.2208670768e+01   1.1388347849e+01    0.2757569    0.1160988 -53.24  0.001195495    2.547    0.607
       293  -9.7489    125.0201    245.7351   8.4020475275e+01   5.9092071394e+00    0.1713243   0.09997669  25.31 0.0003856853    1.465    0.318
       294 -10.0147    195.3712    238.4525   6.7601551653e+01  -1.2668233553e+00    0.2315114    0.1606447 -20.68  0.000962915    1.211    0.174
       295 -11.7227     18.5580    236.9770   1.0879529043e+02   1.9808466142e+01    0.5601798    0.2258048  41.77  0.002671951    2.028    0.507
       296 -10.3947     67.6371    236.0378   9.6837203690e+01   1.4937473619e+01    0.2759843    0.1861938  16.97  0.001466956    1.457    0.313
       297 -11.5133    198.0662     27.4197   2.5321280209e+01   3.3286193618e+01    0.3528439    0.2669329 -44.59  0.001701267    1.332    0.249
       298 -11.0984    162.8540     28.4967   2.9344120392e+01   4.0565828926e+01    0.2164682    0.1853788 -76.39  0.000292305    1.071    0.066
       299 -11.1387    238.0675     27.8834   2.2270424103e+01   2.5818796689e+01    0.1724327    0.1202732 -53.29 0.0002981107    1.166    0.142
       300  -9.6808    156.8475     28.1588   3.0036108994e+01   4.1933432621e+01    0.1585315    0.1292008  59.21 0.0002638567    1.257    0.204
       301 -11.3793    112.5035     27.0068   3.7098530396e+01   5.2189810784e+01    0.3313042    0.2734356  46.45  0.001037869    1.175    0.149
       302  -9.9652    246.6873     27.3292   2.1612282029e+01   2.4431696158e+01    0.1120033   0.05617756 -62.67 0.0002941327    1.671    0.402
       303 -10.9316    215.2165     25.4640   2.3480559304e+01   3.0189810579e+01    0.2910047    0.1955156  65.19  0.001990401    1.613    0.380
       304  -9.1690    179.7624     26.9867   2.7031201281e+01   3.7090141193e+01     0.136623   0.09403899 -40.80 0.0003027996    1.490    0.329
       305  -9.5421    147.2912     26.3202   3.0876685805e+01   4.4282500029e+01     0.207404    0.1096189  64.31 0.0008001595    1.643    0.391
       306  -9.8454    144.3182     26.7122   3.1414523991e+01   4.4913540844e+01    0.1932978    0.1392042  69.92 0.0003550552    1.209    0.173
       307  -9.5697    139.8915     27.4718   3.2294666488e+01   4.5838391325e+01    0.1946469    0.1115197  69.77  0.001013608    1.558    0.358
       308  -9.8427     71.9276     25.2754   4.7228326973e+01   6.1378634602e+01    0.3429786    0.1282663  45.95  0.001444545    2.211    0.548
       309 -10.3293    226.3058     23.2873   2.2250337971e+01   2.8397008378e+01     0.196966    0.1332222 -56.11 0.0003094505    1.185    0.156
       310  -9.6709    203.6606     23.7775   2.4082986608e+01   3.2589474139e+01    0.1571304   0.08418662 -47.48 0.0009067192    1.629    0.386
       311 -10.6972    189.7202     24.0299   2.5379007629e+01   3.5349715808e+01    0.2183189    0.1358615 -82.75 0.0004338417    1.510    0.338
       312 -11.6015     29.9689    233.9821   1.0590599824e+02   1.9406551578e+01     0.524821    0.2252068  61.76  0.002223027    2.741    0.635
       313  -9.6055    155.7411     21.6611   2.8533358453e+01   4.2884325980e+01    0.1893969     0.106958  68.32 0.0005158159    1.539    0.350
       314 -10.6786    158.9283     23.8388   2.8681640878e+01   4.1945012575e+01    0.2556544    0.1940769  49.21 0.0006638117    1.495    0.331
       315 -10.4855    161.5437     20.5138   2.7541696503e+01   4.1719915008e+01    0.2218352    0.2040868  23.22 0.0008292585    1.461    0.316
       316 -10.4531     22.4121     24.1042   6.9371063715e+01   7.0111996906e+01    0.2524054    0.1565917   3.99 0.0005900377    1.602    0.376
       317  -9.8540     24.1759     20.2281   6.6513462570e+01   7.0458448117e+01    0.1500702    0.1379308   5.17 0.0004071852    1.349    0.258
       318 -10.6810     93.9552     22.0470   3.9638815112e+01   5.6947303053e+01    0.2299562    0.1813766  63.08 0.0003220586    1.148    0.129
       319  -9.7305     54.3002     22.9703   5.2808351903e+01   6.5156739272e+01    0.1724667    0.1454397  20.90 0.0001614339    1.064    0.061
       320 -11.2688     58.7709     21.1181   5.0217318124e+01   6.4521161597e+01    0.4137715    0.2742486  51.09  0.000494645    1.423    0.297
       321 -10.4134     83.0668     21.8120   4.2442204861e+01   5.9387754630e+01    0.3072723    0.1717968  47.15 0.0009894905    1.496    0.331
       322  -9.8408     23.9103    232.1636   1.0723684427e+02   2.0381497845e+01    0.2286373    0.1670492  14.60 0.0007448056    1.473    0.321
       323 -10.3574    159.9684    235.5208   7.4565969955e+01   3.4145528468e+00    0.1961856    0.1143316  22.61 0.0004412508    1.535    0.349
       324  -9.8323     74.6150     21.1784   4.4718636072e+01   6.1277544408e+01    0.2099088    0.1814641 -49.33 0.0007365296    1.462    0.316
       325  -9.6367    166.6039    232.7374   7.2679598369e+01   3.0877519721e+00    0.1643543    0.1232797 -47.66 0.0009478971    1.583    0.368
       326 -10.6490     87.7489    233.4563   9.1531326073e+01   1.3071151299e+01    0.2700754    0.1110151  31.64   0.00106444    2.051    0.512
       327 -10.3224    184.1705    230.0150   6.8523874115e+01   1.4214698294e+00    0.2301151    0.1211897 -19.83  0.001090379    2.110    0.526
       328  -9.7547    151.7917    228.3684   7.5302289093e+01   5.7740798608e+00     0.178669    0.1597775  -2.38 0.0006036063    1.126    0.112
       329 -10.7882      3.9217    226.3243   1.1163385774e+02   2.3401821298e+01    0.2910088    0.1641836 -73.48  0.001597925    1.757    0.431
       330  -9.1083     35.5150     14.4594   5.7455905287e+01   6.9520089431e+01    0.2630702    0.1414904  24.31  0.001354285    1.824    0.452
       331  -9.5341     45.0391    244.4907   1.0307794110e+02   1.5615412513e+01    0.1887588    0.1106177  28.06 0.0004474571    1.498    0.332
       332  -9.6162    120.6797    226.3218   8.2386003328e+01   1.0302883991e+01    0.1371661    0.1034437  53.59 0.0004001613    1.671    0.402
       333  -9.1196    145.3705     20.2724   2.9535948597e+01   4.5357992955e+01     0.125911   0.08237083  47.34 0.0007000787    1.676    0.403
       334 -10.7453     42.2536     19.0726   5.6363912129e+01   6.7814457204e+01    0.4360209    0.2021575  36.48  0.002131182    1.833    0.454
       335  -9.3882     25.6330    225.7023   1.0638595682e+02   2.1677405600e+01    0.1276987   0.09400229 -28.48 0.0005079795    1.727    0.421
       336  -9.7239    113.1850    222.7882   8.3742648691e+01   1.2047388613e+01    0.2413595    0.1395083  58.73 0.0009620065    2.897    0.655
       337 -11.5216     15.1304    222.0340   1.0871884086e+02   2.3455247842e+01    0.3736817    0.1853599  27.16  0.001094311    1.863    0.463
       338 -10.2684    174.4168     16.5648   2.5208978651e+01   3.9339347549e+01    0.3132082   0.08348214  65.65  0.001310376    3.063    0.674
       339  -9.5606    159.4037     16.2568   2.6742321892e+01   4.2626342190e+01    0.1626098   0.09853267 -48.95 0.0005788514    1.644    0.392
       340 -10.6926     21.7046    220.0116   1.0696636763e+02   2.3346383049e+01    0.2105888    0.1963034 -88.88 0.0008219965    1.113    0.101
       341  -9.4654    142.3195    220.6778   7.6301001706e+01   8.5258089413e+00    0.1317086    0.1071943  54.90 0.0003888174    1.671    0.401
       342 -12.0175     88.9953    249.2926   9.3008589882e+01   9.6521483910e+00    0.5464377    0.2403319  30.96  0.001134059    1.866    0.464
       343  -9.8443    211.7782    218.8123   6.1275905645e+01   7.3759171505e-02    0.2210129    0.1273476 -34.30  0.001252702    1.478    0.323
       344  -9.4485    120.7867    219.4088   8.1345976208e+01   1.1731025652e+01    0.1946553    0.1243764  13.89  0.000600925    1.567    0.362
       345 -10.1655     99.7617     13.6823   3.5355999021e+01   5.6457162859e+01    0.1964909    0.1232355  50.95  0.001098981    1.358    0.264
       346  -9.3003     40.3696     14.2908   5.4978080667e+01   6.8719601562e+01    0.1338991   0.07955479  20.42 0.0007024613    1.716    0.417
       347  -9.8324     38.4568    217.2805   1.0249622924e+02   2.2386156864e+01    0.2400221    0.1103526  24.66 0.0007465923    2.049    0.512
       348 -11.9219     10.3911    216.5114   1.0954810529e+02   2.5129307354e+01    0.5117743    0.2836285  12.49  0.002575577    2.072    0.517
       349 -10.6974     66.4166     20.6831   4.7228953731e+01   6.3041265037e+01    0.4201846    0.2082522  62.81  0.001125688    2.609    0.617
       350 -11.7124     11.5890    209.2411   1.0880170083e+02   2.6748412529e+01    0.6003987    0.2492609  86.96  0.002477518    2.752    0.637
       351 -11.1385      1.7082    211.5556   1.1140810241e+02   2.6963618390e+01    0.4320877    0.1564202  86.02  0.001612995    3.130    0.681
       352 -12.1776      5.5969    208.9968   1.1030064685e+02   2.7276443525e+01    0.5598253    0.2946587 -67.68  0.002854439    1.838    0.456
       353 -11.0738      1.9161    206.2871   1.1107166642e+02   2.8195639897e+01    0.3098904    0.2129666 -62.84  0.001484602    1.482    0.325
       354  -9.6359    136.4723    216.0099   7.6961515419e+01   1.0273066560e+01     0.201262     0.103274 -28.56 0.0006839067    2.424    0.587
       355 -11.1474     29.1202    215.5235   1.0476112377e+02   2.3715384563e+01     0.274951    0.2321117  39.66  0.001107222    1.102    0.092
       356 -10.7138     24.0359    215.9592   1.0609368873e+02   2.4084109055e+01    0.1948923       0.1817  67.43 0.0004881301    1.045    0.043
       357 -10.2470    108.6347     17.4713   3.4797178819e+01   5.4067595060e+01    0.2048411     0.182233  32.03 0.0008119504    1.250    0.200
       358 -10.8074    169.3627    212.4145   6.8765136176e+01   6.4660752443e+00    0.2573038    0.1635934 -44.59 0.0009050979    1.600    0.375
       359 -10.4210    109.5387    212.1232   8.3118171515e+01   1.4861851214e+01    0.3808372    0.1461352  32.07  0.001442875    2.317    0.568
       360 -11.2064    237.0916    209.2624   5.5258989615e+01  -1.1806973344e+00    0.2082537    0.1238688 -26.60 0.0006453195    1.343    0.255
       361  -9.6096    184.9661    208.5257   6.4776207112e+01   5.1169144417e+00    0.1860253    0.1026961   2.47 0.0008083734    2.419    0.587
       362 -10.1976    247.1112    204.5916   5.2882234278e+01  -1.5082361560e+00    0.3379514    0.1346852 -50.92  0.001354302    4.213    0.763
       363 -11.1532     19.8619    200.3294   1.0601500122e+02   2.8224894781e+01    0.6405688    0.1780723 -68.03  0.002322812    3.145    0.682
       364 -10.8191    175.3075    202.3008   6.5721845906e+01   7.5741834910e+00    0.2339103    0.2089668  -1.85 0.0004329579    1.119    0.106
       365  -9.8292     68.2479    202.1290   9.2866063740e+01   2.2688726280e+01    0.2396563    0.1755106 -42.01  0.001209704    1.466    0.318
       366  -9.0351     53.2592    202.3115   9.7054228686e+01   2.4416208730e+01    0.1381874    0.1028431 -33.58 0.0002400862    1.529    0.346
       367  -9.9959    238.7913    200.7809   5.3562510987e+01  -4.5426708155e-02    0.1480538    0.1236709 -32.45 0.0006459269    1.307    0.235
       368  -9.4168    196.5256    201.5035   6.1220441084e+01   4.8752923933e+00    0.1328097    0.1079347 -15.31 0.0002886091    1.006    0.006
       369  -9.7246    215.4901    194.1131   5.6361125102e+01   3.7524322755e+00      0.19002    0.1044766 -37.76  0.001012301    1.537    0.349
       370 -11.5811     15.5962    193.0512   1.0661312836e+02   3.0388764935e+01     0.404661    0.2770023  15.61   0.00125831    1.576    0.366
       371 -10.3595    244.6842    188.0393   5.0475048603e+01   1.3006484186e+00    0.1719014    0.1195828 -29.83 0.0004850908    1.094    0.086
       372  -9.7279    163.3399    188.6852   6.5895035790e+01   1.1981637678e+01    0.1331306    0.1150338  70.57 0.0007047665    1.702    0.412
       373  -9.8344     61.9724    184.5159   9.2364156181e+01   2.7869285984e+01    0.2347348    0.1952272 -64.80  0.001234435    1.230    0.187
       374 -12.1407     16.1632    181.6480   1.0553787133e+02   3.3237810697e+01    0.5260489     0.306943  37.39  0.002204679    1.663    0.399
       375  -9.8299      1.7260    180.0238   1.0951910514e+02   3.4687559271e+01    0.1857545    0.1597149 -78.28 0.0007636757    1.085    0.078
       376 -10.0324    244.1530    178.3240   4.8883777802e+01   2.8935727363e+00    0.2489791     0.104003 -32.15  0.001181853    2.163    0.538
       377 -10.5453     22.6080    179.6516   1.0348499725e+02   3.3226573569e+01    0.4418249    0.1890835  41.16  0.001216975    2.262    0.558
       378  -9.5702    118.3474    177.3136   7.4956776032e+01   2.1550878812e+01    0.1619869     0.113362 -13.50 0.0007046886    1.718    0.418
