#   1 NUMBER                 Running object number                                     
#   2 MAG_AUTO               Kron-like elliptical aperture magnitude                    [mag]
#   3 X_IMAGE                Object position along x                                    [pixel]
#   4 Y_IMAGE                Object position along y                                    [pixel]
#   5 X_WORLD                Barycenter position along world x axis                     [deg]
#   6 Y_WORLD                Barycenter position along world y axis                     [deg]
#   7 A_WORLD                Profile RMS along major axis (world units)                 [deg]
#   8 B_WORLD                Profile RMS along minor axis (world units)                 [deg]
#   9 THETA_WORLD            Position angle (CCW/world-x)                               [deg]
#  10 FWHM_WORLD             FWHM assuming a gaussian core                              [deg]
#  11 ELONGATION             A_IMAGE/B_IMAGE                                           
#  12 ELLIPTICITY            1 - B_IMAGE/A_IMAGE                                       
         1 -11.8166    180.7284     53.5044   2.9170940927e+01   3.2803502108e+01     1.498614     0.933136 -51.12  0.004212169    1.783    0.439
         2 -11.6756    185.9438     48.2729   2.6753090419e+01   3.2235951772e+01    0.9315699    0.7037045 -56.62  0.002042348    1.422    0.297
         3 -12.3916    198.2870     22.6262   1.7766600920e+01   3.2395950373e+01     1.126464    0.7944614 -59.12  0.005702811    1.472    0.321
         4 -11.3597    203.0954     19.8553   1.6429832985e+01   3.1507022212e+01    0.5604061    0.3653027 -63.61  0.002611777    1.636    0.389
         5  -8.8458    119.8360      8.8700   2.6529572373e+01   5.3383017981e+01    0.2413264    0.1958052  65.09  0.001308715    1.268    0.212
         6 -11.3068    195.7811      3.9384   1.3071795782e+01   3.4997170433e+01    0.6514593    0.4181448  78.79  0.003451491    1.422    0.297
         7  -8.8173     49.3398      4.6481   4.6167816271e+01   6.7478945873e+01    0.1045718   0.09523395 -48.37 0.0001358033    1.801    0.445
         8  -9.3580     42.7783      4.6109   4.8908012479e+01   6.8409895639e+01    0.1506599    0.1040943  39.23  0.000951601    1.703    0.413
         9 -10.0150     15.5643      3.2796   6.1218647268e+01   7.1659834295e+01    0.3264416    0.1668828 -39.85  0.002002467    1.716    0.417
        10  -8.9380     74.7670    205.8532   8.7319566695e+01   2.2902173609e+01    0.2332297    0.1329109  23.01 0.0005607523    2.927    0.658
        11 -13.2940    243.5346    230.6160   5.8089357272e+01  -8.7731601315e+00     3.103636     1.160906 -30.47    0.0148364    2.869    0.651
        12 -12.5500     62.9986    201.3620   8.9218545987e+01   2.5392886813e+01    0.3368942    0.1874504  43.80 0.0006541093    1.653    0.395
        13  -7.4793     72.3053    200.6386   8.7260120255e+01   2.4294813583e+01    0.1336608   0.07964491  71.17 0.0007038778    1.732    0.423
        14  -4.6663     58.7598    193.9795   8.9333321077e+01   2.7458261399e+01    0.4447533    0.1901223  79.88  0.001577085    4.464    0.776
        15  99.0000     59.0248    187.2266   8.8571825630e+01   2.8845727555e+01    0.4568418    0.2951837 -77.24  0.002693195    1.431    0.301
        16  -9.0516     54.7669    197.7787   9.0519888580e+01   2.7172441366e+01    0.1566969     0.106552  70.97 0.0003986597    1.294    0.227
        17  -9.2986     53.3328    193.9093   9.0435402590e+01   2.8149522458e+01    0.2819006     0.144242  55.59  0.001515159    1.801    0.445
        18 -11.6998     87.9546    204.7523   8.4524917130e+01   2.1228465613e+01    0.8649883    0.3972399 -50.73  0.004046627    2.650    0.623
        19  -8.1292     82.2874    195.6220   8.4620886165e+01   2.3913874175e+01    0.3142115    0.1727564  77.78  0.001452173    2.402    0.584
        20  -8.9096     79.4316    194.4996   8.5088393195e+01   2.4558159383e+01    0.1352988    0.1159352  49.65 9.481021e-05    1.201    0.167
        21 -10.2767      3.8913    194.9395   1.0004956248e+02   3.3068558392e+01    0.1419722   0.09710707 -89.15 0.0006379967    1.137    0.121
        22 -10.4045      9.8431    194.1531   9.8913907267e+01   3.2701922156e+01    0.1446669     0.101497  71.57 0.0003541409    1.126    0.112
        23  -7.7249     78.5056    187.7630   8.4471418949e+01   2.6104138686e+01    0.1844465    0.1051578 -49.91 0.0008448304    2.073    0.518
        24 -11.2417     71.8306    181.8996   8.5201972699e+01   2.8295869286e+01    0.6952365    0.3247113 -67.13  0.002708211    2.087    0.521
        25  -5.0395     49.8984    182.8945   9.0045531739e+01   3.0891347260e+01    0.3597667   0.09076016  45.49   0.00141027    3.438    0.709
        26  -9.1735     32.7949    181.9899   9.3527167975e+01   3.2991884895e+01    0.1370642   0.09474332  52.96 0.0004199163    1.366    0.268
        27  -9.2887     29.1406    180.7462   9.4168430431e+01   3.3631584429e+01    0.1482242     0.114297  75.59 0.0002937482    1.078    0.072
        28  -9.1882     43.0129    187.0427   9.1888251162e+01   3.0807999626e+01    0.2019309    0.1257261  74.78 0.0009862572    1.483    0.326
        29  -8.2511     62.2394    176.1578   8.6621985486e+01   3.0824471723e+01    0.1972426    0.1407694 -65.79 0.0005161336    1.345    0.257
        30  -8.9674     56.7711    173.9927   8.7580709186e+01   3.1991446051e+01    0.1632801    0.1336018 -84.94  0.000222852    1.074    0.069
        31 -10.1918     56.2371    170.3826   8.7275043549e+01   3.2854649542e+01    0.3200173    0.1845091  57.08  0.001596642    1.723    0.420
        32  -8.3474     30.8087    174.8067   9.3295205839e+01   3.4733484947e+01   0.09141941   0.07537491 -69.33            0    1.275    0.216
        33 -11.6796     92.8598    189.4668   8.1580401708e+01   2.3611548422e+01    0.2709612    0.2353003  59.00 0.0001451735    1.075    0.070
        34 -15.0410    119.9363    226.9780   8.0805690530e+01   1.2084881850e+01     4.393604     3.830379 -86.98   0.02996124    1.253    0.202
        35  -8.4940     22.1996    173.0000   9.4941739640e+01   3.5961872163e+01    0.1562468   0.06336308  31.45 0.0007796274    2.787    0.641
        36  -8.0530     30.5846    169.6754   9.2864674415e+01   3.5868622715e+01    0.1462616   0.09223858 -64.05 0.0008378079    1.482    0.325
        37  -8.6895     39.1293    167.9422   9.0824719927e+01   3.5363951398e+01    0.2020834    0.1507682 -67.59 0.0005737467    1.267    0.211
        38 -15.8036     33.6896    134.2242   8.8157346342e+01   4.3536385830e+01     5.590416     3.630459  44.71   0.03312563    1.674    0.403
        39  -7.4488    182.2231    205.3366   6.5189220632e+01   4.9695622457e+00    0.1263283   0.09701777  -0.61 0.0002246135    1.526    0.345
        40  -8.3176    147.5840    162.7058   6.4703497631e+01   1.9540552565e+01    0.2542089    0.1742675  62.18 0.0006705382    1.721    0.419
        41 -18.1704     36.1001    225.0937   9.6218360047e+01   2.4022624472e+01     2.714756     1.706921  68.76   0.01881183    1.253    0.202
        42 -12.2362     83.2836    224.0924   8.7530773365e+01   1.8185728829e+01    0.2793099    0.2466558 -69.46   0.00158764    1.361    0.265
        43 -13.0706     77.5969    221.4305   8.8348268483e+01   1.9484590210e+01    0.2368081    0.1964288  78.07 0.0005479896    1.097    0.088
        44  -9.0261    116.1969    154.5897   7.0556495236e+01   2.7282678290e+01    0.3648505    0.2309145  66.10  0.000826103    2.041    0.510
        45 -13.6443     61.8596    237.0035   9.2581858648e+01   1.8739752441e+01    0.4029496     0.211742  84.11  0.002320658    2.061    0.515
        46 -11.2327     80.7750    250.1740   9.0353851395e+01   1.3955817688e+01    0.2178387    0.1326175  39.75  0.001064009    1.563    0.360
        47  -9.1055    110.5566    134.0603   6.7833026362e+01   3.2936612712e+01    0.4646446     0.298422 -68.96  0.002044087    1.875    0.467
        48  -8.2398    158.2842    129.6048   5.4901005792e+01   2.4202535207e+01    0.2729701    0.1877238  36.23 0.0009329774    1.504    0.335
        49  -8.1341    104.5137    120.9592   6.6539563937e+01   3.7015063832e+01    0.2205273     0.139831 -48.72 0.0007856186    1.523    0.343
        50  -7.6894    184.0000    113.9701   4.5235374555e+01   2.1480512229e+01    0.4335335   0.08784708 -38.77  0.001049866    4.921    0.797
        51 -13.2718     63.2928    219.0789   9.0830803786e+01   2.1859493011e+01    0.2589806    0.2044727  72.95 0.0007053903    1.030    0.029
        52 -13.8157     64.0759    229.5998   9.1591007544e+01   1.9789406519e+01    0.2953646    0.2440621 -47.20  0.001470344    1.809    0.447
        53  -7.4150    204.4359     76.5434   3.1418124049e+01   2.3256451923e+01    0.1465472    0.1438831 -47.43 0.0001076474    1.016    0.016
        54 -11.8864    169.5853     66.5525   3.5149182078e+01   3.3578568399e+01     2.223252       1.2736  35.13  0.008805154    2.132    0.531
        55  -9.3280     90.3849    246.4060   8.8348332579e+01   1.3239337310e+01    0.2928267    0.1440134  65.16 0.0006298498    2.231    0.552
        56  -9.9248     65.4952    247.2675   9.2740500433e+01   1.6484875609e+01    0.1092248   0.08137243  59.81 -0.0002081439    1.064    0.060
        57  -8.4799    101.6080     68.9923   5.3139146037e+01   4.8660876446e+01    0.2673246     0.210526  63.57 0.0008854446    1.636    0.389
        58  -8.5904    144.2791     59.6814   3.8591144427e+01   4.0953598310e+01    0.2488689     0.229227 -86.78 0.0006139259    1.232    0.189
        59  -8.5690    101.6481     58.5139   4.9656698594e+01   5.0582992416e+01    0.2455928    0.2122842 -37.62 0.0001655554    1.189    0.159
        60  -9.3870    100.5736     51.8455   4.7669342457e+01   5.1946450467e+01    0.3602121    0.2405726  12.67  0.001033763    1.879    0.468
        61  -8.8867     97.0036     44.1932   4.6003429597e+01   5.3897643616e+01    0.3464605    0.2040782  35.10  0.001160858    1.704    0.413
        62  -8.0492    150.0203     40.6244   3.1151630087e+01   4.2413673686e+01    0.2046604    0.1723593  51.77 0.0003765493    1.114    0.103
        63  -8.1028    221.7559     40.1156   1.9355003626e+01   2.4422448586e+01    0.2150394     0.167954 -64.25 0.0006340972    1.256    0.204
        64 -11.6151     20.7801    243.5992   9.9837308384e+01   2.2369150384e+01    0.2745808   0.09143054  54.26  0.001561953    2.213    0.548
        65 -11.1578     85.5381    236.3118   8.8289761521e+01   1.5658550402e+01     0.367638    0.1710911 -56.56  0.001978336    2.548    0.608
        66  -8.8990    186.4755     18.9069   1.8299040354e+01   3.5804195314e+01    0.2480267    0.1711754  52.45 0.0004922326    1.404    0.288
        67  -9.1608     23.3848     13.8198   6.2139721770e+01   6.9382865078e+01    0.1673753   0.08226651 -32.92 0.0006492411    1.660    0.398
        68  -8.5871     81.4983    232.5991   8.8682149984e+01   1.6887319929e+01     0.116779    0.0922055  60.55 0.0001363316    1.042    0.040
        69 -11.2487      7.9687    232.4737   1.0131522183e+02   2.5611736730e+01    0.1654949   0.08876413  38.26  0.001134103    1.967    0.492
        70 -10.7274      1.3051    229.0912   1.0221451460e+02   2.6843619267e+01   0.07641083   0.05146774  40.54 0.0003171366    1.680    0.405
        71 -13.4538     65.1177    211.1316   8.9752980423e+01   2.3160496014e+01    0.3028589    0.2332997  68.80 0.0009065311    1.055    0.052
