#   1 NUMBER                 Running object number                                     
#   2 MAG_AUTO               Kron-like elliptical aperture magnitude                    [mag]
#   3 X_IMAGE                Object position along x                                    [pixel]
#   4 Y_IMAGE                Object position along y                                    [pixel]
#   5 X_WORLD                Barycenter position along world x axis                     [deg]
#   6 Y_WORLD                Barycenter position along world y axis                     [deg]
#   7 A_WORLD                Profile RMS along major axis (world units)                 [deg]
#   8 B_WORLD                Profile RMS along minor axis (world units)                 [deg]
#   9 THETA_WORLD            Position angle (CCW/world-x)                               [deg]
#  10 FWHM_WORLD             FWHM assuming a gaussian core                              [deg]
#  11 ELONGATION             A_IMAGE/B_IMAGE                                           
#  12 ELLIPTICITY            1 - B_IMAGE/A_IMAGE                                       
         1 -15.5216     68.8491    144.3700   9.7451580758e+01   3.7475834504e+01      5.16719     2.577164  67.21  0.004623272    4.828    0.793
         2 -13.7620    200.9914     43.4461   3.9583521531e+01   3.0055886510e+01     0.930797    0.8024811 -65.01  0.002901386    1.064    0.060
         3 -14.1864    211.0986     33.7936   3.6212942168e+01   2.9057853207e+01    0.8082638    0.7284573  28.83  0.001641393    1.527    0.345
         4 -12.3036      1.9124      5.0810   8.5504478607e+01   7.4035683779e+01    0.6868463    0.1735936 -47.72  0.002786925    4.416    0.774
         5 -13.8011    236.9454      7.7657   2.8614894192e+01   2.6661155324e+01    0.8100848    0.6178319 -69.82   0.00450506    1.019    0.018
         6 -11.9965     44.5476      6.5678   6.3087762355e+01   6.8601688111e+01    0.2537443     0.151517   1.95  0.001439013    1.777    0.437
         7 -10.4733     60.6671      2.3267   5.4734128692e+01   6.6183330387e+01    0.1063574   0.09634811 -81.13  0.000705144    1.714    0.417
         8 -11.7702     81.6245    182.8008   1.0023800676e+02   2.5955761252e+01    0.5653583    0.4085152  79.58  0.002173275    1.615    0.381
         9 -12.3113    139.7905    249.3558   9.5933627566e+01   2.9855202500e+00    0.4112016    0.2736602  36.58  0.002351817    1.279    0.218
        10 -14.3017     54.0570    185.1479   1.0774910825e+02   2.9087265240e+01     1.660571     1.189925  64.48  0.008903594    1.407    0.289
        11 -16.3828     43.3202    196.9230   1.1172478093e+02   2.7509866388e+01     9.094345     3.361128  65.67   0.02078753    5.713    0.825
        12  -9.6113     87.4876    177.5240   9.7857114272e+01   2.6371365370e+01    0.1455908     0.138874  73.98 0.0001378525    1.017    0.016
        13 -10.8784     90.1668    174.7889   9.6687529040e+01   2.6631385450e+01    0.2825871    0.2373371  89.16 0.0009466843    1.279    0.218
        14 -15.8324      9.7643    207.0834   1.2021107505e+02   2.8535907093e+01     1.301232    0.9955826 -26.56  0.004795959    1.965    0.491
        15 -10.7398    186.0897    173.4098   7.2669984665e+01   9.8511304518e+00    0.3211163    0.3096047  35.16  0.001217585    1.184    0.156
        16 -10.9036     67.5404    197.7448   1.0588326691e+02   2.4325864902e+01    0.2693773    0.2123526 -80.98 0.0008711086    1.253    0.202
        17 -12.9874     80.9542    158.3121   9.6409316611e+01   3.2166248291e+01     1.085234    0.6483255  66.45 0.0004728054    2.420    0.587
        18 -13.6339     69.3206    153.1017   9.8870889058e+01   3.5175802399e+01    0.7749665    0.4600512 -52.82  0.001249123    1.597    0.374
        19 -12.2512    112.3381    196.6492   9.4525060582e+01   1.7883823714e+01    0.5422416    0.3308073  -8.52   0.00196003    3.369    0.703
        20 -11.9542    240.3243    169.3077   6.1478302194e+01   1.5176179034e+00    0.2382446    0.1797852 -14.04 0.0007652625    1.260    0.206
        21 -10.0622    110.9519    167.9195   8.9843333982e+01   2.4883710556e+01    0.2394095    0.1841373  74.71 0.0005511242    1.633    0.388
        22 -15.8299      3.6500    183.2766   1.1999736728e+02   3.4521790934e+01     8.335258          nan -71.21   0.02010045    7.307    0.863
        23 -11.2024     99.4266    180.8614   9.5234966999e+01   2.3683389768e+01    0.2779223    0.2656405 -33.01 0.0006549951    1.108    0.098
        24 -11.1767     33.6567    156.1771   1.0966835029e+02   3.8594628041e+01    0.2905031    0.2390854  84.95  0.001066409    1.163    0.140
        25 -12.2696     88.3359    151.5600   9.3018509749e+01   3.2728747019e+01    0.7083126    0.4713851 -22.50  0.001780901    2.098    0.523
        26 -11.5783    133.8691    145.3428   7.8961342294e+01   2.6011126756e+01     1.233116    0.3349468 -54.63  0.002863546    5.586    0.821
        27 -12.1100     54.5784    148.1296   1.0240994106e+02   3.8367854977e+01    0.6729159    0.4715009 -77.68  0.003352053    1.451    0.311
        28 -10.2078    174.8467    149.1187   6.9874207223e+01   1.6961770042e+01    0.2294611    0.2126822 -76.15 0.0007067043    1.258    0.205
        29  -9.5187    112.0163    150.4643   8.6030339062e+01   2.8944636584e+01    0.2276985    0.1521155  38.21 0.0004730516    1.501    0.334
        30 -11.2937     28.6857    144.0214   1.0953828218e+02   4.2149955832e+01    0.3613778    0.1861808  27.78  0.001707238    2.122    0.529
        31 -11.0284    102.0990    138.0193   8.6154488579e+01   3.3785462702e+01    0.5908375    0.3427027 -22.68  0.002037225    2.964    0.663
        32 -11.2471    106.0436    131.2206   8.3433590501e+01   3.4731104008e+01    0.5244573    0.3444153 -60.31  0.002251603    1.658    0.397
        33 -12.4104     89.5896    137.3077   8.9730437151e+01   3.6111572566e+01    0.3028001    0.2567784 -41.85 0.0003378095    1.163    0.140
        34 -10.7752     25.8154    137.4820   1.0952260636e+02   4.4061979206e+01    0.2859865    0.2034276  44.10  0.001575537    1.546    0.353
        35 -11.1629    134.9303    128.5333   7.4690253277e+01   2.9673680263e+01    0.3825876    0.3353332 -54.31  0.001908451    1.173    0.147
        36 -12.3246     68.3453    170.8740   1.0201592693e+02   3.0795640722e+01    0.4493236    0.3171215 -23.02  0.002118689    1.943    0.485
        37 -10.4862    111.4367    129.0091   8.1329951584e+01   3.4251084771e+01    0.2932649    0.2228047  13.98 0.0007262998    1.569    0.363
        38 -10.9022     67.7305    125.0095   9.3960956566e+01   4.2554273370e+01    0.3119006    0.2598007 -45.12   0.00154967    1.134    0.118
        39 -12.3183     72.6255    166.3478   1.0012769175e+02   3.1344651599e+01    0.4451778    0.3673222 -46.75  0.002238621    1.252    0.201
        40 -10.0382    149.4112    192.2445   8.4715079754e+01   1.2531169506e+01    0.1955051    0.1433937 -60.39 0.0006552914    1.621    0.383
        41 -10.6741     34.8802    171.8538   1.1119480868e+02   3.4527415768e+01    0.2289855    0.1745082 -89.81 0.0004086489    1.213    0.176
        42 -11.0219     98.6735    124.7352   8.4096468334e+01   3.7646220417e+01    0.3154532    0.2538585   3.63 0.0009346493    1.456    0.313
        43 -11.0128    117.0078    123.9725   7.8488135743e+01   3.4360423441e+01    0.2542953    0.1933216 -11.19 0.0007233955    1.664    0.399
        44 -10.1764    135.0000    120.4053   7.2629057076e+01   3.1489895451e+01    0.3448217   0.08905619 -45.65 0.0009218752    3.832    0.739
        45  -9.7769     85.2800    119.1765   8.6945943159e+01   4.1313049601e+01    0.2853514    0.1910754  61.09 0.0009186323    2.037    0.509
        46  -9.9898    107.8395    118.1504   7.9695992413e+01   3.7511465584e+01    0.2161873     0.208991  71.99 0.0002894655    1.118    0.106
        47 -10.5713    231.3509    113.7785   5.1367695141e+01   1.2664724287e+01    0.2426338    0.2238955 -41.36  0.000767439    1.066    0.062
        48  -9.9153    135.0000    112.9622   7.0695628737e+01   3.3130274992e+01    0.2662155   0.08880645 -44.57 0.0008069868    2.974    0.664
        49 -11.0689     34.0849    109.5681   1.0226358423e+02   5.0356652381e+01     0.329074      0.19042 -67.70  0.001570592    1.650    0.394
        50 -10.0116    205.5280    110.2460   5.4740834287e+01   1.8366434778e+01    0.2472817    0.1997673  53.59 0.0006422783    1.347    0.257
        51 -11.3750    115.5678    108.8303   7.4971848496e+01   3.8117627154e+01    0.3740427    0.2500082 -33.87  0.001622507    1.597    0.374
        52 -11.4072     38.0131    102.4987   9.9419631672e+01   5.1711249404e+01    0.2900162    0.2159011  36.36 0.0009123399    1.521    0.342
        53 -10.9648     33.1704     99.9205   1.0065819014e+02   5.2798625596e+01    0.2651123    0.2246798  44.39 0.0009574872    1.389    0.280
        54 -10.6523    120.9792     98.9781   7.0703327894e+01   3.9136553330e+01    0.2469127    0.1978391  89.15  0.000761852    1.699    0.412
        55 -14.6153     18.7756    218.9091   1.1906225089e+02   2.5079665442e+01    0.7862283    0.5180202 -35.14  0.004407617    2.433    0.589
        56 -18.1105     14.4152    240.6819   1.2122589193e+02   2.0941953375e+01     6.576013     2.732404  24.86   0.02503124    3.015    0.668
        57  -9.9139     75.0117     85.1838   8.1337549904e+01   5.0864609988e+01    0.2148026    0.1960704  62.10  0.001078194    1.342    0.255
        58  -9.5887    159.4413     83.5157   5.6834115342e+01   3.3488329825e+01    0.1467296    0.1437341 -80.17 9.726126e-05    1.007    0.007
        59  -9.5819    150.9908     82.9616   5.8529820902e+01   3.5555461055e+01    0.2398409    0.1819539 -77.98 0.0008434081    1.702    0.413
        60  -9.7378     69.4821     81.4948   8.2241222897e+01   5.2540924256e+01    0.2191778    0.1321632  43.97 0.0001169713    1.877    0.467
        61  -9.7399    109.8812     80.0736   6.8333229654e+01   4.5325433400e+01    0.2226095    0.2046095  80.40 0.0005715234    1.282    0.220
        62  -8.8533     98.3203     70.6776   6.8885322828e+01   4.9494562067e+01    0.1428299     0.119835 -89.44 0.0007045067    1.673    0.402
        63 -10.8666     13.5039     60.0313   9.9328792709e+01   6.3387359794e+01    0.2153321    0.1850561 -15.03 0.0004402512    1.154    0.134
        64 -13.3814    190.4426     51.2566   4.2868718513e+01   3.1388347014e+01    0.7395622    0.5368152  33.86  0.001329137    1.862    0.463
        65 -10.5174    168.4250    233.3281   8.7472353394e+01   1.4762747618e+00    0.2377785    0.2075097  32.97 0.0006910129    1.199    0.166
        66 -11.5243    130.5399    191.5866   8.9156474630e+01   1.5962660790e+01    0.3955224    0.2228556  35.08  0.001718017    1.699    0.411
        67 -11.8632    122.8099    199.6266   9.2428007587e+01   1.5489278772e+01    0.3859108     0.270276 -78.60  0.001332415    1.948    0.487
        68 -11.2301      4.6613     29.9316   9.4438300133e+01   6.9821557654e+01    0.2066855    0.1519732   9.70 0.0007796686    1.392    0.282
        69  -9.6228    198.3728     23.7017   3.5255158058e+01   3.3080497675e+01    0.1530461    0.1200375 -25.09 0.0005683342    1.569    0.363
        70 -10.3063     82.3946    194.8833   1.0178698435e+02   2.2934638120e+01    0.2732651    0.2106055  25.11  0.001311233    1.395    0.283
        71  -9.5014    189.7600     14.9665   3.4107126068e+01   3.5984241255e+01    0.1499851     0.102277 -34.70 0.0008285368    1.597    0.374
        72 -12.6826    194.6638    197.8363   7.5707686256e+01   3.7064578774e+00      1.27341    0.7642936 -63.23   0.00505292    3.352    0.702
        73 -11.0134    124.8912    188.3536   8.9985786016e+01   1.7663028859e+01    0.3649008    0.1876221 -69.83  0.001178347    3.302    0.697
