#   1 NUMBER                 Running object number                                     
#   2 MAG_AUTO               Kron-like elliptical aperture magnitude                    [mag]
#   3 X_IMAGE                Object position along x                                    [pixel]
#   4 Y_IMAGE                Object position along y                                    [pixel]
#   5 X_WORLD                Barycenter position along world x axis                     [deg]
#   6 Y_WORLD                Barycenter position along world y axis                     [deg]
#   7 A_WORLD                Profile RMS along major axis (world units)                 [deg]
#   8 B_WORLD                Profile RMS along minor axis (world units)                 [deg]
#   9 THETA_WORLD            Position angle (CCW/world-x)                               [deg]
#  10 FWHM_WORLD             FWHM assuming a gaussian core                              [deg]
#  11 ELONGATION             A_IMAGE/B_IMAGE                                           
#  12 ELLIPTICITY            1 - B_IMAGE/A_IMAGE                                       
         1 -12.8013    148.6622     60.8088   8.4296214608e+01   4.0106888763e+01     1.379741     1.041669  -6.40    0.0011102    1.700    0.412
         2 -13.0911    159.8921     45.7684   7.7567483589e+01   3.9627347789e+01     1.186771     1.045706 -26.31  0.003989383    1.255    0.203
         3 -13.0495    172.6659     13.6021   6.6434439261e+01   4.0356331899e+01     1.109094     1.026363  40.28  0.004983518    1.234    0.190
         4 -12.1948    188.2999     12.2054   6.4044296226e+01   3.6712973060e+01    0.9330645    0.6354484 -77.85  0.005178833    1.486    0.327
         5 -10.6318    172.3875    189.2583   1.1081402288e+02   8.6697270830e+00     0.428218    0.3447748 -70.34  0.001372218    1.483    0.326
         6 -15.3731     57.6671    144.2202   1.2991522746e+02   3.9366355192e+01     6.411907     4.733458 -14.07   0.03357157    2.071    0.517
         7 -11.7953    195.0141    169.3715   1.0197999012e+02   8.0331611615e+00    0.5766249    0.4872872 -64.01 0.0009323193    1.350    0.259
         8 -10.5412    192.5230    164.9659   1.0154813147e+02   9.4329810953e+00    0.4046285     0.313419   1.29  0.001512202    1.659    0.397
         9  -9.2624    173.0251    175.7567   1.0798462893e+02   1.1299165194e+01      0.21219    0.1876941  43.74 0.0002283667    1.100    0.091
        10 -11.3282    163.8612    189.4986   1.1269685978e+02   1.0323772779e+01    0.5498652    0.4352357  37.91  0.002854164    1.234    0.190
        11 -10.8793    169.2209    194.0559   1.1240621972e+02   8.3380552408e+00    0.6138209    0.2675043 -48.49  0.002392786    2.456    0.593
        12 -10.0400    230.1817    168.2497   9.4878326559e+01   1.2173556983e+00    0.4389995    0.1655108 -49.25  0.001487601    3.350    0.702
        13 -10.5747    170.3058    184.0928   1.1025276396e+02   1.0136456300e+01    0.5360634    0.3184182  41.25  0.001747985    1.632    0.387
        14 -10.4325    121.8619    166.4229   1.1784692249e+02   2.3709784750e+01    0.6912153    0.3039217  57.21  0.002277858    3.189    0.686
        15 -11.6099     53.8328    164.2500   1.3392790583e+02   3.5079290107e+01    0.6320688    0.3622738  40.21  0.003264326    1.870    0.465
        16 -10.6063    175.9229    187.3348   1.0968455478e+02   8.3472995430e+00    0.4519212    0.2997413 -61.50  0.001230987    1.874    0.466
        17 -10.2034    123.0133    159.3382   1.1616718094e+02   2.5137933921e+01    0.4559193    0.3463647  89.72  0.001147875    1.550    0.355
        18  -9.2153      3.5418    159.1777   1.4483490203e+02   4.1286295753e+01     0.203702     0.158438 -78.78 0.0007364516    1.082    0.076
        19  -9.2156    191.0472    158.7271   1.0048948166e+02   1.1009333451e+01    0.4062693    0.2502512  21.66  0.001563606    2.488    0.598
        20 -10.8987    109.4576    155.6565   1.1877314817e+02   2.8558635506e+01    0.3331472    0.3008613  46.21 0.0004933975    1.164    0.141
        21 -11.8672    112.8133    151.3349   1.1706072049e+02   2.8962225765e+01    0.6662521    0.5920185  73.77  0.002105519    1.125    0.111
        22 -19.0522     72.9133    234.5753   1.3816895559e+02   1.6914221124e+01     5.129816     3.579887  47.95   0.02091008    1.351    0.260
        23  -8.9169     22.6665    156.8273   1.4029648642e+02   4.0203905672e+01    0.1730198    0.1650758 -78.11 0.0005492178    1.281    0.220
        24 -11.1054    133.9781    146.9820   1.1085948251e+02   2.5818981970e+01     1.497757    0.3748008 -55.55  0.003228326    6.629    0.849
        25  -9.5294     16.9597    154.0897   1.4130440577e+02   4.1344041772e+01    0.3126772    0.1412522 -68.69 0.0009678343    1.717    0.418
        26  -9.9701    107.8585    146.8356   1.1738718989e+02   3.0945310679e+01    0.2467397    0.1956398 -47.16 0.0004136262    1.279    0.218
        27 -14.5783     57.6964    210.6318   1.3867655567e+02   2.4014798011e+01    0.5116723    0.3526993  66.11  0.002059388    1.259    0.205
        28  -9.5134      7.5817    149.8651   1.4300625618e+02   4.3071407274e+01    0.2192012    0.1542344 -53.12 0.0007536798    1.468    0.319
        29  -9.9986    143.9456    146.5835   1.0834817038e+02   2.3826456312e+01    0.4886668    0.2774265 -69.35  0.001708347    2.770    0.639
        30 -10.1873     27.3315    146.5614   1.3792749287e+02   4.2146633038e+01    0.3538573    0.2604689 -58.52  0.001175205    1.259    0.205
        31  -9.0175    180.9373    145.5433   9.9652715909e+01   1.5950318879e+01    0.2357943    0.2054465 -42.79 0.0004840616    1.141    0.124
        32 -10.2850    227.0939    139.2339   8.9088550713e+01   7.1797428035e+00    0.2440594    0.2303589  86.63 0.0003651976    1.168    0.144
        33 -11.7018    118.0710    136.5105   1.1251281356e+02   3.1449447064e+01    0.7442659    0.5924435 -72.51  0.002802397    1.344    0.256
        34  -9.6131    113.4270    137.4648   1.1393019165e+02   3.2121504398e+01     0.235156    0.2212047 -87.59 8.827398e-05    1.042    0.041
        35 -11.2592    108.8710    135.7685   1.1474121171e+02   3.3378399629e+01    0.3725195    0.3538821 -14.96 0.0007471573    1.190    0.159
        36  -9.0886      3.1765    139.2239   1.4289359983e+02   4.5794600608e+01    0.1613077    0.1128665  83.09 0.0004424898    1.342    0.255
        37 -10.5558    179.9434    193.8385   1.1009579559e+02   6.2658196586e+00    0.3676187    0.2915587  75.97  0.001865994    1.620    0.383
        38 -11.1400    135.8510    129.5360   1.0634445135e+02   2.9422576125e+01     1.037755    0.2151247 -48.74  0.002509077    4.951    0.798
        39 -10.7001    135.3099    122.6551   1.0478553458e+02   3.1086281795e+01    0.6176987    0.2296309 -50.62  0.001988406    2.810    0.644
        40 -10.1233    160.3913    128.5217   1.0018014548e+02   2.4231433560e+01    0.4172365    0.2695182 -59.19  0.001729447    1.759    0.432
        41 -10.4241    150.5742    240.5719   1.2389907756e+02   3.0960860064e+00    0.2556685    0.2498412  55.01 0.0009014449    1.162    0.140
        42 -10.5975    121.5631    128.1351   1.0965333322e+02   3.2700656688e+01    0.3225336    0.2675326 -66.71  0.001165503    1.242    0.195
        43 -11.2197    204.6097    177.3113   1.0170418936e+02   4.5422542448e+00    0.5313199    0.4843197  50.69  0.001989898    1.163    0.140
        44 -10.2239    110.8582    123.9261   1.1147203671e+02   3.5766825716e+01    0.3023732    0.2640011 -22.58 0.0006726843    1.298    0.229
        45  -9.3111    140.2569    121.3279   1.0321393577e+02   3.0309394802e+01    0.3239999    0.2311381  75.04 0.0005809179    1.864    0.463
        46  -9.0232    245.3819    120.7595   8.1877657787e+01   6.7989908474e+00    0.2201044    0.1930086  57.74 0.0002643979    1.265    0.209
        47 -10.3417    115.0973    118.4711   1.0899917601e+02   3.6193455277e+01    0.3531393    0.2131871 -55.35 0.0003026359    1.688    0.408
        48  -9.1308     53.0933    117.1743   1.2622131930e+02   4.6311277163e+01    0.1977831    0.1640805 -40.95 0.0004358573    1.207    0.171
        49 -11.2908    203.6039    168.6379   1.0007410888e+02   6.4088998164e+00    0.9093968     0.585905 -52.36  0.003975259    1.721    0.419
        50 -10.8935     70.7905    115.1219   1.2065152519e+02   4.4490871262e+01    0.2780649    0.2631482  51.82 0.0007155664    1.169    0.145
        51 -12.5958     63.6429    107.7781   1.2110129913e+02   4.7148256602e+01    0.8823391    0.7649369 -26.70  0.003953474    1.217    0.179
        52 -10.5004    146.3898    189.6889   1.1656614416e+02   1.3741410923e+01    0.3227599    0.2632786  -3.18  0.001259668    1.681    0.405
        53 -10.0281    134.4998    106.5309   1.0081127161e+02   3.4785971329e+01    0.5257459    0.1451979 -47.96  0.001455102    3.834    0.739
        54  -9.5994    198.9448    178.9816   1.0319435334e+02   5.3559397009e+00    0.4535554    0.3147776  84.67  0.001865379    2.681    0.627
        55 -11.4053    110.9746    104.2012   1.0643508608e+02   4.0170246522e+01    0.4963889    0.3181214 -49.93  0.002247765    1.530    0.346
        56 -10.7950    113.0939     95.7634   1.0354019681e+02   4.1547694194e+01    0.5021175    0.3051422 -27.78  0.001402388    2.060    0.515
        57  -9.3709    124.5224     95.9480   1.0049933571e+02   3.9154651588e+01    0.2294955    0.1474033 -43.99  0.000605419    1.536    0.349
        58  -9.4337    160.3797    238.7156   1.2171054278e+02   1.6969750517e+00     0.208573    0.1279538 -53.25 0.0009878728    1.939    0.484
        59  -9.1236    143.0802     81.3203   9.1622800787e+01   3.7887505006e+01    0.2120836    0.1995989  61.21 0.0006045782    1.061    0.057
        60  -8.8939    184.0403     76.0618   8.1463878939e+01   2.8926609835e+01    0.2176059    0.2036677 -79.15  0.001184612    1.026    0.025
        61 -10.0994    140.4130    199.6462   1.1963691887e+02   1.2789649179e+01    0.4325839    0.3281193  78.93  0.002014319    1.537    0.349
        62 -10.6994    187.5723    236.4655   1.1605536402e+02  -2.6946799693e+00    0.2918138    0.2255725 -42.39  0.000578613    1.492    0.330
        63 -11.6898    163.8819     36.8273   7.4262219114e+01   3.9842935530e+01    0.4565262    0.3861436  76.72 0.0008245509    1.124    0.110
        64  -9.9874    239.5893     64.8199   7.0141580106e+01   1.7550482988e+01    0.2365598    0.2154391  70.52 0.0005068232    1.219    0.180
        65  -9.2396    124.9973     61.7355   9.0160442530e+01   4.5408731756e+01    0.2678038    0.2119828 -88.35 0.0009962197    1.724    0.420
        66 -10.3671    136.4809     38.9291   8.0227118749e+01   4.6144527035e+01    0.2417881    0.2191289  45.55 0.0003220878    1.019    0.018
        67  -8.9519    146.0327    246.7391   1.2563190172e+02   2.8248567379e+00    0.1875271    0.1756601 -72.23 0.0005128334    1.247    0.198
        68  -8.9118    231.4292     16.2639   6.0390389025e+01   2.6098234212e+01    0.2141265    0.1234701 -30.34 0.0009710714    2.048    0.512
