#   1 NUMBER                 Running object number                                     
#   2 MAG_AUTO               Kron-like elliptical aperture magnitude                    [mag]
#   3 X_IMAGE                Object position along x                                    [pixel]
#   4 Y_IMAGE                Object position along y                                    [pixel]
#   5 X_WORLD                Barycenter position along world x axis                     [deg]
#   6 Y_WORLD                Barycenter position along world y axis                     [deg]
#   7 A_WORLD                Profile RMS along major axis (world units)                 [deg]
#   8 B_WORLD                Profile RMS along minor axis (world units)                 [deg]
#   9 THETA_WORLD            Position angle (CCW/world-x)                               [deg]
#  10 FWHM_WORLD             FWHM assuming a gaussian core                              [deg]
#  11 ELONGATION             A_IMAGE/B_IMAGE                                           
#  12 ELLIPTICITY            1 - B_IMAGE/A_IMAGE                                       
         1 -13.9630    214.7571      9.3901   3.8986719049e+01   3.0117471912e+01     2.092906      1.39245  27.35    0.0107307    2.078    0.519
         2 -13.1775    174.9644     54.0904   5.6842475922e+01   3.4325640624e+01     1.904272     1.205359  29.59  0.005746897    2.144    0.534
         3 -13.3738    190.1165     40.0635   5.0331170028e+01   3.2546832441e+01      1.07846    0.9369186 -28.08  0.003642177    1.104    0.094
         4 -12.7046    195.0856     34.3732   4.8011714632e+01   3.2053050542e+01    0.6219671    0.5651386 -32.67  0.001305992    1.065    0.061
         5 -10.1672    247.0929      2.0721   3.5229537177e+01   2.3759773777e+01    0.4560449    0.1390211 -88.65  0.001663015    4.637    0.784
         6  -9.6252     64.8562    223.6890   1.1498350779e+02   2.1551015058e+01     0.128709   0.09135321  73.84 0.0005481482    1.360    0.264
         7 -12.2669    248.2784    229.1107   8.3187696481e+01  -2.8653742114e+00    0.4685743     0.185652 -25.55  0.002806622    2.472    0.596
         8 -10.1597     37.4922    211.7431   1.1962527905e+02   2.6713231305e+01    0.1485751   0.09355897  84.76 0.0009851916    1.507    0.336
         9  99.0000     43.4020    209.7280   1.1831606896e+02   2.6459395962e+01    0.3758381    0.1307642  63.58  0.001642396    3.305    0.697
        10 -10.5319     43.9174    205.2871   1.1793158405e+02   2.7236631840e+01    0.1600835    0.1329925  84.24 0.0001923936    1.206    0.171
        11  -9.9022    160.3176    205.5674   9.4353319859e+01   1.1560484661e+01    0.1928488    0.1371609 -12.38 0.0008365496    1.723    0.420
        12 -10.0556     67.1481    204.2271   1.1301664570e+02   2.4757231943e+01    0.2960231    0.1803855 -44.78  0.001016453    2.398    0.583
        13  -6.6633     71.2164    200.6332   1.1184641555e+02   2.4929938441e+01    0.2359546    0.1445495  69.92  0.001325432    1.692    0.409
        14 -10.2516     95.9542    202.6562   1.0683484670e+02   2.1318892480e+01    0.4277195    0.2808113 -31.71  0.002357931    2.426    0.588
        15 -10.9497    193.0609    195.0942   8.6765735311e+01   8.1802412613e+00    0.7423532    0.3987996 -58.35  0.002843944    5.514    0.819
        16  -8.8934    187.3185    186.6874   8.6399022801e+01   1.0213506870e+01    0.1799068    0.1655428  30.00 0.0008894326    1.241    0.194
        17 -10.6706     57.1972    201.4264   1.1488286895e+02   2.6474716091e+01    0.2540751    0.1930262 -30.76  0.001149191    2.102    0.524
        18 -11.5954     59.5460    195.1972   1.1387819692e+02   2.7402144021e+01    0.3331881    0.2765692 -50.22  0.001511945    1.566    0.361
        19  -9.9626     55.4035    223.0240   1.1677377785e+02   2.2748199401e+01    0.1370562    0.1052981  65.25  0.001015449    1.118    0.106
        20  -9.9014     81.9616    195.0048   1.0900027604e+02   2.4616454817e+01    0.1803632    0.1542744  56.03 0.0004505811    1.026    0.026
        21 -11.7032    149.5807    188.3774   9.3887965423e+01   1.5860077326e+01    0.3908166    0.3197378 -89.34  0.001742565    1.742    0.426
        22 -10.7234     95.5876    188.9901   1.0536353402e+02   2.3900903207e+01    0.3828385     0.283851  75.82  0.001694016    1.470    0.320
        23 -10.4552     98.5004    186.0050   1.0435926142e+02   2.4057463640e+01    0.2978244    0.1773445  69.53  0.001139069    2.200    0.545
        24 -10.7962     99.2015    180.9328   1.0355830394e+02   2.4940143524e+01    0.2988325    0.2552521  -1.13   0.00102634    1.522    0.343
        25 -10.3104    141.4924    188.0072   9.5468657543e+01   1.7187952640e+01    0.1790614    0.1251175 -49.25  0.001042669    1.621    0.383
        26 -10.9666    128.9857    184.9830   9.7618999371e+01   1.9664647322e+01    0.2341201    0.1827646 -20.37  0.001385532    1.622    0.384
        27 -11.1268    127.2891    180.6297   9.7334654323e+01   2.0715263982e+01    0.3908167    0.1246535  45.56  0.001463316    3.064    0.674
        28  -8.3049     91.3304    185.2523   1.0585860558e+02   2.5223185120e+01    0.1140392   0.09620792   4.65 0.0002648394    1.554    0.357
        29 -10.9325    243.7589    180.2435   7.5934929615e+01   2.7503396097e+00    0.2073691    0.1247857 -26.85   0.00130474    1.513    0.339
        30 -11.6874    143.8574    178.1445   9.3440372284e+01   1.8505846457e+01    0.4412288    0.2923461 -53.14  0.001521033    1.731    0.422
        31 -11.0168    139.6865    171.9263   9.3297676684e+01   2.0295438607e+01    0.3928873    0.1989701  43.06  0.001174665    1.832    0.454
        32 -10.7493    149.8670    177.9938   9.2173969572e+01   1.7553975481e+01    0.3025358    0.2311854 -71.35 0.0009661392    1.821    0.451
        33 -10.2546    188.6278    176.6811   8.4423193762e+01   1.1457834895e+01    0.3166172    0.2866773 -33.93  0.001629829    1.294    0.227
        34 -10.6852    133.6573    177.2023   9.5442265502e+01   2.0323819218e+01    0.3279586    0.2010065   3.14  0.001333326    3.411    0.707
        35 -10.6299    233.8448    174.6603   7.6430447273e+01   4.8045115232e+00    0.2334278   0.09072743  34.02  0.001102214    2.592    0.614
        36 -11.9283    247.3013    248.6831   8.6076283560e+01  -4.4821834507e+00    0.4677697    0.2415195  29.77  0.003441717    1.548    0.354
        37  -8.6592    194.3856    171.7737   8.2489807745e+01   1.1250951684e+01    0.1676992    0.1097727 -22.31 0.0008535057    1.567    0.362
        38  -9.3244    185.5102    170.0070   8.3786421754e+01   1.2965889565e+01    0.1852932    0.1208801 -36.03 0.0008655663    1.571    0.363
        39  -9.3645     43.8415    221.2962   1.1891177492e+02   2.4318511170e+01    0.1338809   0.09167219  75.32  0.000541113    1.325    0.245
        40 -10.5287    239.9891    169.0212   7.4448811378e+01   4.6022176082e+00    0.1592392    0.1435718 -43.29 0.0004469377    1.651    0.394
        41  -9.1047    187.7636    163.3228   8.2111372047e+01   1.3616189253e+01    0.2304418    0.1486988 -45.06 0.0009742789    1.753    0.429
        42  -9.5211     61.4487    219.8703   1.1537968817e+02   2.2607250821e+01     0.128567   0.09588778 -53.03 0.0007388401    1.790    0.441
        43 -10.9365     90.7807    157.6536   1.0230457650e+02   3.1004666057e+01    0.2419284    0.2354891  88.81 0.0004504973    1.119    0.106
        44 -11.4418     96.5349    151.2558   9.9871955634e+01   3.1510961473e+01     0.544785    0.4529525 -17.48  0.003039162    1.598    0.374
        45 -10.0826    188.1589    152.2954   7.9862694137e+01   1.5277542310e+01    0.2789378    0.2394786  74.02  0.001630435    1.657    0.396
        46 -10.8420    133.8253    145.4834   8.9799448642e+01   2.6364241604e+01     1.159332     0.279079 -53.90  0.002867256    6.563    0.848
        47  -9.2042    112.9415    150.7156   9.5730763636e+01   2.8946429768e+01    0.2431596    0.1794404 -79.28 0.0009961773    1.626    0.385
        48  -8.6483    139.2857    150.6667   8.9568781843e+01   2.4358443748e+01    0.1352326    0.1087735  83.80 0.0002713618    1.621    0.383
        49  -9.5446    174.4286    149.1308   8.1847436787e+01   1.8257242087e+01    0.2224422    0.1593883  46.08 0.0007802066    1.443    0.307
        50  -9.9839     56.1915    217.5971   1.1626083969e+02   2.3611123892e+01    0.2777703    0.1215206  71.71  0.001361592    2.871    0.652
        51 -11.0418    108.1774    137.7635   9.4520941305e+01   3.2550363625e+01    0.5406848    0.4180418 -53.15  0.002883018    1.309    0.236
        52 -10.9067    105.5307    131.0839   9.3887794634e+01   3.4494725179e+01    0.4536818    0.3872111 -29.92  0.002369219    1.363    0.266
        53 -11.7142     96.2430    137.1823   9.7511654922e+01   3.4694635870e+01    0.3198822    0.2746642 -89.58 0.0004086859    1.178    0.151
        54  -9.9930    135.7258    129.2012   8.5937491455e+01   2.9312377611e+01    0.2989366    0.1245698 -52.58  0.001078168    2.688    0.628
        55 -10.2619    115.0532    128.8136   9.0946082963e+01   3.3293225374e+01    0.3270842    0.2740067  -9.12 0.0007647781    1.511    0.338
        56  -9.4423    160.9802    127.9733   7.9998963413e+01   2.4590265323e+01    0.2279469    0.1832983 -82.75  0.001145675    1.723    0.420
        57 -10.4984    102.6109    124.5392   9.3314665901e+01   3.6487621659e+01    0.2714603    0.2449618 -22.49 0.0007168199    1.292    0.226
        58 -10.1227    120.1864    122.9659   8.8351663421e+01   3.3611977572e+01    0.4121605     0.239004 -26.08  0.001536562    2.892    0.654
        59  -9.4691    110.0989    118.0556   8.9870599295e+01   3.6597451386e+01    0.2136131    0.2064619 -82.07 0.0003384533    1.004    0.004
        60  -9.9981    231.2724    113.6924   6.4233100171e+01   1.3297899353e+01    0.2476646    0.2123961 -20.75 0.0007505674    1.050    0.048
        61  -9.4110    167.4981    112.3204   7.4871620107e+01   2.6153817603e+01    0.3145413    0.2273034 -70.02  0.001342861    1.984    0.496
        62  -8.4910    146.4836    112.9930   7.9587299984e+01   3.0430998855e+01    0.1968455    0.1275352 -66.38 0.0005176088    2.212    0.548
        63 -11.0662    118.4980    110.7083   8.5887138616e+01   3.6617412843e+01    0.5771196    0.3542962  60.11  0.002437537    2.010    0.503
        64  -9.5777    205.5570    110.1432   6.7340155296e+01   1.8700319453e+01    0.2520058    0.1961561  34.70 0.0007077028    1.369    0.269
        65  -9.9562    134.4579    105.6820   8.0553211782e+01   3.4433500822e+01    0.4371967    0.1373273 -49.19    0.0013062    3.478    0.713
        66  -9.3190     74.9374    250.6991   1.1494619260e+02   1.6089004541e+01   0.09238669   0.07205939  45.19 0.0002153472    1.099    0.090
        67  -8.6070    154.4720     82.4363   6.9414783458e+01   3.4548194493e+01    0.1514522    0.1449735 -26.00 0.0001395886    1.033    0.032
        68  -8.4872    184.3498     77.3121   6.2246362862e+01   2.8485838096e+01    0.1523851    0.1127803  15.95 4.464395e-05    1.720    0.419
        69  -8.8542     69.6909     72.0432   9.0282561932e+01   5.4568295347e+01    0.2033534      0.17008 -54.26  0.000223866    1.094    0.086
        70 -19.5330     22.4846    145.9640   1.1873732428e+02   4.2067289004e+01     18.82622     4.942689 -80.52     0.066983    3.767    0.735
        71 -10.3931     71.9144    245.0353   1.1511740707e+02   1.7284171682e+01     0.168424    0.1378638 -62.40   0.00109404    1.610    0.379
        72 -10.0149     58.7086    229.1866   1.1653493393e+02   2.1325384391e+01    0.1416757      0.10709  60.00 0.0003569977    1.086    0.080
        73 -11.1952     50.4191    224.6047   1.1783489443e+02   2.3028357683e+01    0.2286148    0.1374115  79.96  0.000821399    1.672    0.402
        74  -9.2845    184.9138    212.9511   9.0950719674e+01   7.0040370096e+00    0.1639889    0.1381416  58.83  0.001137168    1.722    0.419
        75 -10.3607    189.7375     14.9918   4.2651447981e+01   3.5563446431e+01    0.2379834    0.2004063  88.21 0.0006953508    1.208    0.173
