#   1 NUMBER                 Running object number                                     
#   2 MAG_AUTO               Kron-like elliptical aperture magnitude                    [mag]
#   3 X_IMAGE                Object position along x                                    [pixel]
#   4 Y_IMAGE                Object position along y                                    [pixel]
#   5 X_WORLD                Barycenter position along world x axis                     [deg]
#   6 Y_WORLD                Barycenter position along world y axis                     [deg]
#   7 A_WORLD                Profile RMS along major axis (world units)                 [deg]
#   8 B_WORLD                Profile RMS along minor axis (world units)                 [deg]
#   9 THETA_WORLD            Position angle (CCW/world-x)                               [deg]
#  10 FWHM_WORLD             FWHM assuming a gaussian core                              [deg]
#  11 ELONGATION             A_IMAGE/B_IMAGE                                           
#  12 ELLIPTICITY            1 - B_IMAGE/A_IMAGE                                       
         1  -9.6807     63.8815      2.9426   7.7574670106e+01   6.3821144242e+01    0.3109865    0.2728953 -25.53  0.001615852    1.458    0.314
         2 -10.8802      4.3534      7.1021   1.0327377236e+02   7.1392509286e+01    0.9526063    0.3182386 -32.38  0.004256921    2.663    0.624
         3 -10.9403     20.9479      7.6412   9.5635252663e+01   6.9646370133e+01     1.096351    0.7027884  48.83   0.00659057    2.957    0.662
         4 -11.1122     23.8937     31.6448   1.0409554639e+02   6.6283426953e+01     1.328118    0.4835547 -31.10  0.004471267    2.818    0.645
         5  -9.8195     60.9117     31.4488   8.9534628639e+01   6.1409303283e+01    0.7594675    0.3401058 -23.62  0.002913214    2.627    0.619
         6 -10.7988     37.2975      9.8157   8.9673003956e+01   6.7355853074e+01    0.7522427    0.3821986 -39.59  0.002429636    2.634    0.620
         7 -10.3721     10.0893     18.8340   1.0538781105e+02   6.9391845836e+01     1.177334    0.4813735  -9.01  0.003813963    7.213    0.861
         8 -10.3839     45.7135     28.2017   9.3842633683e+01   6.4088872176e+01    0.7753697    0.4095274 -37.79  0.003441259    2.033    0.508
         9 -10.3973     52.3068     13.8561   8.5728976788e+01   6.4745806418e+01     1.042901    0.4050852  27.60  0.004498268    3.246    0.692
        10  -9.6000     62.9461     20.8599   8.4843002613e+01   6.2305061900e+01    0.4224814    0.2343186 -44.18  0.001485644    2.625    0.619
        11 -10.0848     64.5755     12.9303   8.1261049497e+01   6.2830233838e+01    0.3810224    0.2545846 -24.16  0.001535379    1.622    0.384
        12 -10.2626      4.9236     41.7186   1.1594931424e+02   6.6345993107e+01    0.6581073    0.2871621 -52.18  0.002648638    2.157    0.536
        13  -9.2424     77.9985      4.1129   7.4030562701e+01   6.1180004939e+01    0.4618884    0.2400348  -2.95  0.001713472    2.523    0.604
        14  -9.9800     69.3839     40.6736   9.0013266017e+01   5.8827138583e+01    0.7884086    0.3648019 -35.57   0.00253121    2.236    0.553
        15 -10.4649     73.3406     15.8101   7.9674955423e+01   6.1016812089e+01     1.278926    0.3019338 -28.03  0.004840836    4.611    0.783
        16  -9.4642    100.9428     32.6943   7.8018959038e+01   5.3926409448e+01    0.4639818    0.2184435 -28.47  0.001390645    2.386    0.581
        17  -9.1120    103.0533     21.4199   7.3795501034e+01   5.4706201225e+01    0.2984463    0.1804311 -25.27 0.0006429937    1.888    0.470
        18  -9.4066    152.2694     29.4896   6.6495757129e+01   4.3000226665e+01    0.3516286    0.2106244   4.91  0.001508907    3.436    0.709
        19  -9.0138     40.8565     21.3135   9.3017865140e+01   6.5600886775e+01    0.2958328    0.1545087 -26.30 0.0009653305    1.872    0.466
        20  -9.9972    141.3594     12.9051   6.3798113624e+01   4.7187138928e+01    0.3808972    0.2393323   3.68  0.002005653    2.528    0.604
        21  -8.7460    115.4359      4.1626   6.5724999357e+01   5.3622343165e+01    0.2488146    0.1821793 -46.73  0.001086568    1.686    0.407
        22  -8.8976    112.1351     15.5382   6.9895798872e+01   5.3362371529e+01    0.2747681    0.1855122 -35.22  0.001415954    1.734    0.423
        23  -9.1739    113.7929     10.2683   6.7915873076e+01   5.3475224395e+01    0.4192295    0.1765417  42.25   0.00081011    2.287    0.563
        24  -8.7423     95.9552     16.9548   7.4004862873e+01   5.6586068336e+01    0.2267597    0.1682056 -30.43 0.0004599584    1.564    0.361
        25  -8.7501     96.4977     12.9783   7.2531825927e+01   5.6839191467e+01    0.3010322    0.1783724  15.38  0.001614529    2.160    0.537
        26  -9.4823     85.2656     13.1439   7.5381296571e+01   5.9041311655e+01    0.3189913    0.2323529 -58.36  0.001548906    2.147    0.534
        27  -7.9288     80.6741     12.6932   7.6445506134e+01   5.9955886747e+01    0.2096325    0.1504977 -44.33  0.001193089    1.886    0.470
        28  -8.0871    136.2779      1.6008   6.1499896759e+01   4.9287254318e+01    0.2060104    0.1008658  48.27  0.001002343    1.872    0.466
        29  -9.3912    133.3018     11.4353   6.4705554093e+01   4.9119620019e+01     0.367572    0.1552715 -42.60  0.001526271    2.801    0.643
        30  -9.1007    131.9057      5.6341   6.3300883216e+01   4.9926336687e+01    0.3525549    0.1569216  48.92  0.001531117    1.983    0.496
        31  -8.4984    120.9526      5.9726   6.5264419110e+01   5.2292321133e+01    0.2321085    0.1334132  61.74  0.001321755    1.423    0.297
        32  -8.3137    125.3177     13.0583   6.6570246716e+01   5.0736433703e+01    0.1886971     0.170924  -5.32 0.0006619481    1.312    0.238
        33  -8.7979    126.8747      8.9077   6.5080896106e+01   5.0758328514e+01    0.2437338    0.1516184  37.33 0.0007500683    1.702    0.413
        34  -9.0641    125.7499      4.8015   6.4084145367e+01   5.1344147458e+01    0.2643287    0.1953921  32.92  0.001117856    1.463    0.316
        35  -8.9219    101.9595      8.0853   6.9669485780e+01   5.6140701788e+01    0.2998863    0.1894425 -47.08  0.000676286    2.113    0.527
        36  -8.7622     97.7032      5.6975   6.9812320802e+01   5.7203351172e+01    0.3435676    0.1744487  43.88  0.001324447    1.647    0.393
        37  -8.4034     95.7047      3.3018   6.9452161103e+01   5.7792973428e+01      0.23106    0.1688284  41.19 0.0005248515    1.146    0.127
        38  -8.1357    104.8058      1.8743   6.7061798861e+01   5.6036201429e+01    0.2230034    0.1339114  53.79  0.000827066    1.316    0.240
        39  -8.0661    110.2915      7.6823   6.7805364141e+01   5.4434513615e+01    0.1634233    0.1445048  39.84 0.0004172602    1.113    0.102
        40  -8.3629    111.0105      4.4816   6.6662102252e+01   5.4537960519e+01    0.2919645    0.1540418  29.49  0.001509978    2.294    0.564
        41  -8.2645    108.6971      2.3295   6.6437206038e+01   5.5189810578e+01    0.1715446    0.1627144  66.24 0.0008552925    1.186    0.157
        42  -7.9235     85.4225      6.3820   7.2940295796e+01   5.9586372314e+01    0.2405913   0.05668178  45.79 0.0009209904    3.171    0.685
        43  -8.3102    152.1411      3.1295   5.9656393508e+01   4.5634710673e+01    0.3087019    0.1414808 -58.85  0.001406267    3.030    0.670
        44  -8.6049     89.0330      2.7006   7.0770084312e+01   5.9167946260e+01    0.1727635    0.1519602 -24.42 0.0006855519    1.384    0.278
        45 -10.9374    123.5959     91.3547   8.9985215456e+01   4.0008143699e+01     1.168039    0.6855999 -28.97  0.003111536    2.105    0.525
        46  -9.6560    229.9967    250.3633   1.0081372975e+02  -1.2211968231e+01    0.3580873    0.1408076  30.92  0.001131806    2.466    0.594
        47 -12.0424    186.0722    246.3608   1.0868976364e+02  -5.2082081892e+00     1.810189     0.521225  40.70  0.006612543    3.262    0.693
        48  -9.2983    139.9937     75.7759   8.1630782164e+01   3.9242467876e+01    0.5250103    0.2570302 -34.96  0.001680316    2.256    0.557
        49 -10.2815    108.8908    112.9392   9.9811257253e+01   3.8511049226e+01     1.170292    0.5228217 -47.90  0.002024542    2.191    0.544
        50 -10.4957    108.7824     99.8827   9.6365335841e+01   4.1346135628e+01     1.015671    0.6499728  70.28   0.00376914    2.605    0.616
        51 -11.0063    121.3194    109.5673   9.5518133704e+01   3.6746067117e+01     1.403462    0.6523907 -44.89  0.004400429    2.129    0.530
        52 -10.3722    128.5013    100.9723   9.1346025565e+01   3.7035608622e+01     1.032157    0.5647314 -26.33  0.002528028    2.772    0.639
        53  -9.8886     27.4100    123.0222   1.2690527795e+02   4.7891025119e+01    0.5572317    0.3268361  73.72  0.002124527    2.729    0.634
        54  -9.8193    135.2755    122.5128   9.5203072302e+01   3.0962269816e+01    0.4981838    0.2711888 -50.04  0.001776407    1.838    0.456
        55  -9.7992    130.3712    118.7772   9.5516596850e+01   3.2834432581e+01    0.4097034    0.3061454  83.89 0.0008444865    1.830    0.454
        56  -9.6567     41.4457    122.0670   1.2240244726e+02   4.6723544424e+01     0.528267    0.2620066 -76.12  0.001791741    2.823    0.646
        57  -8.4467    158.0524    122.0177   8.9593401360e+01   2.6105519439e+01    0.2492364      0.18961 -82.42 0.0009422567    1.661    0.398
        58  -8.7102    243.0283    121.0255   7.3661936273e+01   8.4920035047e+00    0.1974874    0.1619981 -10.76 0.0004989418    1.657    0.397
        59  -9.3963    152.4959    116.3661   8.9473161000e+01   2.8546920167e+01    0.3869562    0.2320414 -31.32  0.001003115    2.037    0.509
        60 -10.0180    140.6732    118.3626   9.2810876981e+01   3.0716169687e+01    0.5338929    0.3779824 -80.94  0.001205015    2.024    0.506
        61  -9.6669    140.8635    111.9065   9.1119121055e+01   3.2064899667e+01    0.8947003    0.5105152  23.92  0.003037542    3.188    0.686
        62 -10.2252     91.9177    113.4485   1.0485729034e+02   4.1551513582e+01    0.6416586    0.4323407 -67.60  0.002097889    1.853    0.460
        63  -8.3100      1.3215    116.4071   1.3374805465e+02   5.1383673353e+01    0.2954672    0.1018615 -73.23   0.00107312    2.820    0.645
        64  -9.6601     81.5283     99.6283   1.0441855410e+02   4.6380853116e+01    0.7067922     0.303297 -48.78  0.002137293    2.236    0.553
        65 -10.2345     78.1800    112.9972   1.0890782722e+02   4.3955180637e+01    0.5661673    0.3738562 -78.60  0.001814421    2.329    0.571
        66  -8.2615     78.2129    105.3541   1.0696623307e+02   4.5672223160e+01     0.349091      0.23574  -2.27  0.001548812    2.127    0.530
        67  -9.4319     19.6879    115.8940   1.2802775093e+02   5.0227732807e+01    0.2744451    0.1687451   2.42  0.001454848    2.124    0.529
        68  -7.7977    167.2513    114.2058   8.5630953061e+01   2.5700463339e+01    0.2141993    0.1760252 -79.31 0.0005003097    1.353    0.261
        69  -9.3420     64.6101    103.7802   1.1090017359e+02   4.8074243082e+01    0.5048534    0.3113099 -64.81  0.002319548    1.932    0.482
        70  -8.6004     68.9400    103.0192   1.0930884441e+02   4.7616600401e+01     0.331301    0.2141955 -33.46  0.001230692    1.602    0.376
        71 -10.3402     63.0078     95.7653   1.0936155844e+02   5.0050429036e+01    0.5478027    0.3793454 -84.60   0.00154868    2.532    0.605
        72  -9.3162     64.6242     86.1436   1.0619782782e+02   5.1825360798e+01    0.7872558    0.4701895 -32.20  0.003795573    1.726    0.421
        73  -9.4272     59.7458    109.6099   1.1389564576e+02   4.7428857992e+01     0.566545    0.3722871 -72.51   0.00174169    1.934    0.483
        74  -9.5370     14.2360    111.5030   1.2896737496e+02   5.1660476140e+01     0.397255    0.2425193  82.49  0.001650136    2.376    0.579
        75  -8.9336    158.6629    111.8869   8.6940886139e+01   2.8109471065e+01    0.2720628     0.255363  12.38 0.0005918061    1.209    0.173
        76  -9.6174     35.5520    111.2575   1.2208759553e+02   4.9877443758e+01    0.2624206    0.2225062 -50.13 0.0006604432    1.011    0.011
        77  -8.8712    149.9711    109.7939   8.8398815639e+01   3.0491970751e+01    0.2887817    0.2069266 -50.52 0.0008162231    1.394    0.283
        78  -9.5846    149.6003    103.3815   8.6834769502e+01   3.1889146308e+01    0.4490613    0.2896275 -56.72 0.0009551043    1.705    0.414
        79 -10.9296     44.6481    102.3992   1.1714489982e+02   5.0924529140e+01    0.7841346    0.4824009  73.04  0.002760466    3.519    0.716
        80  -8.9186     40.1640    106.9621   1.1966667640e+02   5.0386766026e+01    0.1965916     0.170581 -78.92 0.0005081454    1.302    0.232
        81  -8.6640     14.3556    105.0276   1.2775873268e+02   5.3126267512e+01    0.2251844    0.1543391 -26.01 0.0007158495    1.546    0.353
        82 -10.0992     20.3581     85.2107   1.2156386579e+02   5.6997334736e+01    0.7432714    0.2043928 -51.60  0.001963163    2.629    0.620
        83 -10.6502     25.8883     78.6148   1.1793355240e+02   5.7890643212e+01    0.7424046    0.5095919  87.77  0.003217759    2.783    0.641
        84 -10.7538     32.1711     64.3941   1.1162546544e+02   6.0048062370e+01     1.521605     0.663725 -20.06  0.005383343    4.486    0.777
        85 -10.0541     34.5911     90.8914   1.1785025484e+02   5.4512817919e+01    0.5532458    0.2931752 -71.59   0.00164203    2.846    0.649
        86 -10.0232     37.0113     81.0688   1.1449267784e+02   5.6313361443e+01    0.7384188    0.3620573 -11.10  0.002742899    3.975    0.748
        87  -9.4213      6.2840    103.5084   1.3011152822e+02   5.4011022258e+01    0.3720353    0.2597947  79.57   0.00135385    1.886    0.470
        88  -7.9582      1.6312    105.2064   1.3189663032e+02   5.3908908020e+01     0.285684   0.08667827 -53.95  0.001270648    2.265    0.559
        89  -8.2498    166.0071    103.9802   8.3357345806e+01   2.8050901613e+01    0.2362481    0.2075795 -70.29 0.0005870376    1.145    0.127
        90 -10.8102     20.7189    100.8031   1.2483002869e+02   5.3589509988e+01       1.0056    0.5732818  87.00  0.004244435    3.396    0.706
        91  -8.3673     73.7382    102.9002   1.0774283721e+02   4.6917657132e+01     0.275446    0.1645384 -52.38 0.0006872965    1.623    0.384
        92  -8.4667    159.0038    101.0557   8.4122311964e+01   3.0223428553e+01    0.2307091    0.2129054 -76.36 0.0004737975    1.075    0.070
        93  -8.8470    167.6298     98.8555   8.1731570183e+01   2.8683165047e+01    0.2684731    0.2528073  67.11 0.0002818041    1.066    0.062
        94  -8.9785    164.5213     94.8000   8.1350047551e+01   3.0171954028e+01    0.2893452    0.2521103 -71.36 0.0007789164    1.161    0.139
        95  -9.4856     94.3675     97.2479   9.9833543401e+01   4.4645536614e+01    0.3211026    0.2686467 -63.40  0.000541338    1.357    0.263
        96  -8.9308     96.1500     90.9108   9.7526651619e+01   4.5613626646e+01    0.5357417     0.340292  -5.80  0.002112444    2.730    0.634
        97  -8.4671    150.4014     96.6729   8.4902210589e+01   3.3038827617e+01    0.4191179    0.2558667  22.13  0.001254786    3.038    0.671
        98  -8.2626    149.6675     92.6917   8.4020090906e+01   3.3972746815e+01    0.2360641    0.1532413 -38.91   0.00106242    1.594    0.372
        99  -8.8825    150.3333     89.0518   8.2906746753e+01   3.4507080847e+01    0.3003229    0.2533133 -49.07 0.0009458037    1.197    0.164
       100  -9.1512    242.6009     95.1933   6.8467345562e+01   1.3161230644e+01    0.1969316    0.1702841   3.26 0.0005131242    1.770    0.435
       101 -10.2413      4.3337     89.8315   1.2823151890e+02   5.7126463932e+01     0.785521     0.359117 -78.21  0.001865913    3.240    0.691
       102  -9.5784      4.1893     80.5182   1.2637808242e+02   5.9096395856e+01    0.7607503    0.1983763 -35.53  0.002643027    4.618    0.783
       103  -9.6230    223.9309     91.7528   7.0306832284e+01   1.7513176088e+01    0.2369847    0.2170496  88.54 0.0003908241    1.135    0.119
       104  -9.2206    157.5913     90.8871   8.1805224517e+01   3.2501349973e+01    0.3782934    0.2180377 -42.15  0.001138545    1.748    0.428
       105  -9.7504    111.2466     89.8654   9.2886095753e+01   4.2875141939e+01    0.7340977    0.3646274  31.10  0.002712012    2.677    0.626
       106  -7.6990     78.0000     89.9632   1.0287602994e+02   4.8984624392e+01      0.23686   0.07670472 -47.47  0.000606998    2.978    0.664
       107 -10.2972     47.9194     84.4963   1.1150841037e+02   5.4383040233e+01     0.668671    0.4095393 -58.63  0.001555825    1.788    0.441
       108  -9.2301     49.1217     77.2833   1.0907036971e+02   5.5679316252e+01    0.6597759    0.3926363 -11.60  0.003117179    2.242    0.554
       109 -10.4118     85.4172     86.6545   9.9582849952e+01   4.8397611265e+01    0.5683436    0.4174865  66.61 0.0009859904    1.984    0.496
       110  -9.5877     87.9108     78.5671   9.6427359633e+01   4.9509938809e+01    0.5746539    0.3181037  23.68  0.001651663    2.390    0.582
       111  -9.2253    229.1169     87.6704   6.8715399146e+01   1.7145281566e+01     0.254722    0.2020497  34.22 0.0009865136    1.822    0.451
       112  -8.9918     92.7046    103.5069   1.0203226955e+02   4.3615722708e+01    0.5908856    0.3427776  16.95  0.002245836    2.761    0.638
       113  -8.5717    163.4327     86.5441   7.9460803113e+01   3.1955204779e+01    0.3349298    0.1798022 -36.55  0.001257335    2.003    0.501
       114 -10.3834    104.0578     82.7054   9.2849444752e+01   4.5688285237e+01    0.4985132    0.3224063 -55.30 0.0009357717    1.848    0.459
       115  -9.6637    105.5637     71.8471   8.9196171865e+01   4.7343840996e+01     0.768815    0.5379745 -14.99   0.00374715    1.781    0.439
       116  -8.7965    241.5638     84.2314   6.6387714381e+01   1.5217405630e+01    0.1804525    0.1169169 -35.48 0.0009491816    1.694    0.410
       117  -8.8381    157.7666     83.1005   7.9733950119e+01   3.3884136806e+01    0.4028886    0.2483624 -40.15  0.001244166    1.667    0.400
       118  -9.1790    156.8318     76.5037   7.8190105996e+01   3.5252605673e+01    0.4612908    0.2317692 -43.36  0.001708906    2.024    0.506
       119  -7.6827    170.4870     83.5203   7.7291198710e+01   3.0864913000e+01    0.1473045    0.1347275 -85.32 0.0008098487    1.041    0.040
       120  -9.3265     74.3382     79.4811   1.0103153968e+02   5.1650214198e+01    0.6297383    0.2559905 -45.79  0.002102375    2.408    0.585
       121  -7.8014    226.3126     81.0209   6.7694317034e+01   1.8848826669e+01    0.1906247    0.1555583 -58.61 0.0006406021    1.081    0.075
       122  -8.3631    149.8322     81.0079   8.0868903764e+01   3.6084001422e+01    0.2879045     0.187817 -51.30 0.0004797608    1.622    0.383
       123  -7.9705    150.3546     77.3197   7.9764351898e+01   3.6608666769e+01     0.238146    0.1597934  19.02  0.000914227    2.453    0.592
       124  -8.7910    118.9501     80.4746   8.8118507986e+01   4.3044737869e+01    0.3318794    0.2189883 -53.36 0.0006188186    1.731    0.422
       125  -8.5255    119.9775     76.0029   8.6555813887e+01   4.3623622659e+01    0.3259679    0.1971125  39.02 0.0007962126    1.691    0.409
       126 -10.0616     65.8586    110.8720   1.1224533589e+02   4.6296306123e+01    0.7487324    0.4851739  79.30  0.002346616    3.025    0.669
       127  -8.1035    184.3017     78.1161   7.3431963236e+01   2.8611642166e+01    0.2380668    0.1703772 -39.62 0.0008223548    1.450    0.310
       128  -8.6128    166.3624     78.5838   7.6831969790e+01   3.2683846835e+01    0.2532968    0.1767432 -37.85 0.0005939398    1.511    0.338
       129  -7.5903    240.6355     78.6881   6.5387820447e+01   1.6312965988e+01    0.1177154    0.1045648  16.31 0.0007039548    1.757    0.431
       130  -9.6952    127.3680     75.1393   8.4442060126e+01   4.2171534047e+01     0.470603     0.319419 -57.04 0.0008285558    1.761    0.432
       131  -8.9794    130.4782     65.9723   8.1056014115e+01   4.3009599388e+01    0.6037824    0.3602839 -30.34    0.0022996    1.908    0.476
       132  -9.9194     81.5157     72.3728   9.6552717402e+01   5.1768983689e+01    0.3838557    0.3095732 -73.12  0.001008159    1.811    0.448
       133  -9.2144     83.0128     64.9969   9.3768035913e+01   5.2788484437e+01    0.5405081    0.3312822  -8.76  0.002384239    2.441    0.590
       134 -10.8498    201.8509    249.1687   1.0599889239e+02  -8.0706120520e+00    0.6469508    0.2551048  38.65  0.002872422    2.385    0.581
       135  -7.4042      7.2760    248.3195   1.4488664310e+02   2.0577517125e+01    0.1001045   0.07852669 -65.23 0.0001890807    1.574    0.365
       136  -9.3107    140.4574     82.3497   8.3339068934e+01   3.7980373275e+01    0.6236425     0.307397 -41.05  0.001656484    2.079    0.519
       137 -10.3883     16.2470     67.4052   1.1867948459e+02   6.0906364936e+01     1.365888    0.1611083 -51.73  0.004530691    4.491    0.777
       138  -9.1350    248.2064    242.0680   9.6092118939e+01  -1.3349403008e+01    0.2038861    0.1702718 -18.87 0.0003535392    1.189    0.159
       139  -8.2101    152.3371    249.6837   1.1616057898e+02  -3.9361398167e-01    0.1332994   0.09782345  63.96 0.0007048066    1.698    0.411
       140 -10.1344    188.2509    233.9905   1.0617886400e+02  -3.4026313490e+00    0.3180862    0.2324242 -50.37  0.001081976    1.573    0.364
       141  -7.5269    106.6070    236.1897   1.2399357496e+02   9.7709957168e+00    0.1748822     0.124415 -48.99  0.000441496    1.608    0.378
       142 -10.1318    142.2031    228.9299   1.1514423727e+02   5.3121162392e+00    0.2450808    0.2302227 -57.69 0.0002965584    1.149    0.130
       143  -7.7359     14.7707    219.3824   1.4151623886e+02   2.5994911760e+01     0.135511     0.116331  31.15 0.0002931147    1.549    0.354
       144  -6.7777     55.7230    217.2582   1.3277075415e+02   2.1623958956e+01     0.131706   0.08669861  68.97 0.0006850167    1.468    0.319
       145  -7.2084    144.2846    214.3267   1.1227198765e+02   8.0043993739e+00    0.1423471    0.1127526 -11.52 0.0003678352    1.605    0.377
       146 -10.8080     22.1080     53.8064   1.1241952952e+02   6.2918270823e+01    0.7117718    0.4833695 -78.12  0.003067173    3.398    0.706
       147 -10.1420     13.2575     45.4558   1.1350331236e+02   6.5101920741e+01    0.7006416    0.3438897  -2.89  0.002690885    2.526    0.604
       148  -8.9509      6.3748    213.2795   1.4271608619e+02   2.8201045888e+01    0.2178217    0.1548037 -53.39  0.001101648    1.717    0.417
       149 -10.0546      7.4110     28.5106   1.1033996769e+02   6.8249622209e+01    0.3364671    0.2629272  20.77  0.001092909    1.513    0.339
       150  -8.5466    249.8467     73.8531   6.3363518117e+01   1.5284315791e+01    0.1853041    0.1241215 -66.88 0.0006836602    1.339    0.253
       151  -8.4675    162.8022     73.1718   7.6125626565e+01   3.4428114854e+01    0.2804429    0.1955565 -76.48  0.000549841    1.790    0.441
       152  -9.2466    115.2020     72.0794   8.6649798782e+01   4.5316408975e+01     0.491505    0.2750528 -30.89  0.001200528    2.028    0.507
       153 -10.5343     55.2238     70.9169   1.0500545641e+02   5.6099835795e+01    0.6015304    0.3986961  55.48  0.001359399    2.400    0.583
       154  -8.8413     55.5629     63.0211   1.0242443865e+02   5.7474483775e+01    0.3808512    0.2892691  23.34  0.001627119    1.292    0.226
       155 -10.0433     62.6350     60.8278   9.9203208207e+01   5.6828966250e+01    0.6804494    0.2577906  33.17  0.001062392    2.745    0.636
       156  -9.0679    169.1354     71.8529   7.4585206666e+01   3.3172299993e+01     0.268716    0.2430209 -31.53 0.0007728338    1.254    0.203
       157  -9.4288    147.0928     69.3737   7.8303244740e+01   3.8692941704e+01    0.3971421    0.2509273 -61.06 0.0008425062    1.990    0.497
       158  -8.6513    146.8427     64.1731   7.6929780283e+01   3.9581274767e+01    0.3829811    0.1796655  39.76  0.001460745    2.673    0.626
       159  -8.4730    156.5118     70.0746   7.6551293019e+01   3.6400909601e+01     0.207171    0.1411565 -39.11  0.000399546    1.541    0.351
       160  -9.8619     94.8947     68.2527   9.1162329398e+01   5.0052377514e+01    0.4132568    0.2610818 -47.08 0.0009261016    1.754    0.430
       161  -9.6357     97.0471     57.9639   8.7298146077e+01   5.1301588171e+01    0.6824509    0.4698325 -15.01  0.003516222    1.722    0.419
       162  -9.3559    138.4356     65.1035   7.8994378314e+01   4.1357783844e+01    0.5638843    0.2866274 -31.63  0.001543775    2.278    0.561
       163  -9.3989    138.9286     56.0411   7.6325618694e+01   4.2624692463e+01    0.5789846    0.2867691 -47.61  0.001479269    2.307    0.566
       164  -9.0993    121.2080     66.0473   8.3321097881e+01   4.5034600682e+01    0.3160593    0.2411278 -56.52 0.0006515046    1.533    0.348
       165  -8.5725    122.1981     61.5967   8.1756877765e+01   4.5523374693e+01    0.4509026    0.2567127  22.89  0.001736559    3.020    0.669
       166  -9.5406    109.8887     64.0659   8.5649429855e+01   4.7753681123e+01    0.3766244    0.2822163 -53.80 0.0007088378    1.583    0.368
       167  -8.9803    110.8401     58.1928   8.3595901784e+01   4.8471622060e+01    0.3521069    0.2575321  17.80  0.001099179    1.621    0.383
       168  -7.5399     75.6286     66.2423   9.6539188779e+01   5.3846362085e+01     0.187122    0.1180188 -29.95 0.0009423444    1.613    0.380
       169  -8.2108    170.7197     65.0105   7.2559932965e+01   3.3902338676e+01    0.1914343    0.1751556 -64.01 0.0004141913    1.099    0.090
       170  -8.6522    157.4637     63.1612   7.4529638229e+01   3.7279092358e+01    0.2686031    0.2033084 -55.04 0.0007441579    1.387    0.279
       171  -8.2217    164.4749     60.7068   7.2577293917e+01   3.6022093256e+01    0.2974594    0.1409522 -34.10  0.001108679    2.364    0.577
       172  -8.9108     49.3829     62.1527   1.0440526118e+02   5.8456038935e+01    0.1705023    0.1145708 -51.18 0.0009074004    1.695    0.410
       173  -9.2046     87.8662     56.1895   8.9429072672e+01   5.3325022335e+01    0.7147679    0.3442309 -29.66  0.003144206    2.350    0.574
       174  -9.9375     73.0097     59.1186   9.5105186318e+01   5.5473816642e+01    0.4666896    0.2452569 -48.57  0.001044185    2.299    0.565
       175  -9.3732     75.3443     50.7352   9.1542397908e+01   5.6386525633e+01    0.5496583    0.3084172  17.78  0.002468516    2.433    0.589
       176 -10.2223     85.0964     48.0575   8.7576842266e+01   5.5039190774e+01    0.3663662    0.3043106 -64.56 0.0009240035    1.723    0.419
       177  -9.2560     80.0408     46.2245   8.8511660929e+01   5.6216784765e+01    0.3404894    0.2102278 -24.57 0.0005255095    1.730    0.422
       178 -10.2715     89.4594     38.4855   8.3055730961e+01   5.5501430840e+01    0.8567974    0.3029906  36.64  0.003177604    3.312    0.698
       179  -8.7519    152.8729     60.1900   7.4627113559e+01   3.8800126364e+01    0.2156606    0.1789772 -79.61  0.000778518    1.291    0.225
       180  -8.9877    144.2089     36.6399   6.9836848634e+01   4.4008886218e+01    0.3046359    0.2255823 -82.29  0.001300792    1.576    0.365
       181 -10.2824    149.6479     46.4013   7.1508441565e+01   4.1512929949e+01    0.6829892    0.2706827 -44.41  0.002689427    2.762    0.638
       182  -9.4308    152.9449     40.8446   6.9409804450e+01   4.1476961666e+01    0.3701822     0.258386  85.74  0.001214618    1.579    0.367
       183  -9.0397    146.8693     59.3623   7.5601385153e+01   4.0312974319e+01    0.2999547    0.1823635 -54.10  0.001139594    1.910    0.476
       184  -9.1842    147.8435     53.3841   7.3763139005e+01   4.0963961300e+01    0.4391962    0.2201625 -23.66  0.001778687    2.885    0.653
       185  -7.9008      9.5079     59.9938   1.1936582045e+02   6.2803033272e+01      0.17727   0.09551265 -51.12  0.001025003    1.567    0.362
       186  -9.2115    130.0207     56.6924   7.8468903216e+01   4.4538539810e+01    0.5482847    0.2194849 -35.64  0.001531322    2.690    0.628
       187  -9.2347    118.3433     54.8163   8.0664606678e+01   4.7378743323e+01     0.442906    0.2676467 -31.65  0.001256159    1.814    0.449
       188  -8.9849    121.0662     46.9713   7.7636387870e+01   4.7886748668e+01    0.3023758    0.2066753 -31.18 0.0004824213    1.612    0.380
       189 -10.0560     50.0768     54.5140   1.0165899149e+02   5.9662724440e+01    0.4454432    0.3323194 -58.78  0.001956585    1.949    0.487
       190  -9.9094     56.3257     43.4113   9.5524040374e+01   6.0501263495e+01    0.9384242    0.4566045   9.51  0.003112397    5.255    0.810
       191  -8.9720    162.9303     53.3669   7.0951392340e+01   3.7464617505e+01      0.43154    0.2040639 -32.70  0.001578389    2.424    0.588
       192  -8.5584    152.5821     53.2718   7.2817743703e+01   3.9884054003e+01    0.2918634    0.1304307 -37.83  0.001178881    2.360    0.576
       193  -8.7712    105.4048     53.2285   8.3482545412e+01   5.0334428574e+01    0.2916668    0.2281879 -58.64 0.0007701102    1.635    0.388
       194  -8.0738    105.3695     49.3403   8.2260328846e+01   5.0895345307e+01    0.2768607    0.1538993  30.64  0.001062266    2.128    0.530
       195  -9.5150     43.9132     53.6490   1.0370008494e+02   6.0601555337e+01    0.2829046    0.2380643 -60.23 0.0007996886    1.706    0.414
       196  -8.8357     39.7654     51.8847   1.0471649725e+02   6.1398014166e+01    0.3356564    0.1742031 -30.36  0.001748117    1.857    0.462
       197  -8.7338    157.3672     49.0953   7.0820041950e+01   3.9358759312e+01    0.2567077    0.1859692  73.15 0.0006079188    1.336    0.251
       198  -9.2701    141.8152     47.2876   7.3263352792e+01   4.3194619625e+01    0.5190499    0.2195353 -39.08  0.002200522    2.506    0.601
       199  -8.9419    139.4780     40.1730   7.1719782345e+01   4.4653032492e+01    0.3834661    0.2235571 -43.88  0.001489037    1.899    0.473
       200  -9.6786    130.6000     45.8914   7.5183350068e+01   4.5921466004e+01    0.7765393    0.3681391 -16.84  0.002779391    4.065    0.754
       201  -8.7460    132.8276     35.8163   7.1784726536e+01   4.6690506239e+01    0.2439791    0.1844153 -38.19 0.0004323908    1.477    0.323
       202 -10.7706    134.0688     30.9611   7.0139288015e+01   4.6975725409e+01    0.3049905    0.2476963   8.51            0    1.524    0.344
       203  -8.6469    111.8310     46.8585   7.9822735275e+01   4.9887787972e+01    0.2747105    0.2390939  16.34 0.0009727487    1.185    0.156
       204  -8.7583    113.1685     42.2615   7.8058166024e+01   5.0209227364e+01    0.4528463    0.2629219   7.21  0.001838563    3.273    0.694
       205  -7.4540    162.4074     46.2222   6.9189840890e+01   3.8578592060e+01     0.178163    0.1194385 -51.19 0.0004307723    1.580    0.367
       206  -9.6498    220.3820     43.1923   6.0523159397e+01   2.5877112842e+01    0.3310345    0.2233306 -47.68 0.0009235163    1.418    0.295
       207 -10.0771     10.4377    207.2954   1.4143441657e+02   2.9168365728e+01     0.426122    0.3585453   5.43  0.002850987    1.814    0.449
       208  -9.2685    192.9399    195.8804   9.8198043713e+01   3.0553890374e+00     0.727039    0.3463405 -62.53  0.002115711    5.064    0.803
       209  -8.4505    250.6252    199.0252   8.7883555317e+01  -6.8669626186e+00     0.185984    0.1054754 -38.35 0.0009751605    1.518    0.341
       210  -9.7786     79.6479     23.9250   8.0794229379e+01   5.9043774501e+01    0.4901115    0.2421333  29.80  0.002063773    2.209    0.547
       211  -9.1628     84.7232     21.9219   7.8639928565e+01   5.8301158807e+01     0.256669    0.1925482  39.91 0.0006472835    1.126    0.112
       212  -9.8829     37.7741     42.1554   1.0215150929e+02   6.3176755265e+01    0.3066414    0.2793615  77.46  0.001421629    1.946    0.486
       213 -10.5993     35.9050     37.9762   1.0139988551e+02   6.4024065674e+01    0.5246946    0.2887586  -5.94 0.0003587308    2.310    0.567
       214  -9.2483    110.3236     33.2766   7.5907759888e+01   5.1909603774e+01    0.3559509    0.2700898 -48.48  0.001011328    1.595    0.373
       215  -9.1768    105.0060     41.3721   7.9806207497e+01   5.2035598370e+01    0.3333894    0.2274201 -51.38 0.0009633852    1.886    0.470
       216  -8.6653    106.0617     36.4660   7.7960478991e+01   5.2426482599e+01    0.2989022    0.1793233  32.48 0.0007818359    1.771    0.435
       217  -8.6634    122.8390     40.7989   7.5367173318e+01   4.8301584016e+01    0.3729182    0.2254483  25.03  0.001736155    2.283    0.562
       218  -8.8138     53.5083     39.0591   9.4986197161e+01   6.1533953067e+01    0.3457727    0.1804999 -27.55  0.001817264    1.945    0.486
       219  -8.7166     54.5515     35.5272   9.3308847399e+01   6.1862973602e+01    0.3071083    0.1799433 -13.44  0.001652612    1.938    0.484
       220  -8.3778    160.4774     38.2309   6.7441913221e+01   4.0064126008e+01    0.3790556    0.1328355 -32.32  0.001485388    3.242    0.692
       221  -7.4031    193.9588     35.7184   6.2026605619e+01   3.2691937122e+01    0.1718688    0.1407738  83.94 0.0002565316    1.053    0.050
       222  -8.8345    118.9266     34.7387   7.4393241539e+01   4.9893854341e+01     0.281615     0.174457 -37.18 0.0006541371    1.805    0.446
       223  -9.6329    248.7047    180.8722   8.4738734269e+01  -3.4305347013e+00    0.3799885     0.279505 -68.76  0.002027699    2.049    0.512
       224  -7.7461     19.5539    177.9624   1.3668138980e+02   3.5227494831e+01     0.195086    0.1061717 -72.29 0.0005374404    1.518    0.341
       225  -8.5019    153.5473     35.0007   6.7746805572e+01   4.2061551134e+01    0.1762623    0.1299391 -35.52 0.0003657562    1.526    0.345
       226  -7.2097     13.2482     34.6325   1.0987265079e+02   6.6844359312e+01   0.09382967   0.08539633 -48.27 0.0006948664    1.621    0.383
       227  -7.7129     96.8197     33.1514   7.9237695361e+01   5.4706429825e+01     0.168651     0.133202  16.00 0.0003443942    1.294    0.227
       228  -8.9387    237.2891    176.1474   8.5759728677e+01  -7.7058475016e-01    0.2664613    0.1921329  46.01 0.0006745877    1.626    0.385
       229  -9.2170     91.4711     26.2403   7.8314483751e+01   5.6542708268e+01    0.3176084    0.2103692 -47.80  0.001261768    2.033    0.508
       230  -8.7736     92.0724     20.9732   7.6347777147e+01   5.6971120321e+01    0.2822432    0.1806437  29.19 0.0007671856    1.546    0.353
       231  -8.1242    119.2868     27.0521   7.1960267227e+01   5.0678809896e+01     0.172681    0.1618089  49.21 0.0009112676    1.083    0.077
       232  -7.9568    110.3321     26.5188   7.3759026658e+01   5.2658291776e+01    0.1952796    0.1191276 -25.30  0.001019416    1.882    0.469
       233  -8.6504    144.3585     25.9720   6.6873116177e+01   4.5198450993e+01    0.1653125    0.1594865 -69.65 0.0005716414    1.164    0.141
       234  -8.7893    128.5569     25.4057   6.9588865906e+01   4.8815318413e+01    0.3253577    0.2214262 -20.19  0.001739854    1.787    0.440
       235  -7.2404    162.2769     25.3429   6.3862236194e+01   4.1167917539e+01    0.1230915   0.09147314  37.69  0.000700385    1.624    0.384
       236  -9.1507    237.7357    171.3771   8.4732675987e+01   4.0540538352e-02    0.2444903    0.2199551 -14.20 0.0003859346    1.116    0.104
       237  -8.2765    156.9671     27.6699   6.5264704786e+01   4.2127274099e+01    0.1827944    0.1487154  72.61 0.0005539322    1.060    0.057
       238  -8.9605     92.3073    168.8965   1.1683782613e+02   2.7974794759e+01    0.2353902    0.2156648  35.41 0.0003639858    1.182    0.154
       239  -9.2659    118.7945     21.5030   7.0365992736e+01   5.1359936758e+01    0.2561755    0.2396231  63.62 0.0006462981    1.114    0.103
       240  -8.3050    120.2401     15.9162   6.8378920310e+01   5.1584028423e+01    0.3170018    0.1433711  38.27  0.001442387    2.495    0.599
       241  -8.7147    238.0751    166.5558   8.3709146999e+01   8.8269968559e-01    0.2437457    0.1722237 -36.80 0.0003947325    1.242    0.195
       242  -8.1013    111.6154     21.8273   7.1986652058e+01   5.2870014568e+01    0.3127069    0.1205364 -26.82  0.001378233    3.021    0.669
       243  -8.4262    158.8997    167.0828   9.9776024466e+01   1.5799364037e+01    0.2238283    0.2099747 -53.66 0.0002948986    1.048    0.046
       244  -7.8896    247.7516    166.5634   8.2096824052e+01  -7.0639094454e-01    0.1644232    0.1308295  59.38   0.00095022    1.631    0.387
       245  -9.2431    132.7204     17.6414   6.6568220753e+01   4.8672707492e+01     0.242047    0.2176313  49.60 0.0007546838    1.114    0.102
       246  -8.4695    129.3638     16.2112   6.6756669874e+01   4.9554592769e+01    0.2170472    0.2025368  80.62 0.0006730675    1.138    0.121
       247 -10.2978    205.9112    164.0347   8.9061033494e+01   7.1402272499e+00    0.2637358     0.257266 -41.66 0.0003761212    1.067    0.063
       248  -7.7856    234.3504    161.3259   8.3289062260e+01   2.5013774439e+00     0.141051    0.1034692  -9.10 0.0007048532    1.758    0.431
       249  -8.1000    104.3784     15.4619   7.1545609636e+01   5.5000883528e+01    0.2786661     0.143699  25.09  0.001300773    2.662    0.624
       250  -8.4515     91.7703    153.3436   1.1397471970e+02   3.1965787956e+01    0.2203333    0.1992401 -55.21 0.0003075821    1.067    0.062
       251  -8.2430    135.1576    148.9081   1.0152053828e+02   2.4884720238e+01    0.2898448    0.2427165 -73.39  0.001120492    1.295    0.228
       252  -8.3898    133.4903    144.0319   1.0082922928e+02   2.6379252772e+01    0.3662277    0.1529993 -55.38  0.001196575    2.672    0.626
       253  -8.8530    225.3839    146.8443   8.1840015489e+01   6.8994609984e+00    0.2291401    0.2186603  81.76 0.0002883302    1.170    0.145
       254  -8.0853    211.1490    145.7538   8.4153425170e+01   9.8421798399e+00    0.2209581    0.1905474 -69.73 0.0006851671    1.242    0.195
       255  -8.6970     68.4861    145.4864   1.1893450584e+02   3.7574290708e+01    0.3011859    0.2722905  29.33  0.001088239    1.228    0.186
       256  -9.3538     65.6396    143.3103   1.1932871263e+02   3.8520461837e+01     0.331138    0.2447646 -70.62 0.0009479839    1.334    0.250
       257  -8.4158    112.0972    133.7898   1.0408065729e+02   3.3078626324e+01    0.3552859    0.2553267  83.08 0.0009675784    2.004    0.501
       258  -9.9536    133.7884    131.6671   9.7832524587e+01   2.9201666669e+01    0.5595577    0.4369968  47.44  0.002455172    1.308    0.235
       259  -9.6229      6.7945     32.6747   1.1210595160e+02   6.7665547354e+01    0.2712034    0.1680241  -7.99 0.0007540964    1.449    0.310
       260  -9.2954    140.0155     22.3362   6.6615906508e+01   4.6567272223e+01    0.2686282    0.1673207 -62.02 0.0008772381    2.064    0.516
       261 -10.1252     58.4172    124.7486   1.1771364281e+02   4.4050618063e+01    0.6599448     0.413971  81.79  0.002632618    2.776    0.640
       262  -9.8626     66.5450    129.8156   1.1632545330e+02   4.1719024389e+01    0.5215293    0.3803192 -43.98  0.002625545    1.308    0.236
       263 -10.0384     71.1654    125.7896   1.1405725111e+02   4.2024151173e+01    0.5816939    0.4217859 -85.30  0.001451916    1.801    0.445
       264 -10.1830     75.7561     32.0319   8.4879011018e+01   5.8831158007e+01    0.5916333    0.3447479  57.66  0.001678132    2.206    0.547
       265  -9.7479     98.8030    128.8793   1.0663312141e+02   3.6732427498e+01    0.6830133    0.4127326  70.29  0.002164633    3.039    0.671
       266  -8.3493     82.5444    131.1667   1.1187013541e+02   3.8966830836e+01    0.4029651    0.2421012 -80.14  0.001511799    2.733    0.634
       267 -10.2621    139.5869    103.5153   8.9247404600e+01   3.4096446957e+01    0.7283175    0.4250177 -46.59  0.001469432    1.718    0.418
       268 -10.1510    139.0938     91.6758   8.6203936239e+01   3.6553022218e+01    0.7670569    0.4419047 -42.49  0.002162156    1.759    0.431
       269  -7.4512    136.2775     23.3519   6.7557865772e+01   4.7304397777e+01    0.1271783   0.08820377  33.56 0.0007008594    1.645    0.392
       270  -9.9486    117.0834    125.5211   1.0072638676e+02   3.4039929231e+01    0.9015982    0.5618303 -80.70   0.00257021    3.065    0.674
       271 -10.9273    133.3800    109.7769   9.2431957174e+01   3.4146430314e+01    0.9190434    0.4649935 -45.28  0.002432263    1.962    0.490
