#   1 NUMBER                 Running object number                                     
#   2 MAG_AUTO               Kron-like elliptical aperture magnitude                    [mag]
#   3 X_IMAGE                Object position along x                                    [pixel]
#   4 Y_IMAGE                Object position along y                                    [pixel]
#   5 X_WORLD                Barycenter position along world x axis                     [deg]
#   6 Y_WORLD                Barycenter position along world y axis                     [deg]
#   7 A_WORLD                Profile RMS along major axis (world units)                 [deg]
#   8 B_WORLD                Profile RMS along minor axis (world units)                 [deg]
#   9 THETA_WORLD            Position angle (CCW/world-x)                               [deg]
#  10 FWHM_WORLD             FWHM assuming a gaussian core                              [deg]
#  11 ELONGATION             A_IMAGE/B_IMAGE                                           
#  12 ELLIPTICITY            1 - B_IMAGE/A_IMAGE                                       
         1 -11.9955    209.5757     35.4144   3.6420829888e+01   2.9334420288e+01    0.5960142    0.5867345  88.83  0.001427138    1.314    0.239
         2 -12.0949    235.0449      9.4053   2.8833913340e+01   2.7113637251e+01    0.7904161    0.6084932 -70.40  0.004295789    1.030    0.029
         3 -10.1217     32.7377     12.8005   6.9973403943e+01   6.9731838137e+01    0.2532341   0.09258261 -35.62  0.001188704    2.776    0.640
         4  -9.1544     83.6189    245.3152   1.0680275958e+02   1.1233572530e+01    0.2783602     0.161211 -75.75  0.001037279    2.035    0.509
         5  -9.8268    124.8476    249.5583   9.8500430934e+01   4.5120193549e+00    0.1982148    0.1570448 -63.86  0.001212483    1.515    0.340
         6 -10.4522    106.2260    248.9805   1.0239093184e+02   7.3286989032e+00    0.2869151    0.2374485  57.99  0.001820727    1.177    0.151
         7  -9.8274     71.8792    248.4522   1.0957727654e+02   1.2195342911e+01    0.3393944    0.2352263  73.71 0.0009603925    1.472    0.320
         8  -9.6320     72.0141    244.7505   1.0920278676e+02   1.2918541056e+01    0.3438604    0.1915573  51.86  0.001498935    1.595    0.373
         9 -12.3404     43.2947    195.4762   1.1080611219e+02   2.7599953325e+01     1.781878     0.717631  58.47  0.001803495    3.048    0.672
        10 -16.8354      9.5088    241.9272   1.2156799446e+02   2.0770906747e+01     13.62543     4.098568 -78.15   0.02584235    3.057    0.673
        11 -10.0544    135.9186    213.5288   9.0894633786e+01   9.8478032024e+00    0.3891674    0.1306928  35.41  0.001376285    2.790    0.642
        12 -10.6316    119.7131    212.0145   9.4433660293e+01   1.2803435199e+01    0.3324501    0.2598591 -31.33   0.00176381    1.485    0.327
        13  -9.7872    114.6196    209.1945   9.5209997406e+01   1.4240970887e+01    0.2024484    0.1275342 -45.39 0.0009534091    1.733    0.423
        14  -8.9559     74.7349    208.2801   1.0465668320e+02   2.0491852826e+01    0.2491029    0.1590135 -82.89 0.0008658438    1.729    0.422
        15  -9.8981     40.5061    207.0017   1.1260190319e+02   2.5166148325e+01    0.2807749     0.200951  85.00  0.001097379    1.281    0.219
        16  -9.6002    107.8773    204.2269   9.6075503488e+01   1.6437538884e+01    0.3536607    0.1930443 -78.60  0.001308179    2.969    0.663
        17 -10.9427    126.5754    241.9371   9.7143892327e+01   5.6673323660e+00    0.3327876    0.2239959 -11.26  0.001645315    2.252    0.556
        18 -10.0028    123.9754    201.9468   9.1821763348e+01   1.4319082666e+01    0.2907342    0.2020947 -55.46 0.0009505911    1.513    0.339
        19  -8.7048     58.4424    195.7073   1.0711074730e+02   2.5688239280e+01    0.2172949    0.1888962  84.54 0.0004504287    1.043    0.041
        20  -8.9473    193.3265    195.0101   7.4936001434e+01   4.0233748219e+00    0.2136139     0.113841 -62.38  0.000704471    4.257    0.765
        21  -7.8942     66.2598    241.7014   1.1013142969e+02   1.4298086207e+01    0.1263144   0.08091199  64.26 0.0001525987    1.507    0.336
        22  -8.1533    157.8364    192.7812   8.2217877592e+01   1.0499784349e+01    0.1876566    0.1731109  79.99 0.0004923268    1.313    0.239
        23 -11.5727     55.2299    183.8718   1.0647818396e+02   2.9024314584e+01      0.69967      0.64475 -69.72  0.002663106    1.124    0.110
        24  -9.7412     81.0084    182.0251   9.9477113965e+01   2.5937818270e+01    0.3254615     0.318419 -67.68 0.0009617745    1.094    0.086
        25 -14.1894     10.3491    206.6791   1.1934407985e+02   2.8354246454e+01     1.222832    0.8906522  42.66  0.006266014    1.389    0.280
        26  -8.9002     99.1445    181.0453   9.4556261602e+01   2.3346699208e+01    0.2287291    0.2010638 -20.39 0.0008546336    1.320    0.242
        27  -8.5639     73.3985    237.5401   1.0820524959e+02   1.4211607548e+01    0.2992468    0.1068485 -60.14  0.001267182    2.888    0.654
        28 -10.2916    102.6713    172.5570   9.2136958148e+01   2.4857663862e+01    0.4044277    0.3206199  -1.06   0.00194065    1.618    0.382
        29  -9.3035    115.4938    172.9874   8.8832704858e+01   2.2540768490e+01    0.2412344    0.1495359 -55.21  0.001041618    1.617    0.381
        30  -9.9970     68.5100    170.9403   1.0113665091e+02   3.0547908078e+01    0.3026814    0.2545844 -48.09 0.0006129405    1.249    0.199
        31 -10.8075     72.7253    166.3727   9.9250885738e+01   3.1124545385e+01    0.5440646    0.3209019 -41.95  0.001413759    1.945    0.486
        32  -9.8526     93.8058    237.3168   1.0373143117e+02   1.1411642210e+01    0.2926995     0.172507 -85.50  0.001217349    2.356    0.576
        33  -8.5569    110.4033    167.7557   8.9176843452e+01   2.4716290553e+01    0.2212602    0.1401614 -46.32 0.0006800466    1.597    0.374
        34 -11.0124     81.6295    157.8059   9.5260959030e+01   3.2005111323e+01    0.7549626    0.4921171  45.93 0.0007537667    1.590    0.371
        35 -11.8286     70.0671    152.5489   9.7661275018e+01   3.5085048035e+01    0.5246853    0.4575175 -38.69 0.0008567835    1.220    0.181
        36 -11.8854     70.3287    145.0745   9.6217433092e+01   3.6991372236e+01    0.9026473    0.5605783  60.38  0.003144972    2.033    0.508
        37  -9.8741     87.5096    152.4122   9.2556805016e+01   3.2464152772e+01    0.3891579    0.3080265 -33.19 0.0009927765    1.409    0.290
        38  -9.7623     91.2382    150.0000   9.1003304891e+01   3.2471554538e+01    0.3804759    0.2861432 -50.60    0.0015807    1.286    0.223
        39 -10.8836     28.0585    150.4321   1.0964794787e+02   4.0600380341e+01    0.3402893    0.2407934 -85.18  0.001831018    1.318    0.242
        40  -9.8641    134.0191    146.2177   7.8390090487e+01   2.5527814898e+01    0.9389303    0.2374161 -55.44  0.001896814    7.201    0.861
        41 -12.9879     54.9411    233.1113   1.1176276280e+02   1.7550561399e+01    0.7989927    0.6506207  62.61 0.0009802844    1.033    0.032
        42 -10.8282    143.5853    227.2870   9.1320739090e+01   5.8545446567e+00    0.2988511    0.2355874  44.60  0.001699041    1.263    0.208
        43  -9.7454    134.0092    224.4841   9.3033001501e+01   7.9157897506e+00    0.2167469    0.1247427  34.06   0.00101637    1.589    0.371
        44  -9.1701     54.9422    221.5822   1.1069773892e+02   2.0076211469e+01    0.2253522    0.1767565 -80.22 0.0006503389    1.240    0.193
        45 -10.0512     72.9076    217.7080   1.0619968410e+02   1.8582619075e+01    0.3799369    0.2475032 -78.75  0.001099579    1.622    0.384
        46  -8.2146     59.9211    218.0547   1.0922276781e+02   2.0236647899e+01    0.2089641     0.131336  66.33 0.0005720321    1.607    0.378
        47  -9.1173    102.1975    138.1995   8.5308418868e+01   3.3559779231e+01    0.3543371    0.2591056 -19.48  0.001544597    1.782    0.439
        48  -9.9075    105.8803    131.5156   8.2695130762e+01   3.4541292305e+01    0.6714593    0.3503838 -51.38  0.002615527    1.852    0.460
        49 -10.3106     89.9804    137.0162   8.8652004598e+01   3.5992855520e+01    0.2958005    0.2662991 -30.27 0.0003747199    1.160    0.138
        50 -11.5075     58.9836    133.2358   9.7467849248e+01   4.1627321594e+01    0.9830182    0.3505249 -68.17  0.003040354    3.498    0.714
        51  -9.9333     53.9464    127.8248   9.8035354454e+01   4.3668968353e+01    0.3411479    0.1887945  46.16  0.001381414    2.067    0.516
        52  -9.4763     32.4089    155.7042   1.0907805894e+02   3.8818244842e+01    0.3445733    0.1964529 -67.91  0.001670615    1.516    0.341
        53  -9.6924    135.2779    128.8688   7.3946345575e+01   2.9338845904e+01    0.3913496     0.135345 -44.91  0.001215174    2.828    0.646
        54  -9.5844    111.4311    129.0093   8.0493665870e+01   3.4100344193e+01     0.302539     0.226179  16.61 0.0009137786    1.643    0.391
        55  -9.5486     98.8508    124.5655   8.3106896548e+01   3.7547024264e+01    0.3414796    0.2620842   0.95 0.0008109914    1.682    0.406
        56 -11.1152     33.0043    119.2111   1.0336658553e+02   4.8182185952e+01    0.8332341    0.1305416 -64.21  0.002179584    5.088    0.803
        57  -8.3834    108.0130    118.1919   7.8787847213e+01   3.7358076695e+01    0.2099802    0.2032174  32.97 -0.000430966    1.063    0.059
        58  -8.4899    231.2909    113.9299   5.1083652100e+01   1.2573928302e+01    0.1984398    0.1515326 -42.93 0.0007961187    1.114    0.102
        59  -8.9255    114.5103    110.4748   7.4876267977e+01   3.7861706896e+01     0.155712    0.1517381 -31.59 7.913043e-05    1.005    0.005
        60 -10.8615    109.3525    213.7061   9.7128276292e+01   1.4083050247e+01    0.3820296    0.2556732 -57.96   0.00193204    1.588    0.370
        61 -10.1622     41.4667    104.2304   9.7424417316e+01   5.1075735730e+01    0.4063101    0.2351951  43.74    0.0018826    2.054    0.513
        62  -9.8784     32.9493     99.3063   9.9474675985e+01   5.3147105977e+01    0.2914349    0.2043612  81.26  0.001442781    1.973    0.493
        63  -8.3488     74.4851     84.9920   8.0373588121e+01   5.1035461803e+01    0.2158562    0.1387865 -47.86  0.000490599    1.511    0.338
        64  -7.8279    150.3540     82.6497   5.7943319785e+01   3.5707077566e+01    0.1611642    0.1160547 -77.89 0.0007033337    1.839    0.456
        65  -9.3442     77.2123    214.4787   1.0481949708e+02   1.8715801656e+01    0.2676105    0.1681339  89.01  0.001288117    1.895    0.472
        66 -10.8053    188.4856     52.6711   4.3085284582e+01   3.1706365959e+01    0.3842698    0.3108407  60.91  0.001042009    1.277    0.217
        67 -11.4998    200.0733     44.2405   3.9524342974e+01   3.0264211532e+01    0.7561182    0.6264719 -65.75   0.00338122    1.067    0.063
        68  -8.6732    134.3934    248.5942   9.6349775611e+01   3.2819583915e+00    0.2272293     0.123954 -72.27 0.0009579951    3.458    0.711
        69 -10.8524     58.4875    211.2263   1.0884115605e+02   2.1988234287e+01    0.6529186    0.3320619  49.41   0.00308822    1.840    0.457
        70  -9.7877     32.6928     32.6635   7.9092476931e+01   6.6929921747e+01    0.3341348   0.09807089 -41.61  0.001338424    3.178    0.685
        71 -10.7258     55.1346    207.2304   1.0920428798e+02   2.3349410482e+01    0.5008459    0.2825489  58.19  0.002145058    1.777    0.437
        72 -10.4159    115.5206    247.2221   1.0019862137e+02   6.3110591220e+00    0.4291041    0.2151562 -72.84  0.001819231    3.321    0.699
