#   1 NUMBER                 Running object number                                     
#   2 MAG_AUTO               Kron-like elliptical aperture magnitude                    [mag]
#   3 X_IMAGE                Object position along x                                    [pixel]
#   4 Y_IMAGE                Object position along y                                    [pixel]
#   5 X_WORLD                Barycenter position along world x axis                     [deg]
#   6 Y_WORLD                Barycenter position along world y axis                     [deg]
#   7 A_WORLD                Profile RMS along major axis (world units)                 [deg]
#   8 B_WORLD                Profile RMS along minor axis (world units)                 [deg]
#   9 THETA_WORLD            Position angle (CCW/world-x)                               [deg]
#  10 FWHM_WORLD             FWHM assuming a gaussian core                              [deg]
#  11 ELONGATION             A_IMAGE/B_IMAGE                                           
#  12 ELLIPTICITY            1 - B_IMAGE/A_IMAGE                                       
         1 -14.8512    172.3169     45.3078   6.6746034991e+01   3.6425298769e+01     1.033167    0.9816577  21.42   0.00393783    1.315    0.240
         2 -15.2229    193.4820     12.5224   5.6440635602e+01   3.5573092928e+01     2.190368     1.030813  69.77  0.007669792    1.789    0.441
         3  -9.9902    167.4346    245.7200   1.1174391087e+02  -2.2848725186e+00      0.17939     0.121181 -32.04 0.0009469114    1.665    0.400
         4 -11.5356    190.2514    250.1516   1.0778655627e+02  -6.6087649449e+00    0.2674538    0.1374496  23.43  0.001236815    2.137    0.532
         5 -11.1904    176.0436    249.1078   1.1050219319e+02  -4.2472978939e+00     0.207572    0.1814334 -28.09 0.0004951703    1.208    0.172
         6 -10.8490    138.8170    250.2516   1.1841980842e+02   1.4967911115e+00    0.2649827    0.2447539  -1.03  0.001679987    1.199    0.166
         7 -10.8969    138.9579    243.3136   1.1738545032e+02   2.8044303756e+00    0.2949948    0.2141446 -48.58  0.000581236    1.516    0.341
         8 -10.1916    142.0000    239.7279   1.1619868765e+02   3.0043017526e+00    0.2511665   0.09584726 -51.14 0.0009847285    2.832    0.647
         9 -11.0867     97.7902    249.9534   1.2696201894e+02   8.0668901739e+00    0.3983468    0.2073563  30.98  0.001855373    2.120    0.528
        10 -11.9946     97.7797    242.3695   1.2604222771e+02   9.6297963725e+00    0.3231106    0.2408878  47.79  0.000998235    1.199    0.166
        11 -13.2973    102.4127    243.7593   1.2523534379e+02   8.6172512803e+00    0.5301554    0.2939079 -50.95  0.002597853    2.038    0.509
        12 -13.3969    102.8969    238.6521   1.2447781175e+02   9.6083401520e+00    0.4069979    0.2403102 -53.60  0.001362054    1.839    0.456
        13 -10.4869     88.8073    249.9539   1.2881305982e+02   9.4315120725e+00    0.3140781    0.2070909  61.20  0.001732696    1.445    0.308
        14 -17.5758     69.1977    223.3366   1.2988833949e+02   1.8099528968e+01     11.48126     7.351178 -69.22   0.05642074    1.509    0.337
        15 -11.0590    127.5735    223.2938   1.1683673791e+02   8.8298280107e+00    0.3357762    0.2302336 -67.33 0.0008450969    1.663    0.399
        16 -10.8829    125.1113    244.8589   1.2055847108e+02   4.7630586042e+00    0.1902183    0.1653249 -36.91 0.0003170263    1.342    0.255
        17 -10.6158    218.4061    220.8478   9.7127142011e+01  -5.8597497404e+00    0.3666536     0.119512 -49.16  0.001253109    3.929    0.746
        18 -11.2139    125.3130    238.9177   1.1967700826e+02   5.9262952151e+00     0.521736    0.1708701 -51.19  0.001932703    3.247    0.692
        19 -19.1315     51.0564     97.4689   1.1303717151e+02   5.1109883780e+01     16.89999    0.9149445 -54.38   0.02557309   16.789    0.940
        20 -11.3999    113.4151    206.2418   1.1737151484e+02   1.5094989730e+01    0.2655299    0.2456417  68.35 0.0006644711    1.032    0.031
        21 -11.6111     12.2816    206.0337   1.4032587646e+02   2.9006770204e+01    0.3140545     0.183855  28.46  0.001764707    2.115    0.527
        22 -10.7722     30.8877    204.9214   1.3626008885e+02   2.7320914184e+01    0.1744967    0.1507565 -69.55  0.000647086    1.231    0.187
        23 -10.6008    160.4410    239.0238   1.1214895181e+02   8.8272707985e-02    0.2581388    0.2067971  36.04  0.001149544    1.150    0.130
        24 -11.4969    133.7736    196.2224   1.1081497832e+02   1.3812584190e+01    0.2761137    0.2575414  84.66 0.0004249276    1.103    0.093
        25 -10.2075    128.8451    195.9052   1.1192964159e+02   1.4784345529e+01    0.2172587     0.201535 -27.62 0.0003834045    1.176    0.150
        26 -10.2010      7.8993    190.7642   1.3993720375e+02   3.2994279107e+01    0.1538967    0.0923953  42.89 0.0008772402    1.760    0.432
        27  -9.9607    150.8208    239.8812   1.1433254373e+02   1.5131263586e+00    0.1753375    0.1550365  72.13 0.0005376943    1.305    0.233
        28 -11.1241    134.7410    242.9641   1.1823468293e+02   3.5652957658e+00     0.389315    0.1620889 -48.75  0.001009645    2.633    0.620
        29 -11.1054    238.5079    185.0084   8.6585895446e+01  -2.5093887584e+00    0.2108334    0.1163862 -40.64 0.0007288294    1.575    0.365
        30 -10.2279    135.8320    237.0178   1.1712057129e+02   4.5691664132e+00    0.1990411    0.1695961  69.11 0.0003862668    1.274    0.215
        31 -12.1107    162.5532    181.1542   1.0116497576e+02   1.1832955452e+01    0.2962851    0.2472177 -88.97   0.00146169    1.478    0.324
        32 -10.9759    167.1021    176.1723   9.9106555533e+01   1.2068321722e+01    0.2037196    0.1810531 -89.03 0.0003082524    1.297    0.229
        33 -11.2635    194.2924    171.7439   9.2306858803e+01   7.7820444543e+00    0.3119343    0.2608702 -48.64 0.0009270812    1.160    0.138
        34 -13.0323    187.5953    174.8584   9.4354491959e+01   8.3953272309e+00    0.9095744    0.4452138 -54.02  0.002594065    2.293    0.564
        35 -11.4958    175.5328    232.6845   1.0791330041e+02  -1.2030515719e+00    0.3083327    0.1347052 -49.72  0.001280489    2.525    0.604
        36 -10.4164    108.2039    229.0063   1.2201389317e+02   1.0825346540e+01     0.554012    0.2872119  35.44    0.0024807    1.905    0.475
        37 -11.2912    240.4828    169.4917   8.3185063372e+01   4.5780403311e-02    0.1365486    0.1166603 -36.74 -6.037905e-05    1.020    0.020
        38 -11.2060    139.0445    161.5411   1.0262735412e+02   2.1018129714e+01    0.2331908    0.1553304  41.59 -9.021742e-07    1.539    0.350
        39 -10.0795     13.1542    158.0499   1.3531151006e+02   4.0436785601e+01    0.1866934    0.1395082 -57.27 0.0003345499    1.235    0.191
        40 -11.0552    187.4258    153.6767   8.9843588900e+01   1.2979833294e+01     0.369594    0.2911121  36.45  0.001839951    1.383    0.277
        41 -10.5083    191.6627    151.6474   8.8524714469e+01   1.2560611441e+01    0.3061711    0.1679009 -61.14  0.001145879    2.445    0.591
        42 -11.5274    174.5150    149.3227   9.1626280510e+01   1.6573393297e+01    0.2931598    0.2715597 -86.28 0.0007242078    1.150    0.130
        43 -11.7807    161.0351    148.5755   9.4482514302e+01   1.9548108219e+01    0.3981937    0.2477329 -75.21  0.001426072    2.739    0.635
        44 -10.4683    190.0000    229.9620   1.0443473864e+02  -3.0514066940e+00    0.2148726   0.07470085 -45.39 0.0008040345    2.954    0.661
        45 -11.8971    143.5164    131.5298   9.4650522246e+01   2.7125100366e+01    0.2831122    0.2771573  89.39 0.0007339229    1.029    0.029
        46 -12.5506    160.2227    127.5678   8.9743759485e+01   2.4414161956e+01    0.4721878    0.3533677 -63.85   0.00133419    1.460    0.315
        47 -12.5486    130.3946    109.9829   9.2535203802e+01   3.4679288907e+01    0.4126838    0.2925524 -27.04   0.00158503    1.675    0.403
        48 -10.8803    231.2409    113.7766   7.3242515474e+01   1.2223939383e+01     0.231148    0.2148121 -72.82  0.000773909    1.105    0.095
        49 -11.8624    167.4989    112.5565   8.4478868564e+01   2.5995168233e+01     0.448886    0.3334492 -83.10  0.001254388    1.715    0.417
        50 -10.8274    142.8367    114.1383   9.0501682306e+01   3.1114156639e+01    0.2139359    0.1874274 -12.95 0.0005973251    1.322    0.244
        51 -12.8746    112.1127    105.3137   9.6180071803e+01   3.9442117110e+01    0.8842244    0.4609012 -62.66  0.003061252    3.045    0.672
        52 -13.1286    117.4284    109.2866   9.5774311401e+01   3.7520646962e+01    0.4417847     0.372846  62.29  0.001758953    1.307    0.235
        53 -10.9189    205.4832    110.1501   7.6605195903e+01   1.8153620043e+01    0.2936505    0.2132354  45.54 0.0009823693    1.566    0.361
        54 -13.1273    121.5021    111.9849   9.5383425184e+01   3.6103501094e+01    0.6443288    0.2696354 -45.66  0.002306801    2.346    0.574
        55 -10.0306    124.7379     92.2326   8.9229198000e+01   3.9518150284e+01    0.1965512    0.1719497   5.77 0.0004790319    1.291    0.225
        56 -11.5201     82.3497     91.7714   1.0126203097e+02   4.7762955086e+01    0.3365626    0.1798053  50.73  0.001393963    2.389    0.581
        57 -11.0248     75.7529     86.6524   1.0191545456e+02   4.9882408831e+01     0.258879    0.2070254  50.79 0.0006905019    1.484    0.326
        58 -10.6619    148.6725     82.1008   8.0744303910e+01   3.6127866326e+01     0.199101    0.1951486 -31.68  0.001070798    1.089    0.082
        59 -11.5304    126.4241    227.8107   1.1779151465e+02   8.0561793407e+00    0.3991482    0.3258758  38.46  0.001779933    1.165    0.141
        60 -14.4009    159.3567     59.9052   7.2680336470e+01   3.7330973038e+01     1.376792     1.013519  52.55  0.001029888    1.312    0.238
        61  -9.6678    133.5824    248.5232   1.1927622990e+02   2.6725123135e+00    0.1312609    0.1184806  44.32 0.0001212614    1.013    0.013
        62 -13.1485    176.9409     38.1477   6.4307712542e+01   3.6304491574e+01    0.3895252    0.3470213  68.23 0.0008715894    1.139    0.122
        63 -10.8481     13.5740     59.8141   1.1684466702e+02   6.2388064221e+01    0.1906741    0.1707103 -15.25 0.0004012655    1.213    0.176
        64  -9.8006     21.7954     57.3978   1.1282737989e+02   6.2152741594e+01    0.1552397    0.1000757  -0.02 0.0002327658    1.578    0.366
