#   1 NUMBER                 Running object number                                     
#   2 MAG_AUTO               Kron-like elliptical aperture magnitude                    [mag]
#   3 X_IMAGE                Object position along x                                    [pixel]
#   4 Y_IMAGE                Object position along y                                    [pixel]
#   5 X_WORLD                Barycenter position along world x axis                     [deg]
#   6 Y_WORLD                Barycenter position along world y axis                     [deg]
#   7 A_WORLD                Profile RMS along major axis (world units)                 [deg]
#   8 B_WORLD                Profile RMS along minor axis (world units)                 [deg]
#   9 THETA_WORLD            Position angle (CCW/world-x)                               [deg]
#  10 FWHM_WORLD             FWHM assuming a gaussian core                              [deg]
#  11 ELONGATION             A_IMAGE/B_IMAGE                                           
#  12 ELLIPTICITY            1 - B_IMAGE/A_IMAGE                                       
         1 -10.8700    227.9696     33.5574   5.9361215584e+01   2.5418120546e+01    0.8201921    0.3531187 -59.51  0.003744697    2.396    0.583
         2 -11.3820    248.6958     31.8696   5.7095625957e+01   2.1299391985e+01    0.7694993    0.4678402 -57.61  0.004687355    1.365    0.268
         3 -11.1781    225.3304     23.2676   5.7543004568e+01   2.7286934933e+01    0.6308126    0.3974661 -86.76  0.003732031    1.404    0.288
         4  -9.7987    239.9895      2.2208   5.2332510603e+01   2.6624985639e+01    0.3383121    0.1607327  87.64  0.001113162    1.858    0.462
         5 -11.2641    235.6649      8.8655   5.3871113471e+01   2.6781356227e+01    0.7166722    0.4169412  52.27  0.003325065    2.334    0.572
         6  -9.6836    231.7171      2.5882   5.3003554534e+01   2.8291204111e+01     0.387116    0.1666681  88.68  0.001439488    2.231    0.552
         7 -10.5507    250.1386     18.9845   5.4606951846e+01   2.2638572488e+01    0.6412246    0.1546026 -39.48  0.002548251    3.573    0.720
         8 -10.7982    244.4878     22.4299   5.5690526448e+01   2.3358951052e+01    0.4338486    0.3105685 -84.80  0.001915695    1.131    0.116
         9 -11.4720    238.2971     18.0471   5.5381215998e+01   2.5168811308e+01    0.7847971    0.4534047  73.64  0.004576919    1.559    0.358
        10 -10.6549    244.4832     13.8216   5.4104609979e+01   2.4398831855e+01    0.4784523     0.212919  74.78  0.002595171    2.002    0.500
        11 -11.2548    248.8871      5.6302   5.2316527488e+01   2.4454535799e+01    0.6730525    0.3151803 -39.51  0.003866142    2.154    0.536
        12 -10.5256    201.0171     28.3327   6.1164908402e+01   3.2084382183e+01    0.5139728     0.321343  -3.85  0.002239777    3.734    0.732
        13 -10.9556    220.6927     15.2072   5.6355890191e+01   2.9243306876e+01    0.8599231    0.3907136  76.83  0.004396628    1.958    0.489
        14  -9.6887    199.8318     15.3279   5.8423718652e+01   3.3859007503e+01    0.2750743    0.2064847  79.29 0.0008417243    1.121    0.108
        15  -9.0920    201.6187     11.7985   5.7474550695e+01   3.3838053605e+01    0.1809223    0.1511874  76.35 0.0005557654    1.179    0.152
        16  -9.0323    207.7374     13.8999   5.7312186126e+01   3.2240786057e+01    0.1778843    0.1762639  10.67  0.001036612    1.449    0.310
        17 -10.6988     67.8168     11.2550   8.1854138632e+01   6.2933211320e+01    0.3439285    0.2179466   6.96  0.001689647    1.672    0.402
        18 -10.5970    212.9425      8.5492   5.5712912890e+01   3.1671387383e+01    0.5028604    0.3180707 -40.74  0.003096201    1.693    0.409
        19 -10.1942    199.2725      8.0760   5.6908566971e+01   3.4755367082e+01    0.5119702     0.329159  21.11   0.00253537    3.351    0.702
        20  -9.2436    192.7048     11.0090   5.8227867935e+01   3.5936399356e+01    0.1682111    0.1412754 -89.99 0.0004860821    1.066    0.062
        21  -9.2231    186.5401      9.5340   5.8565807559e+01   3.7492629418e+01    0.3561796    0.1409791 -54.40  0.001565121    2.880    0.653
        22 -10.1752    155.0289      8.8436   6.2334847504e+01   4.4818489786e+01    0.4388203    0.1673108 -34.12  0.002033294    2.843    0.648
        23  -8.9122     84.5559     10.2346   7.6606995725e+01   5.9956277759e+01    0.1942234     0.110981 -27.13  0.001114002    1.968    0.492
        24  -9.5879    220.5026      2.9411   5.3947545568e+01   3.0625142834e+01    0.2543418    0.1866859 -16.67  0.001016631    2.205    0.546
        25  -9.7943    220.3390      7.3166   5.4818228141e+01   3.0196043055e+01    0.2973901     0.178527  74.28  0.001812881    1.425    0.298
        26  -9.3513    224.0705      5.9257   5.4236039429e+01   2.9545958540e+01    0.2766242    0.2171896  77.00  0.001473944    1.252    0.202
        27  -9.4696    206.5275      7.0779   5.5998991277e+01   3.3240524730e+01    0.2603295    0.1683688 -52.07  0.001353496    1.499    0.333
        28  -9.2759    102.7344      7.1688   7.1098034517e+01   5.6567586283e+01    0.1741054     0.150606 -55.96 0.0008516075    1.486    0.327
        29  -9.2311    116.4996      6.5253   6.8040943294e+01   5.3691465274e+01     0.122494    0.1018507  56.77 2.118194e-05    1.036    0.035
        30  -9.2073    111.0167      5.3152   6.8737192735e+01   5.4968775680e+01    0.1963179    0.1474261 -42.42 0.0007329512    1.644    0.392
        31  -8.5574    171.4657      5.5156   5.9357626302e+01   4.1337212039e+01    0.1244178    0.1002738  81.87 0.0001768437    1.019    0.018
        32  -8.3435     74.2938      5.6843   7.7729478575e+01   6.2265923644e+01   0.09959081   0.09166372 -81.26 0.0002157117    1.601    0.375
        33  -8.4236     60.5185      5.4672   8.1859159897e+01   6.4697495080e+01    0.1165752   0.08881245  24.08 0.0004457191    1.029    0.028
        34  -8.6861    183.4843      2.2574   5.7240144954e+01   3.8892797745e+01    0.2071177    0.1067514 -39.14  0.001135118    2.081    0.519
        35 -10.0300     64.1471      2.2497   7.9390225503e+01   6.4349345210e+01    0.2306606     0.169847  31.05  0.000851515    1.062    0.058
        36  -8.8645    190.1450      2.3277   5.6568371624e+01   3.7378920913e+01    0.2310782    0.1252253  55.95  0.001251235    1.831    0.454
        37  -9.4093     63.2558    216.4144   1.3313998600e+02   2.1278206985e+01    0.2459908    0.1466694  83.82  0.001206031    1.811    0.448
        38  -8.9555    209.5891    250.1738   1.0706840757e+02  -9.1923278290e+00     0.240342    0.1415488  18.96 0.0009009715    1.772    0.436
        39 -10.8470    214.6273    210.1815   9.9005994361e+01  -3.3653315172e+00    0.3499563    0.2145803 -33.89  0.001673828    1.598    0.374
        40  -8.3895    155.6806    215.6530   1.1237430777e+02   5.9984144704e+00    0.1460581    0.1117537  -5.16 0.0007048986    1.732    0.422
        41  -9.8909    232.6519    212.7667   9.6051259708e+01  -6.6927182028e+00     0.340035     0.231499 -33.98  0.001135962    1.365    0.267
        42  -9.5703    186.5393    213.1012   1.0526069359e+02   9.3198172475e-01    0.3268552      0.23922 -56.09  0.001480661    1.612    0.380
        43  -9.3985    132.2416    213.9840   1.1733415294e+02   1.0603513658e+01    0.2489409    0.1994138  42.74 0.0005708713    1.172    0.147
        44  -8.9372    165.6499    216.3549   1.1031418739e+02   4.0467180445e+00    0.1470963    0.1110689  74.81 0.0001079545    1.841    0.457
        45  -8.5286     85.9919    208.4656   1.2707223988e+02   1.9732657850e+01    0.2074829   0.09778266  57.55 0.0008080233    2.458    0.593
        46  -9.7327    235.6437    203.7928   9.3801723773e+01  -5.6369960309e+00    0.2634786    0.2167211 -39.80 0.0008718913    1.256    0.204
        47  -8.8437    187.8050    203.9615   1.0328323546e+02   2.4753041826e+00    0.2276229    0.1711525 -79.31  0.001073255    2.063    0.515
        48  -8.8842    193.2593    202.4566   1.0185201098e+02   1.7804219509e+00     0.236627     0.179333 -67.93  0.001171123    1.802    0.445
        49 -10.4637    247.7514    193.6879   8.9695724783e+01  -5.7815194058e+00    0.4343627    0.3709816 -81.87  0.002345262    1.825    0.452
        50  -9.6159    218.3447    201.8719   9.6693526736e+01  -2.4934508421e+00    0.2094485    0.1656255 -50.80  0.001160925    1.432    0.302
        51  -8.7940    160.4288    202.0766   1.0888724273e+02   7.9515290768e+00    0.2174139    0.1439347 -48.62 0.0007010965    1.569    0.363
        52  -9.6079    241.6494    200.3195   9.2048870385e+01  -5.9749821576e+00    0.2875804    0.2203277 -19.51  0.001034184    1.192    0.161
        53  -9.8597    229.1579    199.2196   9.4122035514e+01  -3.8075518928e+00    0.4796005    0.2421167 -30.88  0.002146418    2.057    0.514
        54  -9.2057    231.0246    194.4973   9.2855328907e+01  -3.2734868061e+00    0.2382221    0.2086174  69.45  0.001366804    1.585    0.369
        55  -8.6453    198.3862    202.2251   1.0074694152e+02   9.0430198015e-01    0.1990552     0.131466 -52.76 0.0009513203    1.720    0.419
        56  -8.6060     16.4671    201.4868   1.4162572732e+02   3.0347900038e+01    0.1247666   0.09689888  87.79 0.0001705992    1.008    0.008
        57  -8.7745     64.7041    202.6530   1.3117899289e+02   2.4278349626e+01    0.1316312    0.1024038 -40.89 0.0007033214    1.674    0.403
        58  -9.7414    249.8364    200.7973   9.0695057277e+01  -7.2895756766e+00    0.4649222    0.1792165 -37.26  0.001776066    2.330    0.571
        59  -9.2942    184.5103    196.4958   1.0254336679e+02   4.5726616286e+00    0.3104719    0.1415842 -45.86  0.001225101    2.216    0.549
        60 -11.2879    237.8077    190.0083   9.0737635455e+01  -3.5798507372e+00    0.7500246    0.2881133 -44.60  0.003031215    2.495    0.599
        61  -8.4733    224.1492    191.6185   9.3575339477e+01  -1.6050579889e+00     0.189541    0.1632899 -37.39 0.0007299074    1.141    0.124
        62  -8.8688    198.6232    191.7716   9.8648739529e+01   2.8949810691e+00     0.203178     0.132506 -52.41 0.0008694251    1.685    0.407
        63 -10.0195    249.5732    184.5220   8.7600519784e+01  -4.4869889230e+00    0.3845842    0.2094152 -45.82  0.001894623    1.769    0.435
        64  -9.7540    224.8415    184.8954   9.2104589147e+01  -4.8154454482e-01    0.3425408    0.2305749 -52.55  0.001204841    1.654    0.395
        65 -10.4278    227.2470    179.4341   9.0554373948e+01   1.1921101949e-01    0.4291307    0.3088797  52.47  0.001981737    1.677    0.404
        66  -9.0407    218.4151    184.5370   9.3253082008e+01   7.1199469421e-01    0.3363634    0.2014964 -67.94   0.00123289    3.560    0.719
        67  -9.2787    210.5723    183.4073   9.4551875908e+01   2.3410374525e+00     0.253362    0.1878627 -33.21  0.001307608    1.295    0.228
        68  -8.8272    105.9688    183.8448   1.1845946852e+02   2.2273386937e+01    0.2580653    0.1580779  63.01 0.0004566151    1.977    0.494
        69 -10.4401    242.0061    180.5076   8.8115271536e+01  -2.5714842347e+00    0.5554036    0.2709024 -48.36  0.002469696    2.113    0.527
        70  -9.8380    244.9848    178.3204   8.7164013427e+01  -2.6666234784e+00    0.2875987    0.2005214  64.45  0.001451255    2.262    0.558
        71 -10.2985    157.2432    179.1471   1.0515628126e+02   1.3592663629e+01    0.4042566     0.288977 -33.98  0.001118275    1.561    0.359
        72  -9.5205    236.0148    180.6267   8.9198808237e+01  -1.6007478186e+00    0.3209183    0.1793659 -44.62  0.001535837    1.680    0.405
        73 -10.1872    233.6785    174.5368   8.8389524826e+01  -8.5351178973e-02    0.4617309    0.2209478 -45.76  0.001969593    1.978    0.494
        74  -8.8406    112.3146    182.3163   1.1661488834e+02   2.1509807958e+01    0.1487564    0.1207654 -18.28  0.000343092    1.646    0.393
        75  -9.5335    230.2250    185.1895   9.1162700912e+01  -1.4575681444e+00    0.3729361    0.1445466 -49.29  0.001372671    2.954    0.661
        76  -8.6582     64.5211    179.4598   1.2808703419e+02   2.9931455316e+01    0.1409587    0.1251881 -83.92 9.104308e-05    1.026    0.026
        77  -9.7496    217.8968    177.8747   9.1996422053e+01   2.0786167474e+00    0.4930075    0.2500134  59.87  0.001739335    3.692    0.729
        78  -8.6529    152.1668    178.1670   1.0614233133e+02   1.4829488595e+01     0.213562     0.177348  68.13 0.0004551394    1.337    0.252
        79  -8.2850     84.6945    175.3098   1.2234573053e+02   2.7948846949e+01    0.1519361    0.1074847  75.22 0.0002547416    1.612    0.380
        80 -10.4470    225.1075    171.7251   8.9374188104e+01   1.9541059104e+00    0.5690345    0.3224914 -54.22  0.002506768    2.053    0.513
        81  -8.8620    250.5244    172.9328   8.5155873691e+01  -2.6058425899e+00    0.2120545    0.1148463 -39.13  0.000722183    1.598    0.374
        82 -10.3739    212.4982    169.4610   9.1290445031e+01   4.7229260185e+00    0.4409567    0.2308192 -42.12  0.001309929    1.789    0.441
        83  -9.3251    237.3119    169.8277   8.6788519102e+01   1.5890072114e-01    0.2485903     0.150499 -43.59  0.001020893    1.498    0.332
        84  -8.2851    183.7103    170.6880   9.7449463009e+01   1.0115665841e+01    0.1509374    0.1187554  -7.21 0.0002507082    1.585    0.369
        85  -9.0594    170.0542    168.7017   1.0003859464e+02   1.3327647188e+01    0.2661783    0.2099318 -58.66 0.0006083651    1.337    0.252
        86  -9.8151    147.3347    167.9230   1.0517064623e+02   1.8163086615e+01    0.2873693    0.2528851  53.71  0.000487168    1.143    0.125
        87  -8.9392    249.3257    167.1855   8.4208730973e+01  -1.3865180057e+00    0.1769883     0.164819   2.84 0.0009233651    1.159    0.137
        88  -9.8518    193.1765    166.0013   9.4439266098e+01   9.2018676126e+00    0.3726503    0.2436218 -50.17   0.00136054    1.534    0.348
        89  -9.4921    234.2397    164.4679   8.6230165407e+01   1.6942562019e+00    0.3273603     0.218971 -62.46  0.001367701    1.962    0.490
        90  -9.4355    240.4989    163.4747   8.4941738043e+01   7.8110723907e-01     0.267094    0.1748016 -34.08 0.0007257141    1.403    0.287
        91  -9.3069    246.3223    162.6492   8.3793211695e+01  -6.5669481967e-02    0.2139545    0.1533545 -50.52 0.0008209801    1.375    0.273
        92  -8.9397    250.4957    158.5005   8.2271492485e+01  -1.8633595996e-02    0.2658288    0.1159682 -42.16 0.0007397168    1.969    0.492
        93 -10.1221    246.1215    158.1633   8.2916048490e+01   7.8626697038e-01     0.403216     0.319436  29.92  0.001887197    1.468    0.319
        94  -8.9120     46.8328    162.1001   1.3004939443e+02   3.6527170873e+01    0.1886864     0.143975 -52.11 0.0004793643    1.311    0.237
        95  -8.6301    236.8111    159.1639   8.4688111459e+01   2.2311375060e+00    0.1920416    0.1529896 -19.84  0.001055676    1.320    0.242
        96 -10.3454    230.4327    141.1322   8.1991497517e+01   6.8322885760e+00     0.458719    0.2462514 -43.19  0.001291428    1.662    0.398
        97  -9.6520    226.6014    156.8396   8.5996124548e+01   4.5374241232e+00    0.3343753    0.2437573 -15.00  0.001031006    1.693    0.409
        98  -9.4166    229.7884    147.8873   8.3539637111e+01   5.6607209888e+00    0.3196913    0.1722199 -48.01 0.0008881157    1.735    0.424
        99 -10.4884    231.7404    152.3493   8.4143606467e+01   4.4416257210e+00    0.4902019    0.3601933  39.82  0.002602755    1.533    0.348
       100  -9.5091    234.8093    147.7851   8.2657991055e+01   4.7394623820e+00    0.2507689    0.1874612 -45.26  0.001065074    1.196    0.164
       101  -8.6096     41.1981    157.8020   1.3089783892e+02   3.8240751505e+01     0.185026    0.1404293 -50.82 0.0003913337    1.321    0.243
       102 -11.0127    241.8730    133.2784   7.8461662551e+01   6.1422252089e+00    0.5544455    0.3956899 -51.10  0.002414169    1.268    0.211
       103  -9.5661    250.2192    140.1568   7.8587983585e+01   3.3586792721e+00    0.2533423    0.2271391 -22.46 0.0008759425    1.189    0.159
       104 -11.2022    249.0127    133.3468   7.7375964623e+01   4.8147137520e+00    0.8599626    0.2694938 -46.83  0.003097476    2.879    0.653
       105 -11.5267    243.8582    149.4663   8.1505839616e+01   2.7806873041e+00    0.9276811    0.3947102 -38.01  0.003272958    2.163    0.538
       106 -10.2638    249.7930    150.8926   8.0843455828e+01   1.4796048964e+00    0.6202596    0.2571302 -46.69  0.002252839    2.185    0.542
       107  -9.5811    221.7390    152.9544   8.6049251616e+01   6.2139865427e+00    0.3372476    0.2335901 -54.47  0.001193841    1.487    0.328
       108  -8.9794    118.5150    153.5092   1.0933052813e+02   2.7366118019e+01    0.2869665    0.1498544 -64.00 0.0009923964    2.350    0.574
       109  -8.7901    206.2666    153.0132   8.8976447657e+01   9.2510726040e+00    0.1955811    0.1230093 -42.84 0.0008789168    1.491    0.329
       110  -9.8332    197.2548    149.7202   9.0036401120e+01   1.1774728497e+01    0.4081375    0.1926245 -48.92  0.001391403    2.103    0.524
       111  -8.4535     35.4814    150.4813   1.3135003398e+02   4.0661202250e+01    0.1352663      0.11404 -78.43 9.483311e-05    1.047    0.045
       112  -8.8366    191.6748    148.5231   9.0906871776e+01   1.3193159229e+01    0.2812677    0.1360641 -44.43  0.001080343    1.976    0.494
       113  -9.9399    224.1005    146.3195   8.4202573755e+01   7.0533389673e+00    0.3585404    0.2839939 -35.39  0.001268677    1.195    0.163
       114  -8.0395    174.5025    148.4767   9.4568622868e+01   1.6862852029e+01    0.1553614    0.1499278 -67.26 0.0008100849    1.026    0.026
       115  -9.1234    217.9417    147.4920   8.5566054127e+01   8.0288110558e+00    0.2750612      0.14498  45.20   0.00117473    2.073    0.518
       116  -9.2961    206.4992    146.6846   8.7539086321e+01   1.0492870508e+01    0.3823622    0.2421276   8.06   0.00134403    3.469    0.712
       117  -9.2066    111.9269    147.0007   1.0966183130e+02   3.0215122137e+01     0.244283    0.2303734 -68.58  0.001079737    1.023    0.023
       118  -9.3602     17.2577    147.0264   1.3572956306e+02   4.3204402474e+01    0.1854901    0.1417007 -73.35 0.0006082106    1.065    0.061
       119  -9.2303    155.1763    141.6506   9.7424466342e+01   2.2574229773e+01     0.233582    0.2103692 -70.48  0.001168998    1.140    0.123
       120 -10.6620    225.2434    138.3472   8.2283333894e+01   8.3777730643e+00    0.5222037    0.2547784 -37.96  0.001877357    1.972    0.493
       121  -9.5485      8.9444    141.2034   1.3718972393e+02   4.5245576595e+01    0.1969185    0.1480913  84.58  0.001231346    1.308    0.236
       122  -9.2759    219.0991    138.7017   8.3440896052e+01   9.5317588751e+00    0.2930128    0.1931895 -56.66  0.001367542    1.586    0.370
       123  -9.4516    215.9442    135.5109   8.3304501374e+01   1.0800261621e+01    0.2079172    0.1466541  51.16 0.0007284241    1.541    0.351
       124  -8.9948    209.6894    137.9411   8.4990794051e+01   1.1604233236e+01    0.2202732    0.1830981 -49.43  0.001153996    1.122    0.108
       125 -11.1297    233.0880    133.9853   8.0022101292e+01   7.6810082443e+00    0.6071167    0.3680325 -35.84  0.002890673    1.602    0.376
       126  -8.9104    164.4101    136.1930   9.3979396014e+01   2.1774428929e+01    0.2271402    0.1462914 -56.39 0.0009445942    1.652    0.395
       127  -8.9738     53.0225    135.9177   1.2401426729e+02   4.2264448264e+01    0.2117142     0.189987 -55.57 0.0006436478    1.055    0.052
       128  -9.5014    169.9342    134.5064   9.2330173156e+01   2.0922609394e+01     0.275069    0.2167442 -27.79 0.0005740853    1.436    0.304
       129  -9.3114    221.3502    129.5102   8.1028647437e+01   1.0870131540e+01    0.3061105    0.2179326 -80.76 0.0008760266    1.897    0.473
       130  -9.4782     86.6763    129.2666   1.1276637675e+02   3.9035671540e+01    0.3008611    0.1923783 -73.82  0.001268716    2.013    0.503
       131  -9.1599     62.0155    129.5260   1.2011588135e+02   4.2671600463e+01    0.1926126    0.1425646  31.20 0.0003283935    1.500    0.333
       132 -10.1912    192.8321    127.9929   8.5963764007e+01   1.7233226805e+01    0.2757171     0.225801  56.00  0.001167243    1.275    0.216
       133  -8.8865    186.6095    128.2230   8.7271643966e+01   1.8559577837e+01    0.2163972    0.1432349 -35.20 0.0006562324    1.600    0.375
       134  -8.9349     68.7989    128.5662   1.1789197221e+02   4.1965630858e+01    0.1878362    0.1341388  47.83 0.0005429923    1.557    0.358
       135  -9.7496    229.2079    125.4357   7.8820546012e+01   1.0063603297e+01    0.3188853    0.2487335 -41.32  0.001724393    1.184    0.155
       136  -9.8514    206.3897    126.6322   8.3053718167e+01   1.4564649670e+01    0.2784036    0.2655094  36.35 0.0006688077    1.170    0.145
       137  -9.6821    212.3330    124.5789   8.1510587619e+01   1.3705169706e+01     0.461096    0.3018611 -25.10  0.002038568    1.967    0.492
       138  -9.9452    199.9551    126.2983   8.4184622069e+01   1.6020732379e+01    0.3611701     0.261847 -87.89  0.001631876    1.849    0.459
       139 -10.5572    241.3275    124.5352   7.6713282419e+01   7.8600675494e+00     0.383238    0.3156986 -71.79  0.001634357    1.275    0.215
       140  -8.3055    113.7039    126.6789   1.0446503232e+02   3.4735041613e+01    0.1557495    0.1228493 -14.28 0.0003786031    1.617    0.381
       141  -9.2872    161.4839    124.2885   9.1767794846e+01   2.5033903739e+01    0.2625679    0.2421717  85.19 0.0005750349    1.114    0.103
       142  -8.9361    189.2036    123.0738   8.5529473117e+01   1.9046923444e+01    0.3934478    0.2089009 -40.40  0.001583711    1.861    0.463
       143  -9.3009    221.8081    121.1342   7.9104309183e+01   1.2387981248e+01    0.2916735    0.2216216  57.27  0.001408644    1.432    0.302
       144  -9.3882    243.9794    119.4878   7.5257509226e+01   8.2757519639e+00    0.3295193    0.2196315 -79.96  0.001583362    2.081    0.519
       145  -9.5282    236.2336     59.9571   6.3866522596e+01   1.9918300510e+01    0.4455674    0.2258405  73.47  0.002148527    2.085    0.520
       146  -9.5533    250.2429     54.7456   6.1312416558e+01   1.7804559475e+01    0.3029797    0.1801495 -45.79  0.001706792    1.505    0.335
       147 -10.8026    249.3752     66.7620   6.3761777594e+01   1.6164675436e+01     1.051007     0.358396 -46.27   0.00445912    2.441    0.590
       148 -11.5368    239.3189    102.4238   7.2348702518e+01   1.2256351085e+01     1.104962    0.5718517 -61.24  0.004725168    2.290    0.563
       149 -10.3431    240.3741     67.1421   6.4860438554e+01   1.7944837758e+01    0.6517107    0.4241938 -74.99  0.003549308    1.543    0.352
       150 -10.3416    237.1744     89.6863   6.9955162139e+01   1.4912898002e+01    0.4354302    0.3383435 -83.07  0.001529202    1.292    0.226
       151  -9.9320    231.8792     83.0663   6.9262230813e+01   1.7142420978e+01    0.5058496    0.2836709 -59.60  0.002312974    1.798    0.444
       152 -12.2797    247.3917    107.1161   7.2200217701e+01   9.8361531970e+00      1.64943    0.5201384 -40.12  0.006046125    2.882    0.653
       153  -9.8183    237.8638     84.2203   6.8712631452e+01   1.5696912917e+01    0.4242685    0.2379658 -57.73  0.001785215    1.711    0.415
       154 -10.2117    243.1708     92.4859   6.9740829926e+01   1.3213533181e+01    0.4593032    0.2677507 -47.23  0.001708426    1.482    0.325
       155 -11.8458    245.4866     81.0309   6.7086646340e+01   1.4669525763e+01     1.263089    0.6294883 -61.75   0.00567019    2.215    0.549
       156 -10.4772    235.3602     73.4591   6.6775250617e+01   1.7990645196e+01    0.9176018    0.2331011 -41.59  0.003196588    3.398    0.706
       157  -8.6827    124.8107    119.8059   9.9735640375e+01   3.4060117208e+01    0.2087959    0.1820516 -89.99 0.0003544046    1.294    0.227
       158 -11.2356    213.3473    115.4007   7.9259249567e+01   1.5270809279e+01    0.7735667    0.4644564  21.21  0.002590654    4.201    0.762
       159 -10.1369    218.5021    115.3297   7.8368187248e+01   1.4186016539e+01     0.462964    0.2113102  51.73  0.001879666    2.359    0.576
       160 -10.6608    230.2278    116.0041   7.6613849721e+01   1.1627986024e+01    0.5148897    0.3413419  62.28  0.002325687    1.701    0.412
       161  -9.8312    235.3932    114.9185   7.5580704476e+01   1.0788438421e+01    0.4049492    0.2580903 -55.47  0.001940719    1.494    0.331
       162  -8.7239    203.6588    115.4967   8.0994629547e+01   1.7358588869e+01    0.2558312    0.1323084 -42.66  0.001050312    1.826    0.452
       163  -8.7411     52.1921    113.1935   1.1967647929e+02   4.7807588482e+01    0.1837336    0.1548807 -80.70 0.0006906699    1.322    0.244
       164  -9.8489    104.4587    111.8704   1.0333837406e+02   3.9919225739e+01    0.2716421    0.2190646  30.08 0.0004570376    1.316    0.240
       165  -9.9087     14.4215    111.6657   1.3131153643e+02   5.1764949861e+01    0.3273706    0.1816706  44.44  0.001258391    2.276    0.561
       166  -8.1361     84.2915    122.3564   1.1187266671e+02   4.1078126246e+01    0.1543279    0.1107493 -25.51 0.0007028753    1.686    0.407
       167  -9.1841    236.0967    107.9480   7.3986661563e+01   1.1916756455e+01    0.2642198    0.1944364  78.71 0.0009250382    1.562    0.360
       168 -10.1805    214.2234    107.0414   7.7216355802e+01   1.6668133468e+01    0.5456105    0.3267997  84.45  0.002168153    2.681    0.627
       169  -8.7218    230.3136    106.6447   7.4571407115e+01   1.3332702335e+01    0.1498884   0.09925365 -69.50 0.0007044788    1.738    0.425
       170 -10.7765    221.4699    100.4727   7.4574212905e+01   1.6316190675e+01    0.4676844    0.1915908 -50.65  0.001787272    2.409    0.585
       171  -8.4879    196.1863    103.3477   7.9497404152e+01   2.1380558848e+01    0.2035662    0.1368888  67.85 0.0005347439    1.638    0.389
       172  -9.0516    183.4142    107.7476   8.2990108043e+01   2.3450200279e+01    0.2114687     0.145199 -33.90 0.0009495486    1.588    0.370
       173  -9.6901    130.4032     97.7061   9.2409160137e+01   3.7605083311e+01    0.2716568    0.2508425   4.97 0.0006807244    1.180    0.153
       174 -10.6696    230.5006     94.2958   7.1869302520e+01   1.5502256177e+01    0.3589166    0.3363804 -52.43  0.001430447    1.173    0.147
       175  -8.5669     73.5228    108.4724   1.1181163966e+02   4.5994212195e+01    0.1418327    0.1331128 -47.83  0.000358377    1.049    0.047
       176  -9.9989    216.8883     89.4085   7.2803421438e+01   1.9289468123e+01    0.4081369    0.3291336 -48.16  0.002267157    1.179    0.152
       177 -10.3553    225.8047     86.5445   7.0855452812e+01   1.7846358751e+01    0.4448909    0.3687046  -8.38  0.002180379    1.783    0.439
       178  -8.6524    176.3828     87.2523   7.9250274187e+01   2.8987733167e+01    0.2144664    0.1309541 -52.20 0.0008895924    1.685    0.407
       179  -8.5696     88.0541     82.3363   1.0006482314e+02   4.9134726607e+01    0.1895929    0.1772134  17.13 0.0004567305    1.063    0.059
       180  -8.7392     20.8969     81.8654   1.2316268914e+02   5.7825488535e+01    0.1550181    0.1407219 -72.24 0.0006215664    1.311    0.237
       181  -8.4200    158.5287     81.4983   8.1358696974e+01   3.4246614883e+01    0.1482848    0.1406408  81.70 0.0001125073    1.006    0.006
       182  -9.1645    215.4154     80.2315   7.0956464536e+01   2.1197994660e+01    0.2092346    0.1152854 -51.97 0.0009534786    1.718    0.418
       183  -9.3142    119.2055     78.8083   8.9971153037e+01   4.3668435176e+01    0.2082691    0.1733445  11.71 0.0008702854    1.363    0.266
       184  -9.1492    175.5078     77.0115   7.6801343845e+01   3.1001518654e+01    0.2191264    0.1416711 -42.10 0.0005271506    1.567    0.362
       185  -9.6725    220.7970     69.5274   6.7818322341e+01   2.1765244540e+01    0.3843052    0.2073307 -71.61  0.001627516    2.440    0.590
       186 -10.2703    226.8668     74.1458   6.8014878920e+01   1.9692515091e+01    0.4142422    0.3487682  66.84   0.00176806    1.270    0.213
       187  -9.3997    214.3842     75.4570   7.0030343255e+01   2.2227060315e+01    0.4429284    0.1809514  57.31  0.001804941    2.450    0.592
       188  -8.5081    126.4802     76.5196   8.7405452700e+01   4.2497292947e+01    0.1444557    0.1395875  49.00 0.0008099453    1.020    0.020
       189  -8.4420     46.3108     74.3334   1.1189512001e+02   5.6869198467e+01    0.1368337   0.08682898 -21.98 0.0004653773    1.677    0.404
       190  -8.2894    134.4596     73.4977   8.4555181957e+01   4.1237938382e+01    0.1455328    0.1373963  34.98 0.0001579346    1.064    0.060
       191 -10.8686    225.7465     66.5834   6.6530668772e+01   2.1146474643e+01    0.4999745    0.3306136 -83.61  0.002168367    1.599    0.375
       192  -9.5086    227.0192     60.8724   6.5149775884e+01   2.1754482734e+01    0.3926515    0.1341639 -50.44  0.001369041    2.804    0.643
       193  -8.0442    221.1331     60.9435   6.5899373718e+01   2.3034515101e+01    0.2520679    0.1546255 -59.18 0.0007525629    1.541    0.351
       194  -8.9267    210.9915     66.2488   6.8431689224e+01   2.4481592084e+01    0.2132226    0.1346151 -64.33  0.001047003    1.622    0.384
       195  -8.3003    153.6903     66.3107   7.8234936337e+01   3.7963718581e+01    0.1466607     0.109567 -79.20 0.0002668665    1.623    0.384
       196  -8.0023    214.6281     63.2926   6.7267633458e+01   2.4123347045e+01    0.1461992   0.09273545 -75.78 0.0007025088    1.727    0.421
       197  -9.5446    207.0026     60.4782   6.7675878689e+01   2.6287831800e+01    0.3096235    0.1824416 -47.02  0.001537092    1.616    0.381
       198  -9.0713    136.4538     62.4933   8.0890302761e+01   4.2589552843e+01    0.2111492    0.1306224 -47.25 0.0003286774    1.775    0.437
       199  -8.6383     43.8289     62.5889   1.0930075155e+02   5.9368977020e+01    0.1553539    0.1136483  34.72 0.0004293477    1.559    0.359
       200  -9.4580    171.6420     59.1373   7.2888385526e+01   3.4807488337e+01    0.3491752    0.2171225  54.49  0.001307312    1.530    0.346
       201  -9.5795    213.9981     57.3226   6.6022648921e+01   2.5176528405e+01    0.3032028    0.2345069  67.32  0.001164314    1.280    0.219
       202  -8.2110    126.6600     58.3271   8.1947276351e+01   4.5450196878e+01    0.1424616    0.1099907 -82.31 0.0006959227    1.733    0.423
       203 -11.3113    216.2379     30.8076   6.0007098201e+01   2.8343172909e+01    0.9612424    0.2874734  67.95  0.003812676    3.029    0.670
       204  -9.2596    233.2984    247.4487   1.0212498318e+02  -1.2192523021e+01    0.2339053    0.1965223  63.68  0.001460198    2.082    0.520
       205 -10.9308    234.8551     31.4742   5.8273495019e+01   2.4217136082e+01     0.892709    0.3604335  67.81  0.004307615    2.288    0.563
       206 -10.2029    237.2115     53.6542   6.2469327333e+01   2.0651911538e+01    0.5960855     0.258164  75.60  0.002600367    2.644    0.622
       207 -10.7590    228.6922     51.9532   6.3071695227e+01   2.2721467239e+01    0.4772252    0.3966921 -76.86  0.002585294    1.021    0.020
       208  -8.9261    248.9229    246.4287   9.9117036963e+01  -1.4129024816e+01    0.1834781    0.1440601 -28.05 0.0006575057    1.317    0.241
       209  -8.8102    186.9121    247.1393   1.1104813081e+02  -5.1981525558e+00    0.1883246    0.1659606  46.40 0.0005481921    1.268    0.212
       210 -10.4494    244.3866     51.2346   6.1224266686e+01   1.9509654992e+01    0.4292542    0.2655388 -75.09   0.00180928    1.557    0.358
       211  -8.6497    176.3264    247.6832   1.1327499818e+02  -3.5759903100e+00    0.1268437   0.09921095  63.90 0.0005062586    1.674    0.403
       212 -10.2779    238.7148     38.2812   5.9242039482e+01   2.2502942446e+01    0.3686968    0.2868694  60.80   0.00236565    1.523    0.343
       213 -10.1636    249.9588     46.6624   5.9781536628e+01   1.9027856501e+01    0.5859088    0.1985143 -41.83   0.00259602    2.575    0.612
       214 -10.8491    244.1893     41.9493   5.9428435235e+01   2.0863921420e+01    0.4829986    0.2914235 -48.90  0.001666102    1.465    0.317
       215  -9.2319    191.3733    245.1408   1.0982875775e+02  -5.5824615371e+00    0.2310291    0.1609445  24.67 0.0008052677    1.328    0.247
       216  -9.7169    225.1344    242.9201   1.0287650339e+02  -1.0376011274e+01    0.2939833    0.2464176 -45.84  0.001508756    1.545    0.353
       217  -8.8652    202.1094    241.8704   1.0714857031e+02  -6.7462662064e+00    0.1906336    0.1720985  36.07  0.001231346    1.242    0.195
       218  -9.3871    246.7318    240.5132   9.8487842729e+01  -1.3010353707e+01    0.2155584    0.1844244  -8.19 0.0006918248    1.156    0.135
       219  -8.8535    243.6259    236.7784   9.8393817184e+01  -1.2052380351e+01     0.221521    0.1587304 -40.45  0.000994803    1.560    0.359
       220  -9.9287    239.9249    240.2952   9.9679527899e+01  -1.2063603350e+01    0.2822269    0.2182508  38.98  0.001116977    1.546    0.353
       221  -9.0145    214.8928    240.4392   1.0440626671e+02  -8.4837385865e+00    0.2052183    0.1698568 -36.51  0.001299578    1.347    0.257
       222 -11.0844    200.3420     53.9857   6.7108271046e+01   2.8795965010e+01    0.6043731    0.4304592  -1.32  0.002844182    2.666    0.625
       223  -8.8762    207.6007     53.7165   6.6056360101e+01   2.7164013006e+01    0.1783232    0.1131456 -52.93 0.0002970608    1.494    0.330
       224  -8.7058    221.8285     53.1380   6.4127830472e+01   2.4049693690e+01    0.1640288    0.1538997  75.39 0.0009725105    1.281    0.219
       225  -9.0749    163.1199     52.4612   7.2646858863e+01   3.7823983611e+01    0.2916118    0.1661547 -52.96  0.001329773    1.974    0.493
       226  -9.7555    219.4749     42.5190   6.2133606990e+01   2.6077836399e+01    0.4460658    0.3259803  18.55    0.0022495    2.778    0.640
       227 -10.3088    216.3310     41.2873   6.2230032664e+01   2.6945846715e+01    0.4514637    0.3336488  -2.18  0.002343105    2.576    0.612
       228  -9.6971    233.5982     43.7466   6.0847907608e+01   2.2835134261e+01    0.3769885    0.3021412  67.95  0.002412722    1.352    0.260
       229 -10.5703    190.5071     42.2042   6.5705616500e+01   3.2745580921e+01    0.4306037    0.3477576   9.59    0.0024069    1.909    0.476
       230 -10.3689    185.8326     37.3687   6.5195781720e+01   3.4477128410e+01    0.4525957    0.2334185 -41.93   0.00167207    1.976    0.494
       231  -8.7260    183.5687     43.2525   6.6950010891e+01   3.4237583247e+01    0.1692752    0.1346617 -21.02 0.0009177038    1.634    0.388
       232  -8.2631     76.5092     43.5906   9.1184121708e+01   5.7655940919e+01    0.1284096    0.1097635  15.29 0.0002249809    1.018    0.017
       233  -9.3402    209.0026     39.0931   6.2611257820e+01   2.8891201654e+01    0.2397445    0.1963182 -64.94 0.0008002973    1.132    0.116
       234 -11.1555    201.1677     38.0101   6.3325466237e+01   3.0824938884e+01    0.4846345    0.2741165 -25.72  0.002016001    2.448    0.592
       235  -9.4488    173.3791     39.6921   6.7596762497e+01   3.7119607844e+01    0.2132102    0.1426429 -72.36  0.001087651    1.683    0.406
       236  -8.6314    165.5038     39.9770   6.8925703848e+01   3.8951960873e+01    0.1873193    0.1334511 -37.42 0.0006997095    1.543    0.352
       237  -8.7328     61.4570     38.0461   9.4311837400e+01   6.0896115032e+01    0.1814999    0.1128341 -31.82  0.001031375    1.599    0.375
       238  -8.8127    238.3203     45.0367   6.0618496172e+01   2.1655353811e+01    0.1971319    0.1555465  78.88 0.0009346616    1.235    0.190
       239  -9.5985    190.7799     34.1361   6.3758994437e+01   3.3730117512e+01    0.1751629    0.1488303  52.49  0.001022118    1.345    0.256
       240  -8.2748     96.5378     34.4573   8.1983666760e+01   5.5095214655e+01    0.1290684     0.112115  31.25 0.0002328528    1.005    0.005
       241  -8.7829    182.5007    239.4624   1.1069352222e+02  -3.1827648666e+00    0.1321866    0.1175312  27.07 0.0001832843    1.048    0.046
       242  -8.8561    197.3278     28.6798   6.1678539870e+01   3.2888238628e+01    0.1956945    0.1199533 -45.24 0.0007172273    1.643    0.391
       243  -8.4414    181.2859     32.6657   6.4686512394e+01   3.6136098296e+01     0.135943   0.08960919 -71.40 0.0007014243    1.624    0.384
       244  -8.4118    170.2798     29.6577   6.5512420095e+01   3.9089461597e+01    0.1342199   0.09069286 -71.12 0.0007008726    1.629    0.386
       245  -8.9336    174.4371     27.7147   6.4423814715e+01   3.8337487981e+01    0.2255665    0.1185237 -39.52  0.001119649    2.016    0.504
       246  -9.6788    142.2031     24.7113   6.8728022206e+01   4.6218595256e+01    0.3016912    0.1497876 -47.02  0.001408147    2.401    0.584
       247  -8.5218    118.5753     25.4937   7.3617543383e+01   5.1470522982e+01    0.1275717     0.111902  50.21 -2.042515e-05    1.023    0.023
       248  -9.8173    230.9698    236.8189   1.0072430205e+02  -1.0291226833e+01    0.2979403     0.169729 -39.09  0.001067072    1.775    0.437
       249  -9.5350    199.7341     20.5203   5.9574925011e+01   3.3299917906e+01    0.2314922    0.1740973 -72.99 0.0009520077    1.196    0.164
       250  -8.8605    176.2881     20.6880   6.2438369095e+01   3.8694323006e+01    0.1296359     0.086167 -73.28   0.00037131    1.582    0.368
       251  -8.3705    151.3479     19.6672   6.5782581773e+01   4.4625647488e+01    0.1340939   0.08998724 -75.71 0.0007048777    1.769    0.435
       252  -8.9215     73.3920     17.1896   8.2430654817e+01   6.1378483547e+01    0.1500247     0.107298 -32.32 0.0005643021    1.631    0.387
       253 -10.3209    205.9087    235.7751   1.0535829430e+02  -6.3480567923e+00    0.3815681    0.3557542  48.84  0.001796802    1.346    0.257
       254  -9.7179    219.1211    235.6525   1.0276318622e+02  -8.3665276828e+00    0.3100326    0.2127826  31.87  0.001799479    1.374    0.272
       255  -8.5497    187.2146     16.6152   6.0114694112e+01   3.6600864468e+01    0.1660946   0.09976855  65.06 0.0003576014    1.444    0.307
       256  -9.0495    244.8003    231.6037   9.7267507339e+01  -1.1444893424e+01    0.2170449    0.1500086 -48.89  0.000799093    1.900    0.474
       257  -9.8263    162.4204     15.2648   6.2963202270e+01   4.2494037491e+01    0.2270733    0.1395865 -88.08  0.001189408    1.768    0.434
       258  -8.7967    105.9584     15.2164   7.3079269350e+01   5.5197492948e+01    0.1714999    0.0874744  57.34 0.0008703111    1.689    0.408
       259  -8.4789    172.9673     14.5047   6.1357933244e+01   4.0118705011e+01    0.1931028    0.1052483  68.39 0.0007645705    1.532    0.347
       260  -9.7342    237.8650    231.3046   9.8474215860e+01  -1.0432479122e+01    0.4254074    0.2553169  57.10  0.001881347    3.622    0.724
       261  -8.6441    248.5279    234.0871   9.7040668703e+01  -1.2318114850e+01    0.1788037    0.1060414 -34.56  0.001024231    1.573    0.364
       262  -8.5885     58.3005     12.3024   8.5401588466e+01   6.4430613076e+01    0.1195786   0.07279921  17.86 0.0005765135    1.587    0.370
       263  -8.9685    113.5018    230.9928   1.2405058015e+02   1.0230553193e+01    0.1806221    0.1137689 -34.06 0.0008093252    2.441    0.590
       264  -9.8296    227.3152    219.2430   9.8253944661e+01  -6.9515560310e+00      0.36871    0.2071066 -24.19  0.001686309    1.958    0.489
       265 -10.6158    229.2398    227.5396   9.9401186847e+01  -8.5921454666e+00    0.4164699    0.2289865 -44.48  0.001646479    1.972    0.493
       266  -8.8789    229.5185    222.5282   9.8441015462e+01  -7.8267867067e+00    0.2178198    0.1682144  29.95 0.0007879341    1.295    0.228
       267  -9.7072    248.1580    227.1342   9.5867040811e+01  -1.1232347958e+01    0.3021184    0.1876849 -32.02  0.001187513    1.457    0.314
       268  -8.1791    167.6680     10.6847   6.1097943112e+01   4.1725477657e+01    0.1266473   0.08300124  45.56 0.0007046287    1.684    0.406
       269 -10.8699    239.3280    220.8441   9.6317133320e+01  -9.0094619909e+00    0.6256385    0.4643537 -69.86  0.003225512    2.711    0.631
       270  -8.8534    163.9630    228.5036   1.1275406212e+02   1.9734599805e+00    0.2154991     0.126048  38.98  0.000639451    1.563    0.360
       271  -9.3468     99.3629    226.1988   1.2647605735e+02   1.3592999447e+01    0.2688628    0.1935342  62.05 0.0007115357    1.321    0.243
       272 -10.4122    208.5443    223.8414   1.0272890600e+02  -4.7600756836e+00    0.3693132    0.2709399  18.21  0.002071594    1.343    0.255
       273  -9.4274    218.0003    223.5242   1.0081905193e+02  -6.2165505460e+00    0.2685503    0.2265506  57.37  0.001598004    1.616    0.381
       274  -8.5226    156.3383    222.7008   1.1342872984e+02   4.4548302105e+00     0.142368    0.1069181  68.00 0.0007034492    1.661    0.398
       275 -11.0346    247.2586    214.8804   9.3791283521e+01  -9.2041603901e+00    0.7714939    0.3191916 -41.24  0.003421836    2.279    0.561
       276  -9.3275    193.6444    219.6163   1.0497302292e+02  -1.5246747700e+00    0.2573698    0.2468742  31.79   0.00159064    1.151    0.132
       277  -9.2767     48.8224    219.8200   1.3657391529e+02   2.2447663597e+01    0.1832052    0.1596212 -83.23 0.0005902876    1.188    0.158
       278  -8.7095    131.4979    219.4909   1.1838491068e+02   9.5541031054e+00    0.1430012     0.129838  56.96 0.0002368259    1.025    0.025
       279  -8.5598    160.6468    218.6917   1.1180972214e+02   4.4829212398e+00    0.1452201     0.109602   1.69 0.0004144634    1.719    0.418
       280  -8.8215    109.1823    216.5775   1.2295282032e+02   1.4075971817e+01    0.2209915    0.1661894 -56.31  0.001167498    1.410    0.291
