#   1 NUMBER                 Running object number                                     
#   2 MAG_AUTO               Kron-like elliptical aperture magnitude                    [mag]
#   3 X_IMAGE                Object position along x                                    [pixel]
#   4 Y_IMAGE                Object position along y                                    [pixel]
#   5 X_WORLD                Barycenter position along world x axis                     [deg]
#   6 Y_WORLD                Barycenter position along world y axis                     [deg]
#   7 A_WORLD                Profile RMS along major axis (world units)                 [deg]
#   8 B_WORLD                Profile RMS along minor axis (world units)                 [deg]
#   9 THETA_WORLD            Position angle (CCW/world-x)                               [deg]
#  10 FWHM_WORLD             FWHM assuming a gaussian core                              [deg]
#  11 ELONGATION             A_IMAGE/B_IMAGE                                           
#  12 ELLIPTICITY            1 - B_IMAGE/A_IMAGE                                       
         1 -14.4561    247.6676     16.6944   4.7853461172e+01   2.0705705857e+01     2.256206    0.9094899 -28.92  0.009553014    2.124    0.529
         2 -14.5418    241.4079     52.7085   5.8062706206e+01   1.7968764308e+01     1.626088    0.5374054 -34.90   0.00597092    2.515    0.602
         3 -13.5002    247.4067     42.4824   5.4664714419e+01   1.7842764797e+01      1.18963    0.6414028 -31.52  0.005549524    1.615    0.381
         4 -14.8144    234.6387     28.1030   5.2131179480e+01   2.2566475265e+01     1.767721     0.545818 -25.90  0.006171706    2.908    0.656
         5 -10.9462      1.4154      7.7132   1.0863616933e+02   7.3457769067e+01    0.2749893   0.07799529 -56.22  0.001279115    2.514    0.602
         6 -10.1725    116.5108      5.5273   6.1921511498e+01   5.5552502395e+01    0.1416827    0.1287813  19.52 5.199085e-05    1.012    0.011
         7 -10.3451    110.8349      5.1806   6.3047358733e+01   5.6932649868e+01    0.1947583    0.1471636  22.14            0    1.304    0.233
         8  -9.8232     50.7205      3.6770   8.1439535332e+01   6.8923194319e+01    0.1270098   0.08398694  -4.04 0.0002846584    1.588    0.370
         9 -10.4192    202.1105    242.2582   1.0364694592e+02   8.2105721644e-01    0.1640237    0.1381204  86.75  0.001225398    2.068    0.517
        10 -11.3392    193.2861    248.3353   1.0576721588e+02   1.5040965739e+00    0.2425349    0.1885957 -41.24  0.001937629    1.796    0.443
        11 -10.3653    248.4339    239.8159   9.6294791959e+01  -5.6096147178e+00    0.1592226   0.09329265 -28.21  0.001123328    2.068    0.516
        12 -10.4155    250.7069    245.4467   9.6753920074e+01  -6.3751780161e+00    0.1494591    0.0838079 -21.00 0.0009059874    2.017    0.504
        13 -11.2015    230.3261    236.5057   9.8533729378e+01  -2.7624682733e+00    0.2341439    0.1906576 -49.99  0.001599144    2.135    0.532
        14 -11.5542    191.0296    235.6103   1.0454590003e+02   3.1815332872e+00     0.393148    0.2760063 -85.97  0.002191406    3.621    0.724
        15 -10.8044    206.3597    236.2655   1.0220390403e+02   7.9627442843e-01    0.2103865     0.196452 -34.95   0.00175615    1.522    0.343
        16 -11.4766    216.2690    233.0576   1.0021851510e+02  -3.6503170401e-01    0.3025356    0.2330551 -22.49   0.00232362    1.568    0.362
        17  -9.9577    237.7114    244.3885   9.8514564764e+01  -4.5052347415e+00    0.0871925   0.07748356  51.99 0.0007009264    1.759    0.432
        18 -10.3099    240.5024    231.5896   9.6291285712e+01  -3.7858743639e+00    0.1528591    0.0956537 -38.28  0.001023765    2.304    0.566
        19 -10.2728    225.4899    231.4962   9.8568488795e+01  -1.5853308578e+00    0.1494699    0.1004903 -41.67 0.0009586166    2.185    0.542
        20 -11.2808    235.1968    228.8485   9.6695808878e+01  -2.7657612816e+00    0.2744497    0.1499547 -29.29  0.001705767    2.158    0.537
        21 -10.6723    229.6101    228.1854   9.7456614892e+01  -1.8790167960e+00    0.1898158    0.1251038 -39.06  0.001024351    2.126    0.530
        22 -10.2883    211.6079    227.2851   1.0014637634e+02   9.2822573008e-01    0.1699475     0.105213 -35.64  0.001123115    2.039    0.510
        23 -10.0306    138.6746    228.3394   1.1227858767e+02   1.2082064842e+01     0.113105   0.07217557  65.31  0.000705136    1.727    0.421
        24 -11.6489    246.6016    225.7261   9.4502737130e+01  -4.1391381599e+00    0.3009709    0.1991688  49.15  0.002028637    1.861    0.463
        25 -12.0125    239.9539    220.8253   9.4766228349e+01  -2.7146866650e+00    0.4261551     0.235853 -29.92  0.002734736    2.097    0.523
        26 -10.3627    223.1371    226.6285   9.8235886669e+01  -7.5813404623e-01    0.1616866    0.1454626  -9.24  0.001298959    1.389    0.280
        27 -11.0206    198.9746    226.5437   1.0206759705e+02   2.9583421875e+00    0.1769723    0.1599828 -63.31  0.001365631    1.651    0.394
        28 -10.5633    205.8585    225.4767   1.0081012932e+02   2.0063129738e+00    0.1850453    0.1456532 -54.63  0.001304359    1.992    0.498
        29 -11.4669    217.0373    222.6632   9.8620644250e+01   5.7623689174e-01    0.2886806    0.2284795 -43.54  0.001570167    1.819    0.450
        30 -11.4947    216.8942    211.5382   9.6972541515e+01   1.7922535234e+00    0.2845892     0.222232 -52.17  0.001913517    2.000    0.500
        31 -10.4118    190.5579    225.7442   1.0332741297e+02   4.3625755294e+00    0.1752689    0.1096625 -30.57  0.001132198    2.040    0.510
        32 -12.2935    247.8931    216.5770   9.2894894349e+01  -3.4910880353e+00    0.4289419     0.247345 -28.41  0.002589706    1.964    0.491
        33 -10.2176    210.6819    218.5144   9.9031285520e+01   2.0104146671e+00    0.1695615    0.1029993 -31.95    0.0010743    1.978    0.495
        34 -10.7684    193.0228    218.5324   1.0192658902e+02   4.8145634758e+00    0.2056819    0.1442627 -61.84  0.001262293    2.436    0.589
        35 -10.9286    219.4277    216.7683   9.7363667610e+01   8.2565947281e-01    0.2627064     0.175447 -30.32  0.001338417    1.777    0.437
        36 -11.1973    232.9653    212.5792   9.4569136669e+01  -8.4483550285e-01    0.2735954     0.179848 -23.57  0.001613912    1.684    0.406
        37  -9.3980    185.6756    215.3105   1.0269995113e+02   6.3878528224e+00     0.109834    0.0832789  63.45 0.0007038799    1.655    0.396
        38 -11.4097    240.4393    208.1577   9.2691972108e+01  -1.5508887301e+00    0.3377661    0.2371388 -50.45  0.002061873    2.607    0.616
        39 -10.4011    192.6254    209.8109   1.0073196368e+02   5.9339100347e+00    0.1425401    0.1112703 -50.20 0.0009525498    1.732    0.423
        40 -11.1888    246.9948    206.5066   9.1407593766e+01  -2.3913871563e+00    0.2960078    0.1611206 -42.76  0.001626521    2.927    0.658
        41 -11.0841    243.2603    200.8504   9.1042684252e+01  -1.2455977411e+00    0.2903445    0.1987922 -22.65  0.001715851    1.552    0.356
        42 -10.8359    229.4375    206.7830   9.4203054570e+01   3.1167532333e-01       0.2835    0.1067323 -33.86  0.001399327    3.025    0.669
        43 -10.1607    224.6640    207.5582   9.5092216411e+01   9.8750087646e-01    0.1778164    0.1039211 -30.09  0.001079197    1.950    0.487
        44  -9.4846    183.0000    207.0221   1.0196411216e+02   7.8804570501e+00    0.1626867   0.06860062 -41.07 0.0007953471    2.894    0.654
        45 -10.8071    228.0964    221.6234   9.6723098779e+01  -1.0105782818e+00    0.2313694    0.1723351  53.72   0.00158806    1.761    0.432
        46 -11.0971    235.0059    203.1973   9.2731982892e+01  -1.9029498218e-01    0.2516281    0.2033146 -44.81  0.001221654    1.856    0.461
        47 -10.8955    231.0000    193.9882   9.1820601738e+01   1.4597270903e+00    0.2813627    0.1504531 -27.43  0.001580932    2.026    0.506
        48 -10.1509    197.4619    203.9996   9.9032555924e+01   5.8535086958e+00    0.1588143    0.1166568 -30.57    0.0010331    1.600    0.375
        49 -10.2909    187.2415    203.2485   1.0066913094e+02   7.6628778452e+00    0.1626703    0.0972599 -53.18  0.000887846    2.433    0.589
        50 -11.2661    250.1056    200.4872   8.9922373955e+01  -2.2712006184e+00    0.2982873    0.1555937 -27.20  0.001549845    2.024    0.506
        51 -10.0245    223.5785    201.2591   9.4247217149e+01   1.8582512018e+00    0.1503762    0.1034581  -9.29 0.0009459947    1.575    0.365
        52 -11.0818    231.4831    198.9260   9.2581893294e+01   8.3320531575e-01    0.3474273    0.1684927 -39.44  0.001834465    2.627    0.619
        53 -10.0492    215.4848    197.9846   9.5038648585e+01   3.5714795494e+00    0.1442896    0.1041301 -60.26 0.0008101646    2.527    0.604
        54 -10.1225    172.6541    203.7892   1.0329423160e+02   1.0042576707e+01    0.1441675    0.1126681 -57.41 0.0009384857    1.667    0.400
        55  -9.8504    176.4588    197.5185   1.0168867476e+02   1.0267685122e+01    0.1219366    0.1020089  42.15 0.0001285782    1.048    0.046
        56 -11.7157    246.3960    193.0886   8.9220875243e+01  -9.3326500624e-01    0.3086713    0.2395816 -35.56  0.002089468    1.691    0.408
        57 -10.5406    243.7044    188.1144   8.8763634174e+01   3.1027387323e-02    0.1947539    0.1748571 -44.55  0.001021116    1.673    0.402
        58 -11.0302    224.3308    192.5222   9.2655570209e+01   2.7339773198e+00    0.2799642    0.1505719 -39.17  0.001484715    2.267    0.559
        59 -11.1463    237.0643    187.1542   8.9647265853e+01   1.2270670295e+00    0.2715388    0.1685303 -20.67  0.001320178    1.667    0.400
        60 -10.6816    230.1652    186.9360   9.0724156425e+01   2.4047420025e+00    0.2200801      0.16328 -39.32  0.001030491    1.715    0.417
        61  -9.8337    210.2990    188.6522   9.4339099871e+01   5.5945365099e+00    0.1105302   0.09771112  80.84 0.0004985824    1.683    0.406
        62  -9.6980    220.2883    187.3442   9.2426530225e+01   4.0347398054e+00    0.1261494   0.08240774  13.27 0.0007023006    1.651    0.394
        63 -12.0224    247.5589    178.1902   8.6346562376e+01   4.9112021276e-01    0.5338429    0.2263019 -36.73  0.002570714    2.697    0.629
        64 -10.5494    223.8088    183.7227   9.1197910996e+01   3.8694285237e+00    0.2272844    0.1621221 -37.31  0.001388859    1.672    0.402
        65 -11.3228    183.5458    182.7479   9.8041557030e+01   1.1127694198e+01    0.2719656    0.1245336 -43.22  0.001283903    2.543    0.607
        66 -10.2300    203.3796    183.2254   9.4590947848e+01   7.5124758237e+00    0.1607171    0.1170159 -44.03 0.0009523929    1.695    0.410
        67 -11.5360    241.3113    180.6478   8.7789060615e+01   1.2554108261e+00    0.3552194    0.2039081 -37.08  0.001980747    2.051    0.512
        68 -10.6302    235.4238    180.8158   8.8765042626e+01   2.2282558085e+00    0.2058566    0.1421881 -13.60  0.001177561    1.455    0.312
        69 -10.1486    231.4843    178.5439   8.8988198479e+01   3.1705641003e+00    0.1235425    0.1032506  19.40 0.0001915863    1.043    0.041
        70 -10.5261    219.0995    177.6737   9.0890822273e+01   5.4437287673e+00    0.2130253    0.1619022 -34.24  0.001314845    1.501    0.334
        71 -10.2311    205.0000    176.9795   9.3194853975e+01   8.0615775552e+00    0.1885173   0.07177774 -35.96 0.0007971585    2.906    0.656
        72  -9.9633    197.6068    176.7510   9.4461962018e+01   9.4363376812e+00    0.1627093     0.120598 -46.23  0.000945628    1.652    0.395
        73 -11.2077    182.3769    176.2040   9.7129411255e+01   1.2303299312e+01    0.2123009    0.1691705 -48.66  0.001285759    1.494    0.331
        74 -10.1422    210.5110    175.9867   9.2052655542e+01   7.1989197653e+00    0.1776935    0.1225546 -31.79 0.0009462049    1.581    0.367
        75 -10.2534    232.5882    174.2498   8.8005744070e+01   3.4965610893e+00      0.16683    0.1094951 -12.38 0.0007650784    1.589    0.371
        76 -10.4348    223.5545    173.2517   8.9316650364e+01   5.2134235527e+00    0.2186482    0.1163976 -36.72  0.001081467    2.077    0.519
        77 -10.0909    227.5302    171.0177   8.8228006345e+01   4.7868935715e+00    0.1797462     0.118366 -29.38  0.001023577    1.591    0.371
        78 -10.5904    245.8651    169.2873   8.4921135904e+01   1.7906068321e+00    0.2060072    0.1585813 -26.93  0.001307986    1.397    0.284
        79 -10.9797    237.2933    168.8630   8.6209870480e+01   3.3265990090e+00     0.311137     0.151501 -34.42  0.001553077    2.171    0.539
        80 -10.8392    218.7847    168.2245   8.9168885465e+01   6.7248724076e+00    0.2987047    0.1764104 -36.94  0.001582577    1.863    0.463
        81  -9.8014    229.2955    165.6518   8.6897347542e+01   5.1484706240e+00    0.1144964    0.1030917 -68.48 0.0007032885    1.676    0.403
        82 -10.4154    199.4054    164.7785   9.1915338080e+01   1.0812708231e+01    0.2354031      0.12447 -40.25  0.001132198    2.094    0.523
        83 -10.4249    240.0104    163.9875   8.4817506212e+01   3.4405126905e+00    0.1758485    0.1586059 -60.69  0.000907549    1.677    0.404
        84 -10.3394    205.2758    169.2550   9.1717034721e+01   9.0742459340e+00    0.2465998    0.1528187 -55.86  0.001172954    2.616    0.618
        85 -10.9440    212.9414    162.5559   8.9076613679e+01   8.5736274146e+00    0.3252844    0.1812407 -31.47  0.001636713    1.894    0.472
        86 -10.5111    246.7024    162.1853   8.3394616388e+01   2.4816293724e+00    0.2188819    0.1418977 -34.47  0.001203502    1.686    0.407
        87 -10.8339    245.8281    157.1775   8.2524985617e+01   3.2378778846e+00    0.3110035    0.1651806 -27.49  0.001362324    1.834    0.455
        88 -10.6100    205.3349    161.4748   9.0207793314e+01   1.0164395085e+01    0.2539126    0.1619205 -35.85  0.001345538    1.685    0.406
        89 -10.0329    221.4896    161.4941   8.7391243808e+01   7.1204057599e+00    0.1305771    0.1130542  17.41 0.0008105175    1.017    0.017
        90 -10.7009    237.5038    158.6051   8.4146619531e+01   4.5547542502e+00    0.2482875    0.1692044 -35.73 0.0009495997    1.619    0.382
        91  -9.9475    231.2868    159.3490   8.5315714237e+01   5.5928147965e+00    0.1351177   0.08893413  10.58  0.000619468    1.658    0.397
        92 -10.8854    176.6771    158.8201   9.5018196364e+01   1.6092786349e+01    0.2615617    0.1228008 -32.86   0.00109255    2.638    0.621
        93 -10.4635    226.4321    156.7651   8.5602943308e+01   6.8292399976e+00    0.2329538    0.1196821 -34.72  0.001123411    2.017    0.504
        94 -10.3423    191.4679    165.0267   9.3412131857e+01   1.2281714410e+01     0.192661    0.1298249 -34.48 0.0008281974    1.618    0.382
        95  -9.5491    222.2733    156.6480   8.6283458670e+01   7.6253706080e+00    0.1196215    0.1046331 -63.68 0.0003205208    1.636    0.389
        96 -10.3810    215.8907    156.1496   8.7281296822e+01   8.9046481676e+00    0.1882379    0.1848387 -14.44 0.0009360544    1.245    0.197
        97  -9.9675    187.6356    155.2088   9.2218884434e+01   1.4533655773e+01    0.1861441    0.1255528 -24.11 0.0009470116    1.708    0.414
        98 -10.6800    250.6783    152.4786   8.0803700780e+01   2.9453891300e+00     0.432831    0.1041624 -30.70  0.001516559    3.914    0.744
        99 -10.8075    241.8191    153.3228   8.2372223861e+01   4.4343365747e+00    0.2636542     0.196722 -27.12   0.00109303    1.355    0.262
       100 -11.0532    243.9500    149.1085   8.1156121935e+01   4.5744250897e+00    0.3455847    0.1746852 -30.97  0.001696529    1.927    0.481
       101 -10.7112    233.1232    153.7433   8.3869950452e+01   5.9795776614e+00    0.2227896    0.1671381 -33.49  0.001081783    1.439    0.305
       102 -10.1182    205.5405    153.9923   8.8672202738e+01   1.1211007568e+01    0.1955721    0.1296626 -30.80  0.001024784    1.577    0.366
       103 -10.7342    157.3652    153.1732   9.7767752915e+01   2.0792841950e+01    0.1902279    0.1267007 -57.38 0.0009502167    1.772    0.436
       104 -11.6997    235.1485    147.1035   8.2149226862e+01   6.4689523938e+00    0.4040896    0.2800767 -35.43  0.001592464    1.538    0.350
       105 -10.2197    214.9940    148.9355   8.5946742150e+01   1.0096887116e+01    0.1979049    0.1694233 -73.74 0.0007601456    1.706    0.414
       106 -10.5820    223.7599    146.6714   8.3955628314e+01   8.7073061397e+00    0.2656376    0.1752757 -37.38  0.001401217    1.621    0.383
       107 -10.6492    207.5528    144.9842   8.6429053376e+01   1.2147652573e+01    0.2059001    0.1312735 -30.83  0.001033623    1.611    0.379
       108 -10.3233    247.4648    143.9959   7.9521835204e+01   4.5717497639e+00    0.1957224    0.1170808 -26.40 0.0009028321    1.584    0.369
       109  -9.6173    221.3183    152.2926   8.5552530566e+01   8.4013775780e+00    0.1373115   0.09298826  15.80 0.0005477557    1.604    0.376
       110 -11.3493    243.5026    139.9846   7.9279778860e+01   5.8208926135e+00    0.3975928    0.1684879 -29.88  0.001354234    2.249    0.555
       111 -11.0662    242.2245    133.7496   7.8112060245e+01   6.8785297466e+00    0.3164048    0.1838491 -30.53  0.001010345    1.643    0.391
       112 -10.4838    230.0305    141.0049   8.1682723011e+01   8.2682194736e+00    0.2760207    0.1737674 -28.29   0.00125511    1.556    0.357
       113 -10.3388    181.8477    142.0080   9.0611287742e+01   1.7839394256e+01    0.2242915     0.161586 -66.74  0.001077301    2.004    0.501
       114 -10.8741    224.0964    139.8830   8.2434020841e+01   9.5892641740e+00    0.2895747    0.1841393 -22.59 0.0009956312    1.587    0.370
       115 -10.2257    238.4928    140.1174   8.0106587604e+01   6.7544899453e+00    0.2094044    0.1533867  -5.05 0.0009632337    1.331    0.249
       116 -11.6794    234.8965    135.7212   7.9722698118e+01   8.0379092184e+00    0.4546524     0.249266 -39.45  0.001542572    1.962    0.490
       117 -10.8403    219.0276    137.6900   8.2819418109e+01   1.0914313430e+01    0.2743855    0.1972651 -15.24  0.001457568    1.424    0.298
       118 -10.3775    172.5991    137.8563   9.1556615149e+01   2.0450633602e+01    0.2019394    0.1316707 -52.02 0.0009550341    1.767    0.434
       119 -10.5864    248.5940    135.3533   7.7474351769e+01   5.4571260482e+00    0.2830865    0.1425398 -29.47  0.001092135    1.860    0.462
       120 -11.4875    248.2651    129.7637   7.6284207778e+01   6.2390288997e+00    0.3340209    0.3037231 -45.78   0.00154936    1.390    0.281
       121 -11.1046    249.4119    123.7591   7.4752357330e+01   6.7987479177e+00    0.3282489     0.193231 -28.51  0.001035207    1.566    0.361
       122 -11.3918    247.8614    118.6100   7.3801157921e+01   7.7790966621e+00    0.3811911    0.1978981 -31.14  0.001269884    1.773    0.436
       123 -10.5829    198.6344    136.2038   8.6145668083e+01   1.5317850153e+01    0.1979109    0.1298211 -22.90 0.0009517896    1.671    0.401
       124  -9.9934    187.6435    135.7992   8.8137229319e+01   1.7674129202e+01    0.1986629    0.1287098 -46.00 0.0009470293    1.702    0.412
       125 -10.2781    225.3208    133.9340   8.0908988261e+01   1.0185588606e+01    0.1988238    0.1664859 -11.41 0.0007448033    1.126    0.112
       126  -9.5167    192.7085    136.6601   8.7359167864e+01   1.6476974250e+01    0.1445822    0.1059197   9.45 0.0007025753    1.648    0.393
       127 -10.5786    179.4804    132.0277   8.8894361509e+01   2.0025778468e+01    0.2196307    0.1403895 -38.46  0.001040807    1.617    0.382
       128 -10.8747    143.0000    130.9831   9.6337628093e+01   2.7753022420e+01     0.232789   0.08060175 -46.14 0.0008069042    2.973    0.664
       129  -9.7940    166.0000    140.0201   9.3359862026e+01   2.1421062717e+01     0.221672   0.08045723 -42.14 0.0007640069    2.903    0.656
       130 -11.2362    242.0212    117.5808   7.4450424087e+01   9.0848964704e+00    0.4923023    0.1335497 -36.43  0.001663421    3.417    0.707
       131 -12.6478    240.8263    125.2895   7.6423320688e+01   8.2807156173e+00    0.6753857     0.285534 -28.92  0.002846752    2.238    0.553
       132 -10.6112    199.6466    125.8574   8.3599099907e+01   1.6753801259e+01    0.2045585    0.1270897 -43.15 0.0009441536    1.723    0.420
       133 -10.4440    227.5229    125.0194   7.8507475307e+01   1.1007085200e+01    0.2135663    0.1295172 -28.69  0.001031378    1.588    0.370
       134 -10.5558    179.5569    124.2941   8.7103968958e+01   2.1348862234e+01    0.2751996    0.1382372 -42.07  0.001136289    2.050    0.512
       135 -10.4186    170.0000    123.9995   8.8978254984e+01   2.3460803209e+01    0.2355728   0.08263351 -40.03  0.000799379    2.921    0.658
       136 -10.2735    146.3112    124.6772   9.4219744126e+01   2.8314535452e+01    0.1459299    0.1132371 -89.65  0.000504602    1.653    0.395
       137 -10.5404    220.8162    128.9733   8.0548953572e+01   1.1817057776e+01    0.2232469    0.1538863 -53.13  0.001080903    1.942    0.485
       138 -10.0118    186.2289    128.9806   8.6874448033e+01   1.9112508598e+01    0.1876749    0.1179486 -36.58 0.0007175392    1.629    0.386
       139 -10.7579    230.5426    115.9883   7.5886345017e+01   1.1669808420e+01    0.2172893    0.1295377 -28.62  0.001029029    1.590    0.371
       140 -10.1562    186.0000    114.9514   8.3581310703e+01   2.1548520652e+01    0.2439783   0.08286712 -36.50 0.0008047708    2.959    0.662
       141  -9.4880    191.3230    114.6461   8.2476019768e+01   2.0414465015e+01    0.1495747    0.1167035 -72.06 0.0007046919    1.759    0.432
       142  -9.5885    173.3382    114.2941   8.5959341381e+01   2.4480191054e+01    0.1519281    0.1142716  15.18  0.000361856    1.650    0.394
       143 -11.0576    247.6350    112.5717   7.2420761702e+01   8.6267903284e+00    0.2656538    0.1516261 -29.87 0.0008833047    1.601    0.375
       144 -10.1904    243.6660    109.3239   7.2241096386e+01   9.8718129696e+00    0.2024632    0.1276862 -40.12 0.0009198898    1.639    0.390
       145 -11.2364    241.5220    106.4733   7.1876481362e+01   1.0705532986e+01    0.2717497    0.1206951 -32.71 0.0008870927    2.051    0.512
       146 -10.1747    160.6167    108.2144   8.7122319872e+01   2.8421247161e+01    0.2128643    0.1416865 -30.15 0.0008412554    1.638    0.389
       147 -11.5288    248.0809    106.6931   7.0955096166e+01   9.3221677973e+00    0.2437585    0.1691107 -33.03 0.0007867487    1.363    0.266
       148 -10.1344    222.4550    104.9723   7.4513182032e+01   1.5012272374e+01    0.2255683    0.1338407 -30.55  0.001029964    1.598    0.374
       149 -10.0589    205.6306    104.8657   7.7370670809e+01   1.8792233419e+01    0.2184641    0.1277516 -41.61 0.0009500915    1.751    0.429
       150 -11.0027    229.2055    102.8888   7.2900470643e+01   1.3838291222e+01    0.2196314    0.1953106 -42.16  0.001234892    1.219    0.180
       151 -10.5963    166.9929    100.2292   8.3677696063e+01   2.8464956017e+01    0.3257694    0.1835969 -37.81  0.001364934    1.764    0.433
       152 -10.3246    160.0000     99.9768   8.5113127449e+01   3.0105688346e+01     0.252336   0.08509772 -39.14 0.0008031834    2.948    0.661
       153 -12.0481    248.8771     97.0988   6.8512028269e+01   1.0442836149e+01     0.386253    0.1776146 -14.91  0.001452184    2.775    0.640
       154 -10.0100    202.7594     98.0386   7.6115342674e+01   2.0538675601e+01     0.203243    0.1213766 -32.53 0.0008855868    1.621    0.383
       155 -10.5075    242.2196     93.5024   6.8574286753e+01   1.2340295570e+01    0.2840243    0.1610784 -31.35  0.001322535    1.597    0.374
       156 -12.1766    211.7314     93.8706   7.3454198628e+01   1.9115072826e+01    0.7676274    0.2156868 -43.34  0.002167954    4.248    0.765
       157 -12.6349    231.2474     90.5654   6.9456035339e+01   1.5158240797e+01    0.5757327    0.3350789 -15.81  0.002524252    1.882    0.469
       158 -10.4255    236.4856     90.0050   6.8527999846e+01   1.4073856383e+01    0.3518338    0.2246941 -32.03   0.00127292    1.438    0.305
       159 -10.9012    188.9481     92.9304   7.7294435315e+01   2.4614397878e+01    0.3681431    0.2082677 -41.73  0.001366282    1.774    0.436
       160  -9.9788    158.0000     89.9976   8.2817139556e+01   3.2428041901e+01    0.2558544   0.08573513 -38.05  0.000802165    2.941    0.660
       161 -11.3605    175.8374     88.0719   7.8513675466e+01   2.8567564864e+01    0.3192477    0.2413037 -42.05 0.0008700476    1.320    0.242
       162 -14.2063    240.3960     75.5843   6.4247017906e+01   1.5189462574e+01     1.130528    0.6381474 -32.62  0.005225988    1.589    0.370
       163 -11.7153    249.8333     54.3047   5.7498190940e+01   1.5835323770e+01    0.8031892    0.1372826 -34.74  0.002391033    3.917    0.745
       164 -10.2345    242.2749    247.9897   9.8331814322e+01  -5.4340569998e+00    0.1418576    0.1035176  20.37 0.0008767496    1.090    0.082
       165 -10.6834    232.6471    247.1380   9.9637392736e+01  -4.0326884835e+00    0.1738062    0.1198682 -37.41  0.001099049    2.128    0.530
       166 -10.2091    224.3651    248.2135   1.0101534461e+02  -2.9626735445e+00    0.1146185   0.09522855 -29.86 0.0009456421    1.690    0.408
       167 -11.3462    225.8686     87.3724   6.9450687970e+01   1.6833285079e+01    0.2684171    0.1803279 -36.76 0.0009910088    1.422    0.297
       168 -10.2821    188.4729     87.0192   7.5754645881e+01   2.5714942985e+01    0.2375596    0.1462862 -33.37  0.001027388    1.579    0.367
       169  -9.9449    206.0000     84.9363   7.2029463988e+01   2.1845174573e+01    0.2492385   0.08252332 -31.24 0.0007963132    2.900    0.655
       170 -11.1459    225.3017     81.9529   6.8105274731e+01   1.7747644906e+01    0.2156253    0.1780042 -26.31 0.0006236724    1.128    0.114
       171 -10.5952    159.0838     81.6589   8.0177371377e+01   3.3706220383e+01    0.2856033    0.2030864 -44.25  0.001314873    1.404    0.288
       172 -11.9404    235.0463     95.0367   7.0021660582e+01   1.3683377777e+01     0.378098    0.2566084 -44.86  0.001478603    1.581    0.367
       173 -13.6938    249.1902     65.3062   6.0433615553e+01   1.4580499215e+01     1.549703    0.5763103 -23.25  0.005658904    2.694    0.629
       174  -9.8814    150.6616     79.3272   8.1358794103e+01   3.6119692782e+01    0.1594567    0.1211132 -74.65 0.0007051682    1.729    0.422
       175 -10.0173    130.3146     78.3200   8.5919146350e+01   4.0926074581e+01    0.1526375    0.1198289   3.17 0.0005094404    1.654    0.395
       176 -13.7357    245.9188     85.5444   6.6047209734e+01   1.2624320646e+01    0.9198847    0.7831329 -83.81  0.005174087    1.514    0.339
       177 -10.0147    211.3458     76.2194   6.8733557010e+01   2.1891711317e+01    0.2199382    0.1268425 -37.59  0.000941199    1.650    0.394
       178 -10.7017    157.4906     75.5176   7.8687362093e+01   3.5193085447e+01    0.3236972    0.1496148 -35.57  0.001195878    2.118    0.528
       179 -10.7408    163.4578     71.4771   7.6173241989e+01   3.4454743858e+01    0.3334982    0.1488429 -34.49  0.001211233    2.182    0.542
       180 -10.1826    222.1223     71.1570   6.5663542242e+01   2.0043349378e+01    0.2078618    0.1632511 -47.32 0.0007599996    1.314    0.239
       181  -9.6678    170.6609     70.3101   7.4336700861e+01   3.2876420721e+01    0.1599721    0.1205787 -69.63 0.0006909018    1.689    0.408
       182  -9.7417    182.3075     68.6292   7.1571577685e+01   3.0244740679e+01    0.1645821    0.1160423 -61.70 0.0007033906    1.763    0.433
       183 -12.6891    229.9741     69.6320   6.4111625468e+01   1.8399451424e+01    0.5315692    0.2100938 -25.80  0.001940865    2.466    0.595
       184 -11.9153    192.2867     56.6826   6.6173006325e+01   2.9552370540e+01    0.6706654    0.2373883 -26.31  0.002148039    2.966    0.663
       185 -10.5323    157.8252     61.6915   7.4270908520e+01   3.7509974587e+01    0.3121503    0.1674673 -41.69   0.00124049    1.846    0.458
       186 -10.3886    153.2982     59.5068   7.4528220994e+01   3.8995663619e+01    0.2766625    0.1361187 -33.51 0.0009861265    1.975    0.494
       187 -13.3297    226.0040     52.8275   6.0028114591e+01   2.1625023782e+01    0.6380485    0.3818592 -24.76  0.002900577    1.592    0.372
       188 -10.2141    168.9963     44.1988   6.6262290566e+01   3.7402095882e+01    0.2375854    0.1513806 -44.88  0.001024639    1.624    0.384
       189 -10.2479    218.4179    248.1949   1.0190746039e+02  -2.1169564993e+00    0.1148491   0.09877811 -38.58 0.0009490318    1.753    0.429
       190 -10.7126    168.5920     36.8036   6.3829181851e+01   3.8545131589e+01    0.2261567     0.132314 -38.57 0.0009499366    1.680    0.405
       191 -12.0487    223.6152     35.3737   5.5388004105e+01   2.4429227548e+01    0.3141948    0.2361245 -30.12  0.001618303    1.243    0.195
       192 -10.1849    140.4901     16.5201   6.1585579564e+01   4.8410925498e+01    0.1468304    0.1386637  22.63 0.0002542119    1.016    0.016
       193 -10.0182    161.7756     14.0694   5.6948777919e+01   4.3120586273e+01    0.1994336    0.1192247 -23.70 0.0008761103    1.672    0.402
       194 -11.4718    175.9516    246.1926   1.0822003421e+02   4.2811631376e+00     0.258967     0.186961 -39.97  0.001891514    1.876    0.467
       195 -10.4217    224.8955    243.3423   1.0029215638e+02  -2.6025841863e+00    0.1531132    0.1377445   7.34  0.001049579    1.379    0.275
       196 -10.8192    241.0065    241.2590   9.7594206482e+01  -4.6996328374e+00    0.2466664    0.1981868 -77.11  0.001543945    3.721    0.731
