#   1 NUMBER                 Running object number                                     
#   2 MAG_AUTO               Kron-like elliptical aperture magnitude                    [mag]
#   3 X_IMAGE                Object position along x                                    [pixel]
#   4 Y_IMAGE                Object position along y                                    [pixel]
#   5 X_WORLD                Barycenter position along world x axis                     [deg]
#   6 Y_WORLD                Barycenter position along world y axis                     [deg]
#   7 A_WORLD                Profile RMS along major axis (world units)                 [deg]
#   8 B_WORLD                Profile RMS along minor axis (world units)                 [deg]
#   9 THETA_WORLD            Position angle (CCW/world-x)                               [deg]
#  10 FWHM_WORLD             FWHM assuming a gaussian core                              [deg]
#  11 ELONGATION             A_IMAGE/B_IMAGE                                           
#  12 ELLIPTICITY            1 - B_IMAGE/A_IMAGE                                       
         1 -16.0449    137.1861    125.9554   4.2052509408e+01   2.9072135535e+01     11.91145     4.620534 -46.51   0.04026026    2.520    0.603
         2 -18.2033    243.1663    132.0600   2.3309154955e+01   7.5048015440e+00     3.749406     1.395682 -35.10   0.01625777    2.254    0.556
         3 -16.0894    224.4599     13.0890   3.5859126595e+02   2.8395733935e+01      4.34891      1.96999  80.50   0.02188371    2.225    0.551
         4  -8.8167    224.0366     37.8778   4.4217555200e+00   2.5440028859e+01    0.1903486    0.1462093 -59.55 0.0002827852    1.059    0.056
         5 -11.6022    249.0672    215.5343   3.7843656952e+01  -5.2416773094e+00    0.7449038    0.3008064 -21.05  0.003522915    2.974    0.664
         6 -15.7069    234.4993    244.1501   4.4581221374e+01  -7.0751090160e+00     4.007141     1.313111  32.07   0.02078701    2.767    0.639
         7 -13.2027    201.2109    238.8213   4.9471045211e+01  -2.5798697680e+00    0.8442541    0.3540681  43.80  0.001199918    3.227    0.690
         8 -10.0935    226.0671    216.7757   4.1751026602e+01  -2.7023848585e+00    0.1691387    0.1433467  -1.55 0.0007305865    1.187    0.158
         9  -9.0396    222.2281    215.9100   4.2259739658e+01  -2.1098395042e+00    0.1488251    0.1232285  -9.49 0.0003029815    1.138    0.122
        10  -8.3888     61.0354    216.6837   7.6145351639e+01   2.0571447615e+01    0.1798981    0.1448227  45.89 0.0004780955    1.105    0.095
        11  -8.6153    231.0697    216.2569   4.0834030958e+01  -3.2420591333e+00    0.1378771    0.1064476  13.86            0    1.189    0.159
        12 -11.0255    162.9573    212.5153   5.2873703873e+01   6.6155125216e+00    0.3743873    0.2982294  65.54 0.0006424884    1.789    0.441
        13  -9.3181    183.2733    213.9646   4.9040112727e+01   3.4063418652e+00    0.2110584    0.1594137  38.96 0.0004893927    1.397    0.284
        14 -11.5942    171.4046    147.1077   3.9006416953e+01   1.7573451336e+01    0.2882464    0.2590342  58.60 0.0003758527    1.241    0.195
        15  99.0000    172.8223    127.6672   3.4310070516e+01   2.1235663092e+01     1.217818    0.4185424 -39.11  0.003989367    2.943    0.660
        16 -11.7926    168.3999    103.4255   2.9204262338e+01   2.7083508893e+01     1.305079     1.058152 -28.28  0.003874037    1.318    0.242
        17 -10.9442    180.3708     69.1085   1.7753403050e+01   3.0663721170e+01    0.4885594    0.2775061  72.00  0.002098476    2.040    0.510
        18 -13.1336    171.3699     80.9761   2.2584707618e+01   3.0706133649e+01    0.9826509    0.6716856   4.96  0.003860844    2.798    0.643
        19 -12.4502    164.1752    123.0670   3.5037740318e+01   2.3986208357e+01     1.087736    0.5802092 -43.96 0.0003505662    1.780    0.438
        20 -12.5204    106.3876    126.5289   5.0564330543e+01   3.5199737778e+01    0.8974737    0.6700986  88.42  0.003985879    1.657    0.396
        21 -12.5586    159.0561    134.5676   3.8889095394e+01   2.2623628590e+01    0.6816955    0.3803129  37.38  0.002814174    1.978    0.494
        22 -13.2137    143.1448    169.0119   4.9814493903e+01   1.8272436203e+01     1.061159     1.018105  58.04  0.002332652    1.085    0.078
        23  -9.9498    159.6608    240.7548   5.7554843698e+01   2.5326508087e+00    0.2176498    0.1943128  26.97 0.0005146599    1.174    0.148
        24  -9.3424    195.2700    202.9838   4.4942774257e+01   3.4235125602e+00    0.1702656    0.1438539  -6.35 0.0003818695    1.046    0.044
        25  99.0000    249.5915    196.9934   3.4658759739e+01  -2.9172650706e+00    0.1487118   0.09951108 -26.34 0.0005563056    1.235    0.190
        26 -10.3119    239.8875    195.7681   3.5953850802e+01  -1.5590724909e+00    0.2676389    0.2331175  39.85  0.001526509    1.640    0.390
        27 -12.6705    225.0553    194.3218   3.8123276772e+01   5.7896980108e-01    0.2363082    0.2276264 -11.76 0.0008158681    1.420    0.296
        28 -12.0599    162.7211    144.7960   4.0375961164e+01   1.9731137846e+01    0.3951026    0.3680805  68.00 0.0001818479    1.181    0.153
        29 -11.8551    186.1856    194.5723   4.5240136934e+01   6.1536044473e+00    0.2159741    0.1935553 -11.42 0.0003340881    1.079    0.073
        30 -12.6886    168.4840    140.0811   3.8078390781e+01   1.9574216539e+01    0.9880677    0.4206446  50.15 0.0007294579    2.679    0.627
        31  -9.8938    199.7723    192.0984   4.2208914040e+01   4.5104208437e+00    0.1672819    0.1579112 -15.01 0.0003179566    1.230    0.187
        32  -8.3655    179.8265    191.3504   4.5934675122e+01   7.6972073734e+00    0.1163507   0.09558052 -56.62 0.0002489523    1.525    0.344
        33 -12.6805    238.6409    189.4659   3.5042373367e+01  -5.1750550673e-01    0.2166626    0.1755179  -4.16  0.000564552    1.076    0.070
        34  -9.2860    218.8971    190.5170   3.8496703012e+01   1.9930573505e+00    0.1382462     0.111667  19.13 0.0001273464    1.217    0.178
        35 -11.4932    211.5779    189.9595   3.9678045737e+01   3.1200341172e+00    0.2720969    0.1639653  25.31  0.001139267    1.694    0.410
        36 -11.8046    183.1237    185.8503   4.4291122266e+01   8.1414944041e+00    0.3729666    0.3020048  34.76  0.001825763    1.251    0.200
        37 -11.6611    194.0462    189.0640   4.2744589517e+01   5.8764980436e+00    0.2254147     0.202983 -46.50 0.0004642691    1.347    0.258
        38 -11.9165    190.8148    185.8149   4.2776178033e+01   6.9288751369e+00    0.2203977     0.199376   5.75 0.0003689449    1.069    0.065
        39  99.0000    205.8609    187.1459   4.0197297032e+01   4.4054735625e+00    0.5622835    0.2252856  24.04   0.00194058    4.364    0.771
        40 -11.8220    249.8204    186.5376   3.2794231955e+01  -1.5311400881e+00    0.1943026    0.1714473 -58.90   0.00115102    1.871    0.465
        41 -13.1858    192.5150    143.4754   3.3994641532e+01   1.4295372258e+01    0.9945053    0.4112926  35.33  0.003647683    3.124    0.680
        42 -12.1389    226.6511    182.7294   3.5771776503e+01   2.0874129287e+00    0.6414291    0.5253159  44.09  0.004192814    1.594    0.373
        43 -14.0477    247.8417    170.2562   3.0126430664e+01   1.0258962341e+00    0.3754234    0.3151648  30.55  0.001902988    1.432    0.302
        44 -14.1007    219.2791    171.5237   3.4911749026e+01   4.9092694825e+00     1.449931      0.84459  32.30  0.007757033    1.839    0.456
        45 -13.5798    232.8967    175.4846   3.3410358733e+01   2.3061570156e+00    0.3725924    0.3051714 -18.39   0.00191428    1.035    0.034
        46 -15.7391    245.3583     88.2794   1.3739198124e+01   1.3954474334e+01     1.171654    0.8036376 -35.03  0.006910143    1.236    0.191
        47 -14.2783    217.4605    100.1830   1.9977600867e+01   1.7283136903e+01     1.117787    0.6116229  69.53  0.004924992    2.650    0.623
        48 -14.1689    205.8350    111.2323   2.4337731607e+01   1.7660155953e+01    0.9695991    0.6738969  -2.83   0.00447591    2.214    0.548
        49 -15.8174    213.4754    154.8994   3.2620743783e+01   8.5799375699e+00     1.869443     1.713299  39.02   0.01193624    1.280    0.219
        50 -14.8863    227.9323     98.4630   1.8133612312e+01   1.5554265734e+01     1.100352    0.5043902  68.54  0.004350649    3.619    0.724
        51 -14.6711    230.6243    113.4233   2.1100101941e+01   1.2611479011e+01    0.6945483    0.5236027  65.23  0.003338283    1.691    0.409
        52 -14.6270    235.6828    167.3071   3.1424178519e+01   3.1525814347e+00    0.9646467    0.5897301 -61.35  0.004239202    3.656    0.727
        53 -16.6065    217.9733    126.1666   2.5783225276e+01   1.2740765058e+01     2.140659     1.417001 -34.69   0.01136461    1.320    0.242
        54  -9.5881    149.9568    224.4270   5.7308030130e+01   6.5015813489e+00    0.2049446    0.1848358 -38.70 0.0002914727    1.277    0.217
        55 -15.7450    241.7971    104.6168   1.7702444238e+01   1.2055988545e+01     1.126756    0.6104352  33.60  0.005176222    3.019    0.669
        56  -9.9953    243.1083    186.5726   3.3825893435e+01  -6.8568397191e-01    0.1171546   0.09823734 -11.13   0.00054849    1.124    0.110
        57  -8.1135    200.1380    186.2678   4.1090394738e+01   5.4109692589e+00    0.1137667   0.07725824 -24.51            0    1.423    0.297
        58 -10.0880    236.8876    182.9967   3.4157432085e+01   6.4357870727e-01    0.1084963   0.06359874 -32.58 0.0006064624    1.461    0.316
        59 -11.4306    197.8769    179.6356   4.0286966950e+01   6.8748181972e+00    0.2293977    0.1727305 -31.68 0.0005475507    1.242    0.195
        60  -8.5332    173.6637    180.5904   4.5248128572e+01   1.0641389227e+01     0.236728    0.1733852  15.28  0.001252759    1.469    0.319
        61  -9.3724    165.2922    180.5547   4.7002721797e+01   1.2055275233e+01    0.2495274    0.2220279  77.60  0.001096018    1.446    0.309
        62  -9.3190    101.0165    176.0011   6.1489735098e+01   2.3991522207e+01    0.2084951    0.1951492  54.31            0    1.030    0.029
        63  -9.9685    194.0432    172.5636   3.9667619814e+01   8.7176666921e+00    0.1766046    0.1602346 -26.08  0.001086101    1.107    0.096
        64  -9.9726    229.6865    210.2286   4.0071901767e+01  -2.2661317595e+00    0.1688842    0.1263081  15.72 0.0002024991    1.220    0.181
        65  -9.6737    176.8206    170.5580   4.2693482235e+01   1.1988379759e+01    0.3715145    0.1999061  42.75  0.001691483    1.914    0.478
        66 -11.2992    181.8335    167.2791   4.1029934541e+01   1.1738416077e+01    0.4246628    0.2635622  56.05  0.001098179    2.203    0.546
        67  -8.7824    189.6236    168.3032   3.9689179723e+01   1.0216142293e+01    0.1784884    0.1358355 -39.72 0.0005807277    1.275    0.216
        68 -12.2923    215.5381    208.8687   4.2254304748e+01  -2.6535544955e-01    0.2055974    0.1714942  -2.64 0.0003701292    1.070    0.065
        69  -7.4633    177.4446    162.4646   4.0961149381e+01   1.3423929224e+01    0.1890064    0.1300066 -31.08  0.000141348    1.470    0.320
        70  -8.8771    178.1461    159.2300   4.0159081295e+01   1.3922010461e+01    0.1716151    0.1640618  11.50 0.0002789891    1.068    0.064
        71 -12.2199    188.0135    159.1415   3.8165073818e+01   1.2178562628e+01    0.3391788     0.258266 -63.87 0.0009717777    1.730    0.422
        72 -11.4138    181.2789    155.8010   3.8813981669e+01   1.4015894156e+01    0.4664115    0.2579806  35.09  0.001891759    1.951    0.487
        73 -10.8723    172.7970    159.3409   4.1291335255e+01   1.4870210558e+01    0.2878948    0.2158497 -41.30 0.0006890792    1.297    0.229
        74  -8.3796    240.8255    211.3153   3.8443085000e+01  -3.7585936631e+00    0.0962672   0.07231488 -33.63 0.0003650589    1.466    0.318
        75 -10.0222    187.6303    151.4231   3.6635207338e+01   1.3695709139e+01    0.2001392    0.1825236  38.35 0.0005330048    1.183    0.155
        76  -7.6463    191.5104    149.7051   3.5522093963e+01   1.3313852644e+01    0.1378081    0.1184498   5.86 0.0007656798    1.220    0.180
        77  99.0000    179.8150    148.1711   3.7496085638e+01   1.5765977942e+01    0.3489719    0.1653548  38.88  0.000856446    2.274    0.560
        78  -9.2800    180.3878    144.2158   3.6522594303e+01   1.6432002856e+01    0.2898806    0.1897229 -39.71 0.0009924009    1.443    0.307
        79  -8.5722    247.3713    209.5803   3.7128319492e+01  -4.2983708242e+00    0.1079463    0.0852963 -13.17 0.0007873147    1.137    0.120
        80  -8.1094    184.2134    139.7474   3.4776444647e+01   1.6571802433e+01     0.170905    0.1242306  40.32 0.0008523306    1.468    0.319
        81  -7.6071    181.2245    136.6114   3.4666650157e+01   1.7763269709e+01    0.2894308    0.1976044  15.78 0.0006447284    2.077    0.519
        82  -9.2823    176.7635    136.5593   3.5554425801e+01   1.8650610952e+01    0.3014323    0.2099786 -51.36  0.000596547    1.458    0.314
        83  -7.5511    180.5119    133.5428   3.4112628352e+01   1.8507666014e+01    0.3502876    0.1773204  46.04  0.001457041    2.114    0.527
        84  -8.9988    202.0623    208.0808   4.4535818211e+01   1.6729216717e+00    0.1378031    0.1202751   7.28 0.0009319159    1.124    0.110
        85  99.0000    185.7568    131.0697   3.2519093757e+01   1.7953207705e+01     0.588657     0.401083  79.58  0.002516051    2.504    0.601
        86  99.0000    196.1858    131.6265   3.0693687286e+01   1.5819365526e+01    0.4873689    0.1905764  45.92  0.001863571    2.805    0.643
        87  99.0000    190.2862    129.6481   3.1333064456e+01   1.7334757400e+01    0.3660834    0.2138674 -47.10  0.001660606    1.642    0.391
        88  99.0000    193.3554    123.2160   2.9283601517e+01   1.7945773796e+01    0.5698665      0.36843 -52.80  0.001422461    1.606    0.377
        89  -8.8473    198.8210    117.6647   2.7019702370e+01   1.7890255521e+01    0.1841628    0.1651286 -74.21            0    1.244    0.196
        90  -7.7750    186.2844    124.6784   3.0938139222e+01   1.9083377002e+01    0.2618575    0.1897762 -53.75 0.0009000447    1.415    0.293
        91 -10.6778    185.9617    120.9919   3.0130525015e+01   1.9860141826e+01    0.2809234    0.1883611 -41.91  0.001175133    1.367    0.268
        92  99.0000    191.0637    116.2008   2.8046576536e+01   1.9729823105e+01    0.6045067    0.5053179  43.57  0.003293159    1.323    0.244
        93  -8.9336    199.5868    129.0569   2.9504097177e+01   1.5644680611e+01    0.2055734    0.1203769 -49.41 0.0009334208    1.712    0.416
        94 -10.7660    231.8477    201.4081   3.8225879047e+01  -1.3240191385e+00     0.163075    0.1333575  -3.63 0.0004703205    1.075    0.070
        95 -10.6398    178.9566    127.3677   3.2994533517e+01   2.0041473047e+01    0.2950333    0.2648758  56.30 0.0009051762    1.215    0.177
        96  -9.8618    203.3165    124.0571   2.7720705112e+01   1.5843771473e+01    0.1181797   0.06464135  45.09 0.0005084235    2.052    0.513
        97 -11.9888    231.1354    205.6176   3.9059613222e+01  -1.8168341294e+00    0.2561432     0.174683  25.57  0.001539019    1.432    0.302
        98 -10.1303    228.0169    202.2314   3.9000727563e+01  -9.4843148156e-01    0.1592029    0.1276712  -6.46 -0.000430966    1.020    0.019
        99  99.0000    182.3354     94.6501   2.4258858259e+01   2.5655563227e+01     1.297272     1.009302 -31.92  0.006597018    1.303    0.233
       100  99.0000    204.6758     86.0540   1.8447816968e+01   2.2298452357e+01    0.5354202    0.3978512   9.67  0.002342018    2.115    0.527
       101 -12.1303    196.2595    104.8104   2.4389093631e+01   2.0769082086e+01    0.5893005    0.4029839 -14.01 0.0007674891    2.034    0.508
       102 -12.1917    181.7229    114.8723   2.9464196583e+01   2.1926112604e+01    0.7487102     0.356109 -27.28  0.002541353    3.111    0.679
       103 -13.7348    188.6241    107.3369   2.6336814631e+01   2.1908458405e+01    0.6364316    0.4255899 -33.32  0.001387661    1.467    0.318
       104 -12.0687    197.5291     86.5702   1.9654279296e+01   2.3751646152e+01    0.2681965    0.2437707 -53.26 6.762947e-05    1.037    0.036
       105 -13.8882    196.7617     91.1943   2.0938922050e+01   2.3108634858e+01    0.7121329    0.3663739  57.14  0.003092533    2.159    0.537
       106 -13.1097    194.2461     99.5788   2.3442577612e+01   2.2146856046e+01     0.280154    0.2656296  71.69 0.0006470635    1.158    0.136
       107 -13.6696    197.1389     96.1837   2.2122848404e+01   2.2141469841e+01    0.4180815    0.3575732  60.03  0.002336061    1.298    0.229
       108  -8.9981    175.4975    116.8163   3.1157135342e+01   2.2860195133e+01    0.2670843     0.206186 -11.51 0.0007952565    1.647    0.393
       109  -8.6893     21.0536    112.5184   7.6742344432e+01   5.1213375025e+01    0.1866945    0.1407112  22.61 0.0004337089    1.527    0.345
       110 -10.8951    183.0297    204.6526   4.7575716090e+01   4.9453526510e+00     0.222836    0.1711172 -35.41 0.0005198574    1.339    0.253
       111 -11.5735    232.4924     79.6031   1.3277515375e+01   1.7679073680e+01    0.2336063    0.1927573  55.70 0.0005349173    1.476    0.322
       112 -11.5615    232.2648     84.2488   1.4361079810e+01   1.7000822951e+01    0.3450398    0.1733776 -49.54 0.0007179541    1.785    0.440
       113 -12.0214    211.6175     84.7652   1.7142223572e+01   2.1050815982e+01    0.2281568    0.2184055 -87.76 0.0005740984    1.165    0.142
       114 -13.1757    227.5680     87.1436   1.5598418574e+01   1.7450101080e+01    0.4241544    0.2465222 -48.91  0.002104518    1.510    0.338
       115 -13.2791    218.8859     87.5991   1.6830275743e+01   1.9094163870e+01    0.5728047    0.3377837  54.68  0.002079761    1.961    0.490
       116 -10.0691    181.6462    200.2047   4.7102406416e+01   5.8936071549e+00    0.2103941    0.1797574  29.88 0.0003403666    1.181    0.153
       117 -10.0528    183.1221     87.3702   2.2218644428e+01   2.6818098925e+01    0.3114606    0.2418995  62.43  0.001165402    1.385    0.278
       118  -9.4614    176.0486     86.7352   2.3302845103e+01   2.8553903087e+01    0.2231942    0.1956436 -45.87 0.0002796836    1.073    0.068
       119 -11.1465    179.0338     83.4870   2.1896421969e+01   2.8458694590e+01    0.2562003    0.2079282 -41.39  0.001325197    1.161    0.139
       120  -9.6065    184.0467     81.9078   2.0616275534e+01   2.7587963235e+01    0.2660869    0.2224216  75.65 0.0007462745    1.272    0.214
       121  -9.1098    185.2868     78.3366   1.9461001241e+01   2.7931166935e+01    0.2836312     0.213251 -30.37 0.0008799132    1.390    0.281
       122 -12.8496    173.5653    200.3837   4.8752501850e+01   7.0970020776e+00    0.3046952    0.2596986  -2.38 0.0004856168    1.106    0.096
       123 -10.2424    212.0252     67.2009   1.2789954351e+01   2.3793233990e+01    0.4423694     0.280537 -13.41  0.001971999    2.476    0.596
       124 -11.2554    197.0806     70.0912   1.5499016237e+01   2.6630992746e+01    0.7978057     0.477975  55.24  0.003808681    1.846    0.458
       125  -9.5443    200.0963     76.8030   1.6793072110e+01   2.4850245662e+01    0.4223547    0.3081529 -32.59  0.002197063    1.357    0.263
       126 -11.2845    215.6830     73.1990   1.3800626468e+01   2.2073527591e+01     0.212134    0.1903376 -74.43 0.0004601278    1.134    0.118
       127 -10.6410    211.5953     76.2974   1.5081410373e+01   2.2442009311e+01     0.362811     0.271405 -49.56 0.0005166598    1.147    0.128
       128 -10.5534    203.6337     73.7540   1.5521835711e+01   2.4573920357e+01    0.2666361     0.197718  57.27 0.0007382058    1.517    0.341
       129 -11.0567    207.3573     72.7525   1.4766467516e+01   2.3923419716e+01    0.2712193    0.2190631 -66.21 0.0008110395    1.184    0.155
       130 -10.8084    205.8333     79.4164   1.6635201853e+01   2.3164208974e+01    0.2253299    0.1993656 -25.51 0.0001074157    1.248    0.198
       131 -11.5985    177.2788    197.0567   4.7438334106e+01   7.1003552494e+00    0.2974053    0.2525491  78.23  0.001198545    1.789    0.441
       132  -9.0994    220.7467     73.2859   1.3197738320e+01   2.1006347589e+01    0.1488404    0.1387272 -25.17 0.0004162389    1.250    0.200
       133 -10.2734    224.6404     74.7656   1.3080791749e+01   1.9981541905e+01     0.238233    0.2214884  11.30 0.0008065695    1.391    0.281
       134  -9.0122    226.7421     71.0294   1.1961235082e+01   2.0132846532e+01    0.3062699    0.2015892 -58.09  0.001657652    1.425    0.298
       135  -8.7857    188.9233     72.7503   1.7398736304e+01   2.8050984962e+01    0.1526981    0.1232974  63.78 0.0003789265    1.330    0.248
       136 -11.6011    220.1505    203.3689   4.0526952255e+01  -8.2490176109e-02    0.1993034    0.1628455   5.97 0.0002945602    1.091    0.084
       137 -11.2236    247.4954     68.9974   9.3175770544e+00   1.6428034882e+01    0.2222492    0.1376176 -55.67 0.0007710528    1.446    0.308
       138 -12.4764    241.9555     65.1384   9.0092753095e+00   1.8024373690e+01    0.9947742    0.4197832 -52.95  0.004478911    2.248    0.555
       139  -9.0758    220.1928     69.1291   1.2271682244e+01   2.1765703768e+01    0.2286745    0.1151794  58.37  0.001067557    2.247    0.555
       140  -9.6977    230.8963     67.1319   1.0596116628e+01   1.9887930963e+01    0.1964401    0.1483365  71.53  0.001163852    1.516    0.340
       141  -8.7002    185.9427     66.7415   1.6238559851e+01   2.9744813784e+01    0.1814175    0.1632428 -76.23 0.0002402188    1.069    0.065
       142  -9.3023    193.7553     64.1473   1.4409477615e+01   2.8349399316e+01    0.2460769    0.1500114 -46.94 0.0006608181    1.450    0.310
       143 -10.1298    229.4865     59.9741   9.0871833225e+00   2.1227601313e+01    0.2584986    0.1446384 -57.13 0.0007548065    1.678    0.404
       144  -9.8151    221.6844     62.6931   1.0562030031e+01   2.2432415489e+01    0.2210747    0.1815414 -81.96  0.000719598    1.245    0.197
       145 -12.7167    225.4585     60.5408   9.6408560302e+00   2.1968695289e+01    0.3048178    0.2281564 -34.19 0.0004965291    1.290    0.225
       146  -8.4571    214.3693     61.9393   1.1213562117e+01   2.4096817311e+01    0.1974689    0.1109746 -40.64 0.0006460268    1.503    0.335
       147  -8.1836    211.5754     58.7186   1.0744446182e+01   2.5188206827e+01    0.2971733    0.1288123 -40.47   0.00128828    1.910    0.477
       148 -10.1402    207.9595     57.7845   1.0936064793e+01   2.6124062694e+01    0.1902599    0.1832775  70.53 0.0002074412    1.252    0.201
       149  -8.7973    194.1994     60.1020   1.3277870381e+01   2.8885983022e+01    0.1805946    0.1500782 -57.42 0.0003193037    1.049    0.047
       150 -11.3616    250.3250     58.5643   6.7944246604e+00   1.7384364128e+01    0.2509828    0.1340322 -40.54 0.0006475649    1.441    0.306
       151  -9.6638    246.3452     55.1214   6.3947054204e+00   1.8607812823e+01    0.3143541    0.1488965  83.39  0.001459681    2.935    0.659
       152  -8.1525    219.1781     59.7285   1.0128609614e+01   2.3401750068e+01    0.1320995    0.1149678  78.84 0.0008017203    1.272    0.214
       153  -9.1093    215.9970     58.0209   1.0068083839e+01   2.4334146673e+01    0.1619197    0.1170599 -43.48 0.0008948175    1.183    0.154
       154  -9.3159    220.8713     55.0461   8.8190016714e+00   2.3730554923e+01    0.3175772    0.1750431  65.13  0.001596678    2.005    0.501
       155  -9.1264    168.3143     54.9333   1.5653559216e+01   3.5912771875e+01    0.2602637    0.2075157  65.31   0.00027666    1.279    0.218
       156  -8.6533    211.0502     53.7142   9.5594687646e+00   2.6045599982e+01    0.1853143    0.1038083 -51.75 0.0002746822    1.568    0.362
       157 -10.2417    189.9053     53.8503   1.2179012132e+01   3.0852375774e+01    0.2772193    0.1831655 -56.86            0    1.410    0.291
       158  -8.1766    227.1250     52.7104   7.6291290675e+00   2.2756661504e+01    0.2162124    0.1392792 -65.79  0.001045161    1.505    0.335
       159  -8.3496    200.1579     51.7595   1.0326272992e+01   2.8780559269e+01     0.167095    0.1469887 -15.70            0    1.413    0.292
       160 -10.9524    249.5526     49.5283   4.9096848701e+00   1.8766211357e+01    0.1966992    0.1514708 -54.52 0.0001998259    1.040    0.038
       161 -10.6413    221.5685     48.8032   7.2511722154e+00   2.4474099832e+01    0.2840237     0.198327  78.78   0.00108439    1.535    0.348
       162  -8.7626    209.4119     49.1660   8.6030069294e+00   2.7067521970e+01    0.2586932    0.1477193 -87.28  0.001206026    2.091    0.522
       163  -9.0733    237.7657     47.1705   5.3756746511e+00   2.1366969718e+01    0.3245071    0.1706819 -65.04  0.001629102    1.973    0.493
       164  -8.1013    230.8367     47.0143   5.9527320710e+00   2.2787734649e+01     0.226061    0.1451831  53.70  0.001241023    1.981    0.495
       165  -9.5478    248.6250    203.6862   3.5948404467e+01  -3.6833731914e+00      0.11513   0.08864763   8.86 0.0001591558    1.200    0.167
       166  -9.8014    177.2300     43.1290   1.0890800873e+01   3.5492301940e+01    0.2407327    0.2094339 -76.17 0.0002653554    1.042    0.040
       167  -8.3371    243.8626     42.6274   3.8624239170e+00   2.0776854451e+01    0.2355936    0.1821263  15.54  0.001369378    2.235    0.553
       168  -8.2718    241.4966     40.4657   3.5718992634e+00   2.1524889340e+01      0.18443    0.1064048 -83.58 0.0009943164    1.922    0.480
       169  -8.5976    227.7403     42.1875   5.1091606944e+00   2.4085052038e+01    0.2517706    0.1215169 -61.19  0.000820333    2.079    0.519
       170  -8.4559    230.0721     39.3758   4.2547646273e+00   2.3976276729e+01     0.209465    0.1709774 -89.53 0.0007428011    1.269    0.212
       171  -8.6571    215.4507     42.2924   6.2748725235e+00   2.6697418797e+01    0.2292619    0.1368232 -87.78  0.001157712    1.838    0.456
       172  -8.4205    210.8309     40.7968   6.3598972435e+00   2.7921968939e+01    0.1910044    0.1210839 -55.55 0.0003427946    1.360    0.264
       173 -10.3329    205.7663     39.2629   6.4836921134e+00   2.9269836836e+01    0.2690935    0.2064497  78.45  0.001081114    1.337    0.252
       174 -10.3775    186.5331     39.0411   8.5527272173e+00   3.3802819616e+01    0.3762605    0.2324332  61.40 0.0007063493    1.690    0.408
       175  -9.2515    155.1547    221.8136   5.5864407389e+01   6.1877574792e+00    0.1819476    0.1574449  41.64 0.0007792879    1.221    0.181
       176  -9.3025    205.8320    203.1129   4.3012217590e+01   1.9034759389e+00    0.1666541    0.1326816  -9.98 0.0003666878    1.096    0.088
       177  -8.3740    218.0678     37.0410   4.7505795492e+00   2.6833334331e+01    0.2057652     0.159563 -52.55 0.0008230972    1.063    0.059
