#   1 NUMBER                 Running object number                                     
#   2 MAG_AUTO               Kron-like elliptical aperture magnitude                    [mag]
#   3 X_IMAGE                Object position along x                                    [pixel]
#   4 Y_IMAGE                Object position along y                                    [pixel]
#   5 X_WORLD                Barycenter position along world x axis                     [deg]
#   6 Y_WORLD                Barycenter position along world y axis                     [deg]
#   7 A_WORLD                Profile RMS along major axis (world units)                 [deg]
#   8 B_WORLD                Profile RMS along minor axis (world units)                 [deg]
#   9 THETA_WORLD            Position angle (CCW/world-x)                               [deg]
#  10 FWHM_WORLD             FWHM assuming a gaussian core                              [deg]
#  11 ELONGATION             A_IMAGE/B_IMAGE                                           
#  12 ELLIPTICITY            1 - B_IMAGE/A_IMAGE                                       
         1 -11.9161    210.3475     34.3339   4.1422840924e+01   2.8495496609e+01    0.9020391    0.7951005 -65.88  0.004746334    1.055    0.052
         2 -11.7905    227.3212     17.7641   3.5806979433e+01   2.6571747928e+01     0.697251    0.5849296 -64.18  0.002696919    1.069    0.065
         3  -8.6877      2.0000      2.4840   9.1905805764e+01   7.4227780762e+01    0.3490437    0.1113638 -44.62  0.001766335    2.524    0.604
         4 -10.1796      2.0000     11.0821   9.5858287933e+01   7.2871031488e+01     0.494059     0.138985 -50.25   0.00229184    2.921    0.658
         5  -7.6935    125.4639      5.4656   4.5522012117e+01   5.2498148589e+01    0.1319716    0.1160022  64.19 0.0003047373    1.081    0.075
         6  -9.2702      8.6656      5.3216   8.9140391444e+01   7.3301586374e+01    0.1420646    0.1376076   6.21  0.001114525    1.742    0.426
         7  -9.0805    248.7748      1.5984   3.0791953181e+01   2.3720237829e+01     0.395803    0.1410104  80.13  0.001835244    2.763    0.638
         8 -10.9703     48.3291    218.5930   1.1771171958e+02   2.2909679129e+01    0.5337284    0.3226352  18.54  0.002804513    2.508    0.601
         9 -12.0957     85.4269    228.9364   1.1097993755e+02   1.5945264464e+01     1.187359    0.7965982 -73.37   0.00502694    1.631    0.387
        10 -12.1903      2.7691    179.6775   1.2447351595e+02   3.5849421231e+01      2.46039    0.3919999 -78.83  0.007465065    5.839    0.829
        11 -14.1378      5.2755    135.7351   1.2045645430e+02   4.5805344017e+01     9.461013     1.974161 -80.80   0.02474401    6.941    0.856
        12 -10.3938     44.3206    230.5106   1.1942877340e+02   2.0980811325e+01     0.302792    0.1561719  51.76  0.001743467    1.584    0.369
        13 -10.5696     21.0685    194.8819   1.2158144587e+02   3.0913613548e+01    0.3478746    0.2012045  70.50  0.002025364    1.553    0.356
        14 -10.2302     60.1137    179.2191   1.1113092978e+02   3.0151684412e+01    0.4114604    0.2699001 -40.18  0.002086076    2.003    0.501
        15 -10.1329     65.5167    173.7133   1.0909153700e+02   3.0747969969e+01    0.3162408     0.253258 -44.78  0.001214192    1.443    0.307
        16 -12.9552      8.7840    207.9679   1.2491338675e+02   2.9259500270e+01     1.041209    0.9747576 -48.41  0.006745395    1.533    0.348
        17  -9.9567     32.6738    169.0217   1.1672146763e+02   3.5667380705e+01    0.3718106    0.1751722 -63.55  0.001828237    1.878    0.467
        18 -11.2597     82.4606    158.1983   1.0234329514e+02   3.2085960972e+01    0.8624517    0.6723436 -66.75   0.00210484    1.249    0.199
        19 -10.8365     73.3800    154.6986   1.0423620066e+02   3.4263994301e+01    0.7157692    0.4313209  75.70  0.003040211    2.311    0.567
        20 -10.8638     70.0419    145.4902   1.0363520466e+02   3.6994035132e+01    0.5024242      0.44637  32.44  0.001513736    1.219    0.179
        21 -10.7036     67.2547    142.4226   1.0390639842e+02   3.8131682635e+01    0.4507601    0.3235219  47.33  0.001437026    1.451    0.311
        22 -10.2382     75.4850    163.8465   1.0511208274e+02   3.1740829762e+01    0.3006313    0.2976283 -52.04  0.000618136    1.141    0.124
        23 -11.7016     62.6310    160.0071   1.0795098678e+02   3.4419630800e+01    0.5158709     0.296356 -45.07  0.001398771    1.987    0.497
        24  -9.0256     32.6480    155.9333   1.1533301324e+02   3.8787975436e+01    0.1939361    0.1841487 -15.07 0.0008539061    1.322    0.244
        25  -7.6590    125.4312    154.5155   9.0152735024e+01   2.5576901476e+01    0.1509916    0.1472132  65.49 0.0001343194    1.034    0.033
        26  -8.6882    114.8846    224.8517   1.0424910778e+02   1.2307549761e+01    0.2204355    0.1793561 -77.54 0.0009856842    1.415    0.293
        27  -9.0880     32.6434    144.0606   1.1392685879e+02   4.1665301133e+01    0.3185764    0.1818231 -74.67  0.001630434    1.554    0.357
        28  -8.3950     96.7614    143.2405   9.5630684414e+01   3.3443053014e+01    0.2071972    0.1769293 -21.24  0.001057362    1.357    0.263
        29 -10.4803     85.3433    141.5803   9.8552118350e+01   3.5707536837e+01    0.3119998     0.275022 -39.07  0.000595076    1.194    0.163
        30  -8.1686    100.0300    139.9584   9.4032561968e+01   3.3679211599e+01    0.2427547    0.1847771 -16.34  0.001064114    1.721    0.419
        31 -11.3101     59.2497    136.5023   1.0522144644e+02   4.0635591806e+01     1.263593     0.323803 -67.93  0.003242978    5.595    0.821
        32  -9.0229     32.6074    129.5359   1.1200000233e+02   4.5221765129e+01    0.2269359    0.1714461 -51.39  0.001325672    1.265    0.210
        33  -9.1007     96.3553    127.5901   9.2414533611e+01   3.7309621044e+01    0.3015979    0.2480972 -16.90 0.0005065526    1.426    0.299
        34 -13.9586     64.5175    247.8943   1.1685629350e+02   1.5191619413e+01      7.55874     2.022376  29.83    0.0213658    7.397    0.865
        35  -8.0664    106.1133    120.1152   8.7774011308e+01   3.7338953701e+01    0.2244872    0.2001415 -18.12 0.0003617117    1.197    0.165
        36 -12.0421     32.1771    206.2748   1.2008353719e+02   2.7325168902e+01     1.047231     0.410836 -64.65  0.004986044    2.403    0.584
        37  -7.6761    205.7201    110.3587   6.1153080009e+01   1.7612783706e+01    0.1524303    0.1131633 -65.22 0.0007013422    1.665    0.400
        38  -7.6464    114.6838    110.6397   8.2848184370e+01   3.7874797298e+01    0.1648233    0.1227467 -10.26  0.000704293    1.758    0.431
        39  -8.8792    108.2094    131.5494   8.9864794643e+01   3.4235114037e+01    0.4025218    0.2672388  25.42  0.001745653    1.747    0.428
        40  -8.9387    134.0000    108.4822   7.6847010615e+01   3.4295824625e+01    0.3570039   0.09004274 -44.15 0.0009391182    3.970    0.748
        41  -8.5562     41.4100     92.2019   1.0241169589e+02   5.3426278161e+01     0.182036      0.12077 -69.63  0.000310136    1.559    0.359
        42 -10.2524     53.5784    231.0579   1.1765447281e+02   1.9761243251e+01     0.274704    0.1812726 -88.72  0.001593161    1.471    0.320
        43  -8.5329    129.0355     65.6419   6.5417806781e+01   4.3893283987e+01     0.266809    0.1039357  34.34 0.0007044496    4.514    0.778
        44 -10.3782     13.1627     60.6055   1.0615303567e+02   6.2767868686e+01    0.2846213    0.1893212 -45.95  0.001255257    1.176    0.150
        45 -10.0109      6.7874     50.3365   1.0641269557e+02   6.5277495354e+01    0.2618338    0.1563964  39.55  0.001499144    2.321    0.569
        46 -11.5979    201.5946     40.6228   4.4087560470e+01   2.9773309921e+01    0.6716705    0.5225779  37.92    0.0031003    1.565    0.361
        47 -13.7715     39.0763    193.8059   1.1757619773e+02   2.9302146773e+01     3.824981     1.440573  66.37   0.01389942    3.955    0.747
        48 -10.7913    217.5101     27.5302   3.8992302116e+01   2.7661118521e+01    0.4723858    0.3060876  42.57  0.001268378    2.021    0.505
        49  -8.8562    135.7352     42.5155   5.6134646783e+01   4.5894411582e+01    0.2788065    0.2316035 -68.21 0.0005208181    1.443    0.307
        50  -9.8371      2.0038     32.9687   1.0385111202e+02   6.8968365203e+01    0.3381046   0.08991107 -53.27  0.001542879    2.519    0.603
        51  -9.8077      2.4036     22.7481   1.0022383493e+02   7.0842317728e+01    0.2457139    0.1184171 -55.10  0.001216785    1.888    0.470
        52  -7.5880    195.3453    245.6637   9.0623119050e+01  -3.8879910731e+00    0.1156341   0.09227241  54.31 0.0007049017    1.772    0.436
        53  -9.9386     48.9650    224.9322   1.1809062041e+02   2.1541288403e+01    0.2445759    0.1883791  -1.85   0.00146931    2.256    0.557
        54  -9.0019    120.1271    222.7434   1.0284130555e+02   1.1877019382e+01    0.3145687    0.1605146 -39.88  0.001389642    2.761    0.638
        55 -11.9203     19.0148    220.0565   1.2362800176e+02   2.5813136441e+01     0.716934    0.5866223  82.00  0.002226251    1.141    0.123
        56 -13.9044      7.0248    241.3599   1.2687099732e+02   2.2854949253e+01     1.982895     1.554869  57.31   0.01594733    1.222    0.182
