#   1 NUMBER                 Running object number                                     
#   2 MAG_AUTO               Kron-like elliptical aperture magnitude                    [mag]
#   3 X_IMAGE                Object position along x                                    [pixel]
#   4 Y_IMAGE                Object position along y                                    [pixel]
#   5 X_WORLD                Barycenter position along world x axis                     [deg]
#   6 Y_WORLD                Barycenter position along world y axis                     [deg]
#   7 A_WORLD                Profile RMS along major axis (world units)                 [deg]
#   8 B_WORLD                Profile RMS along minor axis (world units)                 [deg]
#   9 THETA_WORLD            Position angle (CCW/world-x)                               [deg]
#  10 FWHM_WORLD             FWHM assuming a gaussian core                              [deg]
#  11 ELONGATION             A_IMAGE/B_IMAGE                                           
#  12 ELLIPTICITY            1 - B_IMAGE/A_IMAGE                                       
         1 -13.7377     30.1699     59.8192   1.0857228964e+02   5.9741287164e+01     1.146412    0.9149438  12.33  0.005333702    1.585    0.369
         2 -12.4843     42.7501     20.0459   9.1168678752e+01   6.6049864524e+01    0.5782833    0.3610659  23.90  0.002019301    1.815    0.449
         3 -12.9888    216.1036     14.8615   4.7876889369e+01   2.9082481603e+01    0.9058588    0.6524165  68.37  0.004675272    1.336    0.251
         4 -10.9764    109.3203      8.2910   6.4044022194e+01   5.6604297117e+01     0.232754    0.2126756  19.43 0.0006493081    1.072    0.067
         5 -13.4688    190.1347      8.9791   4.9365636660e+01   3.6538411589e+01    0.9508936    0.4973822 -85.49  0.003639448    2.678    0.627
         6 -11.4843     54.3500      2.6616   7.8688731449e+01   6.7129764743e+01    0.3358813    0.2338054  62.39   0.00183817    2.900    0.655
         7 -12.1283     57.8111      8.4108   8.0140426069e+01   6.5879995584e+01    0.4589724    0.3664641  19.07  0.002405838    1.257    0.204
         8 -12.1057     43.9459      8.3611   8.5561794622e+01   6.7719468529e+01    0.2761075    0.2370635  12.52  0.000973469    1.301    0.231
         9 -12.6184    166.1656      2.4619   5.0641896814e+01   4.3469413400e+01    0.7669024     0.295889  60.82  0.003002062    2.223    0.550
        10 -10.3401    152.8343      4.1755   5.3372050699e+01   4.6733436990e+01     0.199165    0.1510874  34.47 0.0003002747    1.293    0.227
        11 -10.5830    185.2241    223.1299   1.0214209638e+02   3.8475843977e+00    0.3127585    0.1384462  49.20  0.001349377    1.913    0.477
        12 -11.2688    226.5152    221.3417   9.4946639281e+01  -2.9859013039e+00    0.1792922    0.1722444  57.17  0.001086547    1.437    0.304
        13 -10.3169    239.6549    214.9683   9.1760475622e+01  -4.4699808251e+00    0.1638803   0.09034886 -53.00 0.0007047014    4.369    0.771
        14  -9.7495    199.5089    214.0135   9.8347146821e+01   2.5483424154e+00    0.1484941    0.1067175 -72.72 0.0008099963    2.496    0.599
        15 -10.5436    115.9056    209.5806   1.1249327548e+02   1.7577537102e+01    0.2331333    0.1437844 -86.42  0.001325694    1.987    0.497
        16 -10.4083     49.0389    201.6895   1.2338757960e+02   2.8256536968e+01    0.2905815    0.1290589  78.08  0.001537075    2.461    0.594
        17 -10.3937     41.5679    201.1522   1.2460534426e+02   2.9211845695e+01    0.2291954   0.08227792 -70.25  0.001250756    2.479    0.597
        18 -11.3737      5.1177    199.6952   1.3042032187e+02   3.3141066226e+01     0.287168    0.1262273  63.06 0.0009909541    1.763    0.433
        19 -10.2939    112.4238    197.7087   1.1170992527e+02   2.0192509365e+01    0.2705937    0.1485641  79.55  0.001274465    2.649    0.623
        20  -9.9664     66.3285    194.6655   1.1978088481e+02   2.7424685210e+01    0.1231057   0.06759037  71.48 0.0007051906    1.722    0.419
        21 -12.5952    160.4674    191.9014   1.0191727875e+02   1.2887054183e+01    0.7095844    0.4817988  77.72   0.00329477    2.034    0.508
        22 -10.1175    183.6798    181.6607   9.5841744968e+01   1.0155973988e+01    0.1820981    0.1395468 -15.77 0.0008106481    1.660    0.397
        23 -10.3654    224.3370    183.6900   8.8827473640e+01   2.0553903298e+00    0.1204094    0.1036255  79.07 0.0007044106    1.683    0.406
        24  -9.7243    191.4927    177.9904   9.3713805823e+01   9.2138819287e+00     0.175591    0.1171885 -68.25 0.0008099881    2.492    0.599
        25  -9.5748    129.3027    177.6636   1.0572554529e+02   2.1032653721e+01    0.1345349   0.09287117  77.90 0.0007037505    1.665    0.399
        26 -11.4148     34.6501    173.3491   1.2366437577e+02   3.5240670535e+01    0.2575732     0.136703  82.98   0.00136135    1.690    0.408
        27 -11.3685     55.7621    167.7009   1.1909308642e+02   3.4006372570e+01     0.388091    0.2019966  85.52  0.002062993    2.058    0.514
        28  -9.9167     88.2244    168.1850   1.1264033741e+02   2.9565447371e+01    0.1972652   0.09240728 -74.94 0.0008772069    2.535    0.606
        29 -10.0593     44.3524    168.3206   1.2137992548e+02   3.5199377690e+01    0.1036972   0.08193553 -50.26 0.0007047504    1.749    0.428
        30  -9.9608    138.4115    164.2097   1.0169695877e+02   2.1935716252e+01    0.1897466    0.1258508 -67.36 0.0009521994    1.740    0.425
        31 -10.5021     78.8153    162.8319   1.1386839189e+02   3.2009830298e+01    0.2939005    0.1348265 -89.47  0.001056667    4.185    0.761
        32  -9.5582     69.6810    163.3480   1.1580840586e+02   3.3143571633e+01    0.1306193   0.07799446  75.71 0.0007048665    1.733    0.423
        33 -10.5022     25.1811    170.0752   1.2515314692e+02   3.6837191489e+01    0.1612947    0.1220748 -76.08  0.001209582    1.289    0.224
        34  -9.6779    132.2945    159.7629   1.0219702166e+02   2.3933638580e+01    0.1938735    0.1260175  38.40 0.0009689095    1.633    0.388
        35 -11.4585    106.7186    158.0744   1.0732574948e+02   2.8742652255e+01    0.5644362    0.3441791  71.40  0.002768598    1.960    0.490
        36 -10.4939     22.6078    159.1573   1.2476219965e+02   3.9259273987e+01    0.2442905   0.08126177  50.30  0.001250874    2.784    0.641
        37 -10.8541    167.9594    157.6100   9.4425970483e+01   1.7390819019e+01    0.3653316    0.2276121  68.74  0.001591003    2.225    0.551
        38 -11.4580    119.3456    157.1308   1.0448327712e+02   2.6787884309e+01    0.4160017    0.2486897  58.37  0.002053672    1.703    0.413
        39 -10.0886    218.2285    155.7719   8.4355131851e+01   7.2890673817e+00    0.2190977    0.1119237 -23.21 0.0008932758    2.475    0.596
        40  -9.1779      6.7025    155.6985   1.2753528614e+02   4.1322197632e+01   0.09644588   0.06669345 -62.33 0.0005023153    1.579    0.367
        41  -9.8514     68.0008    154.4943   1.1505408989e+02   3.5205379599e+01    0.1800863   0.08123723  60.24 0.0008105406    2.569    0.611
        42  -9.9026     23.2589    153.6466   1.2416635967e+02   4.0318534061e+01    0.1517017    0.1049851  87.13 0.0005725452    1.104    0.094
        43 -10.0816     40.5065    152.9758   1.2062016278e+02   3.8758783046e+01    0.1732083   0.09320907 -76.39 0.0006248793    1.544    0.352
        44  -9.6980    132.3346    152.6526   1.0092014527e+02   2.5338538646e+01    0.1464323    0.1028051  81.87 0.0007048542    1.773    0.436
        45 -10.1197    189.6549    150.3388   8.8607883452e+01   1.4161979030e+01    0.2209703    0.1766961 -87.13  0.001115386    1.706    0.414
        46 -10.4699     55.8214    146.0063   1.1658601011e+02   3.8516114612e+01    0.2114007    0.1164577  82.11   0.00108428    2.059    0.514
        47 -10.4774    148.2958    144.4794   9.5912228104e+01   2.3870797064e+01    0.2542939    0.1754973 -71.86  0.001194963    1.837    0.456
        48 -10.5669     87.8073    144.2215   1.0926330740e+02   3.4625960392e+01    0.2269825    0.1239915  77.16 0.0009506751    2.793    0.642
        49  -9.9256    124.5167    143.0264   1.0083363695e+02   2.8750669421e+01    0.1994311    0.1176667 -77.76 0.0008102364    2.558    0.609
        50 -11.3847    108.1411    146.0189   1.0502141017e+02   3.1011386193e+01    0.7219466    0.3433709  68.75  0.002276581    4.756    0.790
        51 -10.9754     82.8962    131.5878   1.0831458743e+02   3.8085134734e+01    0.3481991    0.1973562 -83.86  0.001577164    2.309    0.567
        52 -12.2187     98.7631    128.4386   1.0398447296e+02   3.6333411349e+01    0.6957099    0.3979685  80.37  0.002729248    3.113    0.679
        53 -10.2488    118.1529    125.9850   9.8891082836e+01   3.3510626990e+01    0.3216171    0.1807188  69.97      0.00122    2.939    0.660
        54 -10.5958     59.1553    124.6824   1.1284489940e+02   4.2744782106e+01    0.3683722    0.1916092  88.87  0.001622385    2.739    0.635
        55 -11.2013     43.6735    123.3269   1.1635136461e+02   4.4767255661e+01    0.5597647    0.2558654 -89.08  0.002365262    3.135    0.681
        56 -11.2489     27.2825    121.1304   1.1994107530e+02   4.6804905283e+01    0.5735868    0.2291171  85.94  0.002096732    4.591    0.782
        57 -11.8295    193.6019    118.3763   8.0498101117e+01   1.8937448863e+01    0.5670958    0.4703283 -78.47  0.001702092    1.517    0.341
        58 -10.4167     71.7143    120.4792   1.0908975924e+02   4.2086204222e+01    0.3818348    0.2064345  80.38  0.001542939    3.216    0.689
        59 -11.1241     15.3998    120.3463   1.2261231084e+02   4.7944586719e+01    0.2848572      0.21084 -40.09  0.002007981    1.792    0.442
        60 -10.1884    130.7540    119.1462   9.4414546630e+01   3.2560517485e+01    0.2529429    0.1599098  88.73 0.0009559907    2.872    0.652
        61 -10.3307      2.8239    116.9077   1.2513869398e+02   4.9560065865e+01    0.4255483    0.1421677  85.93  0.001556537    4.931    0.797
        62 -11.0761    140.6349    116.6760   9.1523985893e+01   3.1072298490e+01    0.4328491     0.213471 -49.66  0.001735465    2.052    0.513
        63 -10.5420    108.4276    112.8891   9.8415133403e+01   3.8082130618e+01    0.4429182    0.2271207 -68.60  0.001655831    2.877    0.652
        64 -10.7825     78.6195    112.4491   1.0586528425e+02   4.2916587699e+01     0.467789     0.237997 -83.28  0.001622232    4.050    0.753
        65 -12.4786    159.2238    110.3691   8.5733894720e+01   2.8327582141e+01    0.7648972    0.5920011 -69.68    0.0036503    1.554    0.356
        66 -10.7793     18.0387    113.0000   1.2115656462e+02   4.9311450241e+01    0.1882322    0.1710742  35.26  0.001484535    1.475    0.322
        67 -11.1264     13.8616    110.7352   1.2189613710e+02   5.0107958199e+01    0.5431671    0.2327616 -74.62  0.002977413    1.811    0.448
        68 -10.9937    174.5534    111.0345   8.2566275675e+01   2.4703383893e+01    0.3938479    0.2796565 -42.60  0.001257219    1.421    0.296
        69 -12.9033    141.6236    104.7699   8.8352980438e+01   3.3309609073e+01    0.7517826    0.5702595 -83.58  0.003519581    1.726    0.421
        70 -10.5755     91.9646    111.2818   1.0221772665e+02   4.1181408964e+01    0.4024837    0.1897658 -65.49  0.001613828    2.492    0.599
        71 -12.1006    127.3147    100.7291   9.0782578343e+01   3.7112680678e+01    0.5901393    0.4020514 -75.17  0.002578619    2.055    0.513
        72 -13.1480    111.9774    100.3062   9.4549500538e+01   4.0155382582e+01     1.440496    0.5475326  52.50    0.0049115    3.383    0.704
        73 -10.8282     82.1821    100.8683   1.0252304356e+02   4.4961790181e+01    0.2668532    0.2127367  73.02  0.001040822    1.421    0.296
        74 -10.8800     63.2422     96.2540   1.0668223816e+02   4.8534556178e+01    0.3699375    0.1885287 -84.61  0.001295877    4.255    0.765
        75 -12.5778    170.3322     90.8694   7.8090521250e+01   2.9493578363e+01    0.4362193    0.3992332 -79.47  0.001095946    1.198    0.165
        76 -10.8040     34.1252     88.5614   1.1333458704e+02   5.3290841756e+01    0.3511094    0.1461159 -69.10  0.001671743    2.140    0.533
        77 -11.7999     42.4001     87.8055   1.1083780308e+02   5.2687234197e+01    0.6603222    0.3893337  -1.64  0.002663189    3.315    0.698
        78 -10.5070     45.4601     81.9797   1.0876524060e+02   5.3648667541e+01    0.2431104    0.1687797 -82.55 0.0008295757    1.590    0.371
        79 -10.5015    152.0572     87.2511   8.1152884857e+01   3.4480133034e+01    0.2802093    0.2256595 -26.70  0.001309675    1.305    0.234
        80 -11.4338     87.6276     87.3797   9.7833034787e+01   4.7074259567e+01    0.4235559    0.2600305  62.62  0.001933224    2.330    0.571
        81 -10.8926    104.6491     83.5303   9.2097254160e+01   4.5034060982e+01    0.4372835    0.2830886 -78.08  0.001810222    2.598    0.615
        82 -10.6778     24.2047     80.4221   1.1472834700e+02   5.5862256388e+01    0.3782251     0.163078 -80.37  0.001635695    3.093    0.677
        83 -10.2704      1.4467     78.2404   1.2096637213e+02   5.7783919495e+01     0.212156   0.07244834 -65.80 0.0009888954    1.974    0.494
        84 -11.1065     82.8761     73.7256   9.5556608181e+01   5.0693030764e+01    0.4056846      0.26665 -87.66  0.001734743    2.892    0.654
        85 -10.7910     62.5972     70.2147   1.0075064773e+02   5.4233381101e+01    0.3735035    0.1329434 -50.46  0.001557517    2.305    0.566
        86 -10.0846    116.3496     73.6695   8.6068162230e+01   4.4827324856e+01    0.1494892    0.1157945 -81.26 0.0003509718    1.768    0.434
        87 -12.1290    223.6228     70.7345   6.2491335524e+01   1.9651870506e+01    0.3272787    0.2855182  53.55 0.0004745058    1.178    0.151
        88 -11.9340     44.7787    101.2822   1.1265325892e+02   4.9496732592e+01    0.6706167    0.3439819 -88.36  0.002981312    2.858    0.650
        89 -10.5752     51.8958     70.6624   1.0420415032e+02   5.5392814098e+01    0.2494636    0.1632303 -60.92 0.0008425683    1.353    0.261
        90 -10.4195    196.1367     68.1176   6.6407338069e+01   2.7018243560e+01    0.2992169    0.2183675  64.19  0.001379942    1.441    0.306
        91 -11.0853      9.4987     57.3444   1.1492199415e+02   6.1689533197e+01    0.5681512    0.3282355  62.99  0.003251969    2.724    0.633
        92 -11.9746     21.2705     53.0309   1.0996509580e+02   6.1814259983e+01    0.6527866    0.3424722 -64.10  0.003779273    1.613    0.380
        93 -11.4627    221.7635    248.7148   9.9737482238e+01  -5.1024779503e+00    0.4052131    0.1534377  41.76  0.002171945    1.951    0.487
        94 -10.3751    100.8239     61.2174   8.6496314547e+01   5.0196361111e+01    0.2292814    0.1569768 -81.99 0.0009484116    2.826    0.646
        95 -11.3817     19.3869     59.6255   1.1211638873e+02   6.0595213155e+01    0.2659238    0.2245213 -14.60  0.001124154    1.437    0.304
        96 -11.2131    245.8342     65.9683   5.7961138373e+01   1.4959953503e+01    0.2380533    0.2121012  85.43            0    1.227    0.185
        97 -10.2535    119.9588     56.9692   7.9769721911e+01   4.7240577366e+01    0.2543893    0.1691845  77.94  0.001033267    2.639    0.621
        98 -10.2974     53.8609     53.9878   9.9004043463e+01   5.8596234359e+01    0.3846138    0.1649773 -63.27  0.001444081    3.615    0.723
        99 -12.2639    149.3433     52.2159   7.0932084981e+01   4.1399147737e+01    0.4057978    0.3121515  53.29 0.0004674328    1.312    0.238
       100 -10.2351     92.2276     51.2461   8.5715328001e+01   5.3586800877e+01    0.2235714    0.1002992 -49.50 0.0008851741    2.431    0.589
       101 -10.4368     82.0213     46.7977   8.7341247817e+01   5.6097280403e+01    0.2460472    0.1643405 -52.99  0.001034207    1.652    0.395
       102 -10.5907    157.0590     45.0053   6.6835519587e+01   4.0629985958e+01    0.2799463    0.2085417  54.73 0.0004815029    1.332    0.249
       103 -10.4965    161.7193     53.4227   6.8626886007e+01   3.8157552841e+01    0.2891052    0.1529237  61.27 0.0008516877    2.045    0.511
       104 -11.8063     70.4165     42.5187   8.9627092004e+01   5.8636418990e+01     0.477583    0.3185974  53.20  0.002371394    2.096    0.523
       105 -11.4429      7.4780     43.1709   1.1251390122e+02   6.4661401984e+01    0.4294619    0.2478164  44.27  0.002699659    2.497    0.600
       106 -11.9367     41.6129     37.9344   9.8264949240e+01   6.3024043416e+01    0.6098121     0.374338   3.11  0.001898671    2.235    0.553
       107 -11.3928     46.8969     35.9740   9.5627325451e+01   6.2823329301e+01    0.4317093    0.2457634   4.07  0.001785747    2.765    0.638
       108 -10.7188     83.6733     38.2573   8.3708539078e+01   5.7327497022e+01    0.3974925    0.2303426  57.62   0.00180054    2.680    0.627
       109  -9.3885    205.9671     34.9839   5.5020111398e+01   2.9307906470e+01    0.1737631    0.1689796  88.51 0.0004043375    1.008    0.008
       110 -11.4710    120.2078     34.2808   7.1624859279e+01   5.0906992010e+01    0.3140357    0.2878876  61.22 0.0007071811    1.243    0.196
       111 -11.0767     31.8284     33.4928   1.0049914256e+02   6.4787522859e+01    0.2167061    0.1334396 -47.33 0.0005362768    1.274    0.215
       112 -10.4059     74.2772     32.8693   8.4732103822e+01   5.9736505617e+01      0.29904     0.219266  63.86  0.001602678    2.216    0.549
       113 -11.3612    104.4090     30.3129   7.4371903771e+01   5.4793341732e+01    0.6445656    0.3551802  58.88  0.002452587    2.345    0.573
       114 -10.2165     68.4757     25.3076   8.3700216109e+01   6.1841251617e+01     0.275141    0.1669445 -14.79 0.0009969414    1.871    0.466
       115 -12.6870    203.8353     21.6772   5.1381872538e+01   3.1518778029e+01    0.4482729    0.3540777 -76.94  0.002287532    1.349    0.258
       116  -9.8937    122.6355     23.2859   6.6811658409e+01   5.1894429794e+01    0.1379625     0.111411 -70.21  0.000643688    1.692    0.409
       117 -12.4136     22.5040    239.8148   1.2977472977e+02   2.4713162173e+01    0.5050877    0.1721594  72.00  0.002855132    2.789    0.641
       118 -11.2901    239.9599     20.5602   4.6795726649e+01   2.2365768052e+01    0.2871468    0.2427228  80.52 0.0005002287    1.171    0.146
       119 -10.7265     32.8530    242.2879   1.2844014544e+02   2.3225047670e+01    0.1615735   0.07820459  61.22  0.001173065    1.455    0.313
       120 -10.8883     30.8483     18.2855   9.5333974653e+01   6.7571035145e+01    0.2864965    0.1083272 -38.63  0.001418283    2.134    0.531
       121  -9.9259     89.0279     18.2096   7.3946335005e+01   5.9451948046e+01    0.1934862    0.1600751 -86.71  0.001077461    1.994    0.499
       122 -10.4154    127.1966     14.8394   6.2441710024e+01   5.1882059715e+01    0.2034871    0.1526239  24.33 0.0007118456    1.327    0.246
       123 -10.5251      8.2125    240.5919   1.3177257661e+02   2.6021223445e+01     0.108346   0.07467098  48.70 0.0004020644    1.624    0.384
       124 -10.1498      2.4152    240.2253   1.3253829382e+02   2.6629549898e+01    0.1276202   0.05805477  82.11 0.0009482348    1.628    0.386
       125 -10.9653     12.8537    227.3423   1.3057011409e+02   2.7688543498e+01    0.1875771    0.1095376  85.41 0.0005117446    1.268    0.211
       126 -10.0885    104.4659    225.4692   1.1614966000e+02   1.6714811685e+01    0.2014188    0.1050856 -66.06   0.00120372    2.158    0.537
       127 -10.9499     95.7913    224.9128   1.1753566392e+02   1.8073217189e+01    0.2676283    0.1353344  65.40  0.001530583    1.916    0.478
       128 -10.5786    149.3657    222.7986   1.0823876800e+02   1.0008083672e+01       0.2926      0.11064 -59.15   0.00125621    4.050    0.753
