#   1 NUMBER                 Running object number                                     
#   2 MAG_AUTO               Kron-like elliptical aperture magnitude                    [mag]
#   3 X_IMAGE                Object position along x                                    [pixel]
#   4 Y_IMAGE                Object position along y                                    [pixel]
#   5 X_WORLD                Barycenter position along world x axis                     [deg]
#   6 Y_WORLD                Barycenter position along world y axis                     [deg]
#   7 A_WORLD                Profile RMS along major axis (world units)                 [deg]
#   8 B_WORLD                Profile RMS along minor axis (world units)                 [deg]
#   9 THETA_WORLD            Position angle (CCW/world-x)                               [deg]
#  10 FWHM_WORLD             FWHM assuming a gaussian core                              [deg]
#  11 ELONGATION             A_IMAGE/B_IMAGE                                           
#  12 ELLIPTICITY            1 - B_IMAGE/A_IMAGE                                       
         1 -13.9708    167.2825     41.5125   7.5884377417e+01   3.8401623995e+01     1.162375     1.034705  26.89  0.003879735    1.269    0.212
         2 -14.0076    184.1613      8.5903   6.4371995311e+01   3.8078264086e+01     1.448317    0.8693875  61.63   0.00550846    1.448    0.309
         3  -9.8818    168.0052    245.5015   1.2202099206e+02  -5.7670186238e-01    0.1688273    0.1674593  39.68 0.0005551759    1.193    0.162
         4 -19.9608     65.1397    171.1653   1.3300888603e+02   3.1941412040e+01     19.44928     4.622316 -64.92   0.06106951    4.119    0.757
         5 -10.5314     16.2401    250.0063   1.4960788672e+02   2.1300963447e+01    0.1294126   0.06720551  89.66 0.0008404945    1.555    0.357
         6 -11.1351    153.8600    186.3743   1.1518161422e+02   1.3028039953e+01    0.2539835    0.2057406 -67.30 0.0008205567    1.355    0.262
         7 -10.5104    176.0570    231.6018   1.1835191847e+02   2.6831576261e-01    0.2595322    0.1948401 -44.14 0.0008114376    1.541    0.351
         8 -10.6195     13.5578    233.1545   1.4905863116e+02   2.4759049725e+01   0.09797294   0.06252032  55.32 0.0001513418    1.378    0.274
         9 -10.1750    133.8250    183.8304   1.1919108091e+02   1.7511025474e+01     0.204111    0.1652551  81.69 0.0004402148    1.330    0.248
        10 -12.0638     28.3553    183.8178   1.4256253200e+02   3.3473241284e+01    0.2119633    0.1982373  63.33 0.0005695525    1.356    0.263
        11 -10.4787     24.1979    227.9400   1.4694645426e+02   2.4625486790e+01    0.1386196   0.09533486 -86.39            0    1.203    0.168
        12 -10.7811    150.9654    181.3060   1.1486559601e+02   1.4680241808e+01    0.2128248    0.1890813  53.38 0.0004978413    1.066    0.062
        13  -9.8208     26.1256    222.3302   1.4621611731e+02   2.5531519735e+01    0.1003751    0.0588927 -71.59 0.0001561812    1.564    0.360
        14 -10.7316    206.2163    178.0256   1.0243231096e+02   4.0848387563e+00    0.3681152    0.1744209  34.20  0.001412834    2.431    0.589
        15 -11.2688    202.3784    170.2051   1.0156380949e+02   6.3437414334e+00    0.7091033    0.2405303 -41.93   0.00190377    2.968    0.663
        16 -11.1592    205.2502    168.9800   1.0072410074e+02   5.9891481250e+00    0.6413819    0.2656499 -52.07  0.002161853    3.218    0.689
        17 -10.4516      8.4861    175.5037   1.4585895709e+02   3.7207400877e+01    0.1621812    0.1287397  48.63 0.0006594971    1.452    0.311
        18 -12.0747    195.1991    168.6741   1.0270670506e+02   8.1281549508e+00    0.4614137      0.42601 -43.78 0.0008198323    1.110    0.099
        19 -10.9988    192.5289    163.9654   1.0224888220e+02   9.6236010994e+00    0.3925624    0.3369616  17.61  0.001447818    1.265    0.209
        20 -11.5395     11.7246    205.9959   1.4760251339e+02   3.0390748969e+01    0.2540166    0.2000748  63.53  0.001252027    1.268    0.211
        21 -10.4820     34.6051    168.3998   1.3960333895e+02   3.6291597731e+01    0.2368807    0.1814405  76.74  0.001109038    1.188    0.158
        22 -10.6835    141.7298    165.3925   1.1384420197e+02   2.0037651318e+01    0.3215831    0.1826959 -63.50  0.000978669    2.149    0.535
        23 -11.8639    162.6272    201.5394   1.1605181604e+02   8.2257921936e+00    0.6239794    0.3780854 -77.85  0.002109667    3.231    0.690
        24 -10.8100    157.3325    199.8271   1.1687478585e+02   9.5915008225e+00    0.2823119    0.2247005  84.17 0.0007876466    1.520    0.342
        25  -9.6118    188.7670    158.4152   1.0182441623e+02   1.1547593431e+01    0.2233226    0.1408762  34.53 0.0009503473    1.743    0.426
        26 -11.7772    153.7576    195.1350   1.1680918675e+02   1.1235133297e+01    0.4580584    0.2812062 -62.89  0.001702207    1.986    0.496
        27  -9.9451     16.6614    156.2798   1.4227884973e+02   4.0785714517e+01    0.1881449    0.1654131  -6.78 0.0008151799    1.661    0.398
        28  -9.3944    189.3024    154.6569   1.0087618515e+02   1.2197774076e+01    0.1552387    0.1219103 -82.70 0.0007039041    1.680    0.405
        29 -12.9321    133.9247    145.4251   1.1148059830e+02   2.6175874384e+01     1.341302    0.3889024 -55.17  0.003511095    4.520    0.779
        30 -10.4274    174.4141    148.6028   1.0272402198e+02   1.6731317623e+01    0.3898836    0.2682287 -71.30   0.00151275    1.995    0.499
        31 -10.0445    153.4884    201.9812   1.1807169729e+02   9.9042594242e+00    0.2080061    0.1422917 -53.31  0.001031228    1.592    0.372
        32 -11.5962    144.0182    145.8085   1.0911202994e+02   2.3977197554e+01    0.4295126    0.2601934 -62.66  0.001726555    1.968    0.492
        33 -12.2713     12.1840    144.6861   1.4203809567e+02   4.3778476152e+01     0.447643    0.3503855 -55.97  0.002964157    1.313    0.238
        34 -12.2846     15.1758    109.6940   1.3661271923e+02   5.1431531168e+01    0.4746112    0.2180475   4.98  0.001839805    3.825    0.739
        35 -12.5770      4.3968    112.2208   1.3996375417e+02   5.1586470496e+01    0.5631969    0.4261715 -74.97  0.003947364    1.103    0.094
        36 -12.6564      6.4468    138.9818   1.4275638422e+02   4.5493818879e+01     1.107099    0.4607974 -62.95  0.005875003    1.807    0.447
        37 -12.0048      3.0797    127.8961   1.4230563631e+02   4.8199406853e+01    0.6451268    0.3095553 -75.32   0.00357104    1.663    0.399
        38 -12.5751      4.3165    120.3566   1.4106506586e+02   4.9794349435e+01    0.5790248     0.415803  61.56  0.003236335    1.607    0.378
        39 -11.8007    139.8283    200.1950   1.2070188669e+02   1.2875926531e+01    0.4315401    0.2989779  43.49  0.001169987    1.347    0.258
        40 -11.9576    135.6896    127.5899   1.0689899306e+02   2.9868242713e+01    0.9270287    0.2043596 -50.65  0.002183837    5.294    0.811
        41 -10.7558    160.5968    128.1514   1.0101392900e+02   2.4238905091e+01    0.4207962    0.2695328 -62.94  0.001696728    1.932    0.482
        42 -10.5325    129.2707    144.2506   1.1237078662e+02   2.7396248654e+01    0.3910533    0.2232122  56.09   0.00156547    1.985    0.496
        43 -11.9581    120.1376    128.2610   1.1104005309e+02   3.2918753919e+01    0.3860084    0.3179549 -30.77 0.0007480003    1.358    0.264
        44 -11.5498    109.1681    124.2639   1.1299568551e+02   3.5958555426e+01    0.3154222     0.301588 -51.30 0.0006407145    1.043    0.041
        45 -10.5293    114.0193    118.0172   1.1018162338e+02   3.6458979057e+01     0.226962    0.2182945 -68.27  0.000348841    1.019    0.019
        46 -10.9660    134.2938    198.8461   1.2167709216e+02   1.4199116783e+01    0.3466814    0.2461261 -27.87  0.001641818    2.085    0.520
        47  -9.8895    168.3115    113.2933   9.5510760380e+01   2.5598066352e+01    0.3334062    0.2322003 -83.23  0.001335072    2.130    0.531
        48 -10.5167    134.5439    105.7900   1.0162063054e+02   3.4900985791e+01    0.4667656    0.1465821 -47.20  0.001402114    3.253    0.693
        49  -9.9574    205.5055    110.2271   8.7100197574e+01   1.7402169511e+01    0.2780521    0.2146744  54.70 0.0006419781    1.329    0.248
        50 -11.2363    170.0828    183.1087   1.1100753868e+02   1.0427972032e+01    0.3766339    0.2033069  49.50  0.001120557    1.835    0.455
        51 -11.9963    173.0473    189.1855   1.1155149626e+02   8.6068790477e+00    0.4131696    0.3821635 -13.73  0.002151601    1.178    0.151
        52 -13.5184    155.5954     56.3064   8.2451610812e+01   3.9144039732e+01      1.27567     0.916284  46.18  0.003049181    1.358    0.264
        53 -10.5112    150.6092    245.8230   1.2539573268e+02   2.3828610045e+00    0.2212689    0.2145753  89.87 0.0005936012    1.209    0.173
        54 -12.0852    171.4420     33.6617   7.2948592933e+01   3.8393153254e+01    0.3804932    0.3550431   7.80 0.0009300092    1.259    0.206
        55 -12.0578    164.9124    189.0264   1.1326822271e+02   1.0269984478e+01    0.5114896    0.3024106  26.77  0.002105511    2.231    0.552
        56  -9.6842     13.5175     59.9398   1.2721467730e+02   6.1945603619e+01    0.1610288     0.131174 -35.31 0.0004219323    1.086    0.079
