#   1 NUMBER                 Running object number                                     
#   2 MAG_AUTO               Kron-like elliptical aperture magnitude                    [mag]
#   3 X_IMAGE                Object position along x                                    [pixel]
#   4 Y_IMAGE                Object position along y                                    [pixel]
#   5 X_WORLD                Barycenter position along world x axis                     [deg]
#   6 Y_WORLD                Barycenter position along world y axis                     [deg]
#   7 A_WORLD                Profile RMS along major axis (world units)                 [deg]
#   8 B_WORLD                Profile RMS along minor axis (world units)                 [deg]
#   9 THETA_WORLD            Position angle (CCW/world-x)                               [deg]
#  10 FWHM_WORLD             FWHM assuming a gaussian core                              [deg]
#  11 ELONGATION             A_IMAGE/B_IMAGE                                           
#  12 ELLIPTICITY            1 - B_IMAGE/A_IMAGE                                       
         1 -13.2262    170.3723     55.4207   6.0362317459e+01   3.5325233199e+01     1.725447      1.16907  25.70   0.00503559    1.935    0.483
         2 -13.4520    184.9652     41.2799   5.3517182363e+01   3.3589301788e+01      1.07646     1.011114  22.20  0.003599185    1.180    0.153
         3 -13.9074    207.9277     10.2765   4.1854432593e+01   3.1421129448e+01     1.071093     1.043195  46.63  0.004069286    1.213    0.175
         4 -11.4847    191.0898     15.5367   4.5151181576e+01   3.5143044642e+01    0.4904534     0.287802  84.92  0.002275346    1.767    0.434
         5 -12.2888    240.5038      2.5736   3.7183378589e+01   2.4411535536e+01     1.129099    0.3425177  72.91  0.004530345    3.051    0.672
         6 -11.2332     59.5336      2.4272   6.8683892149e+01   6.7189368393e+01    0.4544821    0.1098168  48.88  0.001652556    4.070    0.754
         7  -9.5220     98.3704    214.6558   1.1268499777e+02   1.7661170547e+01    0.2151984    0.1791498  -8.75  0.001270115    1.984    0.496
         8 -13.4203    246.4737    239.7379   8.8418423920e+01  -1.0087032706e+01     1.551238    0.6754791 -26.06  0.008398266    2.472    0.595
         9 -19.4200     33.8207    146.2003   1.1904950292e+02   4.1073021587e+01       19.199     5.226766 -73.78   0.06807413    3.615    0.723
        10 -11.5216     65.4275    194.2378   1.1717766511e+02   2.6557409873e+01    0.3490103    0.2248176 -49.28  0.001294123    2.029    0.507
        11 -11.8321    149.4379    188.3880   9.8231787708e+01   1.3955256617e+01    0.4195349    0.2567059  51.59   0.00147901    1.591    0.372
        12  -9.5188    156.4718    189.4802   9.6919477810e+01   1.2425869973e+01    0.1398442    0.1261757  41.69 0.0001429911    1.004    0.004
        13 -10.9296    140.5125    187.9756   1.0008853611e+02   1.5697071142e+01    0.3012291     0.139567 -58.07  0.001215793    2.659    0.624
        14 -12.8624     75.1890    249.0132   1.2026053294e+02   1.4856121112e+01       0.3132    0.1555886 -62.73  0.001878934    2.338    0.572
        15  -7.8813     15.5615    187.4423   1.2673062754e+02   3.3681126253e+01     0.112411   0.08619021  85.25 0.0001242908    1.077    0.071
        16 -10.6240     71.5503    243.4604   1.2045971077e+02   1.6289428483e+01    0.2292665    0.1365049  87.10 0.0006860648    1.725    0.420
        17 -11.4595    150.9753    179.9165   9.6399269446e+01   1.5306650944e+01    0.4311882     0.296177 -74.62  0.002001361    2.079    0.519
        18 -11.6311    145.3580    180.4684   9.7731492091e+01   1.6272060310e+01    0.3555281    0.3042209  16.36   0.00105835    1.338    0.253
        19 -12.2774    141.8370    175.6617   9.7648323261e+01   1.7911688427e+01    0.6333276     0.457797 -88.96  0.002493677    1.915    0.478
        20 -10.7342    188.6471    176.3008   8.7711935047e+01   8.6056791169e+00    0.6093289    0.3857358 -58.38  0.002086894    2.255    0.557
        21 -11.7676     57.8578    214.3833   1.2059207574e+02   2.3452111765e+01    0.2414274    0.1579395  57.91  0.001002104    1.245    0.197
        22 -11.5507     70.4385    207.0980   1.1746397675e+02   2.3228422803e+01    0.4857594    0.2807744  26.00  0.001106375    2.560    0.609
        23  -8.5965    194.4911    172.4962   8.5755653081e+01   8.1242541487e+00    0.1425853    0.1311257  19.40 -4.960708e-05    1.018    0.017
        24 -12.8298     10.3706    206.4982   1.2884333181e+02   3.0304215153e+01    0.4479109    0.2249956  37.57   0.00282518    2.057    0.514
        25  -9.8592      1.8547    162.8477   1.2786833425e+02   4.0108323592e+01    0.1566066    0.1228071 -78.61 0.0004906812    1.209    0.173
        26 -11.6176     61.2978    204.1498   1.1900559389e+02   2.5051046040e+01    0.2150053    0.1748746  76.22 0.0005242061    1.048    0.046
        27 -10.9193     93.9051    156.9420   1.0564380944e+02   3.0630330557e+01    0.2673265    0.2393239 -71.05 0.0003520282    1.101    0.092
        28  -8.9857    149.3806    156.1509   9.2127073067e+01   2.0464338454e+01    0.2146206     0.141059 -60.30 0.0009454339    1.778    0.438
        29 -10.8953    192.7979    194.6725   9.0400983112e+01   4.6942120074e+00      0.87303    0.4519795 -62.09  0.002678109    5.988    0.833
        30 -10.2699    187.6718    152.0118   8.2778205474e+01   1.3254257418e+01    0.3505879    0.2570583 -82.97  0.001515567    2.279    0.561
        31 -10.9981    133.8168    145.6068   9.3594590095e+01   2.5905461279e+01     1.275685     0.320202 -54.65  0.003015237    5.929    0.831
        32 -12.1619     99.3993    150.4813   1.0314027058e+02   3.1211441342e+01    0.6073701    0.4905961 -25.40  0.003152992    1.650    0.394
        33 -10.0466    113.4565    151.4307   9.9801860817e+01   2.8511913203e+01    0.3322666     0.211107  78.89  0.001354987    2.368    0.578
        34  -9.8809    174.6740    149.1944   8.4922861057e+01   1.6569911603e+01    0.2596996    0.2181004  38.71 0.0007354695    1.158    0.136
        35  -9.2143     87.8826    202.4812   1.1341366351e+02   2.1652350044e+01    0.1790347    0.1695353  49.41 0.0007002591    1.290    0.225
        36 -10.3471     15.7449    201.2236   1.2756652364e+02   3.0836716533e+01    0.1187756   0.09677254  56.73 0.0004331504    1.315    0.239
        37  -9.2357    113.3966    142.2212   9.7983672485e+01   3.0634178476e+01    0.2062197    0.1389856 -66.28 0.0004998884    1.602    0.376
        38 -11.5446    109.4758    137.6227   9.8039761398e+01   3.2423243429e+01    0.6682824    0.3498212 -40.87  0.002652172    2.242    0.554
        39 -11.8071     98.2005    136.6259   1.0079500317e+02   3.4661196080e+01    0.3085188    0.2826297 -58.74 0.0006759317    1.093    0.085
        40 -11.0931    105.9402    130.8351   9.7524399046e+01   3.4653669437e+01    0.4055783    0.3265522 -66.89  0.001227824    1.238    0.193
        41  -9.9081    136.0000    129.1135   8.9323520122e+01   2.9120844411e+01    0.4224074    0.0877541 -46.99  0.001037746    4.812    0.792
        42 -10.0350    160.4938    127.4925   8.3005250450e+01   2.4118471687e+01     0.356975     0.236772 -55.57  0.001524438    1.694    0.410
        43 -10.3056    116.1796    128.4845   9.4281429818e+01   3.3277661871e+01    0.3084756    0.2786565   9.07 0.0007544951    1.293    0.227
        44 -10.5952    104.0602    124.1074   9.6539888692e+01   3.6572073728e+01    0.3171088    0.2609496 -18.49 0.0008742364    1.527    0.345
        45  -9.8617    120.5725    123.2035   9.1884800944e+01   3.3626221135e+01    0.2231951     0.141319 -38.34 0.0009455796    1.722    0.419
        46  -9.4692    152.1448    119.3112   8.2919210646e+01   2.7726536307e+01    0.2743036    0.2100746 -35.23 0.0006750154    1.350    0.259
        47  -9.5056    135.0000    119.9586   8.7335370377e+01   3.1365582498e+01    0.2607145   0.08822449 -46.08 0.0008008998    2.932    0.659
        48  -9.5242    110.9890    117.9848   9.3206933234e+01   3.6703509937e+01    0.2225375    0.2157866 -69.08 0.0003288958    1.011    0.011
        49  -9.7755    231.2559    113.7937   6.5473132820e+01   1.0703812120e+01    0.2487383    0.2311357  28.25 0.0007185023    1.135    0.119
        50  -9.8117    167.4985    112.4949   7.7557972280e+01   2.5598246655e+01    0.3515449    0.2419686 -79.86  0.001355242    2.366    0.577
        51 -11.2345    119.7043    110.8359   8.9032533545e+01   3.6610989721e+01    0.5378016    0.3466834  64.39  0.002148386    2.059    0.514
        52  -9.7352    205.4937    110.1777   6.9111899376e+01   1.7096768844e+01    0.3305521    0.2196029  42.45  0.001026094    1.580    0.367
        53 -10.3269    134.5457    104.7983   8.3470280939e+01   3.4785802250e+01    0.4751588    0.1531986 -42.69  0.001434678    3.090    0.676
        54  -9.8159    111.2966    103.9918   8.9559309388e+01   3.9841367639e+01    0.2206161    0.1974447 -46.57 0.0005902851    1.077    0.072
        55 -10.0131    186.2104     86.3260   6.6414013958e+01   2.6066986499e+01    0.3204019    0.2834994  77.27  0.001145238    1.212    0.175
        56  -9.5280     74.3277     73.8506   9.2401433032e+01   5.3046420477e+01    0.2086428    0.1919462  45.52 0.0004418915    1.242    0.195
        57  -8.9288     85.8107    240.0655   1.1764237536e+02   1.4905812011e+01    0.1319748    0.1152718  61.45 0.0003329257    1.218    0.179
        58  -9.0367    167.5131    229.0551   1.0098487664e+02   3.7488431170e+00    0.1579039     0.127107 -44.85 0.0005195924    1.517    0.341
        59 -12.6783    190.0580     35.1067   5.0930063740e+01   3.3086683456e+01    0.5850909    0.5602226 -22.12  0.001449442    1.143    0.125
        60  -9.8931    150.3149    196.3455   9.9385099423e+01   1.2293549627e+01    0.1360959    0.1062094   4.05 0.0005565741    1.716    0.417
        61 -11.9032    198.4339     23.2453   4.6426285304e+01   3.2386556407e+01    0.3892614    0.2848772 -31.68  0.001166344    1.420    0.296
        62 -11.5502     63.2819    221.4276   1.2016380314e+02   2.1386409501e+01    0.3961645    0.1887237  72.97  0.001530631    2.386    0.581
        63  -9.8226     82.6369    195.3105   1.1367248329e+02   2.3907349492e+01    0.2795528    0.1727159  77.88  0.001460555    1.764    0.433
        64  -9.7716     79.0245    193.9520   1.1427983750e+02   2.4719892374e+01    0.2498392    0.1739084  63.38 0.0005031177    1.286    0.222
