#   1 NUMBER                 Running object number                                     
#   2 MAG_AUTO               Kron-like elliptical aperture magnitude                    [mag]
#   3 X_IMAGE                Object position along x                                    [pixel]
#   4 Y_IMAGE                Object position along y                                    [pixel]
#   5 X_WORLD                Barycenter position along world x axis                     [deg]
#   6 Y_WORLD                Barycenter position along world y axis                     [deg]
#   7 A_WORLD                Profile RMS along major axis (world units)                 [deg]
#   8 B_WORLD                Profile RMS along minor axis (world units)                 [deg]
#   9 THETA_WORLD            Position angle (CCW/world-x)                               [deg]
#  10 FWHM_WORLD             FWHM assuming a gaussian core                              [deg]
#  11 ELONGATION             A_IMAGE/B_IMAGE                                           
#  12 ELLIPTICITY            1 - B_IMAGE/A_IMAGE                                       
         1 -13.6060    191.2881     15.9039   5.4405871989e+01   3.5253989151e+01     2.073862     1.029958 -63.21  0.007640104    2.756    0.637
         2 -14.3672    205.3257      5.5003   4.9577189313e+01   3.2586281129e+01     2.071514     1.417275  33.24  0.009846164    1.713    0.416
         3 -14.0544    170.4283     49.0453   6.8554099321e+01   3.6549382899e+01     1.869428      1.40416  17.14  0.005292059    1.599    0.374
         4 -14.2478    184.2402     34.5675   6.1456748787e+01   3.4934215948e+01     1.149871     1.019119   0.24  0.004029172    1.193    0.162
         5 -13.5184    188.8461     28.2800   5.8732559503e+01   3.4496462194e+01    0.6618724    0.6134379 -64.73  0.001150473    1.091    0.084
         6 -12.4892     51.2652      4.7234   8.2533050634e+01   6.8915391175e+01    0.3492934    0.2318302  47.49  0.001078879    1.862    0.463
         7  -9.5593     98.7357    213.2627   1.1814331852e+02   2.0683773432e+01    0.1314372    0.1125804  48.77 0.0003019997    1.281    0.220
         8 -15.7265     51.0103    232.1087   1.2753382396e+02   2.3802425164e+01    0.8119376    0.7455562 -16.59  0.006874639    2.173    0.540
         9 -18.5176     47.0526    244.4323   1.2880580586e+02   2.2386903050e+01     6.397329      5.02062  60.72   0.05783325    1.282    0.220
        10 -12.3349    193.1781    193.5038   9.8825943175e+01   8.3567356669e+00    0.7921825    0.4617595 -57.22  0.003975744    2.924    0.658
        11 -19.1281     25.9977    102.8172   1.2156515898e+02   5.1647757349e+01      15.4769    0.8428202 -69.87   0.02796712   14.996    0.933
        12 -10.0459    163.1021    203.6809   1.0561554069e+02   1.2101448434e+01    0.1679487    0.1266708  42.26 0.0003724077    1.095    0.087
        13 -11.7423    145.1089    179.1242   1.0534109549e+02   1.8968537801e+01     0.276547    0.1704395  41.75 0.0007184396    1.464    0.317
        14 -10.4983     93.8530    205.2575   1.1823354714e+02   2.2684344638e+01    0.2043612    0.1794084 -38.94 0.0009077364    1.749    0.428
        15  -9.4821    209.8327    175.9940   9.2956683508e+01   7.7127689086e+00    0.1833924    0.1454808 -67.02 0.0007544091    1.998    0.500
        16 -11.5935     71.6702    174.2629   1.1929585719e+02   3.1329600965e+01    0.4855885    0.1593721  54.02  0.001824838    3.073    0.675
        17  -9.9196    202.6758    171.0166   9.3289675310e+01   9.6976773238e+00    0.1733164    0.1585437   4.54 0.0005183588    1.112    0.101
        18 -11.9487    195.3205    168.7839   9.4184588845e+01   1.1386225329e+01    0.3614538    0.3228743  58.39 0.0005699944    1.260    0.207
        19 -10.6072    192.4899    162.9789   9.3608975957e+01   1.2774994119e+01    0.3338167    0.1682676 -31.83  0.001344569    2.297    0.565
        20 -11.1355    203.9127    198.5712   9.7808654673e+01   5.8702343551e+00    0.2189438    0.1639794 -57.84  0.001352205    2.044    0.511
        21 -10.2963    162.8467    168.5317   1.0019056986e+02   1.7519618790e+01    0.2708537    0.1977949  73.33  0.001043623    1.755    0.430
        22 -10.9312    229.6229    165.7908   8.7715347313e+01   5.4386983324e+00    0.1712369    0.1125736 -38.05 0.0009481662    1.739    0.425
        23 -11.5182    141.6185    170.1285   1.0461109202e+02   2.1118600686e+01    0.3476651    0.2242423  78.62  0.001342826    2.314    0.568
        24  -9.0710    222.6720    162.2867   8.8186110226e+01   7.1611065037e+00    0.1156296    0.1036079  84.21 0.0003087845    1.612    0.380
        25 -10.8139      5.3827    161.6359   1.3154335561e+02   4.0907740558e+01    0.2217565    0.1530809  27.21   0.00162857    1.993    0.498
        26 -10.9499    189.6820    155.3370   9.2645176041e+01   1.4480755815e+01    0.3275594    0.3143022  35.84  0.002083504    1.094    0.086
        27 -11.0463    164.6618    152.6799   9.6936518711e+01   1.9834464573e+01    0.2671701    0.2285132  71.96  0.001556656    1.288    0.224
        28 -11.9887    133.3998    144.6732   1.0189833072e+02   2.7297288222e+01     1.141546    0.4387867 -59.04  0.003972845    3.691    0.729
        29 -10.9124    208.8466    197.1836   9.6760039994e+01   5.2039708774e+00    0.1702634    0.1489208  41.91 0.0004948379    1.217    0.179
        30 -11.1295    108.0650    150.3448   1.0842199859e+02   3.0649066307e+01    0.3464524    0.2229131 -29.51  0.001585673    2.825    0.646
        31 -12.2263    147.1453    148.2977   9.9663702580e+01   2.4012634001e+01    0.7900136    0.4291098  72.63  0.002639142    4.323    0.769
        32 -11.9317    135.8896    209.0959   1.1113397890e+02   1.5745776105e+01    0.2457936    0.1621831 -72.62  0.001221513    1.991    0.498
        33 -10.8275     99.5759    192.0225   1.1578863088e+02   2.4124324035e+01    0.2362287    0.1545295  65.94  0.000392756    1.411    0.291
        34 -10.5020    174.5501    149.0490   9.4274796734e+01   1.8494264304e+01    0.2534462    0.2218276  53.03 0.0007904019    1.120    0.107
        35 -10.7842     88.7134    203.6618   1.1900536024e+02   2.3672186621e+01    0.3513364    0.1816719  60.38  0.002041299    1.754    0.430
        36 -12.2363    109.6981    139.5661   1.0623080488e+02   3.2560932360e+01    0.4968321    0.3237671 -35.59  0.002425126    2.157    0.536
        37 -12.5092     98.6033    139.5261   1.0876898896e+02   3.4412842658e+01    0.2506306    0.2304557  60.93 0.0002958612    1.138    0.121
        38 -11.4956    105.8251    130.8330   1.0553793698e+02   3.5037317990e+01    0.3664061    0.2901045 -77.54  0.001237632    1.261    0.207
        39 -11.5214    104.1956    126.2815   1.0506137761e+02   3.6276940217e+01    0.2841484     0.246544 -41.75  0.001318511    1.329    0.248
        40 -11.0023    116.3734    129.9887   1.0290003186e+02   3.3362109144e+01    0.3041724    0.2378026 -38.54 0.0007933716    1.497    0.332
        41 -11.4503    135.6918    127.6203   9.7984840594e+01   3.0197745420e+01    0.5223122    0.1793093 -51.08  0.001815864    3.136    0.681
        42 -10.6814    120.6754    124.2919   1.0073689396e+02   3.3749927617e+01    0.2643412     0.162586 -32.11  0.001152592    2.317    0.568
        43 -11.0398    160.1982    127.4673   9.2612190549e+01   2.5235470929e+01    0.3900791     0.285037 -60.46  0.001379293    1.593    0.372
        44 -10.2237    111.2006    119.0894   1.0191209699e+02   3.6574599490e+01    0.2217389    0.1906895  54.17  0.000324839    1.164    0.141
        45 -10.5260    167.9970    112.8324   8.7538021478e+01   2.6233115332e+01     0.354883    0.2687049 -82.56  0.001244262    1.830    0.454
        46  -9.1907     83.5087    111.5066   1.0736741570e+02   4.2838473639e+01    0.1346779     0.120133 -78.68 4.914725e-05    1.012    0.012
        47 -10.4884    205.5206    110.1625   7.9640330774e+01   1.8264654924e+01    0.3158837    0.2000676  41.93 0.0008931824    1.583    0.368
        48 -11.1763    118.2082    110.1113   9.8207839747e+01   3.7169399011e+01    0.3443471    0.1817197  55.42  0.001444819    2.128    0.530
        49  -9.8785    134.5069    105.0290   9.3039865830e+01   3.4967497049e+01    0.2295843    0.1419864 -46.11   0.00103635    1.601    0.375
        50  -9.4511     75.5562    103.2791   1.0784249866e+02   4.5852250720e+01     0.192926    0.1122418 -50.40 0.0009486484    1.656    0.396
        51  -9.2285    137.3484    101.6645   9.1515312382e+01   3.5046441950e+01    0.1552495    0.1160022 -85.96 0.0007047713    1.779    0.438
        52 -11.1777     41.4971     91.8067   1.1539395553e+02   5.2666944661e+01    0.2253447    0.1957939 -78.43 0.0004388851    1.069    0.065
        53  -9.5027     52.6790     90.6974   1.1184573933e+02   5.1686960534e+01    0.1262026   0.09049985 -38.80 0.0003098415    1.630    0.387
        54  -9.4219    151.7663     80.0056   8.2174896572e+01   3.5994914491e+01    0.1994059    0.1252911 -37.72  0.000362737    1.562    0.360
        55 -12.7163    171.4557     70.6545   7.5202120413e+01   3.2868173293e+01    0.8495595    0.5008137 -76.86  0.002755906    3.645    0.726
        56  -8.9708    168.2983    248.2798   1.1025197049e+02   5.6623971461e+00    0.0996827   0.06696556  27.56 0.0001652671    1.540    0.351
        57  -9.4694    169.3546    237.1440   1.0883007227e+02   6.7788026169e+00    0.1174327    0.1013818 -74.76 0.0003681392    1.606    0.377
        58 -12.4943    155.5273    198.7753   1.0627926917e+02   1.4082652304e+01    0.5768811    0.3165621 -67.29  0.002759009    3.218    0.689
        59  -9.8414    166.2144    188.2057   1.0278335072e+02   1.3823157554e+01    0.1711129     0.136828  64.62  0.001073695    1.355    0.262
        60 -10.1247    199.0368    222.7837   1.0221507976e+02   3.8232399817e+00    0.1607391    0.1241178  45.56 0.0003996076    1.222    0.182
        61 -10.5921    152.9701    186.2862   1.0493735604e+02   1.6434080375e+01    0.1836822    0.1450316  46.43 0.0007220427    1.082    0.076
