#   1 NUMBER                 Running object number                                     
#   2 MAG_AUTO               Kron-like elliptical aperture magnitude                    [mag]
#   3 X_IMAGE                Object position along x                                    [pixel]
#   4 Y_IMAGE                Object position along y                                    [pixel]
#   5 X_WORLD                Barycenter position along world x axis                     [deg]
#   6 Y_WORLD                Barycenter position along world y axis                     [deg]
#   7 A_WORLD                Profile RMS along major axis (world units)                 [deg]
#   8 B_WORLD                Profile RMS along minor axis (world units)                 [deg]
#   9 THETA_WORLD            Position angle (CCW/world-x)                               [deg]
#  10 FWHM_WORLD             FWHM assuming a gaussian core                              [deg]
#  11 ELONGATION             A_IMAGE/B_IMAGE                                           
#  12 ELLIPTICITY            1 - B_IMAGE/A_IMAGE                                       
         1 -11.5796      2.0241     22.8823   1.0428485952e+02   7.4115621109e+01     0.520913    0.1806057 -64.82  0.001878555    2.390    0.582
         2 -10.9067     13.6249     15.7230   9.2301969877e+01   7.4832583086e+01    0.3227262    0.2726023 -62.96  0.001424606    1.338    0.252
         3 -10.6780     15.5484      8.4963   8.6660633022e+01   7.6050594680e+01    0.3476522    0.1850521 -21.00  0.001219543    2.360    0.576
         4 -11.5998    234.8029     14.9836   3.4065116841e+01   2.5724123547e+01    0.2311781    0.1844733 -44.49 0.0002886111    1.047    0.044
         5 -11.4133     20.2262      2.2796   7.8692170353e+01   7.6582504139e+01     0.516339     0.260569  46.67  0.002456001    2.771    0.639
         6 -11.5636     34.7089     12.6467   7.5731952518e+01   7.2804399539e+01    0.3572751    0.2948641 -38.68 0.0009118907    1.237    0.192
         7 -12.4449     31.3622      7.6091   7.4552121274e+01   7.4139948399e+01     1.083598     0.451457  40.85  0.004878334    2.511    0.602
         8 -11.3520     65.9602     13.8610   6.0915822521e+01   6.6832807602e+01    0.3854444    0.3294436  61.51 0.0007164451    1.305    0.234
         9 -10.1890    221.9975     13.9873   3.4648931743e+01   2.8542127929e+01    0.1560415     0.127749 -50.28 0.0003778351    1.011    0.011
        10  -9.9066     45.7192     10.0082   6.7750960510e+01   7.1371154515e+01    0.2085892    0.1636205  15.31 0.0002441539    1.266    0.210
        11 -10.8232    135.0580     11.3992   4.2619296747e+01   5.0140846028e+01    0.2436306    0.2229862  23.16  0.001405033    1.203    0.169
        12 -10.0293     85.9351     11.8482   5.3089013992e+01   6.2561426400e+01    0.2400214    0.1940364 -16.44  0.001138644    1.271    0.213
        13 -10.8620    125.6632     10.4476   4.3726094867e+01   5.2689970200e+01    0.4182619    0.1988006 -45.20  0.001070218    2.209    0.547
        14 -10.6037     22.1801      9.5558   8.2230144947e+01   7.5086993263e+01    0.3485178    0.2117757   8.60  0.001802916    2.023    0.506
        15 -10.6731     56.9347      8.1937   6.1239656409e+01   6.9455335383e+01    0.3178288    0.2305622 -47.27 0.0007916948    1.647    0.393
        16 -11.3868     57.6507      2.5389   5.7319005184e+01   6.9986113877e+01    0.4273832    0.2745194  17.60 0.0008765404    1.770    0.435
        17 -11.1939    188.4317      6.6480   3.5123228234e+01   3.7009618377e+01    0.3302481    0.1611653  42.89  0.001391055    2.831    0.647
        18 -11.2317    151.2008      6.2155   3.8568551212e+01   4.6431848657e+01    0.2391782    0.2098086 -51.49 0.0002572881    1.104    0.094
        19  -9.5045      8.4579      5.4894   9.0763895069e+01   7.7314501965e+01     0.152833    0.1113634  29.50 0.0001034144    1.565    0.361
        20  -9.9077     70.5067      6.7009   5.5091708737e+01   6.6720551239e+01    0.2795335    0.1941581 -30.49   0.00148846    1.467    0.318
        21  -9.1810     93.2493      6.6782   4.8512184684e+01   6.1339130649e+01    0.1355365    0.1012514 -54.77 0.0002409295    1.533    0.348
        22 -10.4752     65.7015      6.5789   5.6731052233e+01   6.7799073533e+01    0.2736557    0.1144805  51.46  0.001152626    2.199    0.545
        23  -9.7004      2.7764      6.5547   9.6525490381e+01   7.7554115284e+01    0.2041161    0.1127421   7.76 0.0007471144    1.993    0.498
        24 -10.2690    168.2628      3.7146   3.5959470569e+01   4.2284959501e+01    0.2037651     0.116475  -2.06 0.0008998776    2.387    0.581
        25  -9.8570    120.0661      4.0562   4.1981614091e+01   5.4752427950e+01     0.216934      0.20084  83.13   0.00128173    1.035    0.034
        26  -9.8933    129.9851      3.2595   4.0160939565e+01   5.2234643436e+01    0.1815288    0.1140695  73.69 0.0004897491    1.506    0.336
        27 -10.0454    204.3020      7.0100   3.4037312189e+01   3.3217571356e+01    0.1828613    0.1466308 -44.64 0.0002806066    1.100    0.091
        28  -9.8998    242.5134      2.4483   3.0692788419e+01   2.5407782899e+01    0.1204427   0.09438928 -50.43 0.0001148947    1.010    0.010
        29  -9.9802    176.3426      2.3740   3.4828101442e+01   4.0378732858e+01    0.2025508    0.1481246  40.23  0.001093494    1.653    0.395
        30 -10.3714    101.8142      1.8157   4.4236714819e+01   5.9645761767e+01    0.3852718     0.163482  59.57  0.001072155    2.055    0.513
        31 -11.2783     80.3224      1.6357   4.9168687383e+01   6.4964608810e+01      0.32122    0.1717405  61.30 0.0006503553    1.759    0.432
        32 -11.0153     11.8213      1.9062   8.5398056528e+01   7.7646480197e+01     0.190227     0.165431  18.88 0.0004430461    1.283    0.220
        33  -9.4694      1.3904      2.2176   9.5344792482e+01   7.8510017688e+01     0.158472    0.1055282 -64.36 0.0009415752    1.653    0.395
        34  -9.2000     67.2505      1.2966   5.2960807992e+01   6.8026738313e+01    0.1325979   0.09227997  23.68 0.0002887991    1.489    0.329
        35 -11.0791     13.6714    192.4127   1.1979873485e+02   3.2135484967e+01    0.2700189    0.1196314  52.71  0.001018689    1.779    0.438
        36 -12.3454     18.0162    248.9263   1.2098498516e+02   2.1104739446e+01    0.4566163    0.2305962  22.68  0.002806136    2.262    0.558
        37 -12.1085      9.2960    245.2168   1.2247445919e+02   2.2513405344e+01    0.3402423    0.2382136  28.61  0.002605057    1.514    0.340
        38 -12.4229      4.8622    240.7833   1.2317802736e+02   2.3655913107e+01    0.4597047    0.2779458  32.13  0.003314266    1.525    0.344
        39 -10.5930      1.4910    191.4709   1.2250366499e+02   3.3340776209e+01    0.2583986    0.1043387  80.46  0.001145481    2.217    0.549
        40 -10.9821      6.0212    191.9492   1.2150668886e+02   3.2878178772e+01    0.1834303    0.1393414  64.62  0.001286902    1.009    0.009
        41  -9.2368     15.0000    183.9845   1.1910661921e+02   3.3823008272e+01    0.1773179   0.06003239 -81.44 0.0003749086    2.775    0.640
        42  -9.6951     22.3142    180.0181   1.1714532512e+02   3.4038230119e+01    0.1705297    0.1342508  74.20 0.0004495192    1.072    0.067
        43  -9.4737     13.3582    180.6806   1.1933854516e+02   3.4686014932e+01    0.1360428    0.0641111  57.16 0.0004913711    1.761    0.432
        44 -11.0789      5.3067    167.5159   1.2070602547e+02   3.8280082892e+01    0.3168771    0.1440852  64.36  0.001621849    1.891    0.471
        45  -9.7121    226.4584    163.9951   6.9171047715e+01   7.1396540482e+00       0.1834     0.105198 -29.39 0.0009887223    1.553    0.356
        46 -11.0296      3.5022    153.5125   1.2053370413e+02   4.1659279503e+01    0.3562877    0.1142545  21.59  0.001508556    3.337    0.700
        47 -10.5617     15.9759    150.4807   1.1695223152e+02   4.1433751069e+01     0.175996    0.1197715  29.94 0.0005315883    1.551    0.355
        48 -10.6545     23.1979    146.7041   1.1463369521e+02   4.1736557576e+01    0.2325457    0.1407304 -50.53  0.001205724    1.911    0.477
        49 -10.1459    212.5356    133.9342   6.5323391534e+01   1.3808374501e+01    0.2121345    0.1907482  68.42  0.000724912    1.499    0.333
        50 -10.6630      2.9709    133.4559   1.1963001023e+02   4.6540887658e+01    0.3509525    0.1535672  54.35  0.001676069    2.092    0.522
        51  -9.1855     96.2945    133.6997   9.1368458029e+01   3.5509069295e+01    0.1483645    0.1109826  73.37 0.0004002655    1.571    0.363
        52 -10.7114     12.1153    129.8521   1.1660512162e+02   4.6814556594e+01    0.2110673    0.1483116  68.69 0.0009405677    1.273    0.215
        53 -10.0322     28.5355    128.0619   1.1127035789e+02   4.5916354736e+01    0.1981498    0.1189803 -77.99 0.0003599547    1.493    0.330
        54  -9.3295     48.3378    127.7260   1.0489867341e+02   4.3930099081e+01    0.1466325   0.09494348  62.24 0.0001957648    1.608    0.378
        55 -11.4350     24.0012    121.5624   1.1203807776e+02   4.7981590946e+01     0.375868    0.2164715  62.24    0.0017478    1.754    0.430
        56 -11.4820      8.3417    121.3511   1.1714672484e+02   4.9220259675e+01    0.2859697    0.1962262  63.80  0.000923836    1.346    0.257
        57 -10.3007     69.0535    117.0213   9.6383469970e+01   4.3926998466e+01    0.2226082    0.2040356 -77.61 0.0003225078    1.028    0.027
        58  -8.9371     95.7072    113.2886   8.7173162620e+01   4.0485137560e+01    0.1501851    0.1162514  77.99 0.0002123052    1.546    0.353
        59  -9.1694    139.2499    112.0432   7.4931850066e+01   3.2185740552e+01     0.188747    0.1270719 -42.57 0.0002147876    1.460    0.315
        60 -10.2727     65.2512    110.2646   9.6301418660e+01   4.6192626237e+01    0.2756869    0.2144636  75.07 0.0006561719    1.394    0.282
        61 -11.5304      2.8340    109.2891   1.1806157065e+02   5.2621072884e+01     0.380684    0.2224242  66.33  0.002014091    1.628    0.386
        62 -10.3014      6.6141    107.1832   1.1656587822e+02   5.2942296995e+01    0.1969162    0.1458931 -80.91 0.0004764332    1.136    0.119
        63 -10.9040      4.1798    104.4092   1.1719283743e+02   5.3793676360e+01    0.2860991    0.1911263  36.16  0.001442795    1.602    0.376
        64 -11.7406     57.6621    106.4869   9.8159732228e+01   4.8213949386e+01    0.5179061    0.3171929 -58.57  0.001358689    1.511    0.338
        65  -9.7073     28.6997    106.0034   1.0848523293e+02   5.1596186656e+01    0.1900126    0.1511234 -73.10            0    1.113    0.101
        66 -10.4828     17.2172    104.6299   1.1249426677e+02   5.2896070523e+01    0.1653825    0.1279517  -6.43 0.0003738185    1.645    0.392
        67  -9.9464    186.8046    103.0767   6.2559957230e+01   2.3814814122e+01    0.2137932    0.1857865 -52.82  0.000556065    1.207    0.172
        68 -10.1450     19.8186     99.9462   1.1095193446e+02   5.3917354503e+01    0.2300567    0.1743657 -19.62  0.001280147    1.653    0.395
        69  -9.8315    100.4690     96.2271   8.1392225140e+01   4.3624235738e+01    0.3709369    0.1468772 -58.23  0.001142599    3.254    0.693
        70 -10.0459     56.0528     97.2234   9.6807756629e+01   5.0806256488e+01    0.2186351    0.1873045 -40.09 0.0005543872    1.242    0.195
        71 -10.3160     10.5554     96.4567   1.1405036481e+02   5.5467411576e+01    0.2518978    0.1330659 -46.93 0.0009353004    1.966    0.491
        72 -10.6540     11.0089     92.2505   1.1338718241e+02   5.6527834449e+01    0.3062799    0.1397318  81.99  0.001155619    2.439    0.590
        73 -10.2797      3.3059     95.6546   1.1673567187e+02   5.6087334461e+01    0.2454105    0.1928365 -63.44  0.000778124    1.189    0.159
        74 -10.2801     28.2815     92.4802   1.0656835022e+02   5.5158399641e+01    0.3558272    0.1764911  16.10  0.001550926    2.498    0.600
        75 -12.2063     20.7221     92.8529   1.0962460117e+02   5.5693635668e+01    0.3610812    0.3011302 -64.30 0.0004963474    1.103    0.093
        76 -10.8663     24.4646     88.0113   1.0736116582e+02   5.6651411312e+01    0.4076192      0.23615 -60.18  0.001118112    1.496    0.332
        77 -10.1741     19.1649     87.1751   1.0940456108e+02   5.7287452756e+01    0.3042487    0.1637591 -84.27   0.00141227    1.809    0.447
        78 -12.0187    125.2315     93.3159   7.3461318866e+01   3.9132697858e+01    0.2707549    0.2650876 -66.72 0.0002154868    1.017    0.016
        79 -10.3882     78.5723     93.8397   8.7909372180e+01   4.8215064399e+01    0.2574455    0.2079482  40.92 0.0007456932    1.289    0.224
        80 -11.7751     58.0236     91.5563   9.4781414536e+01   5.1980047012e+01    0.3138785    0.2802182 -31.09 0.0004008861    1.224    0.183
        81 -12.4114     55.4056     85.7579   9.4380609930e+01   5.3810004343e+01    0.2991038    0.2719348  70.19 0.0002558157    1.155    0.134
        82  -9.8404      6.9563     91.5478   1.1490586814e+02   5.6948592482e+01     0.221904    0.1458949 -65.97 0.0005480414    1.306    0.234
        83 -11.1446     10.5352     85.4854   1.1273276409e+02   5.8306503280e+01    0.3229351    0.2144098  49.88  0.001764624    1.615    0.381
        84 -10.5183     43.8487     90.0020   9.9917698826e+01   5.4196567657e+01    0.4553045    0.2822748  88.41  0.001108612    1.982    0.495
        85  -9.7544    124.0468     86.4853   7.1778506988e+01   4.0831623520e+01    0.2344476    0.1537249  47.91 0.0007017857    1.564    0.361
        86  -9.3856     72.3311     85.6831   8.7935076762e+01   5.1255631509e+01    0.1541328     0.115688  77.64 0.0005185756    1.686    0.407
        87  -9.1813    145.9981     83.2861   6.5397802286e+01   3.6477794925e+01    0.1796785    0.1378775  52.70 0.0003781375    1.350    0.259
        88  -9.0442     84.7442     88.2765   8.4273308747e+01   4.8469529468e+01    0.1442083    0.1168739  87.23            0    1.463    0.317
        89 -10.1136     89.1536     80.2759   8.0408169441e+01   4.9509612842e+01    0.4244824    0.2669789  79.63  0.001493231    3.147    0.682
        90 -10.4179     64.0664     80.7820   8.9683437313e+01   5.3779591227e+01    0.2959419     0.202467 -50.39 0.0008625431    1.371    0.271
        91  -9.6005    124.4423     79.3164   6.9478260518e+01   4.2217953045e+01    0.2036389    0.1446127 -52.43 0.0006391167    1.444    0.307
        92  -9.3530     47.9977     79.0080   9.5674471115e+01   5.6493497749e+01    0.1692067    0.1524545 -61.92  0.000344222    1.014    0.013
        93 -10.7609     27.5447     77.3376   1.0407967261e+02   5.9142089631e+01    0.3940125    0.2269366 -16.94 0.0005893834    2.506    0.601
        94  -9.9318     22.3002     76.6803   1.0627157445e+02   5.9756622996e+01    0.2628347    0.1471881  62.93 0.0002662476    2.244    0.554
        95 -10.7651      8.6883     77.9107   1.1249675767e+02   6.0365132098e+01    0.4529122    0.1185229  38.27  0.001628442    3.887    0.743
        96 -10.0956    176.6898     76.9271   5.7375390388e+01   3.0484720252e+01    0.2151612    0.1865875 -40.78  0.001133492    1.073    0.068
        97 -10.5981     55.3006     75.8635   9.1805566512e+01   5.6291579525e+01    0.3497234    0.3141826  13.99  0.001236537    1.239    0.193
        98  -9.7591     40.6979     74.7168   9.7701789908e+01   5.8460332751e+01    0.2054931    0.1863124  -9.57 0.0005637711    1.233    0.189
        99 -10.8794     37.0429     75.0008   9.9373783824e+01   5.8797493272e+01    0.4852086    0.2487237 -63.46  0.001045974    1.739    0.425
       100 -10.1177     33.4783     73.4580   1.0059034534e+02   5.9562962497e+01    0.2366616    0.1725499  21.15  0.001259359    1.557    0.358
       101 -11.2778     15.4092     75.4575   1.0913287403e+02   6.0579937715e+01    0.3883398    0.2283655  31.80  0.001989032    1.871    0.466
       102 -10.2615     20.5257     72.4740   1.0626373852e+02   6.0973463574e+01    0.3494413    0.1250972 -62.31  0.001029162    2.205    0.546
       103  -9.5229    217.0061     72.0437   4.9999515935e+01   2.2369499579e+01    0.1661731    0.1333083 -35.06 0.0003558195    1.080    0.074
       104 -11.0869    106.5707     71.5136   7.1994362195e+01   4.7820372120e+01    0.3739317     0.311129  84.65  0.001649427    1.433    0.302
       105  -9.4028     93.4700     72.4848   7.6463103908e+01   5.0393751543e+01    0.3406988    0.1298925  57.79 0.0008104168    5.909    0.831
       106 -11.1071     10.2719     69.5573   1.1050362477e+02   6.2411388943e+01    0.3440484    0.1988235 -70.86  0.001219895    1.451    0.311
       107 -10.8304      5.6888     69.0198   1.1257378912e+02   6.2795274085e+01    0.3633455    0.1807961  55.97  0.001395509    2.408    0.585
       108 -10.5592      1.4579     66.4791   1.1421350954e+02   6.3632929201e+01    0.2351674    0.1343658 -71.26 5.479869e-05    1.425    0.298
       109 -10.2300     45.9827     69.4973   9.3982653137e+01   5.9117374688e+01    0.2607872    0.1887261  10.21  0.001010769    1.691    0.409
       110 -10.2314     80.6065     67.1528   7.9143048914e+01   5.4110262666e+01    0.2234506    0.1346875 -37.92  0.000948642    1.731    0.422
       111 -11.2005     15.1780     64.2156   1.0716296658e+02   6.3456893007e+01    0.4488749    0.3069084 -85.88  0.001399289    1.462    0.316
       112  -9.0383    166.5813     65.5203   5.5849140006e+01   3.4745622103e+01    0.1499464    0.1373196 -50.85 0.0001323368    1.038    0.037
       113  -9.8214     97.0952     64.1129   7.2391154698e+01   5.1408577831e+01    0.2224688    0.2038823   3.91 0.0002848258    1.193    0.162
       114 -10.4536     62.7505     62.2468   8.4442499214e+01   5.8391438747e+01    0.3002144    0.1813193 -44.97 0.0009551164    1.570    0.363
       115 -10.5400      5.8134     62.9852   1.1156345663e+02   6.4315797004e+01    0.3826983    0.1174222  32.19   0.00151987    3.391    0.705
       116 -10.3738      1.4124     59.9749   1.1328529583e+02   6.5271081078e+01    0.2310086    0.1008787 -69.68 0.0003665032    1.817    0.450
       117 -10.7898      4.8923     57.5063   1.1108786615e+02   6.5733786364e+01    0.2090698     0.173904 -40.81  0.000810592    1.201    0.168
       118 -10.4182     41.3984     58.7861   9.2878616415e+01   6.2291428416e+01    0.2366257    0.1936524 -17.21 0.0003967264    1.349    0.259
       119 -13.2892     20.4081     58.1645   1.0317699226e+02   6.4584422752e+01    0.4080016    0.2751567 -73.92 0.0009740845    1.409    0.290
       120 -10.8078     83.5307     56.5163   7.4221321115e+01   5.5806324022e+01    0.4584541    0.3018655 -71.86  0.001862737    2.385    0.581
       121 -11.4907     86.7418     54.0331   7.2121899104e+01   5.5645808604e+01    0.4876172    0.3665637  15.56  0.001481056    1.700    0.412
       122 -10.8128     10.4969     58.2725   1.0832342269e+02   6.5243938929e+01    0.3154597    0.3066496  13.46  0.002121332    1.200    0.167
       123  -9.7798     48.1543     58.3874   8.9561196092e+01   6.1497892318e+01    0.1862543    0.1294836  45.22 0.0004475723    1.616    0.381
       124  -9.6800     71.6065     56.7263   7.8824892414e+01   5.8072496518e+01    0.2025224    0.1359966 -56.24 0.0008669164    1.570    0.363
       125 -10.9330     33.0296     55.7293   9.6047146637e+01   6.3995766626e+01    0.4652962    0.1924255 -41.87  0.001506291    2.523    0.604
       126 -10.6442    104.9163     55.9390   6.6967906340e+01   5.1282612123e+01    0.2223837    0.2200097 -25.68 0.0003096701    1.013    0.013
       127 -10.3733     96.4284     55.7687   6.9534398205e+01   5.3222582609e+01    0.2727833    0.2385966  19.78 0.0005832195    1.258    0.205
       128 -12.9570     66.5879     52.6928   7.9322726036e+01   5.9844410808e+01    0.4384412    0.2927228  41.21 0.0008594563    1.573    0.364
       129 -11.1273    114.7345     53.7721   6.3369836457e+01   4.9383586619e+01    0.3251376    0.3111508 -74.26 0.0007818965    1.068    0.064
       130  -9.8425    149.4969     52.3278   5.4866413741e+01   4.1059954002e+01      0.25362    0.1382991  59.79 0.0006793738    1.867    0.464
       131  -9.8629    121.7999     51.4079   6.0657148415e+01   4.8090572940e+01    0.2496285    0.1951826 -46.28 0.0004898662    1.274    0.215
       132 -10.0334    106.0000     51.3805   6.4917807349e+01   5.1873712735e+01    0.3368058   0.08494063 -37.47 0.0009317888    3.911    0.744
       133 -10.1905      4.3906     50.7623   1.1008336331e+02   6.7427582409e+01    0.2811184    0.1260122 -39.69  0.001078542    2.179    0.541
       134 -11.6599     10.3090     47.4175   1.0600136591e+02   6.7926974814e+01    0.5143894    0.3864624  48.87  0.003037389    1.578    0.366
       135 -10.3513     76.3082     49.6676   7.4216893391e+01   5.8640366457e+01    0.2664731    0.1855846 -49.29 0.0005278765    1.445    0.308
       136 -11.3918     78.7263     46.0181   7.1789298382e+01   5.8870262672e+01    0.4047833    0.2945501  43.81  0.000646236    1.410    0.291
       137 -10.2088     37.4926     48.7012   9.1430194019e+01   6.5135865948e+01    0.3599439    0.1784613  25.47  0.001582966    2.287    0.563
       138  -9.9528    101.9505     48.2560   6.4895010468e+01   5.3375250687e+01    0.2038476    0.1902118  48.55  0.000424537    1.084    0.077
       139  -9.7446     52.8182     48.5503   8.3791567385e+01   6.3038651501e+01    0.2620321    0.1412648  29.73  0.001138812    2.098    0.523
       140  -9.5703    154.5220     47.4982   5.2323881582e+01   4.0541109160e+01    0.2345542    0.1952789 -24.29 0.0005323112    1.248    0.199
       141  -9.9487    152.1964     44.7660   5.1828786704e+01   4.1532345744e+01    0.2152964    0.1835658 -66.25 0.0002471649    1.189    0.159
       142  -9.6950     26.7673     56.4499   9.9453925239e+01   6.4453750102e+01    0.1773407    0.1274487  -7.14 0.0009381917    1.660    0.398
       143  -9.7629    135.9342     46.4939   5.5607211078e+01   4.5381356655e+01     0.222974    0.1483941  62.45 0.0008776769    1.531    0.347
       144  -9.5820     31.0022     45.9954   9.3923626696e+01   6.6510818367e+01    0.2037666    0.1606331  77.33 0.0005379691    1.660    0.398
       145 -10.5092     25.5834     43.9519   9.6231657544e+01   6.7545437030e+01    0.3170831    0.2094289  89.58  0.001529022    2.176    0.540
       146 -11.3580     16.2117     43.3870   1.0147348183e+02   6.8491904246e+01    0.5851945    0.3545787  57.87  0.002866162    2.300    0.565
       147  -9.3380    143.5332     44.4942   5.3355168528e+01   4.3766770458e+01    0.1465149    0.1444407 -60.01  3.36981e-05    1.037    0.036
       148 -10.4080     69.1339     42.1419   7.3896471416e+01   6.1516972746e+01    0.2327372    0.2113747  52.33 0.0006481775    1.200    0.167
       149 -10.8308     59.5977     41.6812   7.7805935262e+01   6.3357885487e+01      0.24423    0.2268272  56.82 0.0007190394    1.225    0.183
       150 -10.3595     36.0897     41.3570   8.9410448350e+01   6.6965432310e+01    0.4008984    0.1763813 -53.26  0.001487491    2.043    0.510
       151 -12.4198     39.7927     32.4738   8.3531673869e+01   6.8361525227e+01    0.4330491    0.3088393 -36.22 0.0005166565    1.300    0.231
       152 -11.2293     44.5989     27.2371   7.8332477778e+01   6.8667215434e+01    0.4435247     0.319758 -26.48  0.001733596    1.376    0.273
       153 -10.6632      5.1736     40.1325   1.0723443929e+02   6.9964795520e+01    0.4165239    0.1041829 -51.93  0.001333945    2.786    0.641
       154 -11.0934      2.6215     35.1591   1.0757081793e+02   7.1266262597e+01    0.3464698    0.2358324  66.05  0.001951443    1.871    0.465
       155 -10.5566      7.4781     34.0477   1.0407683879e+02   7.1271125558e+01     0.281068    0.1868273  20.13 0.0009790482    1.703    0.413
       156 -10.1538    140.4055     40.7441   5.2640867508e+01   4.5116577372e+01     0.327137    0.2225599 -67.75  0.001333658    1.767    0.434
       157 -10.1611     43.1985     40.1141   8.5102923487e+01   6.6287303539e+01    0.2244749    0.2030952  24.83  0.001341881    1.182    0.154
       158  -9.9643    152.1812     39.1806   4.9938979636e+01   4.2336247014e+01    0.2082036    0.1640752 -62.73 0.0004799838    1.308    0.235
       159 -10.2990    128.0685     38.6143   5.4400828890e+01   4.8567208826e+01    0.2296043    0.1946259 -48.88 0.0004664875    1.180    0.152
       160 -11.7648    121.4328     37.2036   5.5346524513e+01   5.0451900131e+01    0.4182551    0.3999673 -42.28  0.001265848    1.045    0.043
       161 -10.4709     96.9649     37.9577   6.2152564515e+01   5.6296150616e+01    0.2164582    0.2084412  -4.80            0    1.038    0.036
       162 -10.3615     22.1735     37.9699   9.6118667898e+01   6.9246755574e+01    0.1897789    0.1722672 -83.64 0.0005904846    1.264    0.209
       163 -10.6895     27.0892     34.8257   9.1934763686e+01   6.9453278994e+01     0.315591    0.1931814 -24.92 0.0009931572    1.869    0.465
       164 -10.0365    133.8074     34.6173   5.1700998161e+01   4.7676938465e+01    0.2255761    0.1638587  41.37 0.0009516014    1.496    0.332
       165 -10.6917     92.1708     32.6135   6.1276401612e+01   5.8266115116e+01    0.2468552    0.1995741  18.27 0.0004780266    1.386    0.278
       166 -10.4131     73.1294     33.1569   6.8183523571e+01   6.2363507874e+01    0.3061607    0.2356446 -49.64  0.001054819    1.404    0.288
       167 -11.7623     68.6593     26.5807   6.6719507636e+01   6.4381742658e+01    0.3930001    0.3008128 -79.27  0.001934346    1.995    0.499
       168 -10.4812     18.1369     32.2110   9.6481181153e+01   7.0910267782e+01    0.5101426    0.2370633  -5.91  0.001923385    3.840    0.740
       169  -8.0194    129.3137     31.6861   5.1491844122e+01   4.9232418179e+01    0.3077274    0.2098539 -44.32 0.0009627368    1.471    0.320
       170 -10.1285    126.7138     30.2972   5.1485418748e+01   5.0086818164e+01    0.2955501    0.2013444 -32.14   0.00018689    1.465    0.317
       171  -9.3577     85.0680     32.7557   6.3650709543e+01   5.9861413861e+01    0.1745265    0.1221091  53.77 0.0002781756    1.460    0.315
       172 -11.6228      9.6533     29.3942   1.0108850605e+02   7.2200706404e+01    0.5349138     0.260267  46.34  0.002429634    2.911    0.656
       173 -10.1191    229.6500    247.9073   8.2292586472e+01  -3.2825353776e+00    0.1621247    0.1025788  13.92 0.0004483755    1.168    0.144
       174 -10.3133      7.0565     20.9018   9.9733494437e+01   7.4258739649e+01    0.2013715    0.1701868  24.99 0.0004411075    1.378    0.274
       175  -9.7513     35.1703     28.8660   8.4448591259e+01   6.9729885633e+01    0.1827357    0.1362235 -26.90  0.001016861    1.302    0.232
       176 -10.7137     59.4078     25.7444   7.0237284623e+01   6.6348819040e+01    0.5568637    0.1783724 -40.95  0.001970649    3.040    0.671
       177 -10.0664     58.8211     19.5962   6.7170072761e+01   6.7459432065e+01    0.2434157    0.1991671  47.31 0.0007007699    1.288    0.223
       178 -10.8412    113.9419     26.5779   5.2763725838e+01   5.3836176457e+01    0.2736232    0.2100564 -34.14 0.0006090503    1.310    0.236
       179  -9.3157    107.2917     27.3232   5.4684353411e+01   5.5401440150e+01    0.1493776    0.1097308  23.68 0.0007014537    1.612    0.380
       180 -10.6661    101.1048     25.6304   5.5539447490e+01   5.7157793327e+01    0.2586184    0.2315033  47.90 0.0009421501    1.093    0.085
       181  -9.3021     53.0000     24.9559   7.2829045966e+01   6.7664869200e+01    0.2274541    0.0739782 -40.47 0.0008039252    2.953    0.661
       182  -9.6977     19.1470     25.1198   9.2847419792e+01   7.2362571731e+01    0.2318295    0.1110361 -35.19   0.00105448    2.142    0.533
       183 -10.4578     35.2264     22.7401   8.1292367120e+01   7.0921807500e+01    0.3257738    0.2061455 -36.48 0.0006555688    1.462    0.316
       184 -11.1919     38.9620     19.6685   7.7386829980e+01   7.0935257584e+01    0.3963385    0.2876998  58.18  0.002104339    1.973    0.493
       185 -10.5492     90.8444     22.4591   5.6951351278e+01   6.0062001444e+01    0.3239071    0.2361771  59.93  0.001361679    1.385    0.278
       186 -10.2588     70.8141     17.4685   6.1069881393e+01   6.5299339826e+01    0.2664619    0.1816488 -44.77  0.001190355    1.621    0.383
       187 -10.5691     46.2876     21.4581   7.4333747884e+01   6.9437591491e+01    0.2276823    0.2089488 -29.81 0.0003179208    1.120    0.107
       188 -10.4981     30.2912     21.2066   8.3521248757e+01   7.1887176566e+01    0.2821147    0.2011383  25.97  0.001307779    1.474    0.322
       189 -10.7320     14.2571     21.7300   9.4747196756e+01   7.3529592936e+01    0.3969215    0.2285772  17.07  0.001702455    1.912    0.477
       190  -9.8395    181.4240     20.8132   3.9995852192e+01   3.7251303320e+01    0.1859736    0.1323039 -10.39 0.0009441607    1.664    0.399
       191  -9.6363    164.9902     21.4925   4.2105230958e+01   4.1298261955e+01    0.2054881    0.1349681  72.97 0.0004314177    1.512    0.338
       192 -11.4012     75.1306     20.6092   6.1159863659e+01   6.3915584173e+01    0.4086149    0.2947619 -41.84  0.001600291    1.460    0.315
       193  -9.7561     84.0227     21.4538   5.8564818214e+01   6.1794395250e+01    0.2170954    0.1356111  54.91  0.001024618    1.579    0.367
       194  -9.1473    131.6991     20.6847   4.6773885214e+01   5.0006486473e+01    0.1477815    0.1064787  32.13  0.000428534    1.614    0.381
       195  -8.8958    119.2832     19.3175   4.8563131039e+01   5.3380779044e+01    0.1464133    0.1062606  29.53 0.0003112705    1.583    0.368
       196  -9.7636    115.2334     17.7201   4.8714529560e+01   5.4606805674e+01    0.3342212    0.1995475 -85.03 0.0004889449    2.304    0.566
       197  -9.8736     20.2581     17.5808   8.8352676337e+01   7.3797275408e+01    0.2952442    0.1582501 -40.76  0.001159225    1.648    0.393
       198 -10.3141    209.4770     18.4727   3.6739456449e+01   3.0850078236e+01    0.1347003    0.1098455 -54.18 6.674437e-05    1.050    0.048
       199 -10.7492    203.6839     17.5524   3.6962634645e+01   3.2278344726e+01    0.3976089    0.1184907 -52.74  0.001351107    3.610    0.723
       200  -9.6538    141.1029     18.3094   4.4315412187e+01   4.7828165861e+01    0.2053773     0.176978 -85.61  0.001130142    1.143    0.125
       201 -10.2383    125.2921     17.1650   4.6525383848e+01   5.2074069153e+01    0.2291079    0.1827101  54.26 0.0003296409    1.228    0.186
       202 -10.1887    225.0916    247.6341   8.2970057597e+01  -2.7596994883e+00    0.1897751    0.1210924 -13.01   0.00142653    1.427    0.299
       203  -9.5246     58.0000    248.0049   1.1344276787e+02   1.7225930991e+01    0.1440676   0.05979044 -73.83 0.0007846933    2.898    0.655
       204  -9.5846    170.9650    246.7508   9.1969146062e+01   3.6885844659e+00     0.143598   0.07320153  30.71 0.0004519413    1.526    0.345
       205 -10.3807     82.9059     15.9855   5.6140033722e+01   6.2776166065e+01    0.2043338    0.1953591  19.30 0.0003301985    1.014    0.014
       206  -9.5668    116.1821    246.5626   1.0212419524e+02   1.0584892705e+01    0.1508437   0.08852115  25.72  0.000924995    1.531    0.347
       207 -10.2078     31.5414     16.1912   7.9893109110e+01   7.2653206784e+01    0.2119216     0.165602   9.24  0.000368336    1.305    0.233
       208 -11.4429      3.0792    249.0648   1.2368990190e+02   2.2409510586e+01    0.4968443    0.1978384  41.95  0.003210514    1.653    0.395
       209  -9.5640    202.4614    240.4712   8.5692438789e+01   5.9746111913e-01    0.1089119   0.08019054  12.89 8.118874e-05    1.008    0.008
       210  -9.8871    154.5155     15.4732   4.1404251195e+01   4.4650561210e+01    0.2546956    0.1299964  89.30  0.001027363    2.321    0.569
       211  -9.0426     60.9805    241.0000   1.1244267091e+02   1.8055026463e+01    0.1790791   0.05020802  31.85 0.0007884704    2.846    0.649
       212  -9.5757     45.3192     15.3414   7.1295751080e+01   7.0625157457e+01    0.1395544   0.09710064   0.86 0.0007049642    1.716    0.417
       213  -9.8015     35.7935    240.4088   1.1731890187e+02   2.0830581340e+01    0.1408143   0.09031215  26.04 0.0005473286    1.623    0.384
       214  -9.2515     89.5088     13.5082   5.2928716612e+01   6.1512876967e+01    0.1389552    0.1319844  34.09 -3.766753e-05    1.002    0.002
       215 -10.2822    117.5711    239.2840   1.0114298598e+02   1.1496489264e+01    0.1309311     0.107319 -34.96  0.000780453    1.540    0.351
       216 -11.2778     14.0295    238.8045   1.2141356237e+02   2.3189350430e+01    0.1785716    0.1209051  69.40 0.0006625738    1.241    0.194
       217  -9.9763     91.0953    237.3158   1.0619591760e+02   1.5131747769e+01    0.1573617    0.1510679 -38.22 0.0005018494    1.345    0.257
       218 -11.5684     25.4515    236.1822   1.1913893609e+02   2.2583159553e+01    0.2243439    0.1383411  44.11 0.0006721854    1.214    0.176
       219  -9.8608    249.3278    233.9261   7.7323404222e+01  -4.0083099154e+00    0.1410433   0.09649644  -2.55 0.0004344277    1.090    0.082
       220  -9.3637      3.7369     10.6997   9.7829981854e+01   7.6644307891e+01    0.1255302   0.07269885 -35.49 0.0002478236    1.515    0.340
       221 -12.0077      3.9598    232.6521   1.2314883537e+02   2.5157140529e+01    0.2446227    0.1551422  52.33  0.001805526    1.117    0.105
       222 -12.6410     10.0148    227.7092   1.2184735813e+02   2.5523842523e+01    0.4322334    0.3066307  67.30  0.002207789    1.143    0.125
       223  -9.0518    243.3322    230.2946   7.7690896029e+01  -2.9991967917e+00    0.1085961   0.06055238   4.42  0.000491956    1.637    0.389
       224 -10.7701    140.3872    228.4825   9.5475753765e+01   1.0136094779e+01    0.2587726    0.1880156 -59.11  0.001637465    1.839    0.456
       225  -9.4777     47.8463    229.8795   1.1439123054e+02   2.1425046503e+01    0.1576615   0.09789347  54.78 0.0004150569    1.291    0.226
       226 -10.6337    208.0855     13.0110   3.5383272828e+01   3.1744281713e+01    0.1978799    0.1680695 -53.28 0.0003754877    1.013    0.013
       227  -9.2384    249.3041    229.6649   7.6700223981e+01  -3.5833929197e+00   0.08536099   0.07579102  -0.88 0.0007038382    1.665    0.399
       228  -9.8583    209.4929    229.5340   8.2986218749e+01   1.0063672897e+00    0.1110279   0.08288567  10.30 9.253928e-06    1.005    0.005
       229 -10.1036    223.2625    226.6550   8.0297330132e+01  -3.2170574977e-01    0.1817273    0.1058756  -8.05 0.0006289373    1.694    0.410
       230 -11.0240      1.4865    224.9312   1.2343443924e+02   2.6762937534e+01    0.2119504    0.1066198  82.13 0.0008585081    1.785    0.440
       231 -11.4148      2.2854    220.4875   1.2316620924e+02   2.7521018982e+01    0.2711838    0.1372384  72.74   0.00150379    1.648    0.393
       232  -9.1499    167.3406    221.7032   8.9401586284e+01   7.4733054698e+00    0.1107432   0.08442407  51.05 0.0006022209    1.661    0.398
       233 -10.8715      8.7510    218.2101   1.2180672995e+02   2.7401156623e+01    0.2437291    0.1780602  33.20  0.001775635    1.386    0.278
       234  -9.8465    205.6647    212.4509   8.1089305024e+01   3.5709968298e+00    0.1854282    0.1163462  -8.77 0.0007337338    1.641    0.390
       235  -9.8524     15.4120    213.2444   1.2026662540e+02   2.7765075255e+01    0.1491936   0.08407049  74.04 0.0002374372    1.544    0.352
       236  -9.0685    249.3394    211.3214   7.3877293606e+01  -1.6795448490e+00    0.1142409    0.0640716   2.04  0.000705038    1.717    0.418
       237 -10.0747     20.1268    209.9821   1.1914105920e+02   2.7971415375e+01    0.1940407   0.09115994  55.19 0.0008656208    1.669    0.401
       238 -10.9824      3.1352    206.3192   1.2260198445e+02   3.0182292849e+01    0.1837841    0.1357423 -84.83  0.001200673    1.386    0.278
       239  -9.4858    193.4180    202.2089   8.1642543496e+01   6.6005974945e+00    0.1429855    0.1111612 -40.59 0.0004793417    1.560    0.359
       240 -10.1346     23.7030    196.6417   1.1772707334e+02   3.0338472585e+01    0.2206064    0.1812069 -41.56  0.001461356    1.708    0.414
