#   1 NUMBER                 Running object number                                     
#   2 MAG_AUTO               Kron-like elliptical aperture magnitude                    [mag]
#   3 X_IMAGE                Object position along x                                    [pixel]
#   4 Y_IMAGE                Object position along y                                    [pixel]
#   5 X_WORLD                Barycenter position along world x axis                     [deg]
#   6 Y_WORLD                Barycenter position along world y axis                     [deg]
#   7 A_WORLD                Profile RMS along major axis (world units)                 [deg]
#   8 B_WORLD                Profile RMS along minor axis (world units)                 [deg]
#   9 THETA_WORLD            Position angle (CCW/world-x)                               [deg]
#  10 FWHM_WORLD             FWHM assuming a gaussian core                              [deg]
#  11 ELONGATION             A_IMAGE/B_IMAGE                                           
#  12 ELLIPTICITY            1 - B_IMAGE/A_IMAGE                                       
         1 -11.9106    214.0173     37.5336   3.8696812856e+01   2.7972205668e+01    0.9008651    0.6405286 -61.85  0.004156406    1.257    0.204
         2 -10.2665      2.2616     14.8844   9.1296162432e+01   7.2342035330e+01    0.3307175    0.1031565 -49.69  0.001578754    2.855    0.650
         3 -11.6299    232.7924     20.3272   3.3263254952e+01   2.6118447987e+01    0.6724777    0.4832012 -63.25  0.002837936    1.138    0.121
         4  -9.1991      2.0064      2.0003   8.5561450426e+01   7.4292144613e+01    0.1957453     0.102835 -32.90 0.0009289279    1.581    0.368
         5  -9.3294     12.1738      6.2313   8.1474177924e+01   7.2788482302e+01    0.1975466    0.0942637 -10.53 0.0009538965    2.829    0.647
         6  -8.7262    250.1869      2.2959   2.8578221797e+01   2.4684015553e+01    0.2126206    0.1285326 -50.47  0.001417093    1.361    0.265
         7 -11.3152    114.1528    231.5116   1.0007955087e+02   1.0305374147e+01    0.5011489    0.4572843 -24.72  0.003187612    1.303    0.233
         8 -13.0948      9.2205    207.5740   1.2076743850e+02   2.8810318732e+01     1.547287     1.036261 -79.80   0.00988673    1.321    0.243
         9 -11.5454     27.2685    203.5957   1.1658210082e+02   2.7942018189e+01    0.4599493    0.4514568 -31.36  0.001004627    1.365    0.267
        10 -13.8833     35.6783    191.2012   1.1357123904e+02   2.9921639632e+01      8.58341     3.193116  76.65    0.0234066    6.515    0.847
        11 -10.6696     76.4623    224.0516   1.0752624035e+02   1.7368840349e+01    0.6593705    0.2925343 -76.83  0.002538104    2.924    0.658
        12 -10.2557     84.7102    220.0711   1.0523745218e+02   1.7053470528e+01    0.4070237    0.3005004 -72.57  0.001188591    1.428    0.300
        13  -9.5725     80.0127    221.9637   1.0650823806e+02   1.7317575465e+01    0.2696932    0.1794002 -53.28  0.001463801    1.711    0.416
        14 -12.6006     11.3645    233.5066   1.2181901518e+02   2.3088424487e+01     1.646253      0.74252  80.14  0.008620455    2.098    0.523
        15  -7.9021    178.0692    222.9785   8.5055076468e+01   1.8334575143e+00    0.1643326    0.1356909  22.99 0.0004028293    1.079    0.073
        16  -9.4260     42.9837    217.9406   1.1429958754e+02   2.2992701285e+01    0.2205062    0.1587503 -88.67 0.0003051758    1.282    0.220
        17  -8.8334     67.1241    217.6452   1.0893399043e+02   2.0024612210e+01    0.2317061    0.1644484  30.20  0.001299873    1.501    0.334
        18 -10.0546     21.9040    223.4940   1.1914927593e+02   2.4115623100e+01    0.2541907    0.2145627  64.67  0.001243103    1.128    0.113
        19 -11.4526    107.7374    229.1511   1.0119092470e+02   1.1750940524e+01    0.9665866    0.4659349  18.71   0.00338929    4.006    0.750
        20 -10.3726      3.0928    169.6707   1.1956856538e+02   3.8046737781e+01    0.3616624    0.2944686  49.07  0.002434314    1.300    0.231
        21  -9.6424      9.6754    168.8459   1.1789036462e+02   3.7733466126e+01    0.2047856    0.1684839  40.30 0.0005244703    1.351    0.260
        22 -11.3625      7.6440    188.1214   1.1983849027e+02   3.3352632341e+01    0.6263588    0.3444374 -69.33  0.003520484    1.612    0.380
        23 -10.5866      2.2079    184.9332   1.2085277207e+02   3.4535875163e+01     1.093448    0.1813101 -78.24     0.003266    5.520    0.819
        24  -9.2644     86.5839    233.8139   1.0635917146e+02   1.3920000818e+01    0.1722768    0.1172372 -88.31 0.0009464487    1.686    0.407
        25 -10.3956     56.8194    176.9728   1.0673251195e+02   3.0870458379e+01     0.444237    0.3092747 -27.33   0.00217705    2.084    0.520
        26 -10.1984     62.5069    171.4786   1.0450610738e+02   3.1489514950e+01    0.3365922    0.2766784 -32.79  0.001084687    1.486    0.327
        27  -7.7686     56.1598    193.1425   1.0884120142e+02   2.7050726859e+01    0.1923259    0.1389413  72.84 0.0006257508    1.344    0.256
        28  -8.0167     97.4963    169.5273   9.4870689697e+01   2.6757293415e+01    0.1493169    0.1385023  73.86 0.0008094425    1.055    0.052
        29  -7.7506     47.5068    168.5065   1.0810168344e+02   3.4099056019e+01    0.1401562    0.1190895  80.12 0.0008090566    1.089    0.082
        30  -9.2067     87.4823    166.4757   9.7026769803e+01   2.9115467994e+01    0.2800696     0.118623  45.11  0.001040293    2.396    0.583
        31 -11.4837     68.2066    144.5610   9.8667788237e+01   3.7478749001e+01    0.8233919    0.5636744  71.92  0.002749338    1.798    0.444
        32 -10.9214     59.0744    134.8538   9.9674407584e+01   4.1162193689e+01     1.105793     0.396615 -72.77  0.003076534    4.766    0.790
        33 -10.1312     72.6770    154.0859   9.9028122195e+01   3.4439857589e+01    0.5770009    0.3038431  61.11  0.002196183    2.663    0.624
        34 -10.0392     72.8745    162.1284   1.0029855210e+02   3.2391924285e+01    0.3944198    0.2684292 -51.85 0.0004125736    1.472    0.321
        35 -10.9289     80.4566    155.7760   9.7122082005e+01   3.2863087738e+01    0.7711033    0.5167586 -26.49  0.001918402    2.111    0.526
        36  -9.5333      1.8412    161.9478   1.1928091669e+02   3.9980424412e+01     0.432214    0.1366042 -73.22  0.001837921    2.492    0.599
        37 -11.7081     59.6158    158.1470   1.0336340678e+02   3.5202264883e+01    0.5364404    0.3262768 -41.12   0.00138646    1.941    0.485
        38  -8.8142     32.9905    157.8099   1.1069785339e+02   3.8343965825e+01     0.205916    0.1302317  84.72   0.00103555    1.632    0.387
        39 -12.7616     36.8659    249.8224   1.1789503446e+02   1.7110946272e+01     3.466873    0.6963438  29.99    0.0104135    6.859    0.854
        40 -11.9790     56.8214    240.7247   1.1328251734e+02   1.6512309717e+01     1.093349    0.5761471  30.13  0.002886095    1.998    0.499
        41 -10.6303     83.5236    140.4545   9.3379012320e+01   3.6226092677e+01    0.3637906    0.2732495 -45.92 0.0007006542    1.339    0.253
        42  -8.9307     96.1838    141.8103   8.9974997842e+01   3.3798266600e+01    0.3625614    0.2702668   1.63  0.001282767    1.847    0.459
        43  -8.1092     99.7215    137.6631   8.8083387650e+01   3.4202081174e+01    0.2504091     0.192671  -4.41 0.0005959127    1.742    0.426
        44  -9.9120     70.3703    131.7011   9.5600621910e+01   4.0410640055e+01    0.4325182    0.2690988  71.11  0.001769999    2.389    0.581
        45  -9.2538    107.0032    131.0256   8.4521128725e+01   3.4493465712e+01    0.4004855    0.3233953  37.91  0.001463523    1.263    0.209
        46  -8.9795     94.4637    127.4020   8.7356545975e+01   3.7630817361e+01    0.2971864    0.2543245 -19.22 0.0006695609    1.324    0.245
        47  -7.9758    105.4803    119.4750   8.2229596229e+01   3.7527883408e+01     0.152455    0.1491655 -37.16 0.0001421622    1.016    0.016
        48  -8.1884    205.2225    110.5663   5.6804747993e+01   1.8224880798e+01     0.194407    0.1355019  39.89 0.0009505269    1.661    0.398
        49 -10.5997      1.9984     91.6533   1.1141573730e+02   5.6870947806e+01    0.7531559    0.2067413 -73.55  0.002685729    3.674    0.728
        50  -9.7424      1.9694     82.1177   1.0985975447e+02   5.9061985909e+01    0.4913792    0.0717309 -57.08  0.001796137    3.316    0.698
        51  -8.2988     41.2273     92.3480   9.7001117111e+01   5.3665885683e+01    0.1781055    0.1219627  34.71 0.0008476693    1.614    0.380
        52  -8.7812     45.8132     91.5861   9.5122039058e+01   5.3333227881e+01    0.1919173    0.1223478  39.94 0.0009552871    1.770    0.435
        53 -10.7290      2.7270     72.5674   1.0779800752e+02   6.1162355598e+01    0.5812902    0.2304434 -71.58  0.002601053    2.546    0.607
        54 -10.4022      2.6622     58.2481   1.0476035489e+02   6.4243822582e+01    0.3439851    0.2200739  -2.57  0.002119077    1.681    0.405
        55  -9.3183     13.1292     60.1708   1.0054658932e+02   6.3223773627e+01    0.2094162    0.1522548 -51.15 0.0006410589    1.184    0.155
        56 -10.2585    197.1906     53.0870   4.4384847069e+01   2.9597934140e+01    0.3301557    0.1606164 -44.74  0.001501487    1.929    0.482
        57  -8.2449     30.9799     53.7102   9.0672471953e+01   6.3024886474e+01    0.1729948    0.1440684   0.54 0.0004408441    1.162    0.139
        58  -8.5643     12.3190     53.3271   9.9088951143e+01   6.4683040293e+01    0.1324091   0.07127082 -32.05 0.0007046633    1.681    0.405
        59 -11.7580    206.3583     42.5758   4.0715593309e+01   2.8997038353e+01    0.6156644    0.4843531  84.53  0.002484247    1.180    0.152
        60 -12.0802      2.9100    245.2040   1.2395234838e+02   2.1572680930e+01     1.548584    0.4239419 -79.74  0.007079832    3.348    0.701
        61 -10.2074      2.1308     44.0873   1.0139290061e+02   6.7138314892e+01    0.4518729   0.06423166 -60.83  0.001361445    5.984    0.833
        62  -8.7068    129.8491     37.4609   5.1604861912e+01   4.7700376316e+01     0.243156     0.198415 -75.58 0.0006365223    1.419    0.295
        63 -11.2652    107.2565    233.7464   1.0186416609e+02   1.0910171119e+01    0.8050051    0.4179137  13.31  0.002696072    4.793    0.791
        64 -10.9875    221.5023     30.5837   3.6405512889e+01   2.7241274958e+01    0.4841638    0.3560671  44.62  0.001447972    1.871    0.465
        65 -10.8812    128.6290    230.3314   9.6755458394e+01   8.2956175683e+00    0.4074992    0.3038455  43.87  0.002337986    1.206    0.171
        66 -10.9584    121.8786    230.0350   9.8192980648e+01   9.4042721362e+00    0.4999734     0.280848  32.75  0.002466281    1.642    0.391
        67 -11.5431     98.3940    228.4602   1.0316947574e+02   1.3293469640e+01    0.6719603    0.4468367  44.32  0.003702622    1.311    0.237
