#   1 NUMBER                 Running object number                                     
#   2 MAG_AUTO               Kron-like elliptical aperture magnitude                    [mag]
#   3 X_IMAGE                Object position along x                                    [pixel]
#   4 Y_IMAGE                Object position along y                                    [pixel]
#   5 X_WORLD                Barycenter position along world x axis                     [deg]
#   6 Y_WORLD                Barycenter position along world y axis                     [deg]
#   7 A_WORLD                Profile RMS along major axis (world units)                 [deg]
#   8 B_WORLD                Profile RMS along minor axis (world units)                 [deg]
#   9 THETA_WORLD            Position angle (CCW/world-x)                               [deg]
#  10 FWHM_WORLD             FWHM assuming a gaussian core                              [deg]
#  11 ELONGATION             A_IMAGE/B_IMAGE                                           
#  12 ELLIPTICITY            1 - B_IMAGE/A_IMAGE                                       
         1 -13.7894      6.7249     11.5574   1.2654633704e+02   7.4433367268e+01     2.305679    0.8000617 -49.01   0.01070482    2.086    0.521
         2 -13.8000    204.5352      9.8536   6.3008959585e+01   3.2381599597e+01     1.411203    0.7796243  47.38   0.00138565    2.031    0.508
         3 -14.3481    199.5524     17.4777   6.5657652882e+01   3.2837418703e+01     2.597591     1.479406  28.97  0.009964909    2.397    0.583
         4 -12.4438    248.4591    240.7646   1.0768436839e+02  -3.3408033248e+00    0.4636219    0.2873887  15.58  0.003543135    1.118    0.105
         5  -9.3824    205.2997    250.3434   1.1593880065e+02   7.4942291215e-01    0.1092623   0.06203672   8.23 0.0007036516    1.674    0.403
         6  -9.2277    184.3144    250.3488   1.1951112854e+02   3.2950501326e+00    0.1106418   0.06541157   8.60 -5.447574e-05    1.723    0.420
         7 -10.5524    152.5334    243.8670   1.2441246396e+02   8.0391242084e+00    0.2451681    0.1402143  43.33  0.001543667    1.651    0.394
         8 -11.3122    146.0531    240.6859   1.2525064875e+02   9.2721142080e+00    0.3561664    0.1672958  41.66 0.0004519142    1.823    0.452
         9 -11.5468    142.9766    244.7125   1.2626028572e+02   9.1432151211e+00    0.4921412    0.1381405  38.90  0.002280656    2.695    0.629
        10 -11.2563    150.2369    248.3374   1.2532512521e+02   7.7733514634e+00    0.4050962    0.2341261  36.83  0.002167604    1.346    0.257
        11 -10.4290    143.4078    249.3591   1.2667375744e+02   8.4993223705e+00    0.2293452    0.1740824  43.63  0.001121715    1.337    0.252
        12 -11.9779    132.6421    224.9339   1.2602599698e+02   1.3196861317e+01    0.4199935    0.2323297 -36.34  0.002418233    2.390    0.582
        13 -12.1486    136.1652    227.8123   1.2566938028e+02   1.2313772207e+01    0.4021096    0.2406928 -35.72  0.002468702    2.146    0.534
        14 -11.4132    135.5353    241.1486   1.2726193924e+02   1.0552832322e+01    0.3290596    0.2119348   8.83  0.001659886    1.874    0.466
        15 -12.2826    135.2476    236.8562   1.2685648454e+02   1.1170195452e+01    0.4054832    0.3401482 -35.59  0.001726513    1.503    0.335
        16 -10.6382    108.4213    242.3421   1.3247766807e+02   1.3760353363e+01    0.2920769    0.1970554 -26.26  0.001921793    2.250    0.556
        17 -11.2909    133.6218    249.3472   1.2845746619e+02   9.7150957209e+00     0.568895    0.1845472  41.53  0.002835515    2.488    0.598
        18 -10.9462    124.4732    249.4472   1.3014453143e+02   1.0826822274e+01    0.4609445    0.2144455  28.55  0.002695033    1.799    0.444
        19 -10.7292    115.4579    250.0638   1.3185792481e+02   1.1838423206e+01    0.4783821    0.1805241  32.22  0.002583289    2.050    0.512
        20 -11.5105    109.3541    248.0052   1.3280261218e+02   1.2852543920e+01    0.5837612    0.2579849  24.74  0.003105514    2.373    0.579
        21 -10.3970    121.7005    244.9958   1.3023396085e+02   1.1765010183e+01    0.3199511    0.1492509  47.07  0.001761402    2.032    0.508
        22 -12.2190    126.4723    240.7673   1.2892407132e+02   1.1749654553e+01    0.3756599    0.3298188  11.57  0.001880238    1.236    0.191
        23 -11.6594     95.8694    237.9185   1.3447710898e+02   1.5915825783e+01    0.6913526    0.3725639  84.25  0.003581032    3.615    0.723
        24 -10.0508     88.7988    220.3575   1.3434328440e+02   1.9527599005e+01    0.4136997    0.1519995 -47.24  0.001881657    3.931    0.746
        25 -10.7587    104.4725    238.1620   1.3285314215e+02   1.4844865219e+01    0.3166343    0.1893205  43.84  0.002100851    1.354    0.261
        26 -12.4774    110.1252    230.3648   1.3102908932e+02   1.5306665612e+01    0.7647002    0.2687519  35.86  0.002891828    2.150    0.535
        27 -11.2375     98.4984    231.0206   1.3336809599e+02   1.6646545425e+01    0.3099688    0.2869356  61.45  0.001629177    1.224    0.183
        28  -9.8450     93.7407    217.3279   1.3305369100e+02   1.9422608933e+01    0.2829748    0.1807027  77.24  0.001677221    2.140    0.533
        29 -10.8654    110.1964    222.6007   1.3023477035e+02   1.6490578501e+01    0.2782609    0.2545684  10.11 0.0006831849    1.229    0.186
        30 -10.3309    104.9697    218.9312   1.3091531451e+02   1.7743756382e+01    0.2260657    0.1523565  54.58 0.0003048072    1.505    0.335
        31 -10.0579    101.2138    216.1951   1.3140572763e+02   1.8669226904e+01    0.2365395    0.1595921  44.35  0.001147277    1.249    0.200
        32 -10.5828    102.0870    211.9192   1.3078262504e+02   1.9267146955e+01    0.3554778     0.197129  49.42   0.00160414    1.709    0.415
        33 -10.6943     92.8839    226.0857   1.3403463043e+02   1.8102810931e+01    0.2376895    0.1698334  44.93 0.0004663924    1.145    0.126
        34 -12.1818     98.8906    223.3827   1.3258428433e+02   1.7796407296e+01    0.4810565    0.2487382  28.66  0.001551381    1.739    0.425
        35 -11.1922     81.2465    246.2232   1.3787201331e+02   1.6370856528e+01    0.5042032    0.3032949  74.87  0.003355727    2.133    0.531
        36  -9.8457     83.9116    242.2875   1.3709020388e+02   1.6654053077e+01    0.2240476    0.1824127 -53.60  0.001753341    1.619    0.382
        37 -10.8055     90.0530    236.7207   1.3549229182e+02   1.6783966693e+01    0.3597192    0.1826677  45.14  0.002224489    1.577    0.366
        38 -10.2011     87.8423    250.5536   1.3696836659e+02   1.5000966148e+01     0.412627    0.1327339  28.84  0.001721181    2.984    0.665
        39 -10.2758     87.6408    247.5800   1.3678747180e+02   1.5450991992e+01    0.3117403    0.1372822  30.61  0.001816623    1.881    0.468
        40 -10.0309     83.2900    238.3707   1.3691410583e+02   1.7316630815e+01    0.2502016    0.1248412  35.65  0.001548369    1.528    0.345
        41  -9.7869     86.4586    237.4515   1.3623887694e+02   1.7091843008e+01    0.1980582    0.1502959  69.76  0.001482827    1.442    0.307
        42  -9.2226     74.6897    250.6023   1.3937031672e+02   1.6453319710e+01    0.2086664   0.08166496  30.06  0.001153714    2.182    0.542
        43 -14.5988     25.6776    155.0998   1.4326684353e+02   3.9111562035e+01     2.763914     1.582466 -39.51   0.01323537    2.443    0.591
        44 -10.7561    165.7760    241.6636   1.2174371200e+02   6.6198600147e+00    0.2983092    0.1324165  25.67 0.0009966245    1.997    0.499
        45 -10.2876    173.2944    240.0055   1.2018299378e+02   5.8548482314e+00    0.2030298    0.1825727 -37.24 0.0008766594    1.600    0.375
        46 -10.6721    115.8248    239.9797   1.3085941142e+02   1.3188842535e+01    0.1953311    0.1667544  36.94 0.0009232863    1.127    0.113
        47  -8.8925    150.6813    239.2892   1.2423336730e+02   8.8578661361e+00    0.1061023   0.07273709  47.54 0.0007005892    1.598    0.374
        48 -14.9643     10.7386    208.5291   1.4935388807e+02   2.9582598781e+01     2.314995      1.06019 -80.98    0.0143883    2.146    0.534
        49 -10.5035    165.9458    235.7200   1.2098635080e+02   7.3278400173e+00    0.2162874    0.1627623 -32.94  0.001578612    1.626    0.385
        50 -12.2330    100.0253    246.1407   1.3437717317e+02   1.4222895834e+01    0.7127033    0.4374579  36.57  0.004978369    1.215    0.177
        51 -10.4901    127.5499    229.5333   1.2753831530e+02   1.3197764258e+01    0.1667518     0.118395  51.82 0.0005866622    1.500    0.334
        52 -11.4343    121.8817    232.6957   1.2897482360e+02   1.3470884048e+01    0.3052766    0.2408313  27.57  0.001145118    1.088    0.081
        53 -10.2535    222.7557    244.4045   1.1226731587e+02  -7.3683702257e-01    0.1570068    0.0718286  23.95  0.000746912    1.703    0.413
        54 -10.1541    162.0423    232.8280   1.2134800069e+02   8.2055676420e+00    0.1702998    0.1280692  38.39 0.0006369232    1.308    0.235
        55  -9.2207     78.1878    233.5897   1.3753240802e+02   1.8639712130e+01    0.1425118    0.0885298  25.23 0.0004482278    1.584    0.368
        56 -13.0631     13.9729    239.0182   1.4972873431e+02   2.4135471342e+01    0.3488744    0.2001362  39.38 0.0009899262    1.348    0.258
        57 -10.7916    156.7515    231.4883   1.2217142138e+02   9.0789756788e+00    0.1981617    0.1640758  15.18 0.0002766321    1.125    0.111
        58 -11.1067    141.8145    230.7261   1.2491644400e+02   1.1158037865e+01    0.3084642    0.2046911 -12.19  0.001189564    2.059    0.514
        59 -10.7435     84.7113    229.8672   1.3597216218e+02   1.8475443919e+01    0.2810437    0.2094234   6.60  0.001179418    1.757    0.431
        60 -10.0054    180.9297    229.6869   1.1746453924e+02   6.1001078995e+00    0.1620041    0.1167423  22.73 0.0006090182    1.044    0.042
        61 -10.8939    165.6064    227.3942   1.1998985630e+02   8.4317055138e+00    0.3018654    0.2416021 -67.20  0.001769423    2.174    0.540
        62  -9.4138    150.7249    229.8105   1.2310591029e+02   1.0102593700e+01    0.2465527    0.1223797  40.78   0.00140031    1.732    0.423
        63  -9.9939    190.9187    228.0585   1.1543992126e+02   4.9773784754e+00     0.169483    0.1249105  18.49  0.000298099    1.012    0.012
        64  -8.6786    175.6730    228.6855   1.1829111733e+02   6.9206613200e+00    0.1172971   0.07293985   8.89 0.0007043565    1.670    0.401
        65  -9.9098    160.6898    223.8686   1.2045890026e+02   9.5619558845e+00    0.2293249    0.1607533  23.37 0.0007392055    1.143    0.125
        66  -9.4722    164.5359    220.4629   1.1927289910e+02   9.4936817382e+00     0.222224    0.1368523  -6.46 0.0008072828    2.155    0.536
        67 -10.8949    117.2559    224.3777   1.2900919977e+02   1.5303994739e+01    0.2336365    0.1698106  28.60 0.0004149415    1.164    0.141
        68 -13.4161     20.1096    232.6087   1.4842488742e+02   2.4645924532e+01    0.8080291     0.447819 -71.35   0.00521827    2.060    0.515
        69  -8.9217    219.9888    223.5189   1.0972764733e+02   1.7245445713e+00    0.1552685   0.08587761  29.00 0.0009825516    1.447    0.309
        70  -9.2180    155.9302    223.5102   1.2132270774e+02   1.0258225811e+01    0.1758402   0.09179841  33.99  0.000330293    1.511    0.338
        71 -10.5614    149.9166    222.5065   1.2235560831e+02   1.1216239210e+01    0.1959651    0.1629454   6.71  0.001411426    1.194    0.162
        72 -11.4430    138.5420    214.1832   1.2354936256e+02   1.3993105186e+01    0.5046095    0.2777956  22.70  0.001792974    1.824    0.452
        73 -11.9429    142.0972    221.3498   1.2373886648e+02   1.2445586429e+01    0.3163654    0.2839939 -11.21  0.002373899    1.271    0.213
        74 -10.6654     88.3020    212.9868   1.3376696947e+02   2.0826554854e+01    0.2138506    0.1905055  78.70 0.0004091676    1.237    0.192
        75 -14.8221     29.1411    246.7003   1.4732472774e+02   2.1604004769e+01     1.928993    0.8308744  26.55    0.0118058    2.302    0.566
        76  -8.9853    182.7076    213.7033   1.1488110742e+02   7.8660905750e+00    0.1183325   0.07624137   7.69 0.0002091165    1.560    0.359
        77 -11.9230    131.9037    211.5517   1.2456497079e+02   1.5318171210e+01    0.3472229    0.2486524   0.15 0.0004239088    1.723    0.420
        78  -9.5201    152.1270    211.8965   1.2052796871e+02   1.2428625535e+01    0.1770812    0.1413852  41.38 0.0005899199    1.282    0.220
        79  -9.4177     33.3193    211.4045   1.4498778456e+02   2.7096802684e+01     0.169819   0.09269622  28.49 0.0008231506    1.758    0.431
        80  -9.8192     29.3281    208.6322   1.4565353200e+02   2.7967482675e+01    0.2913415     0.222922  44.80  0.002210071    1.136    0.120
        81 -13.5886      7.4826    226.8506   1.5053685348e+02   2.6656546803e+01    0.6237088    0.5032188  -4.77  0.003289836    1.938    0.484
        82 -10.1483    108.8425    208.5894   1.2900297264e+02   1.8939201080e+01    0.2697439    0.1393213 -70.89  0.001339693    2.978    0.664
        83  -8.9209    197.7281    208.0163   1.1124286915e+02   6.4912605623e+00    0.1554859    0.1228575   9.34 0.0002501545    1.065    0.061
        84 -10.5903    174.7670    205.9456   1.1522957742e+02   1.0033737441e+01    0.2957748    0.1894859 -16.43  0.001112082    1.792    0.442
        85 -11.6520     92.9299    205.0078   1.3199893184e+02   2.1631179453e+01    0.6010341    0.2832854  38.71  0.001542292    1.722    0.419
        86  -9.1221    164.0193    206.2920   1.1737875242e+02   1.1539268310e+01    0.2148875    0.1655298 -87.50  0.001196756    2.738    0.635
        87 -11.4013    247.8402    205.0315   1.0225121856e+02   1.6237323247e-01    0.3435705    0.1852447  17.52  0.002135789    1.581    0.367
        88  -9.6566    125.7983    205.8098   1.2510638729e+02   1.7083756328e+01    0.1634594    0.1242239  48.66 0.0004313704    1.315    0.239
        89  -9.4410    113.9839    205.2569   1.2753027347e+02   1.8806794507e+01    0.2870847    0.1627215 -72.71   0.00146588    2.774    0.640
        90 -10.3113    120.6823    199.6646   1.2540895730e+02   1.8823799907e+01    0.4622142    0.2001161  50.56  0.001912501    2.822    0.646
        91 -10.2706    115.1566    200.3347   1.2668194083e+02   1.9482084294e+01    0.2023243    0.1820456  26.09 0.0002526652    1.088    0.081
        92  -9.7962    149.5596    204.3014   1.1999041947e+02   1.3930762974e+01    0.2569552    0.1713127  -4.69  0.001081679    1.933    0.483
        93  -9.5795    100.4976    198.4289   1.2964001442e+02   2.1811421908e+01    0.2613651    0.1678672  11.97 4.807298e-05    2.047    0.511
        94 -10.5796     99.1066    195.1538   1.2956803427e+02   2.2587466919e+01    0.4822535    0.2864803  20.08  0.001776281    1.934    0.483
        95  -9.4671     75.6508    203.5221   1.3557247967e+02   2.4028991873e+01    0.3286353    0.1786419  22.60  0.001762771    2.049    0.512
        96  -9.6531    166.9414    203.2335   1.1634783878e+02   1.1554541990e+01    0.1707382    0.1285038  25.30 0.0003009884    1.081    0.075
        97 -10.4656    169.7823    200.1966   1.1532416013e+02   1.1575148179e+01    0.2237383    0.1682106  12.00 0.0003540516    1.197    0.165
        98  -9.7238    133.1073    202.8759   1.2319363364e+02   1.6526617246e+01    0.1784131     0.147547  44.66 0.0003048781    1.210    0.174
        99 -10.1967    134.1254    198.1920   1.2234269187e+02   1.7143697602e+01    0.2240725    0.2004174 -65.67 0.0003911427    1.423    0.297
       100  -9.3103    224.9431    202.5458   1.0557296803e+02   3.4039830960e+00    0.1621031   0.09382619  29.84  0.000312317    1.477    0.323
       101 -10.2654     63.7928    202.1983   1.3801509856e+02   2.5644079410e+01    0.2244037    0.1503738  24.06  0.001401747    1.566    0.362
       102 -10.3015    197.3568    200.8329   1.1016369996e+02   7.4584444231e+00    0.2790896    0.1441781  31.13  0.001053359    1.630    0.386
       103 -10.0129     82.8190    193.7211   1.3304255938e+02   2.4965140847e+01    0.3139605    0.2026083   7.79 0.0009765383    2.258    0.557
       104  -9.0504     86.2713    199.2783   1.3285209554e+02   2.3502127457e+01    0.1800448    0.1546538  55.01 0.0001786059    1.085    0.078
       105 -10.1597     85.9882    195.9872   1.3257277918e+02   2.4143006558e+01    0.1917877    0.1753837  36.29  0.001355499    1.110    0.099
       106  -9.2709    192.0926    197.9134   1.1066475377e+02   8.6054324384e+00    0.1680517    0.1437542  21.27            0    1.228    0.186
       107 -10.6779    102.8506    202.8687   1.2963411911e+02   2.0714575670e+01    0.6667156    0.2612359  51.06  0.002806998    3.063    0.673
       108 -11.9556     70.1626    194.7529   1.3597223661e+02   2.6307758520e+01    0.4225309    0.3011682 -22.60  0.002080577    2.156    0.536
       109 -12.0415     74.9741    187.9008   1.3422032391e+02   2.7048797923e+01    0.3304999    0.2720219  42.29  0.001000428    1.075    0.069
       110  -9.6932    113.0058    195.6789   1.2656621443e+02   2.0590747685e+01    0.2919627    0.1605912  54.20  0.001461975    2.126    0.530
       111  -9.6335    112.8538    192.1650   1.2614963353e+02   2.1235351217e+01    0.1866528    0.1823216 -31.13 0.0002467319    1.179    0.152
       112  -9.3648    107.3432    196.0891   1.2786038154e+02   2.1302695556e+01    0.1608566    0.1494978  58.00 0.0006378496    1.142    0.124
       113 -10.2340    159.6575    194.0636   1.1640769710e+02   1.4004148802e+01     0.253162    0.1930642  44.72 0.0009846963    1.411    0.291
       114 -10.9761    120.4872    192.9814   1.2457377870e+02   2.0002673923e+01    0.3364629    0.2885059 -16.19 0.0008065283    1.338    0.253
       115 -10.2067     38.4411    193.0903   1.4285798251e+02   3.0032953380e+01    0.2683585    0.1964062 -65.86  0.001842509    1.521    0.343
       116  -9.1374     30.7715    195.0001   1.4463422934e+02   3.0387005890e+01    0.1510656     0.123605  58.26 0.0004302982    1.031    0.030
       117  -9.9514    248.8604    193.8942   1.0020175921e+02   1.2065604444e+00     0.257169    0.1270691   6.77  0.001332922    2.327    0.570
       118  -9.3823    178.2971    193.6801   1.1261455202e+02   1.1242645039e+01    0.2732735      0.15962   6.47 0.0009975377    2.197    0.545
       119  -9.8200    172.9774    192.4489   1.1346333503e+02   1.2226967163e+01    0.2339999    0.1574523 -14.75  0.001206744    1.654    0.395
       120  -9.6598     47.3011    192.8893   1.4089654374e+02   2.9187391606e+01    0.1506327    0.1403012 -60.58 0.0008025116    1.315    0.239
       121  -9.9575     26.1126    192.6625   1.4550745043e+02   3.1258951425e+01    0.2158164    0.1245982  76.07  0.001346864    1.616    0.381
       122 -10.2076    191.4851    191.4577   1.0970493208e+02   9.5703544081e+00    0.2388728     0.175049   7.75 0.0005903611    1.206    0.171
       123  -9.4177    135.3038    190.3007   1.2096676931e+02   1.8287643947e+01     0.183589    0.1529521 -39.79 0.0004580287    1.369    0.269
       124 -11.3070     30.1260    188.5288   1.4440266088e+02   3.1707717468e+01    0.7119782    0.2737955  59.79   0.00346953    2.551    0.608
       125  -9.7971     29.4781    182.2468   1.4417069652e+02   3.3021819775e+01    0.3253408     0.150412  43.60  0.001817939    1.783    0.439
       126 -11.2322    249.6871    187.6711   9.8981673023e+01   1.7731394121e+00     0.320211    0.1944758  -8.43  0.002040461    1.389    0.280
       127  -9.1598     42.4875    189.4040   1.4171676360e+02   3.0356404058e+01    0.1818649    0.1440531  49.77 0.0004907727    1.081    0.075
       128  -9.5129     45.2988    187.6685   1.4096125975e+02   3.0416527575e+01    0.2566105    0.1781145  15.62  0.001591852    1.761    0.432
       129 -10.2087     74.7957    242.3165   1.3880072837e+02   1.7672029726e+01    0.2512384    0.1229531  52.82  0.001553499    1.830    0.453
       130  -9.9543    175.8806    186.9680   1.1197734014e+02   1.2593163354e+01    0.1913867    0.1585101  13.68 0.0003746432    1.018    0.018
       131  -9.4788     67.6800    186.6031   1.3576663538e+02   2.8175732451e+01    0.2118502    0.1079916  28.53 0.0005179652    1.910    0.477
       132  -9.4549    154.7166    184.9338   1.1598272163e+02   1.6206446417e+01    0.1734971    0.1556353  -2.12  0.000636447    1.129    0.114
       133 -10.2904    140.5622    183.5044   1.1879394651e+02   1.8645661211e+01    0.4207258    0.2097158  51.25  0.001383706    2.574    0.611
       134  -9.2945     87.9977    183.4772   1.3072541247e+02   2.6259944559e+01    0.3116628    0.1091653  43.90  0.001306724    2.554    0.608
       135  -9.4491     37.1046    184.1567   1.4256575842e+02   3.1927309114e+01     0.251661    0.1330761  35.55  0.001241792    1.664    0.399
       136  -9.3468    217.2435    183.2155   1.0355562915e+02   6.8238900225e+00    0.1489425     0.132498   0.17  0.000391251    1.324    0.245
       137 -12.5094    248.0395    172.1981   9.6415754303e+01   3.7366386444e+00    0.6294926    0.3752667 -15.42  0.003833204    1.431    0.301
       138 -13.7023    244.6638    157.7591   9.4161517570e+01   5.9355446746e+00     2.153183    0.8260819 -36.75  0.009863595    2.697    0.629
       139 -12.3176    248.2892    134.4053   8.8831536269e+01   8.2678706804e+00    0.7910319     0.506004 -26.23  0.003938013    1.346    0.257
       140  -9.9918     65.9776    181.9839   1.3571326147e+02   2.9294017254e+01     0.177772    0.1537446  51.88 0.0003036054    1.019    0.019
       141 -10.5558    131.9799    180.9996   1.2030075201e+02   2.0405964666e+01    0.4643103    0.2638418  14.98  0.001745271    2.461    0.594
       142  -9.9358    128.6019    179.4979   1.2082865440e+02   2.1193331155e+01    0.2005283     0.174223  33.05 7.342425e-05    1.037    0.036
       143  -9.5254    104.0721    180.6940   1.2663174303e+02   2.4599937481e+01     0.175035    0.1436239  33.52 0.0002988065    1.099    0.090
       144 -12.0020    247.4760    123.1388   8.6531282841e+01   9.8186177378e+00    0.6693286    0.5377218 -59.81  0.004004138    2.006    0.501
       145  -9.5863    175.8462    180.1523   1.1081165678e+02   1.3625492758e+01    0.1768176    0.1327077   1.60  0.000313679    1.304    0.233
       146  -8.6202    170.2475    180.3074   1.1197535983e+02   1.4492223488e+01    0.1255785   0.08936986   0.05 0.0001642852    1.504    0.335
       147  -9.6722     82.3607    183.9112   1.3208740178e+02   2.6905579155e+01    0.4014409    0.1433987  33.77  0.001391103    2.425    0.588
       148 -10.2881    115.0054    177.3545   1.2362162747e+02   2.3645196399e+01    0.3711828    0.2026324 -56.27  0.001850094    2.093    0.522
       149  -9.2161     48.2053    179.8274   1.3968381682e+02   3.1696560982e+01    0.1776871     0.128742  54.57 0.0004841995    1.202    0.168
       150 -11.6967     83.8457    175.8374   1.3079600688e+02   2.8318686908e+01     0.335184    0.3241769  16.87  0.000945294    1.150    0.131
       151 -10.0627     77.2111    175.7435   1.3238038458e+02   2.9191034788e+01    0.1913654    0.1648524 -83.47 0.0006177899    1.216    0.178
       152 -12.0664     70.2658    174.2406   1.3388961567e+02   3.0359393234e+01    0.4332201    0.3279141   0.95  0.002534702    1.775    0.437
       153 -10.0548     29.8340    177.3266   1.4378060254e+02   3.3993964641e+01    0.2763127    0.1529613  34.50 0.0007159609    1.647    0.393
       154  -9.3787    109.1355    176.2020   1.2482616631e+02   2.4731229494e+01    0.1729728    0.1410915  60.15 0.0002711803    1.311    0.237
       155 -11.0365     95.7465    173.1981   1.2759480840e+02   2.7237765124e+01    0.3233068    0.2260009 -58.40 0.0009638273    1.561    0.359
       156  -9.9749     90.9102    172.8720   1.2871924131e+02   2.7971785878e+01    0.2759762    0.2036083 -21.57  0.001028048    1.852    0.460
       157 -10.8090     89.5568    160.5096   1.2736386699e+02   3.0711588871e+01    0.3333822    0.2634899  74.53 0.0007927989    1.407    0.289
       158 -12.5943     89.3873    167.2021   1.2833817623e+02   2.9337893879e+01    0.7440799    0.6462277 -53.80  0.004685034    1.255    0.203
       159  -9.8128     84.9944    165.2307   1.2916742400e+02   3.0346157468e+01    0.1840315    0.1606609  60.47 0.0003150255    1.103    0.094
       160  -9.7382    178.8980    174.8215   1.0924619394e+02   1.3951642645e+01    0.1617615     0.151169  34.23 0.0003792547    1.327    0.246
       161  -9.3504    154.7054    172.6403   1.1391091303e+02   1.8249727604e+01    0.2438733    0.1470655  21.46  0.001073277    1.762    0.433
       162  -9.3321    139.2531    173.4247   1.1745635169e+02   2.0614530271e+01    0.1804412     0.113519  42.97 0.0003803238    1.514    0.339
       163  -9.8460     31.4804    171.5586   1.4300860214e+02   3.5045936730e+01    0.1938616    0.1418922 -87.94 0.0006460138    1.279    0.218
       164  -9.9928     28.5854    170.1742   1.4360483223e+02   3.5597474827e+01    0.2214262    0.1710232 -81.46 0.0007992256    1.249    0.199
       165 -12.4954    247.9164    100.9373   8.1506882777e+01   1.2564023556e+01    0.8047816    0.4050767 -23.48  0.003984237    1.732    0.423
       166  -9.3982    100.4158    170.7911   1.2613538114e+02   2.7057075294e+01    0.1829257    0.1526833  44.98  0.001067345    1.101    0.092
       167  -8.9181    167.3364    170.2310   1.1078479044e+02   1.6571802630e+01    0.1696901    0.1224323 -45.60 0.0009353396    1.637    0.389
       168 -10.8931     43.9957    168.8176   1.3977156714e+02   3.4426265433e+01    0.3272278    0.2526436 -46.36  0.001537095    1.572    0.364
       169 -10.0606     47.6910    168.3278   1.3882107997e+02   3.4151806037e+01    0.2630279    0.1656794 -87.32 0.0006440951    1.615    0.381
       170  -8.9636     36.7259    170.4482   1.4167023494e+02   3.4792557969e+01    0.1514818    0.1132489  15.71 0.0009511211    1.607    0.378
       171 -10.8512     68.9915    167.2996   1.3342763232e+02   3.1964930405e+01    0.2369816     0.196925 -71.80            0    1.247    0.198
       172  -9.5282    107.2960    168.2263   1.2409637065e+02   2.6561516283e+01    0.2134703    0.1617236  26.95 0.0004025892    1.281    0.220
       173  -9.3063     58.5787    167.7278   1.3606843387e+02   3.3097256627e+01     0.160435    0.1117459  89.01 0.0003507595    1.493    0.330
       174  -8.9669    175.6817    166.3047   1.0832066405e+02   1.5814904016e+01    0.1206752    0.1071061  66.41 0.0002238285    1.629    0.386
       175  -9.6489    136.3838    165.5118   1.1676198968e+02   2.2517209113e+01    0.2251877    0.2062478  74.98  0.000849648    1.341    0.254
       176 -10.6135     80.6742    163.6868   1.3005035774e+02   3.1247741321e+01    0.2308869    0.2124081  75.29  0.001490753    1.075    0.070
       177 -11.9215    248.0718    142.5510   9.0565688146e+01   7.2883903686e+00    0.6246083     0.365339 -20.34  0.002700739    1.453    0.312
       178  -9.5968     47.1070    163.4706   1.3852206247e+02   3.5257068213e+01    0.2269323    0.1432364  52.22  0.000550348    1.455    0.313
       179  -9.6291     36.9791    162.6793   1.4099568995e+02   3.6434527526e+01    0.1677913    0.1369377  47.94 0.0005229915    1.143    0.125
       180  -9.6983    123.2739    160.8052   1.1903917863e+02   2.5545477051e+01    0.2175609    0.1929632   4.66 0.0002333055    1.164    0.141
       181 -11.2631     96.1242    158.7947   1.2544191559e+02   3.0134883610e+01    0.3529706    0.2582904 -54.43  0.001966816    1.449    0.310
       182 -10.8876     73.4996    157.6063   1.3109798141e+02   3.3485234777e+01    0.4097412    0.3363136  66.53  0.002492514    1.203    0.169
       183  -9.8146     79.0696    158.9743   1.2983625595e+02   3.2465855715e+01    0.1931439    0.1752101  58.45 0.0003877735    1.029    0.028
       184  -9.1428     52.2988    158.4042   1.3669804336e+02   3.5813985631e+01    0.1696323    0.1053092  41.45 0.0008652268    1.481    0.325
       185  -9.5535     47.7340    157.7824   1.3781592945e+02   3.6437056910e+01    0.2085924    0.1662345  44.13 0.0008406902    1.185    0.156
       186 -11.4049    133.6435    142.4664   1.1308325993e+02   2.7407433204e+01    0.9583538    0.3108581 -49.57  0.003260141    3.393    0.705
       187  -9.0987    228.3602    155.2682   9.6296170363e+01   8.7461752750e+00     0.168654    0.1048189 -33.11 0.0005273593    1.612    0.380
       188  -9.8924     61.8030    152.6271   1.3355129330e+02   3.6020682723e+01    0.3121786    0.1993819 -86.13  0.001026926    1.718    0.418
       189 -10.4555    113.3843    151.8366   1.1992094477e+02   2.8938437769e+01    0.3426935    0.3123799  23.07  0.001519594    1.064    0.060
       190 -10.1911    104.7406    146.0955   1.2113354264e+02   3.1518979208e+01    0.4268939    0.2577133 -56.19  0.002058233    1.753    0.430
       191 -10.9168    101.8208    151.0139   1.2274003220e+02   3.0926131039e+01     0.346455    0.2899842  45.45  0.001717925    1.145    0.127
       192 -10.8843     90.5239    150.0739   1.2554578998e+02   3.2810554910e+01    0.2304756    0.2194237  29.12 0.0003826868    1.069    0.065
       193 -10.8922     55.6604    150.1207   1.3489835049e+02   3.7290570263e+01    0.3488224    0.2996582  61.96  0.001570448    1.080    0.074
       194  -9.7989     53.2831    146.6111   1.3513326439e+02   3.8351577358e+01    0.2223341    0.1832416  48.74 0.0006736211    1.157    0.135
       195 -11.3859     58.8377    133.4352   1.3186008788e+02   4.0773892070e+01    0.3255594    0.1737221 -64.33 0.0009233102    1.787    0.440
       196 -13.0773     67.4952    144.3239   1.3092722437e+02   3.7202991407e+01    0.7570259    0.5170699  66.94  0.004008405    1.618    0.382
       197 -11.9354     74.0618    138.5492   1.2824455884e+02   3.7676759937e+01    0.5906476    0.4325402 -76.09  0.001144304    1.433    0.302
       198 -12.6856     33.4161    135.9422   1.3952343088e+02   4.2811724720e+01    0.7481993     0.321519 -39.28  0.002931305    3.704    0.730
       199 -12.7480     61.3765    245.8898   1.4150755763e+02   1.8573758536e+01     1.011996    0.4077544  34.64  0.002947118    1.857    0.462
       200 -12.3586     42.1836    237.0968   1.4456543347e+02   2.1883672295e+01    0.4759826    0.2140486  56.67  0.001469176    1.893    0.472
       201 -11.3630     67.8845    136.3430   1.2966639310e+02   3.8988315397e+01    0.3291217    0.2926785  75.85  0.001111228    1.102    0.092
       202 -14.9851      5.4084    244.4227   1.5135044235e+02   2.3990742465e+01     1.028921    0.6347417  75.38  0.008422475    1.432    0.302
       203 -13.2426     45.9460    228.9582   1.4343996294e+02   2.2838571424e+01    0.5652835    0.3550245  62.92  0.001497844    1.410    0.291
       204 -11.5943      2.1261    144.4339   1.4866931475e+02   4.3201020779e+01    0.4222304    0.1557243 -83.83  0.002018591    2.358    0.576
       205 -11.7095      2.9209    138.7691   1.4817440292e+02   4.4425938405e+01    0.3136697    0.2409908  49.70  0.001507142    1.254    0.203
       206 -14.8684     53.7172    217.0253   1.4120225426e+02   2.4073442818e+01     2.280682     1.495307  33.09   0.01559026    1.360    0.265
       207 -12.2085      8.8302    142.0423   1.4678754073e+02   4.3310819085e+01    0.3490375    0.2858152   2.73  0.002389994    1.571    0.363
       208 -12.3548     45.8197    131.6169   1.3543773623e+02   4.2639390513e+01    0.6334453    0.4042226  60.57  0.002889348    1.641    0.391
       209 -12.0198     47.7943    138.4339   1.3569756035e+02   4.0830105203e+01    0.5145072    0.2151515  22.11  0.002164857    2.819    0.645
       210  -9.0948     74.6704    239.3143   1.3861732718e+02   1.8144166973e+01     0.208665   0.09781047  59.20 0.0006304916    2.341    0.573
       211  -9.8782    118.9454    138.2738   1.1595033022e+02   3.0831257362e+01     0.208267    0.1841314  54.84 0.0004851585    1.202    0.168
       212 -10.5716     71.0885    235.5725   1.3903844687e+02   1.9122641694e+01    0.4072418    0.2232841  43.65  0.002689702    1.383    0.277
       213 -11.0033    112.3274    136.2171   1.1727922029e+02   3.2393384500e+01    0.3833595    0.2943235  20.71  0.001148645    1.393    0.282
       214  -9.7113    134.5690    155.7967   1.1544254104e+02   2.4648304815e+01    0.1982228    0.1804431 -10.23 0.0004397252    1.119    0.106
       215  -8.9284     53.6674    140.3026   1.3426116262e+02   3.9760539142e+01    0.1316812    0.1208142  77.73 0.0005681837    1.003    0.003
       216 -12.1373      2.0025    122.0655   1.4748027434e+02   4.8331701773e+01    0.7530162    0.1560955 -83.51   0.00246958    4.559    0.781
       217 -11.9341     67.1816    128.2449   1.2861165357e+02   4.0972915243e+01    0.4881348    0.4185127  41.36  0.001662279    1.171    0.146
       218  -9.6807    117.5949    129.1391   1.1441999196e+02   3.2994828904e+01    0.2131959    0.1301775 -36.76 0.0009461556    1.809    0.447
       219 -10.4460    209.8138    125.8687   9.3161773111e+01   1.6041997120e+01    0.2670967    0.2015266 -25.47 0.0004901849    1.221    0.181
       220  -8.7488     93.3819    127.5324   1.2080271138e+02   3.7399472775e+01    0.1370217    0.1341213 -77.29 0.0001362909    1.030    0.029
       221  -9.8270     85.9532    126.6912   1.2279193420e+02   3.8729427539e+01    0.2995469    0.2125567   5.51  0.001361897    1.894    0.472
       222 -11.9894      9.5950    126.4692   1.4556519408e+02   4.6854584617e+01    0.2912002    0.2214693 -18.72  0.001841871    1.724    0.420
       223 -11.9055     38.0852    123.2488   1.3672567622e+02   4.5403120759e+01    0.4219658    0.2940885 -53.90  0.002381814    1.432    0.301
       224  -9.6999     50.2386    123.0131   1.3295168659e+02   4.4228935304e+01    0.2270507    0.1370721  74.69  0.001065479    2.019    0.505
       225 -11.4696     20.4044    121.5696   1.4195240144e+02   4.7283792989e+01    0.3135452    0.1735852 -50.86   0.00163976    1.874    0.466
       226 -11.1319     15.4751    122.6451   1.4353625335e+02   4.7374775766e+01    0.2755081    0.1410255 -38.42  0.001326848    2.547    0.607
       227 -10.1340    238.8976    121.6381   8.7460568646e+01   1.1449633501e+01    0.2650965    0.1566736 -11.32  0.001355208    1.702    0.413
       228 -10.9783     12.5152    120.0391   1.4421081666e+02   4.8191766448e+01    0.1928177    0.1053744 -79.41 0.0005460348    1.576    0.365
       229 -12.2507     31.5333    126.8431   1.3912694461e+02   4.5131508016e+01    0.4420487    0.2667696  40.56  0.002412305    1.644    0.392
       230 -11.9993     31.2922    117.2787   1.3811794429e+02   4.7457986321e+01     0.428754    0.2825965 -46.36  0.001986401    1.620    0.383
       231  -9.8019     59.1640    116.8836   1.2920205491e+02   4.4685915505e+01    0.1855928    0.1501672 -40.74  0.000246588    1.322    0.244
       232 -12.0584    248.3151    114.1490   8.4432972709e+01   1.0819620010e+01    0.7973768    0.4242461 -26.36  0.004169745    1.578    0.366
       233 -11.2672    168.2252    113.4573   9.8337577605e+01   2.6239791665e+01    0.3590151    0.3192918 -74.89  0.000840142    1.494    0.331
       234 -10.1113    132.1560    152.3336   1.1537336919e+02   2.5726455535e+01    0.2214666    0.2066907  -3.98 0.0003205454    1.075    0.070
       235  -9.1271     82.1293    114.1830   1.2147472660e+02   4.2215923674e+01    0.1882648    0.1607029  67.91 0.0002428698    1.281    0.220
       236 -10.0372     70.0147    111.4574   1.2474802794e+02   4.4601155875e+01    0.2048945    0.1369511  33.50 0.0003698889    1.542    0.351
       237 -11.5224     57.1310    110.6470   1.2878159126e+02   4.6443724847e+01    0.4762121    0.2722116  16.26  0.002153797    2.225    0.551
       238 -11.0502     31.5160    110.7208   1.3723272198e+02   4.9040620383e+01    0.2798862    0.1917459  49.60  0.001156219    1.512    0.339
       239 -10.3210     62.3564    107.0582   1.2639414451e+02   4.6673276661e+01     0.204741    0.1732481 -66.26 0.0009882036    1.122    0.109
       240 -10.4666     27.2470    106.2532   1.3808006489e+02   5.0489835666e+01    0.2390253     0.191366  74.89  0.001446021    1.231    0.187
       241  -9.8034    134.4992    105.5277   1.0432078962e+02   3.4701802958e+01     0.151709    0.1427755   1.13 1.809493e-05    1.019    0.019
       242 -10.2877    106.0935    102.9782   1.1156952820e+02   4.0777073197e+01    0.2134125    0.2091926  -3.78 0.0002955633    1.016    0.016
       243  -8.8858     42.7063    103.6763   1.3243995085e+02   4.9740825559e+01    0.1388409   0.09314921 -40.19 0.0003962749    1.617    0.382
       244  -9.1670     62.6815     99.6877   1.2480345164e+02   4.8424202566e+01    0.1452581    0.1034396 -29.71 0.0003455032    1.646    0.392
       245  -8.8627    136.7232     94.3219   1.0069852366e+02   3.6473801138e+01    0.1474288    0.1229912 -75.93 0.0003929042    1.580    0.367
       246 -10.7867     47.2029     89.9653   1.2833068551e+02   5.2661579418e+01    0.3612366    0.2325098   9.60 0.0008322182    1.959    0.490
       247  -8.6444     72.2574     90.3068   1.1932255183e+02   4.9356620242e+01     0.143815     0.105771 -29.50 0.0001779043    1.518    0.341
       248  -9.0685     16.5699     90.5323   1.3983089123e+02   5.5136961559e+01    0.1286734    0.1091255 -77.59 6.372213e-05    1.021    0.021
       249 -10.0064      2.0000     88.9812   1.4498498794e+02   5.6287485978e+01    0.2113424    0.0593701 -78.26 0.0007005454    2.930    0.659
       250  -9.5076    168.8283    249.2060   1.2208861786e+02   5.3424789917e+00    0.1439582    0.0968762  16.07 0.0003612138    1.268    0.212
       251  -9.8140    199.8950    245.9111   1.1627695866e+02   1.8562773479e+00    0.1442287    0.1139045  37.41 0.0004822056    1.625    0.384
