#   1 NUMBER                 Running object number                                     
#   2 MAG_AUTO               Kron-like elliptical aperture magnitude                    [mag]
#   3 X_IMAGE                Object position along x                                    [pixel]
#   4 Y_IMAGE                Object position along y                                    [pixel]
#   5 X_WORLD                Barycenter position along world x axis                     [deg]
#   6 Y_WORLD                Barycenter position along world y axis                     [deg]
#   7 A_WORLD                Profile RMS along major axis (world units)                 [deg]
#   8 B_WORLD                Profile RMS along minor axis (world units)                 [deg]
#   9 THETA_WORLD            Position angle (CCW/world-x)                               [deg]
#  10 FWHM_WORLD             FWHM assuming a gaussian core                              [deg]
#  11 ELONGATION             A_IMAGE/B_IMAGE                                           
#  12 ELLIPTICITY            1 - B_IMAGE/A_IMAGE                                       
         1 -14.9489    159.8863     44.1053   8.2569043413e+01   3.9829878644e+01     1.571138     1.106677 -17.75  0.003870591    1.426    0.299
         2 -13.2103    189.7020     14.1763   6.7214322924e+01   3.5589258181e+01     1.997621    0.7488166 -50.57  0.006079519    3.909    0.744
         3 -13.8395    170.6451     15.8882   7.0525669853e+01   4.0508427057e+01    0.9539489    0.6802632  80.97  0.004423327    1.612    0.380
         4 -14.4515    172.9256      9.1505   6.7757100066e+01   4.0563304343e+01     1.106095    0.8752966  83.35  0.003340415    1.392    0.282
         5 -13.1057    198.2245      7.4178   6.3943508592e+01   3.3958106844e+01    0.4211969    0.2958675 -65.97  0.002023127    1.642    0.391
         6 -11.1933     12.9123    242.4810   1.4642749081e+02   2.6675787607e+01    0.1152752   0.09858614  79.20  0.001199419    1.491    0.329
         7 -20.2392     80.2736    179.8896   1.3141788133e+02   2.9382615092e+01     13.08479     5.620466 -67.89   0.06978923    2.497    0.599
         8 -12.2361    199.4201    179.1924   1.0885238108e+02   1.0571693664e+01    0.3970492     0.259973 -57.58  0.001855165    2.762    0.638
         9 -13.5738    195.6821    169.6104   1.0782061474e+02   1.2471270016e+01    0.4367889    0.4136668 -15.47  0.001335582    1.254    0.203
        10 -12.6951    193.8103    164.9634   1.0730720923e+02   1.3435217093e+01    0.3582348    0.2707021  41.23   0.00111897    1.198    0.166
        11 -12.1865    165.4767    172.1052   1.1382692461e+02   1.7495585839e+01    0.2463973    0.1874726  62.22  0.001473659    1.526    0.345
        12 -12.5597    168.2949    240.3365   1.2261343217e+02   8.3186033676e+00     0.248774    0.1340618  40.19 0.0009236839    1.349    0.259
        13  -9.9906     17.9756    222.0589   1.4498677652e+02   2.9182804351e+01    0.1059386   0.08852602  85.25 0.0003898324    1.400    0.286
        14 -12.0862    230.0892    166.7470   1.0135293829e+02   6.6915712894e+00    0.2613415    0.1700635 -40.37   0.00146901    2.022    0.505
        15 -12.0825    207.4887    210.9752   1.1255963654e+02   5.5722880779e+00    0.2186522    0.1376446  48.85  0.001385557    1.616    0.381
        16 -10.2263     30.9435    211.1291   1.4247971609e+02   2.9657398960e+01    0.1392669   0.08201139  61.03            0    1.242    0.195
        17 -15.2514    143.3375    144.4412   1.1335504993e+02   2.5963809107e+01     1.005407    0.7590731 -58.85  0.004747943    1.515    0.340
        18 -12.3536    134.7021    109.6869   1.0793753720e+02   3.4041262761e+01     1.000219    0.1679613 -45.82  0.002445383    6.143    0.837
        19 -14.5079    134.3262    147.4031   1.1580758179e+02   2.7045518109e+01      1.55701    0.4782514 -56.77  0.004594719    5.813    0.828
        20 -14.3261    135.5774    129.1248   1.1203094070e+02   3.0175952014e+01     1.672098    0.3676687 -49.01  0.004796437    5.118    0.805
        21 -12.2647    187.8579    174.7287   1.1013572592e+02   1.3180244474e+01    0.3260359    0.1964329 -57.53  0.001577163    2.937    0.660
        22 -13.5382    163.7948    156.8400   1.1148619985e+02   2.0143683474e+01    0.4275041    0.3361312  44.38  0.001253867    1.155    0.134
        23  -9.9942     22.8248    156.1953   1.4074026817e+02   4.0049555282e+01    0.1273457    0.1073716 -81.60 0.0004261115    1.262    0.207
        24 -13.4087    159.8867    151.4865   1.1127086944e+02   2.1725117617e+01    0.3809814    0.3056459 -35.74  0.002263866    1.370    0.270
        25 -10.7393     16.3802    154.1139   1.4190044581e+02   4.0998493137e+01    0.2917497    0.1990247 -19.39   0.00184062    3.066    0.674
        26 -11.8260    127.0439    249.9100   1.2994745939e+02   1.2918872583e+01    0.1390975    0.1192384  52.33 0.0005645151    1.216    0.177
        27 -10.7800     30.9012    206.4240   1.4225020871e+02   3.0412656481e+01      0.17825    0.1345853  53.06 0.0008022266    1.253    0.202
        28 -12.9969    173.8166    148.7464   1.0797848780e+02   1.9543873286e+01    0.3582838    0.3437207 -26.89  0.001514539    1.167    0.143
        29 -11.9755     27.4871    145.5008   1.3897067479e+02   4.1729096699e+01    0.2655618    0.2336215  70.28  0.001276313    1.212    0.175
        30 -11.0186    192.4267    153.2310   1.0531486824e+02   1.5328585436e+01      0.17067    0.1250841 -43.89 0.0008256647    1.636    0.389
        31 -13.0496     11.5959    206.0260   1.4535927126e+02   3.2245354555e+01    0.3804697    0.1941388  34.50  0.002586582    2.102    0.524
        32 -12.2099    174.0092    140.4589   1.0626422115e+02   2.0816646833e+01    0.2418814    0.1958327 -58.18 0.0009180578    1.557    0.358
        33  -9.5990     20.2588    134.3268   1.3964293576e+02   4.4602644370e+01    0.1022594   0.07042692 -59.18  0.000317454    1.558    0.358
        34 -13.2399    160.5550    128.1224   1.0638508471e+02   2.5533206552e+01    0.4462373    0.3572758 -48.32  0.001650343    1.369    0.270
        35 -10.1448    151.0154    240.5939   1.2535381697e+02   1.0737554305e+01    0.1583622    0.1269256  71.89  0.001051599    1.534    0.348
        36 -12.5144    139.5378    200.5508   1.2275017919e+02   1.7575261214e+01    0.4947999     0.225308  46.47 0.0008143689    1.805    0.446
        37 -10.8287    135.4246    196.1888   1.2294182765e+02   1.8843776673e+01    0.2138974    0.1712271  71.28  0.001236563    1.360    0.265
        38 -10.7221     28.5526    239.4960   1.4409668555e+02   2.5651642383e+01    0.1287239   0.07511217  77.39 0.0005543652    1.403    0.287
        39 -12.8832    145.4133    190.1554   1.2031921014e+02   1.8171517233e+01    0.4240265    0.3260184  10.71  0.002710244    1.714    0.416
        40 -13.9493    201.1750    163.5930   1.0572375476e+02   1.2273543870e+01      2.94963    0.9621388 -48.21  0.007252225    9.985    0.900
        41 -10.6917     22.6658    107.2757   1.3646598823e+02   5.0105057378e+01    0.1853212    0.1570754  -2.90  0.001341776    1.691    0.409
        42 -10.1168      5.5115    104.4917   1.4063982039e+02   5.1917167700e+01    0.1110929   0.08396121 -83.36 3.670745e-05    1.029    0.028
        43 -11.4791     27.3517     98.0303   1.3407342056e+02   5.1745636100e+01    0.3236687    0.2868596 -41.20  0.002376439    1.380    0.276
        44 -13.4113    206.2735    178.0018   1.0745317774e+02   9.5273779369e+00    0.5829181     0.357981  28.67  0.003314016    1.468    0.319
        45 -12.0207    203.5115    175.0220   1.0740599783e+02   1.0380081346e+01    0.2928006    0.2662889  -3.57  0.001113478    1.213    0.175
        46 -10.8515    205.3376    110.2292   9.3309289421e+01   1.8964975150e+01     0.301034    0.1891462  41.51 0.0009088662    1.526    0.345
        47 -12.9487     47.0391     92.6689   1.2764473336e+02   5.1104816413e+01    0.4350699    0.2965949  17.60  0.002534521    1.998    0.499
        48 -11.8323    203.3893    170.6999   1.0664924650e+02   1.0949013982e+01    0.5321085    0.2250838  34.21  0.002361629    2.320    0.569
        49 -11.6207     34.5663    187.5729   1.4056231884e+02   3.3208406313e+01    0.2419255    0.2272456  53.14 0.0009566742    1.466    0.318
        50 -11.0819    103.3428     81.9382   1.0888527640e+02   4.5517619031e+01    0.2295266    0.2008834  34.63  0.000774049    1.227    0.185
        51 -10.7391    142.9466     80.8283   9.8308291337e+01   3.7789277153e+01    0.2301226    0.2007942   6.44  0.000496002    1.213    0.176
        52 -14.4780    149.0282     58.5235   8.9858088210e+01   4.0284988876e+01     1.216064     1.004601 -13.19 0.0009317529    1.211    0.174
        53 -11.8085     21.7094    237.6492   1.4501600513e+02   2.6556770817e+01    0.1429916     0.098685  77.38  0.001058806    1.211    0.174
        54 -13.1514    163.6260     35.5483   7.8813397162e+01   4.0047239310e+01    0.4831389     0.434014  15.36 0.0008809469    1.077    0.072
        55 -10.8555     13.4229     59.8883   1.3255816189e+02   6.1210575392e+01    0.1688257    0.1468119  85.64 0.0004290678    1.239    0.193
        56 -11.4562    148.3369     35.4189   8.1829270154e+01   4.3967397870e+01    0.5311599    0.2877961  75.60  0.001525436    2.911    0.656
        57 -10.9353    160.0081    247.6724   1.2467752276e+02   8.6994063452e+00    0.2666781    0.1285767  34.49   0.00128958    1.789    0.441
        58  -9.5511     15.5772    246.8395   1.4619246829e+02   2.5836587871e+01    0.1446646   0.06024382  83.44  0.001074063    2.179    0.541
        59 -12.0835    167.7358    245.4704   1.2325688383e+02   7.8521631727e+00    0.1795768    0.1401237  20.39  0.000943565    1.383    0.277
