#   1 NUMBER                 Running object number                                     
#   2 MAG_AUTO               Kron-like elliptical aperture magnitude                    [mag]
#   3 X_IMAGE                Object position along x                                    [pixel]
#   4 Y_IMAGE                Object position along y                                    [pixel]
#   5 X_WORLD                Barycenter position along world x axis                     [deg]
#   6 Y_WORLD                Barycenter position along world y axis                     [deg]
#   7 A_WORLD                Profile RMS along major axis (world units)                 [deg]
#   8 B_WORLD                Profile RMS along minor axis (world units)                 [deg]
#   9 THETA_WORLD            Position angle (CCW/world-x)                               [deg]
#  10 FWHM_WORLD             FWHM assuming a gaussian core                              [deg]
#  11 ELONGATION             A_IMAGE/B_IMAGE                                           
#  12 ELLIPTICITY            1 - B_IMAGE/A_IMAGE                                       
         1 -11.5861     79.5911     35.4261   3.9597081428e+01   5.9996896652e+01    0.8176174    0.5277394 -32.37  0.003990267    1.495    0.331
         2 -11.1401     62.3057     35.3371   4.5998911885e+01   6.3366753547e+01    0.7793411    0.4503917  16.37  0.003137402    2.898    0.655
         3 -12.0840    160.0677     29.7015   1.8655684688e+01   4.1038737433e+01    0.4510944    0.3629976 -25.92 0.0003611147    1.276    0.216
         4 -12.0795    164.3286     27.6694   1.7359816821e+01   4.0174020785e+01    0.4486217    0.3506872  36.30 0.0004586023    1.470    0.320
         5 -12.1758    104.8111     13.3343   2.2288126540e+01   5.7173231730e+01    0.5141688    0.3998857 -13.28  0.001526924    1.336    0.252
         6 -10.2209     12.7250      2.0188   5.3498218168e+01   7.6185965714e+01    0.2216455    0.1648901  -2.76 0.0006703111    1.264    0.209
         7 -11.7368     26.2516     28.5642   5.9974318321e+01   6.9967379758e+01    0.5038114      0.32478 -45.67  0.001842687    1.335    0.251
         8 -10.1843     12.7548      8.4782   5.7652233110e+01   7.5119744003e+01    0.5264255    0.2239901 -54.91  0.002194518    3.022    0.669
         9 -11.2013      6.3384     10.8369   6.3501545370e+01   7.5306726270e+01    0.4977392    0.4184579  17.08   0.00356362    1.375    0.273
        10 -12.0078     20.3314     21.9393   6.0193558512e+01   7.1892802120e+01    0.7547804    0.3367131 -36.33  0.001977907    2.117    0.528
        11 -11.8596     16.1682     14.3153   5.8770073503e+01   7.3738341826e+01    0.7099255    0.2976857 -31.07  0.003119203    2.718    0.632
        12 -10.1992    127.9656     11.9793   1.7227976024e+01   5.1436987644e+01    0.3926829    0.2411692 -80.57  0.001739523    2.044    0.511
        13 -10.7447    135.3914     21.2436   1.9578260148e+01   4.8514181940e+01    0.5002141    0.4815131 -40.58  0.002146082    1.057    0.054
        14 -11.1222    127.0309     16.5076   1.9200943280e+01   5.1211136535e+01    0.4112658     0.247053  45.89  0.001576224    1.683    0.406
        15 -10.6686    134.9873     15.0951   1.7290543016e+01   4.9291624296e+01    0.6823982    0.5317179  69.65  0.003625281    1.238    0.192
        16 -12.0897     47.5946     12.8381   4.0569076785e+01   6.9538950512e+01    0.7169761    0.3517948  45.28  0.003462572    2.122    0.529
        17 -11.5916     35.4849     18.1094   4.9596118413e+01   7.0663746988e+01     0.628309    0.2511202 -34.84  0.002676433    2.393    0.582
        18 -11.9268     22.3869     11.4379   5.3185488697e+01   7.3523904990e+01    0.4852614    0.3183937   8.73  0.002332364    1.716    0.417
        19 -12.8171    164.1015     18.7258   1.4416315324e+01   4.1262827967e+01    0.5406366    0.3133617  41.30  0.002386512    2.048    0.512
        20 -11.4628     67.6836     18.3355   3.5447507484e+01   6.4997963245e+01    0.5046427    0.4355187 -57.23  0.002283876    1.444    0.308
        21 -11.7183    238.8330     16.1528   6.7991610643e+00   2.3390273290e+01    0.3378378    0.2213858 -61.25  0.001942236    1.369    0.270
        22 -12.3635    227.7982     15.4061   7.3727657699e+00   2.5910946586e+01     0.607334    0.3324374 -61.71  0.001755238    1.750    0.429
        23 -11.3465     85.8007     13.9986   2.7373925278e+01   6.1624805516e+01    0.5366952    0.3809762 -23.45  0.001702056    1.402    0.287
        24 -10.0580     88.8645      7.2793   2.3187930034e+01   6.1628243387e+01    0.3223744    0.2186082  27.74  0.000940244    1.536    0.349
        25 -10.4087     85.3956      7.8033   2.4354489605e+01   6.2383657906e+01    0.3112069    0.2394221 -44.16  0.001723844    1.461    0.316
        26 -10.3309    219.1895     12.5660   7.2654674729e+00   2.8184249872e+01    0.2635727     0.254258   0.89  0.001240143    1.272    0.214
        27 -10.4010    191.0000     11.9496   9.3947210252e+00   3.5067851424e+01    0.3410094     0.178885 -26.37  0.001572541    1.869    0.465
        28 -11.1234    192.8447      7.7170   7.9998870183e+00   3.5032034721e+01    0.4517805    0.2930872 -11.60  0.001656903    1.834    0.455
        29 -11.8645    245.6195      5.0801   3.7653436833e+00   2.3098836252e+01    0.6726938     0.413698 -60.33  0.003945985    1.401    0.286
        30 -12.4288    233.4844      3.4672   4.0517846503e+00   2.5877406285e+01    0.5211421    0.3649015 -51.15  0.003164612    1.167    0.143
        31 -11.4932    206.6568      2.9625   5.6100828849e+00   3.2112116375e+01    0.5805429    0.2937327  87.76  0.002537089    2.008    0.502
        32 -11.6764    212.2180      8.9672   6.8267632196e+00   3.0192488945e+01     0.651316    0.3971163  -0.44   0.00308204    2.411    0.585
        33 -10.9318    218.5199      3.6447   4.9991707243e+00   2.9245656374e+01    0.3400441    0.2923152  61.05  0.001573923    1.355    0.262
        34 -11.3658    223.8519      2.7764   4.4460988049e+00   2.8104819391e+01    0.2955966    0.2318433 -77.06  0.000219014    1.178    0.151
        35 -10.1545    121.1406     11.6990   1.8302931448e+01   5.3226148829e+01     0.371751    0.2091782  63.58  0.000764553    1.667    0.400
        36 -10.2942    122.2239      6.8883   1.6122455882e+01   5.3404971492e+01    0.4588072    0.1806435 -30.35  0.001827881    2.438    0.590
        37 -11.0107    169.8218      9.2700   1.0650597652e+01   4.0746874530e+01    0.4325055    0.1949108  60.45  0.001832906    2.104    0.525
        38 -10.8371    145.3494      9.5643   1.3682115201e+01   4.7125782807e+01    0.2525958    0.2283608  36.40 0.0003835155    1.183    0.155
        39 -12.3546    105.6262     20.5161   2.5313631329e+01   5.6163589433e+01    0.4257369    0.3479111 -65.44  0.000555097    1.424    0.298
        40  -9.9879    164.0349      5.5367   1.0043956785e+01   4.2604407597e+01    0.5023034    0.2173114  32.66  0.001673275    4.056    0.753
        41 -10.2533      1.0000      7.0565   6.5336003190e+01   7.6430282832e+01    0.3097979   0.09536197 -53.19  0.001379482    2.679    0.627
        42 -10.8418      2.6634      1.8979   6.0944969274e+01   7.7211832113e+01    0.3611259    0.2139854   0.23  0.002148546    1.918    0.479
        43 -10.9534    184.9011      6.6481   8.3719183515e+00   3.7131731351e+01    0.4320183    0.2494445 -54.34 0.0009995174    1.651    0.394
        44 -10.0301     62.1387      7.0403   3.1188168300e+01   6.7524695618e+01    0.2707945    0.1954429  38.10  0.001262177    1.314    0.239
        45 -10.6152    154.1723      2.0012   9.9119727596e+00   4.5493455542e+01    0.6001475    0.2480325 -82.43  0.002055262    3.437    0.709
        46 -10.6860     74.1110      3.2980   2.5121820756e+01   6.5374766950e+01     0.737368    0.2692564  50.32  0.003056562    2.397    0.583
        47 -10.8491    176.8405      5.7777   8.8431746157e+00   3.9269247926e+01    0.3856721    0.2151554 -85.31 0.0006758794    1.888    0.470
        48  -9.1707     77.7753      7.4583   2.6307426415e+01   6.4147892488e+01    0.3026945    0.2134525 -88.20  0.001124427    2.095    0.523
        49  -9.9890     41.2848      4.2346   3.8174816567e+01   7.1770562703e+01    0.3229724     0.193684   5.93  0.001623988    2.072    0.517
        50  -9.9460    141.6279      3.3928   1.1903113511e+01   4.8661279238e+01      0.27773     0.236378  56.46  0.001585886    1.152    0.132
        51 -11.4313    133.9921      2.7620   1.2680282504e+01   5.0711584631e+01    0.4203689    0.2983095  75.87  0.001407801    1.347    0.257
        52  -9.4281    128.7624      1.3484   1.2860512068e+01   5.2189407607e+01    0.2121665    0.1301793  74.97 0.0006606341    1.568    0.362
        53 -11.0579    113.6742      2.5391   1.5737136551e+01   5.5969273434e+01    0.3958776    0.2732899  57.36  0.001706435    1.333    0.250
        54  -9.8314     25.8733      3.8181   4.6172723576e+01   7.4242107437e+01    0.1716083    0.1413842  -9.20  0.000240358    1.013    0.013
        55 -10.6045     22.2103      3.2783   4.8042884955e+01   7.4823749346e+01    0.2394617    0.1782448 -18.94 0.0008323648    1.134    0.118
        56 -10.6580    105.4345      2.1770   1.7078656443e+01   5.8071758444e+01    0.3566261    0.2493894 -81.03   0.00165107    1.729    0.422
        57  -9.1137     33.5407      1.5405   4.0275450066e+01   7.3394042425e+01    0.1240738    0.1021958  -2.23 0.0001601475    1.016    0.016
        58 -10.4224     30.7474    152.1985   8.5274056103e+01   4.0066876633e+01    0.2674964    0.2262837 -83.04  0.001735121    1.132    0.117
        59 -10.4853     50.7051    249.9999   8.8288497357e+01   1.8044182572e+01    0.1512953    0.1108661  61.49     0.001164    1.069    0.065
        60  -9.8130     39.3486    133.4366   8.0779107739e+01   4.3689040161e+01    0.2082253    0.1349976  25.23 0.0006937773    1.871    0.466
        61  -9.3812    103.7509    131.1096   6.2199533800e+01   3.4674698021e+01    0.2009669    0.1806914 -64.84  0.001074149    1.084    0.078
        62  -9.0304     93.2148    129.6022   6.4744418530e+01   3.6909855612e+01     0.201125    0.1431549  28.26 0.0009496326    1.670    0.401
        63  -9.9370     26.9023    126.4762   8.3536381354e+01   4.6704109421e+01    0.3757859    0.1142632 -64.31  0.001228339    2.607    0.616
        64  -9.7139     22.9265    127.0036   8.4774682251e+01   4.6946596014e+01    0.1927586    0.1568626 -87.24 0.0003580853    1.011    0.011
        65 -10.5457      2.2604    125.9335   9.0696402578e+01   4.8856673555e+01    0.4512264    0.1804199  60.64  0.002038018    2.577    0.612
        66  -9.9133     32.8255    125.6763   8.1669308013e+01   4.6312696592e+01    0.2686763    0.1439244  78.08  0.001085384    2.124    0.529
        67  -9.5347     83.1341    124.5274   6.6541190817e+01   3.9836611847e+01    0.3328475    0.2051405 -15.05  0.001094455    4.246    0.764
        68 -11.6687    104.4228    122.3861   6.0098561958e+01   3.6579884250e+01    0.3775021    0.3266013  68.33 0.0008076736    1.186    0.157
        69 -10.3495     49.4752    123.0678   7.6259724362e+01   4.5074676042e+01    0.2903071    0.2037099  21.71  0.001507311    1.798    0.444
        70  -9.9731     48.9005    112.0744   7.4543352656e+01   4.7899183157e+01    0.5159997    0.2319719 -51.49  0.002169947    2.145    0.534
        71 -10.2869     45.0077    120.0274   7.7134249122e+01   4.6376216181e+01    0.3041047    0.2002214  89.47 0.0007449943    1.546    0.353
        72 -10.1154     43.4431    116.2308   7.7002776986e+01   4.7511661469e+01    0.2743797    0.2194277  50.09 0.0009233764    1.311    0.237
        73  -9.6133     56.2189    122.3676   7.4096584193e+01   4.4384164915e+01    0.1942458    0.1205662  47.10 0.0005789975    1.656    0.396
        74  -9.0222     14.1580    119.1363   8.6530203473e+01   4.9642163774e+01    0.1734527    0.1228421  77.28 0.0004197377    1.280    0.219
        75 -10.5844      6.9681    115.9384   8.8403447070e+01   5.0970182160e+01      0.40926     0.176193 -65.20  0.001181891    1.893    0.472
        76 -12.3922      2.5368    111.6961   8.9368143768e+01   5.2310572127e+01    0.4495955    0.2690003 -81.57  0.001100756    1.336    0.252
        77 -11.3897      5.3257    105.4992   8.7842673939e+01   5.3656061395e+01    0.3819518    0.3381253  28.26   0.00261167    1.401    0.286
        78  -9.6508     79.0566    114.7220   6.5661376333e+01   4.2892474261e+01    0.2805887     0.204417 -53.65 0.0009108238    1.312    0.238
        79  -8.9063     67.4885    114.9569   6.9241498387e+01   4.4642408680e+01    0.2018407    0.1194047 -89.14 0.0008019598    2.363    0.577
        80  -9.3634     57.8736    115.0466   7.2250951341e+01   4.5988584743e+01    0.2480437    0.1510132  85.65  0.001078253    2.096    0.523
        81 -10.7705     30.6043     97.6350   7.8090398995e+01   5.3565489062e+01    0.6811132    0.4823211 -38.64  0.003729576    1.607    0.378
        82 -10.7483     28.9323     87.1461   7.6725664372e+01   5.6346488853e+01     1.725415    0.9092723  68.98   0.00719593    2.841    0.648
        83 -11.9646      9.2936     97.3512   8.5531304908e+01   5.5408857529e+01    0.4893394    0.4456332  43.51            0    1.302    0.232
        84 -11.4873     44.7929     84.8313   7.0255744720e+01   5.5191906205e+01    0.4242683    0.3595781 -12.77   0.00103041    1.432    0.302
        85 -10.2479     37.2889     85.9454   7.3328097930e+01   5.5785709602e+01    0.3166446    0.2014526  30.57 0.0008889767    1.796    0.443
        86 -12.7505     17.6897    100.4679   8.3048982647e+01   5.4008086265e+01    0.3393563    0.2788881  79.73 0.0003650503    1.170    0.146
        87 -11.8715     21.0030     93.1077   8.0740920195e+01   5.5574562286e+01     0.932201    0.5046034  78.03  0.002782406    2.293    0.564
        88 -11.9665     25.9633    106.8363   8.1183530346e+01   5.1698414541e+01     1.207872     0.680455 -10.22  0.005196636    3.315    0.698
        89 -11.3729     21.6734    114.5782   8.3652488809e+01   5.0146262984e+01    0.5009942    0.2876182   3.50  0.002383834    2.796    0.642
        90 -11.6003     28.6563    112.7153   8.1168939716e+01   4.9968872951e+01    0.3728371    0.3008617 -46.27  0.001623693    1.379    0.275
        91  -9.0547     86.5594    113.7747   6.3206518346e+01   4.1858294307e+01    0.2037726    0.1374244 -70.45 0.0004031178    1.585    0.369
        92  -9.3114    104.4636    112.5928   5.7762816934e+01   3.8851415287e+01    0.2120488    0.1439673 -65.11 0.0004822455    1.595    0.373
        93  -9.5042    120.8002    109.1118   5.2440614953e+01   3.6346185887e+01    0.3086224    0.2129108 -15.74  0.001244122    2.285    0.562
        94  -9.5121    101.7948    110.0022   5.7871611757e+01   3.9968577711e+01    0.2546379    0.1756333 -25.90  0.001085676    2.011    0.503
        95 -11.3300     79.7132    108.2964   6.4004020100e+01   4.4349432127e+01    0.5993398    0.3254955  36.68  0.001377456    1.998    0.499
        96  -9.4449     67.8211    110.5715   6.8219242368e+01   4.5678103118e+01    0.2653998    0.1472457  30.46  0.001147967    2.115    0.527
        97 -11.1192     16.2332    109.5768   8.4760355682e+01   5.1850672932e+01    0.3481072    0.2218765  43.28 0.0007862123    1.677    0.404
        98 -10.2664    182.3633    104.7776   3.7425336345e+01   2.3520603948e+01    0.3242245    0.2716946  19.91  0.001168925    1.349    0.259
        99  -9.3592    143.0211    105.9589   4.6060359932e+01   3.2191725187e+01    0.2521149    0.1920109 -82.21  0.001128497    1.730    0.422
       100 -10.6342     87.6921    104.3935   6.0612966816e+01   4.3910938632e+01    0.4727376    0.2545375  53.15 0.0009161097    2.154    0.536
       101  -9.0235     45.5114    105.5686   7.4441571580e+01   4.9945581036e+01    0.1389883    0.1219933 -74.52 6.874163e-05    1.015    0.015
       102  -9.2162     64.7169    101.6978   6.7246626950e+01   4.8334603476e+01    0.2563422    0.1866913 -15.65 0.0007311814    2.032    0.508
       103  -9.0565     64.7033     98.6686   6.6542502709e+01   4.9082345477e+01     0.285776    0.1728925 -35.89   0.00100773    2.078    0.519
       104 -11.4730     69.0605     95.6033   6.4338734268e+01   4.9164425681e+01    0.3666949    0.2845577  46.24 0.0004569319    1.381    0.276
       105  -9.7554     50.7596    101.9617   7.1963300917e+01   5.0198973005e+01    0.3533216    0.1891767 -60.85  0.001601003    1.636    0.389
       106  -9.9377     52.8068     97.7968   7.0374001306e+01   5.0971140640e+01     0.438709    0.1714183 -58.64  0.001168341    2.206    0.547
       107  -8.9581    120.4547    101.5032   5.0489001967e+01   3.8098580991e+01    0.1540152    0.1488034 -47.52 7.025632e-05    1.040    0.038
       108  -9.8146     81.1069     98.1292   6.1061006324e+01   4.6566854476e+01    0.2277865    0.2141807 -68.92 0.0004961393    1.016    0.016
       109 -11.3207     80.1518     93.1596   6.0049875794e+01   4.7916932682e+01    0.8327017    0.6420997  39.88  0.004225914    1.396    0.283
       110 -11.2549     89.7442     88.6109   5.5706098378e+01   4.7237740033e+01    0.7404149    0.3420536 -42.63  0.002371626    2.202    0.546
       111 -10.4610     79.9490     83.9242   5.7501786054e+01   5.0117796607e+01    0.4267116    0.4127348  26.74  0.002418466    1.128    0.114
       112 -11.1137     74.3252     78.9409   5.7916694460e+01   5.2251844700e+01    0.7114967    0.5365344  40.87  0.003618463    1.432    0.302
       113 -11.0137     42.8836     94.2985   7.3089329413e+01   5.3077863781e+01    0.3716646    0.3321619 -75.11  0.001681798    1.036    0.035
       114 -12.3278    125.1630     94.4492   4.7258794212e+01   3.8596294344e+01    0.5859771    0.4070288  71.72  0.002505169    1.883    0.469
       115 -11.0446     99.6403     91.3726   5.3477363084e+01   4.4681493989e+01    0.6459105    0.2712075  51.46  0.002228622    2.789    0.641
       116 -10.4806     49.2718     91.1621   7.0113202774e+01   5.3074269588e+01    0.3359845     0.305403  83.66  0.001122418    1.133    0.117
       117 -11.6125      7.0691     88.7443   8.5167858900e+01   5.7687415244e+01    0.4952998    0.3969995  22.99  0.002141905    1.538    0.350
       118  -9.7071     66.3527     88.6423   6.3456153788e+01   5.1271044946e+01    0.3609493    0.2513647  -0.08  0.001373206    2.287    0.563
       119  -9.9818    103.8871     87.4818   5.1072027197e+01   4.4687046880e+01    0.2730625    0.1817762 -42.04  0.001217173    1.471    0.320
       120 -10.4796    143.2437     84.4563   3.9853455428e+01   3.6464182631e+01    0.2748846    0.2565228 -44.80 0.0003885125    1.035    0.034
       121  -9.3255    133.9324     85.1490   4.2276587214e+01   3.8521761632e+01    0.2613873    0.1833405  87.00  0.001066083    2.092    0.522
       122  -9.7004    120.3110     85.2222   4.5783363787e+01   4.1626073608e+01    0.3814059     0.201824  35.55   0.00140464    2.410    0.585
       123 -10.4719    113.3346     83.2548   4.7075417481e+01   4.3586972271e+01     0.339616    0.2726164  74.71  0.001436149    1.467    0.318
       124 -10.0231     66.9903     81.7573   6.1325082372e+01   5.2811100900e+01     0.349997    0.2946678 -12.18  0.001865889    1.436    0.304
       125  -9.5449     46.8307     75.7232   6.7135550281e+01   5.7144657225e+01    0.2917885    0.1677284 -45.31  0.001169912    1.645    0.392
       126  -9.8571     60.5012     82.0427   6.3733837886e+01   5.3742436487e+01    0.3362124    0.1982839 -46.08  0.001187408    1.605    0.377
       127 -10.5242     58.0623     78.1147   6.3522659655e+01   5.5035595014e+01    0.2907893     0.243643 -47.94  0.000627658    1.103    0.094
       128 -12.0030     53.1422     74.0363   6.4208054568e+01   5.6701252826e+01    0.6374191    0.3260227 -60.02 0.0009052197    1.861    0.463
       129  -9.3316    103.6519     80.0133   4.8830386321e+01   4.6362956548e+01    0.2184698    0.1892848 -47.51  0.000364601    1.103    0.094
       130  -9.2106      1.3898     79.6668   8.6042011697e+01   6.0251502747e+01    0.2777238   0.09613922 -72.72  0.001198626    2.241    0.554
       131  -9.0592     88.5795     73.5325   5.1396022755e+01   5.0834924859e+01    0.2161736    0.2019767  67.14 0.0001641599    1.151    0.131
       132  -9.6738     92.5111     72.0387   4.9633544925e+01   5.0372745394e+01    0.2933292    0.2253995 -73.20  0.001387813    1.602    0.376
       133 -10.5137     88.8679     77.7640   5.2678350589e+01   4.9852337555e+01    0.5813923     0.317101  49.94  0.002404485    2.024    0.506
       134  -9.8276     94.2779     76.1908   5.0450662357e+01   4.9124661560e+01    0.4588413    0.3508607  58.74  0.002230118    1.463    0.316
       135 -11.7665     13.5525     74.0190   8.0206275576e+01   6.0870091000e+01    0.5297291    0.3871752 -78.86  0.002389207    1.229    0.186
       136  -9.3885     15.0724     67.4662   7.8218813434e+01   6.2346481165e+01    0.3582299    0.2064949  12.17  0.001874643    2.215    0.549
       137  -9.4414    232.8562     77.6269   2.2610164556e+01   1.6835033924e+01    0.1764677    0.1306335  85.22 0.0005610841    1.711    0.415
       138  -9.3816    112.4661     75.3563   4.4788601667e+01   4.5423659444e+01    0.2513671    0.1476911  49.76 0.0006091176    1.769    0.435
       139  -9.8187    103.3921     74.7959   4.7214324360e+01   4.7524257920e+01    0.3240461    0.2434223  79.45  0.001467751    1.772    0.436
       140  -8.9475     62.2972     75.3238   6.1129402583e+01   5.5054006515e+01    0.1463597    0.1065474 -27.10 0.0001927385    1.625    0.385
       141 -11.0957      2.0459     71.6524   8.4558753751e+01   6.2165501623e+01    0.6958651    0.1735868 -71.42   0.00260378    3.052    0.672
       142 -12.6951      4.4420     61.6497   8.1713979884e+01   6.4436169643e+01    0.6275997    0.3322449 -53.47 0.0009869516    1.533    0.348
       143 -11.6909      9.6688     62.3380   7.9493893286e+01   6.3952565689e+01      0.61006     0.312602 -62.32  0.002186959    1.525    0.344
       144 -10.4274    186.7346     72.2109   2.7701681984e+01   2.8085937470e+01    0.4462819    0.2718175 -37.61  0.002002903    1.508    0.337
       145  -9.0573     81.1302     73.8308   5.3968006027e+01   5.2189883778e+01    0.1998244    0.1961321   5.66 0.0006183113    1.087    0.080
       146 -10.6065     79.3577     68.0918   5.2656250403e+01   5.3773899661e+01    0.6345742    0.4403596 -80.69  0.002732028    2.242    0.554
       147 -12.6558     74.4251     51.7367   4.8374807126e+01   5.8075756323e+01    0.9442981    0.3907934 -51.13  0.002167673    2.756    0.637
       148 -11.5057     34.4838     72.1817   7.1138373468e+01   5.9447027836e+01    0.9983245    0.3815997  21.79  0.003803884    3.565    0.719
       149  -9.9319    153.5537     72.8018   3.4001970405e+01   3.6134703433e+01    0.4041983    0.1878103  41.83  0.001418206    2.614    0.617
       150  -9.2570     19.1678     72.1263   7.7485441831e+01   6.0901884335e+01    0.2000753    0.1421952 -47.04 0.0005092842    1.308    0.236
       151  -9.0169    161.6909     71.2826   3.1893448192e+01   3.4386964574e+01       0.1557    0.1168191 -69.48 0.0003407807    1.565    0.361
       152 -11.2306    123.1139     68.9167   3.9781297121e+01   4.4249714206e+01    0.5245706    0.3289268  47.57  0.001521158    1.645    0.392
       153 -10.2922    219.8379     66.9892   2.1524918799e+01   2.1172392746e+01    0.4194445     0.215741  67.51  0.001844727    2.286    0.563
       154 -11.1705    157.3886     63.6600   3.0343168235e+01   3.6757459010e+01    0.4763367    0.2636491  44.03 0.0008334442    2.026    0.506
       155  -9.7692     96.3425     65.0628   4.6013622136e+01   5.1027347442e+01    0.2663381    0.2137219  26.40 0.0006589059    1.422    0.297
       156 -10.6720     91.6961     62.5216   4.6565961113e+01   5.2511676250e+01    0.3842955      0.29786  68.55  0.001330312    1.580    0.367
       157  -9.2123    119.4631     80.6161   4.4572954098e+01   4.2772056853e+01    0.3007661    0.1976156  81.62  0.001142442    2.494    0.599
       158  -8.7101    192.3140     65.6657   2.4954836582e+01   2.7770593791e+01    0.1583183    0.1053397 -60.74 0.0004627169    1.686    0.407
       159  -9.6061    106.6425     63.3565   4.2325152401e+01   4.9118224130e+01    0.3103715     0.221732  10.44  0.001039114    2.055    0.513
       160 -10.2348     59.2008     63.8939   5.8654808444e+01   5.8136175234e+01    0.3484257    0.2842833 -70.74 0.0004884904    1.356    0.263
       161 -10.3349     65.0209     61.7925   5.5675603224e+01   5.7663172836e+01    0.3529708    0.3299293  46.72  0.001345071    1.182    0.154
       162  -9.1775     51.0825     56.6468   5.9428727767e+01   6.0948669288e+01    0.2754436    0.2115145 -32.77  0.001334917    1.279    0.218
       163 -11.0608     40.4544     56.9045   6.4089929042e+01   6.2318246579e+01    0.4408985    0.2517253  28.40  0.001089159    2.013    0.503
       164 -11.2568     45.5299     48.6482   5.8874643453e+01   6.3452324612e+01    0.5190007    0.3542096 -51.56   0.00245344    1.347    0.257
       165 -11.2701     43.0728     62.2359   6.4692458963e+01   6.0781663457e+01    0.3075534    0.2315053 -49.23 0.0005000514    1.159    0.137
       166 -11.4409     47.5398     59.7723   6.2000056064e+01   6.0753556382e+01    0.6571218    0.3746974  57.09  0.002805074    2.719    0.632
       167 -11.1153     44.0194     43.9798   5.7717224641e+01   6.4634255358e+01    0.2441138    0.2138233   3.02 0.0003054722    1.209    0.173
       168 -11.3607     40.1117     43.7717   5.9448225998e+01   6.5205177568e+01    0.5669652    0.3360127  10.90  0.002320217    2.442    0.591
       169 -10.8872    234.4793     61.5688   1.8426365486e+01   1.8743414792e+01    0.2835537    0.2194648 -26.78   0.00140504    1.212    0.175
       170  -9.5926    113.9076     61.1619   3.9510524449e+01   4.7872820985e+01    0.3267628    0.1989717 -42.80  0.001405753    1.596    0.374
       171  -9.9968    125.1083     56.6083   3.4991880357e+01   4.6017695536e+01    0.4038052    0.2949261 -18.75  0.001622269    1.564    0.361
       172 -10.8057    118.7859     56.8501   3.6664387187e+01   4.7504420323e+01    0.8258058    0.4751311 -64.49  0.002958419    2.838    0.648
       173 -10.3350    109.7859     40.1164   3.2581476556e+01   5.2453656873e+01    0.8100119    0.6167621  15.91  0.003563655    1.581    0.368
       174 -10.5881    112.4740     50.5413   3.5967204979e+01   5.0109694195e+01    0.3055453    0.2864356 -39.46 0.0006724577    1.048    0.046
       175 -11.7516    115.9989     49.0186   3.4467833042e+01   4.9523464863e+01    0.7327369    0.5447864 -12.47  0.001783834    1.583    0.368
       176 -12.1889    120.1748     40.8571   3.0297159594e+01   4.9801503311e+01    0.6595228    0.5962563  28.51  0.002046274    1.155    0.135
       177 -11.7215    119.8040     37.1800   2.8944386393e+01   5.0440088400e+01    0.4787228     0.446315 -80.50  0.001509184    1.133    0.117
       178  -9.4263     84.1869     61.2317   4.8568046130e+01   5.4291020239e+01    0.2034787    0.1766468 -80.81  0.001063869    1.364    0.267
       179 -11.2168     31.8018     52.9459   6.6691835827e+01   6.4216889033e+01      1.19034    0.3554603  20.37  0.003302354    7.051    0.858
       180  -9.8211     29.4272     59.7054   6.9881915900e+01   6.2924145749e+01       0.3236    0.2560304 -79.91  0.001889786    1.374    0.272
       181 -10.1672     24.7808     59.6048   7.1952731718e+01   6.3401117886e+01     0.322214    0.2014744  34.10  0.001082562    1.848    0.459
       182 -10.8350     25.0771     55.9743   7.0773518118e+01   6.4215008574e+01    0.4652894    0.3051363  -2.71  0.001732928    2.000    0.500
       183  -9.1306    135.5663     59.2207   3.3450662426e+01   4.2986895945e+01    0.2233291    0.1492891 -19.51  0.000947893    1.774    0.436
       184 -11.7893     40.6891     70.1088   6.8034539780e+01   5.9239359190e+01    0.4870678     0.299108 -60.82  0.001609326    1.453    0.312
       185 -10.1959    105.8426     57.9680   4.0594026841e+01   5.0321911176e+01     0.293797    0.2053501  85.91  0.001230705    2.190    0.543
       186  -9.9137     91.7853     57.2924   4.4599839126e+01   5.3526195545e+01    0.2975728    0.2387124  73.16 0.0007013067    1.542    0.351
       187 -10.2459     88.0977     55.8402   4.5242339163e+01   5.4575487941e+01    0.4832634    0.1958594 -36.83  0.001300439    2.526    0.604
       188 -10.6025    157.5741     55.1286   2.7553376169e+01   3.8095695883e+01    0.5951006    0.3955129 -50.86  0.002682961    1.542    0.351
       189  -9.7285    154.2883     51.3645   2.6922149591e+01   3.9523287498e+01    0.3173662    0.1996853  -5.62  0.001074942    2.358    0.576
       190  -9.4850    219.9546     56.0502   1.8645779553e+01   2.2689275680e+01     0.206338    0.1803505 -39.61            0    1.039    0.038
       191 -10.2267     52.0259     48.2391   5.5869264190e+01   6.2595426776e+01     0.256876    0.2088285 -40.02 0.0004828612    1.100    0.091
       192 -11.2802     60.8307     48.0212   5.2107327555e+01   6.1234148434e+01    0.8238934    0.3324152 -40.89  0.003032082    2.345    0.574
       193  -9.9622     55.8178     50.5200   5.5161465463e+01   6.1539681492e+01    0.2220803    0.2087205   1.76 0.0004288342    1.116    0.104
       194  -9.4086    201.2753     53.2375   2.0172213296e+01   2.7444306786e+01    0.2154342    0.1759043  -7.80 0.0005451437    1.417    0.294
       195 -10.0339    145.5891     49.4692   2.7950774712e+01   4.2047518129e+01    0.6072086    0.3006234 -13.94  0.001946857    3.475    0.712
       196  -8.8173     93.6949     52.6595   4.2215223394e+01   5.3997799298e+01    0.1524469    0.1161708   2.60 0.0007040991    1.680    0.405
       197 -10.5832    240.3459     50.7690   1.5148068499e+01   1.8935306764e+01    0.2300244    0.2123973  22.92 0.0008692519    1.331    0.249
       198 -11.2897     83.2407     47.1003   4.3393132808e+01   5.7220453237e+01    0.3391683    0.2767631  -9.98  0.001775781    1.342    0.255
       199  -9.9127     26.2670     48.3351   6.7792791110e+01   6.5827178626e+01    0.2535116    0.1250886 -47.40   0.00090827    1.699    0.411
       200  -9.7570      1.9157     49.1976   8.0221082778e+01   6.7494865675e+01    0.1886498    0.1531095 -61.97 0.0005810937    1.036    0.034
       201 -10.1659      4.7663     43.3961   7.7265065287e+01   6.8658955686e+01    0.4584299    0.1304744 -44.02  0.001479157    3.027    0.670
       202 -10.3746     20.1628     46.4647   7.0204137166e+01   6.6823016978e+01    0.5838119    0.3066672 -29.03  0.002774017    2.282    0.562
       203 -10.3595     26.4813     42.9266   6.5782541887e+01   6.6988836719e+01    0.2412151    0.1619493 -49.89 0.0008590617    1.253    0.202
       204 -10.0842     23.3112     37.4726   6.5360320022e+01   6.8475273446e+01    0.4591466    0.3018299  60.31  0.002333466    2.503    0.601
       205  -9.4833    139.5291     43.5174   2.7065834087e+01   4.4505289455e+01    0.2612158    0.2271223  38.09 0.0007825332    1.222    0.182
       206 -10.0554    200.2637     45.0287   1.7979281857e+01   2.8821865139e+01    0.4245266    0.2071384  79.54  0.001677796    2.589    0.614
       207  -9.7874     12.8200     47.4138   7.4219820620e+01   6.7209797641e+01    0.3430928    0.1145125 -39.84  0.001327094    3.199    0.687
       208  -9.2098    161.4059     43.9427   2.3202845077e+01   3.8789000635e+01    0.3335926    0.1905666 -89.61  0.001271902    2.497    0.600
       209 -10.4374    155.6844     42.4943   2.3690800821e+01   4.0477756267e+01    0.3622269    0.2985235 -21.18  0.001320272    1.279    0.218
       210 -10.1733    153.0767     36.2335   2.1996366330e+01   4.2022336999e+01    0.3087634    0.2029323 -39.71 0.0003894863    1.470    0.320
       211  -9.6968     91.7142     41.9210   3.8477107753e+01   5.6328896487e+01    0.3300132     0.212967  74.22  0.001386508    2.358    0.576
       212 -10.4130    135.3754     45.8257   2.8756352733e+01   4.5218513933e+01    0.5102347    0.2006349  57.44  0.001559605    2.481    0.597
       213 -10.6741    233.8705     41.1943   1.3379722561e+01   2.1544894002e+01    0.5413924    0.2255657 -71.68  0.001719291    4.888    0.795
       214  -9.5452     57.3041     41.6229   5.0880705168e+01   6.3075028074e+01    0.2540288    0.1306298  45.32  0.001127121    2.196    0.545
       215  -8.9488    113.3452    249.3142   7.6978438574e+01   1.0185040392e+01    0.1053914   0.07991759  13.74 0.0007047397    1.714    0.416
       216  -9.7563     59.7944     23.7921   4.1359646310e+01   6.5735809946e+01    0.3531632    0.1561513 -36.47  0.001095174    2.129    0.530
       217  -9.9088    213.9268    248.3204   5.9406354031e+01  -3.4004707167e+00      0.15706    0.1065387  23.38   0.00115068    1.111    0.100
       218 -11.1087     56.8635     30.9565   4.6176541322e+01   6.5091899362e+01    0.4302342    0.3044001 -20.44 0.0008609659    1.449    0.310
       219 -11.5251     48.8152     30.5629   4.9534538157e+01   6.6501118020e+01    0.6976389    0.2788798  37.34   0.00274055    2.744    0.636
       220 -10.7740     43.0157     28.0644   5.1036563024e+01   6.7842998517e+01    0.1958858    0.1738525  -5.43 -0.001877172    1.082    0.076
       221 -11.1423      4.6157     36.1446   7.5206923761e+01   7.0282315745e+01    0.3717926    0.2932596  -5.86  0.001684633    1.429    0.300
       222  -9.3612    206.1754     37.4887   1.5174616393e+01   2.8378256599e+01    0.1882933    0.1365143  75.41 0.0004468745    1.448    0.310
       223 -11.1131    176.1417     34.2200   1.7850520332e+01   3.6294484570e+01    0.7277952    0.4410042 -47.71   0.00214186    1.593    0.372
       224  -9.4333    132.0406     36.6846   2.6078539463e+01   4.7414431313e+01    0.3010296    0.1763715 -86.42  0.001118735    2.713    0.631
       225  -9.5785    139.0763     35.1220   2.4106254348e+01   4.5816790053e+01     0.459015    0.1085942 -38.03  0.001313295    3.675    0.728
       226  -9.8944    174.7443    246.5308   6.5729752504e+01   2.0341347933e+00     0.200089    0.1360024  27.10 0.0008801796    1.185    0.156
       227 -11.8632    126.3274    241.6505   7.3833327003e+01   9.5133107674e+00    0.3580522    0.2386829  57.19  0.001844935    1.540    0.351
       228 -11.0050    146.8472    237.8616   6.9631069617e+01   7.1278383161e+00    0.3988817    0.2516699  51.79  0.002365055    1.617    0.382
       229 -11.5928    106.4083     32.4788   3.0298785110e+01   5.4403188427e+01    0.6840423    0.4175076  14.03  0.002532115    2.535    0.605
       230 -12.1277    114.6759     25.0304   2.5175348760e+01   5.3369608732e+01    0.7886662    0.3080682  55.25  0.001818685    2.354    0.575
       231 -10.3436    240.9736     32.1734   1.0537765271e+01   2.1109612823e+01     0.221843    0.1772651  46.40  0.001276011    1.581    0.368
       232 -10.9171    188.9889     28.3507   1.4457430490e+01   3.3747932945e+01    0.4907046    0.3209741  -2.05  0.002246837    2.089    0.521
       233 -10.9117     32.4386     30.7329   5.7654189687e+01   6.8805184878e+01    0.3547982       0.2062 -53.88 0.0004498812    1.752    0.429
       234 -10.3117    197.8908     28.9246   1.3645224267e+01   3.1457792994e+01    0.3940551    0.2830686 -33.02  0.002075785    1.312    0.238
       235 -10.1606     76.4957    239.4874   8.2901697723e+01   1.6628533708e+01    0.1133594    0.0865279  53.23 0.0001314891    1.015    0.015
       236  -9.9918    167.2053    238.1229   6.5982852641e+01   4.1622848096e+00    0.1702076    0.1330911  19.06 0.0007996896    1.170    0.145
       237  -9.1948    199.6933    234.6982   5.9856771494e+01   6.6399135922e-03    0.1133668   0.07216542  10.76 0.0002647446    1.598    0.374
       238  -8.8213    205.6809    233.6662   5.8698894735e+01  -6.9566558200e-01    0.1162514   0.07176628   8.99 0.0004872636    1.697    0.411
       239  -8.8933     15.6418    233.6831   9.3722322968e+01   2.4624434328e+01   0.08692742   0.08083731 -46.84 0.0007044208    1.754    0.430
       240  -9.6029    247.4777    231.4535   5.1687287265e+01  -5.8829239376e+00    0.1076851   0.07730328   8.67  0.000272259    1.012    0.012
       241  -9.8599     12.1561     29.7395   6.8550841222e+01   7.1111741313e+01    0.4021501    0.2020776 -46.20  0.002086027    1.593    0.372
       242  -9.8938      7.2303     30.4483   7.1742144042e+01   7.1337973707e+01    0.3520372    0.1889973 -19.11  0.001322788    2.269    0.559
       243 -12.0079    126.0074     28.4143   2.4130449924e+01   5.0071614464e+01    0.5490389    0.4317079  79.74  0.002805862    1.363    0.266
       244 -10.2268    147.9775     23.0000   1.8162942947e+01   4.5015296481e+01    0.3381155    0.1676681  67.56 0.0009774026    1.965    0.491
       245  -9.4308    147.9855     28.2647   2.0045614176e+01   4.4382726521e+01    0.3225293    0.1748002  55.38  0.001384758    1.794    0.443
       246 -10.9769    143.8806     25.2455   1.9633485341e+01   4.5825910065e+01    0.4464845    0.2998303  85.35    0.0016053    1.649    0.394
       247  -9.4952     70.6016     34.2119   4.2254023913e+01   6.2005928537e+01    0.2082496    0.1944774   5.70  0.001237258    1.051    0.048
       248  -9.9273    230.2957     26.9457   1.0098260240e+01   2.4056963846e+01     0.189993    0.1497706 -41.70 0.0006988423    1.096    0.087
       249 -10.7013    183.2040     25.6567   1.4309036906e+01   3.5534653170e+01    0.3154513    0.2422025 -54.02  0.001422526    1.224    0.183
       250  -9.7577    187.2109     23.1099   1.3086925915e+01   3.4811860934e+01    0.2537162    0.2135017  18.72  0.000780446    1.464    0.317
       251 -10.2881    155.4377     24.5320   1.7573790173e+01   4.2877059069e+01    0.3609461    0.2017235  89.52 0.0009325102    2.206    0.547
       252  -8.9438    181.2670    228.3669   6.2157557022e+01   3.4124183452e+00    0.1150832   0.07885502   4.19 0.0004885523    1.656    0.396
       253  -9.1576     75.4793    224.5010   8.1866471487e+01   1.9346277982e+01    0.1174052    0.0931725  55.86 0.0002073338    1.022    0.021
       254 -11.2269     67.7931    240.6797   8.4605264276e+01   1.7530842992e+01    0.2652355    0.1963779  18.85  0.001752283    1.905    0.475
       255  -9.3524    164.5015    211.9292   6.2855636122e+01   8.2656485842e+00    0.1847492     0.142113  33.86 0.0005124953    1.105    0.095
       256  -9.9611     91.0355     22.6008   3.0056011068e+01   5.9372568208e+01    0.2965974    0.2308065  27.30  0.001220157    1.328    0.247
       257  -9.8906     47.3640     18.6404   4.4001469963e+01   6.8723327675e+01    0.3047405    0.1621524 -26.49 0.0009137176    1.907    0.476
       258  -9.5002     16.9728    206.1316   9.2240996279e+01   2.9669689039e+01    0.2690784   0.09368648  68.77  0.001238109    2.834    0.647
       259  -9.9342     38.6768     22.2772   5.0215300712e+01   6.9498008462e+01    0.2277624    0.1693154 -23.22 0.0005941273    1.229    0.187
       260  -9.0628     61.5016    206.5208   8.3142092487e+01   2.4542041946e+01    0.1219705   0.09706685  62.60 0.0002246736    1.001    0.001
       261 -11.1675      5.7553    199.3537   9.4171090088e+01   3.2089882212e+01    0.4237289    0.1191994 -75.85  0.001972223    3.090    0.676
       262  -9.7145    223.4998     22.0721   9.4010999193e+00   2.6152273918e+01    0.2414255    0.1627241 -73.01 0.0006263224    1.477    0.323
       263 -10.6808    178.6749     20.9937   1.3391832651e+01   3.7229710834e+01    0.4984822    0.2350591  44.53  0.001961855    2.644    0.622
       264  -9.2688      5.3623     22.0954   6.9600865162e+01   7.3202158743e+01    0.1645038    0.1252624 -49.10 0.0004301247    1.103    0.093
       265  -9.5597     78.5597    203.8197   7.9292824606e+01   2.2802278155e+01    0.1981945    0.1250693  48.66 0.0005134153    1.329    0.248
       266  -9.4239    233.6286    196.8214   4.8167262646e+01  -2.1004955923e-01    0.1559185   0.09967522 -35.33 0.0009500348    1.693    0.409
       267 -11.3296    246.8390     19.5893   7.0924569916e+00   2.1307536331e+01    0.2664022    0.2013388 -26.18  0.001642752    1.324    0.245
       268 -10.4403    236.0088     20.0094   7.9343473134e+00   2.3582099514e+01    0.1988886    0.1639943 -50.03 0.0003845589    1.015    0.015
       269  -8.5884     83.6592    195.7141   7.7320096626e+01   2.3690841838e+01    0.1149328    0.1001405  -4.15 0.0004045689    1.638    0.389
       270  -8.8729     52.6886    190.6354   8.3632395565e+01   2.8890706361e+01    0.1146809   0.09325847 -40.77 0.0007039364    1.756    0.431
       271 -10.0574     75.1764     19.0973   3.3227951552e+01   6.3342686239e+01    0.3840376    0.2324936  21.43  0.001343129    2.092    0.522
       272  -9.7639     80.9135     19.2949   3.1472777845e+01   6.2077234142e+01    0.2795157    0.1920894  77.71  0.001338869    2.048    0.512
       273  -8.9279      1.5034     20.5551   7.1485591359e+01   7.3777086721e+01    0.1213031   0.09244075 -41.09 0.0004725076    1.043    0.041
       274  -9.9253    147.8797     16.1383   1.5711174288e+01   4.5800123499e+01    0.4040467    0.1629049  51.16  0.001427534    2.469    0.595
       275 -12.4541      4.5359    183.7820   9.3716479302e+01   3.5426284699e+01    0.7020037    0.3541042  88.36   0.00410551    1.653    0.395
       276  -8.5903    250.3162    176.3467   4.1841052153e+01  -8.9774058230e-02    0.1263077   0.07746525   2.03 0.0006151645    1.723    0.419
       277  -9.7568     28.1754    175.8581   8.7952935845e+01   3.4897804540e+01    0.1921994    0.1354525  70.29 0.0005910988    1.164    0.141
       278  -9.7767    187.0076     15.0723   1.0698026018e+01   3.5748272464e+01    0.2085896    0.1954388 -68.99 0.0005815391    1.056    0.053
       279  -8.9704     51.6697    174.2907   8.2295383840e+01   3.2568209396e+01    0.1367489   0.08004472  64.11 0.0004854758    1.625    0.385
       280  -9.2857     39.4819    173.5400   8.5114662010e+01   3.4184376142e+01    0.1276889    0.1018763  73.36 0.0002562994    1.020    0.020
       281  -8.7690    170.3025    172.2926   5.5067599512e+01   1.3738460271e+01    0.1345842    0.1010174   5.73 0.0003511604    1.572    0.364
       282 -10.8857     14.1866    159.3372   9.0062496628e+01   3.9993642467e+01    0.3295004    0.2128633  87.90  0.001158886    1.271    0.213
       283 -12.2489      8.8281    166.9568   9.1847658984e+01   3.8731935217e+01    0.6002182    0.3336136  44.29  0.002651878    1.638    0.390
       284 -11.4796     11.1341    162.4576   9.1017276188e+01   3.9548769324e+01    0.3880359    0.2104809  75.73  0.001610378    1.588    0.370
       285 -10.6000     19.0317    164.9085   8.9289380520e+01   3.8271310227e+01      0.30049    0.2241452  24.46   0.00190922    1.689    0.408
       286  -9.8123    204.9907    163.1990   4.6693916515e+01   9.0222326378e+00    0.2258636    0.1768972 -23.51 0.0006242688    1.211    0.174
       287 -10.9609     28.1135    161.3254   8.6785390393e+01   3.8199306038e+01    0.3284347    0.2434201 -63.14  0.001439622    1.438    0.304
       288  -9.5514     38.0363    160.3162   8.4214502085e+01   3.7371654536e+01     0.181893    0.1503101  61.77 0.0007900386    1.125    0.111
       289 -10.8365      9.3771    155.4402   9.0976915548e+01   4.1310150194e+01    0.2911893    0.1875304 -81.97  0.001161132    1.299    0.230
       290  -9.7659    104.3531    154.6949   6.6610087675e+01   2.9185447237e+01    0.2830868    0.2207977 -40.89  0.001490454    1.479    0.324
       291 -12.5865     22.9539    149.2265   8.7025525200e+01   4.1549974373e+01    0.6467732    0.3868552 -47.69  0.001777366    2.103    0.525
       292 -11.0558     16.5522    147.8240   8.8576686453e+01   4.2473776063e+01    0.3039123    0.1932756 -79.96 0.0003723195    1.323    0.244
       293  -9.1277     66.0345     10.5152   3.1778762268e+01   6.6327759431e+01    0.1965238    0.1269708  52.70 0.0008163846    1.578    0.366
       294 -10.6486      4.0213    153.4406   9.2174699705e+01   4.2208273779e+01    0.2911698    0.1526843  52.95  0.001233985    1.689    0.408
       295 -11.0416     46.8070    147.6000   8.0516405338e+01   3.9369725523e+01    0.6735202    0.3438624 -51.48  0.003132661    2.186    0.543
       296  -9.6648     61.8984    151.8766   7.7063701313e+01   3.6416325568e+01    0.2013926     0.184943 -55.75 0.0007403753    1.271    0.213
       297 -12.2599     12.4143    136.2478   8.8702023656e+01   4.5598322712e+01      1.44827    0.4060879 -64.18  0.005903578    2.850    0.649
       298 -10.6376      3.0848    147.6819   9.2043325945e+01   4.3618360436e+01    0.2725341    0.1834056 -77.11  0.001049092    1.286    0.222
       299 -11.2074     10.6393    127.2360   8.8391753986e+01   4.7928256891e+01     0.552303    0.2615305 -68.77  0.001815885    1.744    0.427
       300 -11.2830      5.7098    142.3117   9.0994336199e+01   4.4680702700e+01     0.381298    0.2152954  76.42 0.0004901575    1.534    0.348
       301 -10.9687      2.1658    140.8589   9.1827603735e+01   4.5290603360e+01    0.4647934    0.1431736 -77.11   0.00199496    2.576    0.612
       302  -9.3362    104.3020    147.2934   6.5279460882e+01   3.0857947392e+01    0.1367069    0.1152631 -14.36 0.0006990668    1.572    0.364
       303 -11.1190     33.3406    144.4439   8.3781481677e+01   4.1651890948e+01    0.4075485    0.2548115  53.18   0.00138413    1.522    0.343
       304 -10.5938     40.3331    138.4465   8.1146005923e+01   4.2347138886e+01    0.3598319    0.2436432  87.56   0.00128067    1.374    0.272
       305  -8.9901    217.5746    138.8423   3.9369041607e+01   1.0539550583e+01    0.1812707    0.1171965 -42.12 0.0003973822    1.567    0.362
       306  -9.9813     80.0010    138.2612   7.0045684337e+01   3.7026997478e+01    0.3372718    0.2395758  58.20  0.001236332    1.427    0.299
       307 -10.1165     32.1991    137.9055   8.3361071030e+01   4.3360276530e+01    0.3503138    0.2247576  46.43  0.001034855    1.542    0.351
       308 -12.1871     23.6267    136.6104   8.5619295747e+01   4.4523915082e+01    0.4425613    0.3186463  64.35 0.0004428723    1.286    0.223
       309 -10.6794     29.9647    133.1248   8.3437326330e+01   4.4760922117e+01    0.3354932    0.3190761 -34.95 0.0009908754    1.348    0.258
       310  -9.8153     47.3380    134.7459   7.8664876049e+01   4.2437769175e+01    0.2692856    0.1428482 -67.34 0.0009768646    1.681    0.405
