#   1 NUMBER                 Running object number                                     
#   2 MAG_AUTO               Kron-like elliptical aperture magnitude                    [mag]
#   3 X_IMAGE                Object position along x                                    [pixel]
#   4 Y_IMAGE                Object position along y                                    [pixel]
#   5 X_WORLD                Barycenter position along world x axis                     [deg]
#   6 Y_WORLD                Barycenter position along world y axis                     [deg]
#   7 A_WORLD                Profile RMS along major axis (world units)                 [deg]
#   8 B_WORLD                Profile RMS along minor axis (world units)                 [deg]
#   9 THETA_WORLD            Position angle (CCW/world-x)                               [deg]
#  10 FWHM_WORLD             FWHM assuming a gaussian core                              [deg]
#  11 ELONGATION             A_IMAGE/B_IMAGE                                           
#  12 ELLIPTICITY            1 - B_IMAGE/A_IMAGE                                       
         1 -12.8895     62.3554     34.8926   2.4994135964e+01   6.4532657490e+01    0.6727827     0.508222 -27.75  0.003502029    1.444    0.307
         2 -13.5816    233.0336     36.2223   3.5430168049e+02   2.4493477027e+01    0.8653063    0.3118058 -59.17  0.003805895    2.960    0.662
         3 -12.0698    217.8395      2.0547   3.4766996618e+02   3.1178203580e+01    0.9025143    0.1968081  77.76  0.003515372    4.405    0.773
         4 -13.7974    225.2236     23.6880   3.5208073785e+02   2.7433814396e+01    0.8964847    0.5391395  38.04  0.004648158    3.139    0.681
         5 -13.0613    222.4114     11.8553   3.4962540598e+02   2.9272921874e+01    0.7399181    0.3008663 -62.76  0.003638931    2.223    0.550
         6 -12.9286    226.8793      7.5103   3.4845361877e+02   2.8849885017e+01    0.8587397    0.2687792 -47.59  0.002188222    2.189    0.543
         7 -13.2345    234.0752     24.5801   3.5174029723e+02   2.5648778279e+01    0.8544797    0.2944759 -47.83   0.00158306    2.099    0.523
         8 -13.8657    244.1602     21.8708   3.5061692668e+02   2.4110206293e+01     1.132314     0.526457 -58.35  0.006320614    1.779    0.438
         9 -14.5859    245.2989      8.0340   3.4775852392e+02   2.5372109735e+01     1.182598    0.6748983 -61.21  0.005482035    1.371    0.271
        10 -11.6499     48.3039     17.6130   2.2356026034e+01   7.0174628587e+01    0.3798288    0.2827938  81.92 0.0007052218    2.054    0.513
        11 -11.9475     52.5569     24.3255   2.4087829705e+01   6.8298224739e+01    0.4371517    0.2438153 -25.05  0.001286707    2.211    0.548
        12 -11.9799      3.4330     27.2731   5.9801062327e+01   7.4630653753e+01     0.400579    0.2240414 -34.08  0.002074925    1.663    0.399
        13 -11.4551    123.9768     22.1355   2.0168332763e+00   5.1167588378e+01    0.4510373    0.2837776 -13.72  0.001552782    2.101    0.524
        14 -11.1206     32.0405     20.9250   3.3959641368e+01   7.2656001753e+01     0.511059    0.2687079 -31.25  0.002336679    2.175    0.540
        15 -12.3601     69.5993     14.2824   1.1511105966e+01   6.5855998435e+01    0.4919713    0.3624309  77.14  0.001233967    1.490    0.329
        16 -11.2874    212.6755     15.5470   3.5101074687e+02   3.0839366881e+01    0.2667778     0.139567 -55.52 0.0008367299    1.541    0.351
        17 -10.3023    150.1883     13.3014   3.5545152819e+02   4.5427094015e+01    0.2006629    0.1759466 -30.51 0.0005923318    1.300    0.231
        18 -10.2389     88.3716     12.6924   5.2812845082e+00   6.1398286281e+01    0.2042142    0.1743321  11.81 0.0005995142    1.370    0.270
        19  -9.9584     38.0743     12.3124   2.4660871829e+01   7.2952500899e+01      0.17767    0.1476004  32.69 0.0003117316    1.085    0.079
        20  -9.9126    144.0152      9.7509   3.5497924151e+02   4.7339356764e+01    0.1851121    0.1468471  87.90 0.0002343425    1.110    0.099
        21 -12.3492    116.4834      7.2848   3.5758447795e+02   5.4661552407e+01    0.3746614    0.3536858 -19.60  0.001310603    1.248    0.199
        22  -9.1793     78.3105      9.7132   6.4246137375e+00   6.4232045315e+01    0.2349873    0.1880466 -83.64 0.0004433589    1.374    0.272
        23 -11.5965     75.8110      6.7304   5.5592314646e+00   6.5146684782e+01    0.4277522    0.2623177   8.61  0.002004338    2.272    0.560
        24  -9.8511     26.1171      9.9147   3.1026075954e+01   7.5427484789e+01    0.1785916    0.1370586   5.74 0.0006785317    1.315    0.240
        25 -10.8720    194.2178      8.0072   3.5033364932e+02   3.5558514588e+01    0.2403001    0.2055963 -55.43 0.0009297846    1.143    0.125
        26 -12.2527    173.4275      6.6824   3.5140307718e+02   4.0433342050e+01    0.3637028    0.1990038 -43.71 0.0005516775    1.586    0.370
        27  -9.9929     54.2664      9.6154   1.4667394027e+01   6.9939656354e+01    0.1304718     0.101484 -64.23 0.0006985957    1.695    0.410
        28  -9.5301    100.6730      8.7230   8.2477047143e-01   5.8636433206e+01    0.1416968   0.09301308  44.93 0.0006991801    1.591    0.371
        29 -12.1715     64.8150      7.9190   9.6023635228e+00   6.7696847297e+01     0.415643    0.2154468  71.57  0.001815166    2.177    0.541
        30 -10.4411    189.2687      4.9937   3.4987958046e+02   3.6957936342e+01    0.2267231     0.157956  75.24 0.0009073148    1.454    0.312
        31 -10.0620     48.0028      6.0000   1.5148921272e+01   7.1730942796e+01    0.2203853   0.06821384  55.80 0.0007323271    2.920    0.658
        32 -10.4101    210.6003      6.1396   3.4894940561e+02   3.2247893236e+01    0.2141994    0.1320027 -74.53  0.001309356    1.414    0.293
        33  -9.9031      2.8508      6.3561   5.0146793587e+01   7.9005436478e+01    0.1772771    0.1024473   4.28 0.0009476964    1.766    0.434
        34 -10.0757    116.9769      1.3919   3.5522606381e+02   5.5047382929e+01    0.1971136    0.1150635  75.85 0.0009753715    1.494    0.330
        35 -10.9533     88.1961      1.2784   3.5986139327e+02   6.2504592217e+01     0.216696    0.1058884  69.69 0.0002580137    1.775    0.437
        36 -10.4888    147.1766     84.0970   1.7574072133e+01   3.5723640844e+01    0.2907262    0.2128223  82.84  0.001358418    1.660    0.397
        37 -11.7405    147.2021     79.1432   1.6163578942e+01   3.6632754186e+01    0.3046529    0.2291797 -41.45 0.0003085002    1.296    0.228
        38 -11.5704     65.9933     82.1284   4.1661385348e+01   5.3835953877e+01    0.4896465    0.3557363  73.33   0.00181344    1.808    0.447
        39 -10.4069     35.6831     82.4755   5.5473573409e+01   5.8253110696e+01    0.2664043    0.1302253 -64.07 0.0007821373    1.965    0.491
        40 -12.5427    238.0268     80.6728   3.3432679252e+00   1.7834051372e+01    0.4277305    0.2641869  88.41  0.001042791    2.375    0.579
        41 -11.5276    197.0756     80.4963   8.1129079266e+00   2.5447944813e+01    0.2459032    0.1804232 -43.42 0.0002881639    1.179    0.152
        42 -11.4514    169.4031     80.5260   1.2362666924e+01   3.1325120415e+01    0.3312204    0.2960673 -46.49  0.001069538    1.064    0.060
        43 -10.5474    114.6329     80.5927   2.4429230095e+01   4.3973869195e+01       0.3716    0.1881156  44.90  0.001425811    2.023    0.506
        44 -11.1011     11.4297     79.7314   6.7144186116e+01   6.1168284274e+01    0.3899136    0.1454845 -33.88  0.001331381    3.412    0.707
        45 -10.8832     98.2605     77.4044   2.8302637604e+01   4.8371527942e+01    0.5040695    0.3473509 -74.06  0.001957489    1.980    0.495
        46 -11.9749     39.4497     77.1736   5.2286836845e+01   5.9169064557e+01    0.2973702    0.2813054  71.95   0.00040486    1.112    0.101
        47 -10.6006     38.9990     72.6957   5.1277557456e+01   6.0366449587e+01    0.2314635    0.1904034 -30.14 0.0004288701    1.266    0.210
        48 -12.6490    248.5402     74.4888   1.0729526637e+00   1.6935049904e+01    0.4035679    0.3033982  82.27  0.002804688    1.656    0.396
        49 -11.0617     73.3843     74.3053   3.6179334368e+01   5.4307748665e+01     0.447082    0.2849816 -45.19  0.001959726    1.601    0.375
        50 -11.5646     54.9691     72.2519   4.3405717819e+01   5.8122802919e+01    0.4584214    0.2133639 -58.49  0.001260228    2.272    0.560
        51 -12.1819      8.2007     71.4182   6.7492396345e+01   6.3561189583e+01    0.3908487     0.228757  16.40   0.00189748    1.816    0.449
        52 -11.5565    248.2823     69.3605   5.5003872312e-02   1.7651246658e+01    0.2447196    0.1889313 -63.22   0.00172944    1.275    0.216
        53 -11.0413    177.8638     71.6840   8.6652734321e+00   3.0911808190e+01    0.3257075    0.2314333 -77.99  0.001055993    1.615    0.381
        54 -10.7294     96.4618     70.6975   2.6652449252e+01   5.0186964879e+01    0.3778597    0.2987921 -10.01  0.001552689    1.699    0.411
        55 -10.9389    101.5965     67.5741   2.3972860507e+01   4.9638704920e+01    0.3102895    0.2249202   2.16  0.000889392    2.248    0.555
        56 -11.3280    222.2122     70.9660   2.8780537654e+00   2.1984903252e+01    0.2071579    0.1424059 -53.22  0.001240819    1.272    0.214
        57 -10.3342    209.4595     71.4476   4.4015362911e+00   2.4348071763e+01    0.2008679   0.09797914 -44.17 9.897381e-05    1.705    0.413
        58 -11.5110    208.8591     67.0515   3.4426172080e+00   2.5103709935e+01     0.238014    0.1683242 -44.90 0.0002809052    1.178    0.151
        59 -10.8345    217.6721     70.7579   3.3174999116e+00   2.2864959900e+01    0.1771272    0.1033043  82.77 0.0004823061    2.296    0.565
        60 -11.1972    203.1142     69.3053   4.6489568277e+00   2.5926180008e+01     0.308626    0.1231735  74.46  0.001102686    4.174    0.760
        61 -10.5892    123.8473     68.4604   1.8176300995e+01   4.4163382468e+01    0.3642887    0.1832102 -54.17   0.00135756    2.328    0.570
        62 -10.1069     25.6693     69.6710   5.7483048119e+01   6.2662666172e+01    0.1556259   0.09812596 -33.16 0.0003631587    1.714    0.417
        63 -10.8890    213.8080     66.8181   2.8385905527e+00   2.4165953827e+01     0.179965    0.1237872 -56.03 0.0003434769    1.311    0.237
        64  -9.9126    161.0686     65.6520   9.7115347206e+00   3.5711442151e+01    0.3487306    0.2322823 -42.36  0.001714119    1.405    0.288
        65 -10.4211    154.6920     65.3211   1.0726805150e+01   3.7270536039e+01    0.4991273    0.1662477 -42.02  0.001738476    2.740    0.635
        66 -11.6166     92.6229     65.7035   2.6174000311e+01   5.2078756033e+01    0.3645178    0.2731961  -3.51  0.001595445    1.985    0.496
        67  -9.5775    193.3141     66.3430   5.1446037693e+00   2.8393714260e+01    0.1277561    0.1053389   9.87 0.0007047408    1.708    0.414
        68 -12.9853    117.3661     61.6950   1.7561177386e+01   4.6974789004e+01    0.5797406    0.4888947   2.57 0.0009081098    1.545    0.353
        69 -13.1673    248.0205     60.9823   3.5837103267e+02   1.8776755207e+01    0.5283236    0.2972757 -18.93  0.002792174    2.440    0.590
        70 -12.7815    242.8743     60.9483   3.5878394246e+02   1.9651026688e+01    0.3100603    0.2280526  81.51  0.001385027    1.609    0.378
        71 -11.3425     16.5130     63.3319   6.1111471785e+01   6.5097330731e+01    0.3213375    0.2350838 -64.40  0.001711619    1.285    0.222
        72 -11.4536    228.6610     64.3401   7.7082956020e-01   2.1714029878e+01    0.2059393    0.1171758 -58.20  0.001128191    1.715    0.417
        73 -11.0647     69.2038     39.3315   2.4184346815e+01   6.2295643818e+01    0.4555177    0.3068084 -57.39  0.001727416    1.839    0.456
        74 -10.9996    215.4956    248.4884   3.6720171068e+01  -2.6914326586e+00    0.1073104   0.07529651  -0.04 0.0001462137    1.016    0.016
        75 -12.4108     59.3904     29.0127   2.3379071489e+01   6.6131959125e+01    0.4675673    0.2666983  28.08   0.00196536    2.300    0.565
        76 -11.8759     58.2565     61.7827   3.8295231422e+01   5.9994622054e+01     0.685896     0.472585 -79.61  0.002705879    2.170    0.539
        77 -11.2139     51.6187     56.2603   3.9408940314e+01   6.2386261000e+01    0.5887272    0.2966744  20.56    0.0014736    3.071    0.674
        78 -11.6296     48.2030     52.5741   3.9706872031e+01   6.3771764665e+01     0.434715    0.3229779 -57.60  0.001059782    1.447    0.309
        79 -13.2759     51.1433     44.5961   3.4853363080e+01   6.4935990130e+01    0.5692842    0.3616787  17.68  0.001261392    2.074    0.518
        80 -12.8190     60.9454     43.2883   2.9535936795e+01   6.3315379676e+01    0.3722668    0.3211271  60.23  0.000434086    1.249    0.200
        81 -10.0574    199.7704     62.9821   3.5214347451e+00   2.7535127607e+01    0.1753318   0.09681219 -36.60 0.0002716006    1.599    0.375
        82 -11.7560     28.8903     63.1885   5.3940677809e+01   6.3962393497e+01    0.3166138    0.1810549  41.64 0.0009724374    1.886    0.470
        83 -11.9358     24.4002     61.7506   5.6096278291e+01   6.4792815346e+01    0.3064382     0.196885   4.23 0.0009914313    1.770    0.435
        84 -10.6085    167.1693     64.5651   8.4070875201e+00   3.4465794331e+01     0.396309    0.1989723  47.20  0.001656814    2.371    0.578
        85 -10.2227    192.6258     60.5177   3.7727405571e+00   2.9399507468e+01    0.2296205    0.1151063 -35.61  0.001065451    1.803    0.445
        86 -10.0044    183.5729     61.5070   5.1891245685e+00   3.1224194471e+01    0.2244553    0.1318709  65.17 0.0006832534    1.809    0.447
        87  -9.8654    180.2186     60.2013   5.3005457870e+00   3.2166076387e+01    0.2719614    0.1032832 -46.47 0.0007619155    2.400    0.583
        88 -11.1926    151.5267     59.6307   9.6170889226e+00   3.8955349992e+01    0.3085926     0.255514   2.09  0.000563134    1.643    0.392
        89 -10.8197    145.0459     59.6803   1.0821624530e+01   4.0521235033e+01    0.3778375    0.2616857  39.56  0.001345593    1.777    0.437
        90 -13.4378     76.6331     58.6167   2.9293597625e+01   5.7045047840e+01    0.8510745    0.3873982  41.76  0.003205715    2.202    0.546
        91 -10.6175      1.4440     60.2385   6.9516348209e+01   6.6784263877e+01    0.2909217    0.1244574 -78.26  0.001001225    2.264    0.558
        92 -11.7636    209.4494     58.5067   1.3683992096e+00   2.6192543599e+01    0.3040057    0.1987449 -69.61  0.001689222    1.607    0.378
        93 -10.6523    102.0035     60.0250   2.1196263566e+01   5.0998316086e+01    0.2243549    0.2160334  81.05 0.0003011568    1.012    0.012
        94 -10.9817    162.1800     58.0359   7.3613681399e+00   3.6656541701e+01    0.2709873     0.234627  -5.67  0.001491374    1.479    0.324
        95 -12.0670    220.5310     38.0045   3.5561234303e+02   2.6665511073e+01    0.3387535     0.168143 -52.83  0.001808611    1.682    0.406
        96 -12.9089    238.4207     51.2632   3.5711414125e+02   2.1665469473e+01    0.3911692    0.2571806 -59.52  0.001444468    1.345    0.257
        97 -14.1005    230.4949     47.1314   3.5685389051e+02   2.3626626604e+01     0.705545    0.4859911  82.09  0.002044717    1.620    0.383
        98 -13.1166    246.5514     54.5527   3.5717085356e+02   1.9837934749e+01    0.4784606    0.2834511 -59.36  0.002765104    1.555    0.357
        99 -11.4996      6.3742     55.9867   6.5640969906e+01   6.7630197339e+01    0.4825878    0.2734855  -6.43  0.002180141    1.957    0.489
       100 -10.9580    216.0272     55.9634   1.1013229176e-01   2.5235656075e+01     0.187456    0.1550302 -52.40 0.0003184899    1.027    0.027
       101 -11.0487    196.7912     55.4486   2.0124180106e+00   2.9235319424e+01    0.2367802    0.1932031 -57.13 0.0003660785    1.045    0.043
       102 -10.0621    141.7932     55.8664   1.0257825025e+01   4.1935975465e+01    0.2130526    0.1936876  40.97  0.001170531    1.265    0.209
       103  -9.6218     98.0057     54.5742   2.0394303278e+01   5.2956205433e+01    0.3625356    0.2741142   3.28  0.001640702    1.930    0.482
       104  -9.8963    101.9609     53.4866   1.8817093095e+01   5.2197410991e+01    0.3011658    0.1673293  34.30 0.0007892241    2.504    0.601
       105 -12.1277    221.1222     54.8924   3.5938185652e+02   2.4391573784e+01    0.3125155    0.1768238 -62.60  0.001679788    1.797    0.443
       106 -10.0381    173.5469     57.1682   5.4139250033e+00   3.4134415034e+01    0.2113035    0.1585683  62.59 0.0005269585    1.403    0.287
       107 -12.1579     38.1496     57.8942   4.7077604133e+01   6.4094492843e+01    0.5054188    0.2515425  44.11  0.001360885    2.229    0.551
       108 -10.5723     39.2113     52.8355   4.4657056635e+01   6.5113901802e+01    0.3437453    0.2358499 -86.63   0.00152285    2.281    0.562
       109 -10.6948    146.1537     52.4620   8.3921743935e+00   4.1395223484e+01    0.2294881    0.1930906 -44.25 0.0002564635    1.179    0.152
       110  -9.4350    123.2940     53.6793   1.3401761107e+01   4.6892781431e+01    0.1548876    0.1108844 -71.90 0.0007015764    1.611    0.379
       111 -11.6758     82.0500     48.4904   2.3255030441e+01   5.7796377545e+01    0.3946474    0.3129695  59.09  0.001123187    1.253    0.202
       112 -12.4426     77.6100     48.2592   2.4785390024e+01   5.8840993126e+01    0.6173893    0.5471275 -21.13   0.00332836    1.236    0.191
       113 -12.3602     81.2338     41.4487   2.0581919311e+01   5.9215736813e+01    0.7367972     0.530009  49.00  0.003647409    1.315    0.239
       114 -10.8906     75.4390     41.9250   2.2899707246e+01   6.0461344839e+01    0.2810806    0.2209476 -80.63 0.0009641686    1.649    0.394
       115 -10.4482    182.1112     49.6676   2.2615220578e+00   3.3266458008e+01    0.1809582    0.1594993 -82.97   0.00036827    1.104    0.094
       116 -12.1480     15.2520     46.3886   5.7270376410e+01   6.9376131254e+01    0.5575756    0.3587773 -86.61  0.001443589    2.031    0.508
       117  -9.7303    192.9761     48.6740   7.3920374668e-01   3.0993609521e+01    0.2083701   0.07634231  47.17 0.0007048744    4.430    0.774
       118 -10.1259    168.9768     46.9670   3.2142280854e+00   3.6682118034e+01    0.2101876    0.1852191 -65.52 0.0003213505    1.015    0.015
       119 -11.1424    172.0460     43.9739   1.9706832430e+00   3.6375432902e+01    0.4404434     0.221562  67.94  0.002013231    2.003    0.501
       120 -10.9166    133.6804     46.6710   8.8460035793e+00   4.5391654870e+01    0.2653504    0.2269292 -80.23 0.0005118924    1.125    0.111
       121 -11.1443     25.5412     44.8698   4.9886287051e+01   6.8704994949e+01    0.4296813    0.3458094  46.33  0.001915772    1.409    0.290
       122 -11.2558    125.4961     44.8582   9.8760684725e+00   4.7735236081e+01    0.5435339    0.2470818  57.21  0.002168106    2.067    0.516
       123 -12.4175      9.1365     42.8393   6.0453081779e+01   7.0683000511e+01    0.6227503    0.2283118 -45.92  0.002549156    2.399    0.583
       124 -10.3308     98.1709     43.4779   1.6056042719e+01   5.4816623267e+01    0.3490632    0.1831877 -54.36   0.00120212    2.384    0.581
       125 -11.9027    227.4458    242.3017   3.3923163360e+01  -3.1157911120e+00    0.2311244    0.1648246 -46.76  0.001611283    2.454    0.593
       126 -13.9715    245.4865     42.2366   3.5471714788e+02   2.1533708417e+01    0.9249797     0.616365 -40.59  0.006218402    1.185    0.156
       127 -12.0330    212.6018    242.3695   3.6358817607e+01  -1.6794918320e+00    0.2944355    0.1461331  29.02  0.001857378    1.857    0.461
       128 -10.6582     15.6794    242.6677   7.7603283258e+01   2.0324347142e+01    0.1029717    0.0867108 -23.96 0.0007049243    1.697    0.411
       129 -11.4935    238.9990    231.0013   3.0501722484e+01  -2.9008854887e+00    0.1371735    0.1246794  -7.50  0.001149158    1.731    0.422
       130 -10.9368      3.7574    213.9914   7.9431174626e+01   2.7193946120e+01    0.1540005   0.09334543  88.55 0.0008392155    1.627    0.385
       131 -10.8381    245.7559    211.1679   2.6496436655e+01  -1.2012456595e+00    0.1400754    0.1224732 -69.67   0.00096451    2.875    0.652
       132 -10.3129    197.8782    204.3085   3.3204055882e+01   5.0742260131e+00    0.1787162    0.1424575  32.36  0.001198595    1.459    0.314
       133 -11.6752    229.2672    118.9704   1.2293916060e+01   1.3709136228e+01    0.1852401    0.1776662  31.76 0.0003107407    1.274    0.215
       134  -9.6748    215.3787     44.4869   3.5752187866e+02   2.6872899269e+01     0.123384    0.1005968 -49.32 0.0001180641    1.069    0.065
       135 -10.5559    189.5331     43.5883   3.5981385734e+02   3.2434377587e+01    0.2310159    0.1460589  42.17  0.001146012    2.238    0.553
       136 -10.4590      2.1754     44.0473   6.5779673854e+01   7.0788181897e+01    0.2432972    0.1476983 -18.74 0.0008512525    1.684    0.406
       137 -10.5424    147.8705     40.6743   4.4190996491e+00   4.2696583904e+01     0.517933    0.2411618 -58.58  0.001978376    2.607    0.616
       138 -10.2836    159.6591     40.8613   2.7277242112e+00   3.9764384162e+01    0.2182849    0.1506229  82.00 0.0004875655    1.441    0.306
       139 -10.4846    132.9820     40.6383   6.9516150945e+00   4.6454272539e+01    0.2606508     0.185389 -63.35  0.001062049    1.452    0.311
       140 -10.0664     35.8398     41.2221   4.1901781463e+01   6.8150973716e+01    0.1920343    0.1536649  -9.77 0.0003804073    1.331    0.249
       141 -12.4316    200.2595     37.7502   3.5726917798e+02   3.0854077948e+01    0.3628922    0.2388789 -57.02  0.000366497    1.303    0.232
       142  -9.8557    110.8447     39.3748   1.1146361001e+01   5.2277654447e+01    0.2240301    0.1219076  51.32 0.0009501803    1.785    0.440
       143  -9.9469     41.2518     39.6074   3.7972610484e+01   6.7643669749e+01    0.1979627    0.1285174  23.47 0.0006234861    1.650    0.394
       144 -12.4858      5.1140     35.7651   6.1301713530e+01   7.2599202060e+01    0.4263811    0.3383656 -87.84  0.001991152    1.479    0.324
       145 -10.3246    186.0023     37.9813   3.5872949012e+02   3.3957089971e+01    0.2072383     0.168193 -61.49 0.0005300693    1.044    0.042
       146  -9.6642    122.7830     36.9607   7.6372747696e+00   4.9577600356e+01    0.1827308    0.1186395 -32.95 0.0004703268    1.632    0.387
       147 -10.7510     26.2813     36.3006   4.5875877732e+01   7.0502714201e+01     0.278974    0.2176972 -29.38  0.001048074    1.249    0.199
       148 -11.7174    231.9031     53.8285   3.5819307408e+02   2.2512652585e+01    0.2215777    0.1618555 -64.03 0.0003904346    1.262    0.207
       149  -9.8306    173.4751     36.4640   3.5970121314e+02   3.7039363740e+01    0.1387083    0.1150111 -66.30 -5.462788e-05    1.045    0.043
       150 -11.2515     52.1928     36.0677   3.0364479702e+01   6.6379383289e+01    0.3066944    0.2363516  60.20  0.001591228    1.520    0.342
       151 -10.6955    189.3559     34.2531   3.5741769365e+02   3.3676635516e+01    0.1980504    0.1927227 -59.67 0.0005470705    1.248    0.199
       152 -10.4844    166.3942     34.7925   7.0116708339e-02   3.8938371840e+01    0.1750812    0.1304964 -21.02 0.0004687829    1.605    0.377
       153  -9.9964    161.4474     35.5008   8.9899034684e-01   4.0043136709e+01    0.1380629    0.1222288 -72.04  6.81748e-06    1.025    0.024
       154 -10.9789     91.3435     34.0419   1.4134350387e+01   5.7956800975e+01    0.4492644    0.3050855   2.46   0.00196547    2.291    0.563
       155 -10.2799     87.4926     34.5199   1.5501777715e+01   5.8828979395e+01    0.2515688    0.2388549  43.49  0.000649001    1.072    0.067
       156 -10.5843    131.5993     33.5482   4.7735069181e+00   4.7782767351e+01    0.2459105    0.1951015 -60.84 0.0005593635    1.229    0.186
       157 -11.8226     11.6942     32.3238   5.4914056047e+01   7.2908754218e+01    0.3415214    0.2134241  14.83  0.001315373    1.606    0.378
       158 -10.1466    111.4569     32.4814   8.3583620466e+00   5.3100703270e+01    0.1453139    0.1330571  82.94 0.0001330872    1.008    0.008
       159 -10.3647     85.9639     29.5485   1.3762648915e+01   5.9926854067e+01    0.2758177    0.1761641  46.48 0.0007261225    1.516    0.340
       160  -9.5186     89.6735     27.6591   1.1822326988e+01   5.9272579705e+01    0.1508514    0.1054275  30.02 0.0007051358    1.734    0.423
       161 -10.1316     80.3141     30.4596   1.5979170024e+01   6.1163513369e+01    0.1780753    0.1342313  68.44 0.0003651904    1.358    0.264
       162 -10.0300    247.4039    117.6170   9.7798007254e+00   1.1181579594e+01    0.1807252    0.1102023  73.75  0.000952497    3.190    0.686
       163 -11.4192     56.0074     25.3072   2.2975016923e+01   6.7429345275e+01    0.2800968    0.2167052  30.73 0.0007123435    1.283    0.221
       164  -9.9121    196.3485    113.2118   1.5847888355e+01   2.0234647913e+01     0.201216    0.1077272 -46.06 0.0007334154    1.733    0.423
       165 -10.4115     38.4224     28.9402   3.4374627215e+01   7.0169535150e+01    0.3425325    0.1627738 -35.43  0.001438655    2.365    0.577
       166 -11.1562     37.1457     23.6828   3.2261708198e+01   7.1323442297e+01     0.212114     0.169344  51.06  0.001093231    1.409    0.291
       167 -11.3558     11.2161     25.2168   5.2278625557e+01   7.4490888153e+01    0.3983337    0.2887874 -22.27  0.001160497    1.317    0.241
       168 -10.2007     24.9686    111.6458   6.5673316281e+01   5.1424837615e+01    0.1975295    0.1814556  33.74 0.0004059348    1.139    0.122
       169 -12.1025    158.9587     26.4920   3.5852112427e+02   4.1776574149e+01    0.2312146      0.20292 -61.74  0.001394941    1.074    0.069
       170 -10.7324    135.1646     26.6999   1.8262967379e+00   4.7739673558e+01    0.3195896    0.1842735 -56.91  0.001467023    1.798    0.444
       171 -12.3418     68.2435     26.5909   1.8442319480e+01   6.4551228245e+01    0.3790352    0.2777202 -46.14  0.001444615    1.516    0.340
       172  -9.7805    198.4646     26.4541   3.5462857634e+02   3.2614146392e+01    0.1267781    0.1043917 -61.35  0.000618969    1.028    0.027
       173 -10.1539    175.5079     25.0017   3.5629879721e+02   3.7972538857e+01    0.2854111    0.1115427 -65.13  0.001028595    3.333    0.700
       174 -10.3351    198.7487    107.2024   1.4114701040e+01   2.0797705474e+01    0.2445676    0.1948333   2.03   0.00137778    1.590    0.371
       175 -10.3293     85.9309    107.1795   4.1069581417e+01   4.3955061535e+01    0.2389524    0.2066982  65.57 0.0004331852    1.208    0.172
       176 -11.1880    210.6956     21.3765   3.5249623328e+02   3.0606082734e+01    0.2598737    0.2392207   2.99  0.001061177    1.531    0.347
       177  -9.6750    102.0000     22.9933   6.6570527649e+00   5.6750935913e+01    0.2182065   0.08223124 -28.41 0.0007963299    2.900    0.655
       178 -12.8317     81.7720     21.7370   1.1398769016e+01   6.2001733555e+01    0.4713464    0.2787691  67.98  0.002171712    1.707    0.414
       179 -10.0290    151.5143     22.0210   3.5804286948e+02   4.4146055796e+01    0.1925523    0.1276417 -36.08 0.0004442063    1.502    0.334
       180  -9.9463     97.4247     22.0690   7.3318278800e+00   5.8034078068e+01    0.2012881    0.1410421 -29.03 0.0006758753    1.570    0.363
       181 -11.0120     41.7181     20.5679   2.7700282032e+01   7.1018464409e+01    0.4910728    0.3432866  67.57  0.002409047    2.138    0.532
       182 -10.3332    113.8284     21.6130   3.6342291972e+00   5.3860165998e+01    0.2025419    0.1254311  82.52  0.000489248    1.648    0.393
       183  -9.4130     20.3686     21.6779   4.2954336500e+01   7.4212604670e+01    0.1282702     0.101112  60.31 0.0007036044    1.798    0.444
       184 -10.0131    162.8266     20.3992   3.5627330244e+02   4.1536470811e+01    0.1905186    0.1489137 -57.07 0.0009332524    1.139    0.122
       185 -10.9105    201.3990     19.1824   3.5261540992e+02   3.2809759913e+01    0.3800568    0.2025343  61.18  0.001791356    2.122    0.529
       186 -10.0028    200.4943     15.5855   3.5179934729e+02   3.3397844725e+01    0.3144582    0.1605348 -74.52   0.00161819    1.919    0.479
       187 -10.2497     77.2024     16.9119   1.0419185540e+01   6.3712378071e+01    0.2055938    0.1775825 -74.84  0.001091812    1.289    0.224
       188 -10.1425     15.3019    106.9041   6.9111300427e+01   5.3515841251e+01    0.2014062    0.1689586 -73.66 0.0004260246    1.103    0.093
       189 -10.0930    208.8517    104.7015   1.2057321193e+01   1.9354945348e+01    0.2999395    0.1196488 -52.91     0.001086    3.449    0.710
       190  -9.5528    154.4854     15.4197   3.5565269301e+02   4.4133319139e+01    0.1351525    0.1149896 -79.09 0.0002025884    1.016    0.016
       191  -9.9902    159.8715     14.1535   3.5471807887e+02   4.2937612293e+01    0.1717282    0.1413959  66.41  0.000350965    1.290    0.225
       192 -11.0678    249.4591     97.2360   5.5486879108e+00   1.3716458121e+01    0.1957818    0.1339024 -32.85 0.0003527502    1.189    0.159
       193 -10.4298    169.9233     97.8473   1.6744759243e+01   2.8158956521e+01    0.2629736    0.1995548 -39.27 0.0007918549    1.237    0.191
       194 -11.0568     73.7022     24.0678   1.5164704692e+01   6.3640829926e+01    0.2779731    0.1873193  47.89 0.0006401509    1.372    0.271
       195 -11.2425    199.6009     96.2140   1.1468539538e+01   2.2441929040e+01    0.2389122    0.2058606 -67.37 0.0003416874    1.220    0.180
       196  -9.5302     13.7341     12.2635   4.2963987949e+01   7.6789290221e+01    0.1088372   0.09741554  51.12 0.0006834926    1.458    0.314
       197 -10.4722    102.0169     15.8015   3.6076306364e+00   5.7571572124e+01    0.2209674    0.1766788  12.17 0.0006981618    1.569    0.363
       198  -9.8255    109.3043     11.2954   3.3731903285e-01   5.6147073846e+01    0.1394087   0.09654274  43.20 0.0003032188    1.581    0.367
       199 -11.7701    102.1133     96.6040   3.2899847497e+01   4.3254246815e+01    0.2984125    0.2792096  50.55 0.0003635159    1.063    0.059
       200 -10.6426    160.0920     95.9548   1.8139789657e+01   3.0614096707e+01    0.2537068    0.2066907  73.42 0.0007228096    1.364    0.267
       201  -9.9620    183.1327     94.8123   1.3688973696e+01   2.5944446543e+01    0.1778869    0.1609149  -2.75 0.0002892279    1.286    0.222
       202  -9.9606     95.7337     92.3362   3.3718213612e+01   4.5584421194e+01     0.242395    0.2196908 -77.19 0.0004414277    1.144    0.126
       203  -9.2689     95.6570     89.2923   3.2847240963e+01   4.6301868378e+01    0.2637137    0.1941265 -66.74 0.0005859911    1.543    0.352
       204 -10.3476    250.4787     90.4697   4.1010665907e+00   1.4484962339e+01    0.1172426   0.09062281 -37.16 0.0001693243    1.051    0.049
       205 -11.2156    127.5939     89.9372   2.3779154118e+01   3.9074523604e+01     0.288067    0.2098745  36.33 0.0006335018    1.551    0.355
       206 -12.5388    236.7738     86.5554   4.7013657725e+00   1.7223507980e+01    0.4248119    0.2941238 -82.48   0.00158428    1.945    0.486
       207  -9.6885     88.0161     89.5037   3.5496698114e+01   4.7841508905e+01    0.2132884    0.1324918  65.25 0.0004392953    2.222    0.550
       208 -10.2796    114.7952     86.6094   2.6216901608e+01   4.2680817245e+01    0.2133928    0.1465277  59.27 0.0003728739    1.541    0.351
       209 -10.7583     48.0032     85.8531   5.0533957676e+01   5.5776774712e+01    0.2191126    0.2133293  69.00 0.0004826195    1.043    0.041
       210 -12.8615    248.8688     83.1888   2.7995257243e+00   1.5721053117e+01    0.2705092    0.2096049 -42.38 0.0005159227    1.018    0.018
       211 -11.1006    222.0186     84.4229   5.8768204614e+00   2.0086249022e+01    0.2546669    0.1570971 -38.41 1.751296e-05    1.331    0.249
       212 -10.0875    178.2882     84.3349   1.1867995253e+01   2.8740768442e+01      0.13516    0.1106201   1.31 0.0003356763    1.630    0.386
       213 -10.9515    161.8644     83.7787   1.4577627538e+01   3.2441527192e+01      0.33423    0.2545936  60.67  0.001693866    1.378    0.274
