#   1 NUMBER                 Running object number                                     
#   2 MAG_AUTO               Kron-like elliptical aperture magnitude                    [mag]
#   3 X_IMAGE                Object position along x                                    [pixel]
#   4 Y_IMAGE                Object position along y                                    [pixel]
#   5 X_WORLD                Barycenter position along world x axis                     [deg]
#   6 Y_WORLD                Barycenter position along world y axis                     [deg]
#   7 A_WORLD                Profile RMS along major axis (world units)                 [deg]
#   8 B_WORLD                Profile RMS along minor axis (world units)                 [deg]
#   9 THETA_WORLD            Position angle (CCW/world-x)                               [deg]
#  10 FWHM_WORLD             FWHM assuming a gaussian core                              [deg]
#  11 ELONGATION             A_IMAGE/B_IMAGE                                           
#  12 ELLIPTICITY            1 - B_IMAGE/A_IMAGE                                       
         1 -12.4307    193.3921     35.0287   6.6263048780e+01   3.2896855674e+01    0.7367473    0.4538679 -54.30  0.003798494    1.649    0.393
         2 -12.8171    198.6971     30.6271   6.4515732226e+01   3.2192192878e+01    0.8139268    0.5530533 -89.04  0.004459155    1.416    0.294
         3 -13.7674    211.2387     14.8536   5.9507926438e+01   3.1139342359e+01     1.208852    0.8881006  43.77  0.007205832    1.811    0.448
         4 -11.7670      2.2571      4.4500   1.0914644775e+02   7.2054730063e+01    0.6156853    0.1977708 -37.86  0.003378543    2.526    0.604
         5  -9.3338    223.0000    244.0004   1.0693092012e+02  -1.0057305159e+01     0.186359   0.06747763 -39.40 0.0008013901    2.935    0.659
         6  -9.8483    205.0024    250.5022   1.1140600807e+02  -8.2335011595e+00    0.1916571    0.1065845  35.28 0.0004266654    1.557    0.358
         7 -10.4242    184.1980    250.2643   1.1538936597e+02  -4.8558630131e+00    0.2320514    0.1596923  28.50            0    1.315    0.239
         8 -10.7269    169.6586    248.5461   1.1798998297e+02  -2.1618417712e+00    0.3270693    0.2382978   3.68 0.0007215384    1.800    0.444
         9 -11.0844    149.8569    248.4553   1.2191711464e+02   1.2027975093e+00    0.3785975    0.2840832 -74.71  0.002185787    1.733    0.423
        10 -10.3418    143.8213    249.4991   1.2326471207e+02   2.0417796622e+00    0.2356689    0.1711124 -83.54  0.001172684    1.864    0.463
        11 -10.4389    135.9923    248.7696   1.2472497950e+02   3.4915032466e+00    0.2558614    0.1882316 -48.67  0.001098274    1.618    0.382
        12 -10.7289    132.2059    248.8115   1.2548418839e+02   4.1201219598e+00    0.3889036    0.2244637  63.01  0.001840893    2.079    0.519
        13 -10.1273    122.8847    249.7407   1.2745136657e+02   5.5036684037e+00     0.323401    0.2128224  53.14   0.00182403    1.323    0.244
        14  -9.9579    126.8715    249.1488   1.2658736749e+02   4.9503147838e+00    0.3754887    0.2424594  88.13  0.001149882    2.207    0.547
        15 -10.1489    121.7451    244.9581   1.2707312498e+02   6.5804009904e+00    0.3619518    0.1908613  59.25  0.001689325    2.083    0.520
        16 -12.2533    125.2446    240.5782   1.2579627766e+02   6.8211793244e+00    0.7239397    0.4496442  38.54  0.003822481    1.492    0.330
        17 -10.8832    115.2458    250.3209   1.2902675617e+02   6.6512719334e+00    0.4931838    0.3032228  38.43 0.0008056795    1.521    0.342
        18 -11.1032    109.6117    246.8309   1.2971767854e+02   8.2224452010e+00    0.4880224    0.3605902 -77.46  0.002375643    1.479    0.324
        19  -9.7862    102.5459    247.4698   1.3118151644e+02   9.2362924271e+00     0.214458    0.1942947 -71.64 0.0009049386    1.292    0.226
        20 -11.0314     98.9158    247.1775   1.3185792218e+02   9.8678279983e+00    0.4783362    0.3019398  72.47  0.002398591    1.694    0.410
        21 -11.0421     87.4955    248.3333   1.3419310988e+02   1.1415223584e+01    0.4149452    0.2891587  59.10  0.000961655    1.189    0.159
        22  -8.3432     75.3102    250.6603   1.3673254825e+02   1.2779079463e+01    0.1320441   0.07563932  68.74 0.0007044804    1.690    0.408
        23  -8.5187     73.2206    247.0616   1.3678012071e+02   1.3785050365e+01    0.1767901    0.1415304 -69.48 0.0007112767    1.401    0.286
        24 -10.5712     74.2611    242.3355   1.3611996192e+02   1.4572669332e+01    0.5963381    0.4457036   1.77  0.003109036    2.894    0.654
        25 -11.4601     60.3868    245.8071   1.3906163645e+02   1.5844971983e+01    0.6254374    0.4150516  59.78  0.003923022    1.223    0.182
        26  -9.6474     66.3531    244.2757   1.3780938439e+02   1.5319159111e+01    0.2463693    0.1831544  25.74  0.001110312    1.945    0.486
        27 -14.2946      6.9319    137.1401   1.3944002535e+02   4.6155526382e+01     2.433707     1.027965 -70.96   0.01213068    1.854    0.460
        28 -13.5571      5.4443    245.1711   1.4860066031e+02   2.2580183358e+01     1.153609     0.614085  73.21  0.007514762    1.453    0.312
        29 -12.7124     13.7071    238.5932   1.4683833891e+02   2.3008663250e+01    0.7393899    0.3560447  55.04  0.004478476    1.700    0.412
        30 -12.8640     33.4779    227.5174   1.4252197021e+02   2.3054119702e+01    0.4719681    0.3242056 -64.26 0.0008333914    1.581    0.368
        31 -14.2384     40.1454    218.6622   1.4049481136e+02   2.4144467389e+01     1.661155     1.285818   8.33  0.009904815    2.299    0.565
        32 -11.1069    143.5365    243.0418   1.2242394721e+02   3.2425467181e+00    0.4377572     0.184722 -58.79  0.001816798    3.104    0.678
        33 -10.5404     84.7849    229.3882   1.3265090957e+02   1.5653246760e+01     0.234322    0.2087642 -75.86  0.000124437    1.245    0.197
        34 -10.1032     85.0157    241.3887   1.3393828457e+02   1.3159723553e+01    0.2507326    0.2285268  65.10   0.00157035    1.213    0.176
        35 -10.7930     85.1344    234.7797   1.3319164173e+02   1.4480877336e+01    0.3891918    0.2944438  83.98   0.00218711    1.236    0.191
        36 -11.4316     98.7524    232.7243   1.3019631875e+02   1.2763324846e+01    0.9803134     0.404742 -74.87  0.003473487    4.091    0.756
        37 -11.0455    113.2747    230.6870   1.2694001530e+02   1.0787009848e+01    0.3611724    0.3230364 -77.67  0.001604619    1.190    0.160
        38 -11.8573    105.1100    227.9055   1.2827525568e+02   1.2718556771e+01     1.026911    0.5108274  67.75  0.003998985    3.053    0.672
        39 -10.7514     98.7947    223.3817   1.2901337093e+02   1.4703165914e+01    0.3877874    0.2841764  50.77 0.0006489727    1.221    0.181
        40 -10.7655     96.8373    239.7635   1.3142135937e+02   1.1648107539e+01    0.3666131    0.2629617 -37.23  0.001014457    2.150    0.535
        41 -11.0529     91.1876    241.8396   1.3277648597e+02   1.2121460724e+01     0.431154    0.2480038  62.87  0.001787368    1.695    0.410
        42 -10.6285     89.9331    238.0851   1.3260499338e+02   1.3067888969e+01    0.2937068    0.2073049 -63.27  0.000822357    1.533    0.348
        43 -10.2733    157.9525    242.7572   1.1946765177e+02   8.1520240734e-01    0.2079239    0.1946919 -59.39 0.0006843157    1.239    0.193
        44 -11.9486    136.0226    241.1367   1.2368145114e+02   4.8805569435e+00    0.6984668    0.4695489 -29.58   0.00354059    2.259    0.557
        45 -10.1807    132.4832    224.4615   1.2201530894e+02   8.7265202300e+00    0.2259301    0.2173533 -64.31 0.0009570894    1.168    0.144
        46 -10.8931    142.0971    221.6569   1.1953537396e+02   7.5712134879e+00    0.4229819    0.2576829  32.22  0.001006594    1.730    0.422
        47 -10.6597    135.9855    225.4642   1.2142232937e+02   7.9051155277e+00    0.4703752    0.2224344 -52.01  0.001484204    2.324    0.570
        48  -9.8308    134.7836    236.9926   1.2335504537e+02   5.8725057290e+00    0.2127774    0.1841791  48.25 0.0004913941    1.034    0.033
        49 -11.8716    134.5069    232.7031   1.2280033647e+02   6.7433132488e+00    0.4341615    0.3845455 -79.50  0.001844885    1.228    0.185
        50 -10.5687    244.6009    240.7914   1.0242579072e+02  -1.2752812411e+01    0.1567917    0.1070428 -39.56 0.0009535248    1.675    0.403
        51 -10.9589    116.8252    238.1879   1.2719495737e+02   8.6990159204e+00      0.43768    0.2976173 -32.27  0.001726931    2.341    0.573
        52 -11.0195    129.2360    234.8211   1.2419377236e+02   7.2461787234e+00    0.4310285    0.2371959  60.34  0.001957658    2.115    0.527
        53 -10.4340    122.4759    233.3531   1.2538977283e+02   8.6932176226e+00    0.3555276    0.2861491 -70.28  0.001901617    1.351    0.260
        54  -9.0981     61.2980    239.0002   1.3827359818e+02   1.7089555335e+01    0.1717579    0.1343712  77.07 0.0009005507    1.045    0.043
        55 -10.2157    105.2001    237.9030   1.2951934319e+02   1.0674871085e+01    0.3008715    0.1610372  32.44  0.001401877    2.159    0.537
        56  -9.7503    173.0878    235.8929   1.1534191703e+02  -6.0280586870e-01    0.1905539    0.1684435  58.08 0.0002826669    1.234    0.189
        57 -10.7119    156.7517    231.8205   1.1804597721e+02   2.9945178675e+00    0.2498781    0.2345334 -27.51 0.0004261832    1.205    0.170
        58  -8.6396     78.0167    233.5011   1.3447129774e+02   1.5819964512e+01    0.1742121    0.1128937  44.97 0.0004472827    1.428    0.300
        59  -9.3479     62.8668    232.9634   1.3739748970e+02   1.8116682411e+01    0.1670256    0.1514894  88.89  0.000311457    1.264    0.209
        60  -8.9918    162.2847    232.6753   1.1703772707e+02   1.8601560937e+00     0.130947    0.1020565  71.78 0.0004733698    1.601    0.375
        61 -10.2191    142.5754    227.7832   1.2038221588e+02   6.2779832753e+00    0.2705978    0.1842144 -77.16  0.001333865    1.986    0.496
        62  -8.6529     57.3857    231.2148   1.3829349460e+02   1.9235870299e+01    0.1629692    0.1009481 -88.63 0.0007786228    1.515    0.340
        63 -11.5753    176.0589    242.5424   1.1579712072e+02  -2.2461313180e+00    0.4866951    0.2610831  56.97  0.001451535    2.610    0.617
        64 -10.7267    166.0143    242.0235   1.1773139766e+02  -4.4277173280e-01    0.3393873    0.1673196  45.53  0.001491792    1.835    0.455
        65 -10.4523     79.3838    225.8437   1.3334768120e+02   1.7224228359e+01    0.4359439    0.2765469 -79.70   0.00144542    1.589    0.371
        66  -9.3281     77.2914    220.9539   1.3321753587e+02   1.8589468454e+01    0.2014531    0.1510239  74.20 0.0004472373    1.190    0.160
        67  -9.9405     91.3120    225.4080   1.3083490743e+02   1.5474755743e+01    0.5726787    0.1820082  52.07  0.002015437    3.363    0.703
        68 -10.5032    117.2382    224.2628   1.2522771611e+02   1.1428107905e+01    0.3165991    0.2348465  29.88 0.0007785434    1.531    0.347
        69  -9.5244     64.8749    224.6143   1.3615837679e+02   1.9602017357e+01    0.2370046    0.1798213 -49.70 0.0009219758    1.732    0.423
        70 -10.2383     69.9874    218.1521   1.3441385304e+02   2.0274870388e+01    0.5777716    0.3082469 -89.12  0.002681745    2.213    0.548
        71 -10.0556    160.3919    223.6020   1.1596883573e+02   3.8838891120e+00    0.2661676    0.1916216   3.50 0.0007572995    2.010    0.502
        72  -8.5296    104.5419    218.5378   1.2714548756e+02   1.4788448209e+01    0.1383422    0.1196169  68.14 -2.630001e-05    1.012    0.011
        73  -8.7286     99.3169    218.2867   1.2823289593e+02   1.5708220955e+01    0.1226874    0.1098852  -8.36 0.0003700048    1.589    0.371
        74  -9.0556     88.9828    218.2587   1.3043492939e+02   1.7378378003e+01    0.1902304    0.1840179  79.14  0.000500351    1.243    0.196
        75  -9.5988     88.2449    213.1576   1.2993968901e+02   1.8615037379e+01    0.3660833    0.2015768 -86.18  0.001593167    2.366    0.577
        76  -9.0011     62.5800    217.9044   1.3591571324e+02   2.1379548187e+01    0.1868152    0.1647467  45.45 0.0005465329    1.339    0.253
        77  -9.9825    137.3171    214.4424   1.1942063584e+02   9.9059233538e+00    0.2714542    0.2131018 -85.18   0.00118547    1.488    0.328
        78  -9.1795    102.4425    211.8850   1.2667637610e+02   1.6585714854e+01    0.3779145    0.1514536  53.52  0.001408546    2.746    0.636
        79 -10.1502     91.3089    204.5626   1.2811098886e+02   2.0053958417e+01    0.4557697    0.3332255  32.74  0.001527008    1.566    0.362
        80  -9.1598     97.2088    210.8258   1.2767588579e+02   1.7687776422e+01    0.2253077    0.1694373 -53.67 0.0003379582    1.474    0.322
        81  -9.5403     96.8542    206.8188   1.2719377911e+02   1.8640651411e+01    0.3325325    0.2082399 -88.06  0.001550911    1.930    0.482
        82  -8.9848    181.6138    243.3044   1.1481131306e+02  -3.3105611731e+00    0.1308679   0.09650519  63.42 0.0007018019    1.797    0.443
        83  -9.3690    106.8534    209.8364   1.2541149817e+02   1.6291891827e+01    0.1952011    0.1887676 -48.55 0.0004952556    1.250    0.200
        84  -9.5138     74.2566    209.0076   1.3243623255e+02   2.1683893950e+01    0.3153746    0.2307444   9.03  0.001580617    2.402    0.584
        85  -9.8618    112.6195    208.4467   1.2392691425e+02   1.5604567407e+01    0.2563182    0.2308283  70.30  0.001495471    1.010    0.010
        86  -8.8707     29.0191    208.5117   1.4179100893e+02   2.7672935570e+01    0.1724445    0.1055625  46.94  0.001020179    1.592    0.372
        87  -9.1316     32.8827    206.9303   1.4087634982e+02   2.7586525552e+01     0.171647    0.1390261 -72.03  0.000343814    1.282    0.220
        88 -10.4223    246.5281    206.1298   9.5775632269e+01  -7.9032151107e+00    0.2686059    0.1581436  18.86  0.001341085    2.009    0.502
        89  -8.6247    125.6975    205.6883   1.2057644145e+02   1.3883122077e+01    0.1361452    0.1152547  -8.44  0.000420398    1.610    0.379
        90 -10.6364    250.1900    201.4754   9.4239605489e+01  -7.7269317237e+00    0.4501262    0.1541372 -36.30  0.001812631    2.737    0.635
        91  -9.1857     74.6157    203.8437   1.3171351193e+02   2.2803154389e+01    0.2576676    0.1942788  22.13 0.0009130186    1.831    0.454
        92  -9.5435    160.0519    213.6893   1.1437344845e+02   5.8676728802e+00    0.2104185    0.1909864 -76.33 0.0004136102    1.234    0.190
        93  -9.7249    103.3463    202.8303   1.2515976075e+02   1.8453710756e+01    0.3643725    0.2113905  51.95  0.001387435    1.656    0.396
        94 -10.4967     84.3187    201.4003   1.2923682599e+02   2.1885694309e+01    0.4069962    0.2725828 -42.48  0.001302956    1.964    0.491
        95  -8.9783     85.7171    195.6884   1.2812150600e+02   2.2987688876e+01    0.2016768    0.1701702  59.01 0.0002361662    1.126    0.112
        96  -8.9998     64.3077    201.6392   1.3370095932e+02   2.4794459994e+01    0.1662076    0.1249957  33.23 0.0007549394    1.581    0.368
        97  -8.8419    183.0419    200.3040   1.0703655247e+02   4.1784772515e+00    0.1948629    0.1706843  38.52 0.0001965929    1.100    0.091
        98  -9.1182    127.9116    199.7067   1.1908997625e+02   1.4792134219e+01    0.1969178    0.1749324  59.12 0.0004087623    1.049    0.046
        99  -9.4349    120.0516    199.5795   1.2085784752e+02   1.6255692640e+01    0.2393321    0.1911521 -82.29 0.0007131094    1.326    0.246
       100  -8.5797    115.2564    200.6287   1.2211961156e+02   1.6879606308e+01    0.1476267    0.1053143  82.03 0.0006969246    1.644    0.392
       101  -9.6067     44.2560    198.9723   1.3773225074e+02   2.8037988548e+01    0.2702388    0.2224505 -21.70  0.001619787    1.954    0.488
       102  -9.4142     28.0442    198.4846   1.4108585269e+02   3.0023064062e+01    0.2938636     0.118425 -66.83  0.001413657    2.090    0.521
       103 -11.8203     59.2723    195.0758   1.3401621589e+02   2.7006310701e+01     0.619837    0.5041322  -8.87   0.00247582    2.000    0.500
       104  -8.7497    145.0000    198.0520   1.1493522785e+02   1.1941430694e+01    0.2254469   0.08407305 -51.26 0.0003593662    2.817    0.645
       105  -9.7714    102.3755    196.2996   1.2438662664e+02   2.0109650658e+01    0.3783828    0.2588687 -23.73  0.001193785    2.620    0.618
       106  -9.6401     96.6657    195.9556   1.2564813748e+02   2.1150735278e+01     0.293423    0.1983083  46.46  0.001477804    1.419    0.295
       107  -8.8563     38.8386    196.0023   1.3857699476e+02   2.9368922674e+01    0.2176685    0.1258456  75.18  0.001133205    1.731    0.422
       108  -9.4872     38.5084    192.0125   1.3822968372e+02   3.0327304350e+01    0.2110029    0.1610499 -81.15 0.0003885496    1.104    0.095
       109  -9.9579     40.9069    188.3682   1.3730892544e+02   3.0894152406e+01    0.2950098    0.2250191 -80.50 0.0009204953    1.106    0.096
       110 -10.6625    249.5672    194.3136   9.2963476344e+01  -6.4730797646e+00    0.3326333    0.2462091 -10.73  0.001927925    1.343    0.255
       111  -9.0663     31.9350    195.3131   1.3997193762e+02   3.0315782434e+01     0.311581   0.08933207  47.70  0.001245908    3.278    0.695
       112 -11.5214     41.4800    205.9057   1.3902443256e+02   2.6802039169e+01    0.6789436     0.265039  45.05  0.002028924    2.353    0.575
       113 -11.6729     39.6597    230.3455   1.4159609207e+02   2.1713005245e+01    0.3469087    0.2288737 -80.04  0.000485382    1.340    0.254
       114  -8.9566     72.6542    192.9717   1.3072997398e+02   2.5613485361e+01     0.185975    0.1536368 -79.82 0.0002576359    1.102    0.093
       115 -10.0225     25.6989    192.5389   1.4101678891e+02   3.1624679169e+01    0.2583247    0.1651533  76.66   0.00072368    1.408    0.290
       116  -9.7355    191.4702    191.4607   1.0354824086e+02   4.2996441465e+00    0.2458384    0.2361927   1.30 0.0006166038    1.017    0.016
       117 -13.4057     28.4197    246.8710   1.4485639135e+02   1.9711668110e+01     1.272341    0.7195947  59.16  0.007904363    1.408    0.290
       118  -9.6236     31.6372    189.9884   1.3950355741e+02   3.1571410359e+01    0.3311775    0.1553082  41.03  0.001681671    2.148    0.534
       119 -10.2140    250.0550    187.7366   9.1588372291e+01  -5.4645369473e+00    0.4050407    0.1912744 -30.01  0.001797872    2.163    0.538
       120  -9.5169     77.0532    188.6332   1.2911432212e+02   2.5983116026e+01     0.214888    0.1706929 -86.22 0.0003215089    1.159    0.137
       121 -11.5795     66.8297    187.0674   1.3127201586e+02   2.7847415533e+01     0.312982     0.239053 -55.35 0.0005291759    1.390    0.281
       122 -10.5275     83.7908    186.8657   1.2727779313e+02   2.5367162524e+01    0.2342093    0.1973901  80.27  0.001322981    1.092    0.084
       123 -10.5920     26.9565    184.4112   1.3995076333e+02   3.3362121434e+01    0.5050178    0.2136532  32.20  0.002419295    2.705    0.630
       124  -9.2064     37.1388    183.3817   1.3759168976e+02   3.2496213024e+01    0.2575103    0.1626398  70.66  0.001074388    1.564    0.361
       125  -9.3187    140.1519    183.1374   1.1329142754e+02   1.6174207752e+01    0.2103581    0.2034259  -2.56 0.0003074024    1.151    0.131
       126  -9.8822    127.6202    182.5113   1.1612228176e+02   1.8738307078e+01    0.2526642    0.2175245 -75.26 0.0003662098    1.182    0.154
       127  -9.8093    107.8260    182.3969   1.2082909551e+02   2.2409348662e+01    0.2485646    0.1996158 -56.88 0.0003584287    1.257    0.204
       128 -12.7540    247.9900    101.0981   7.3838312778e+01   1.0216336152e+01    0.9176573    0.5514414 -47.16  0.004620496    1.448    0.309
       129 -10.9846    249.4216    151.3834   8.4296843134e+01   9.5927199663e-01    0.5632977    0.3260228 -41.30  0.002768269    1.520    0.342
       130 -12.0038    245.4285    163.1079   8.7400504827e+01  -4.2689046954e-01    0.7238092    0.3650796 -52.53  0.003058879    2.383    0.580
       131 -12.0228    246.7904    157.8019   8.6069386195e+01   2.8012861386e-01     1.385692    0.9002151 -80.83  0.005438504    3.644    0.726
       132 -12.0161    247.7264    142.5111   8.2708718830e+01   2.8636714378e+00      0.90801    0.6714473  63.45  0.004895291    1.684    0.406
       133 -12.4683    248.2625    134.4548   8.0917933299e+01   4.2196327945e+00     1.126131     0.698014 -40.97   0.00567235    1.415    0.293
       134  -9.2260    115.2770    178.2462   1.1829695985e+02   2.2045309773e+01    0.4445567    0.1199895 -52.10  0.001335648    3.595    0.722
       135  -9.2485     86.2682    180.7600   1.2574857829e+02   2.6434277301e+01    0.2289612    0.1674403 -86.46 0.0007393758    1.405    0.288
       136 -10.9963     11.8335    173.4411   1.4218021542e+02   3.7350745385e+01    0.4106171    0.1670011 -59.22  0.002023147    2.143    0.533
       137  -8.6381     92.5501    178.3964   1.2384562859e+02   2.5982852040e+01    0.1438785    0.1303712  82.58 4.836953e-05    1.018    0.017
       138  -9.4195    125.9837    177.4666   1.1556971709e+02   2.0221232902e+01    0.2164516     0.144418  45.24 1.467071e-05    1.467    0.318
       139  -9.6986    103.2292    176.0351   1.2083489757e+02   2.4733620437e+01    0.2487398    0.2254017 -44.95            0    1.234    0.190
       140 -12.0962    107.8460    172.8984   1.1913758350e+02   2.4668146892e+01    0.2883938    0.2663012  78.89 0.0002873537    1.025    0.024
       141 -10.7489     76.8995    174.9808   1.2711538574e+02   2.9281263995e+01    0.2927183    0.2361841 -55.28 0.0003774371    1.273    0.215
       142 -11.5683     63.7513    173.2716   1.3006557837e+02   3.1588554731e+01    0.3397201    0.2417125 -63.10 0.0004521698    1.291    0.225
       143 -10.4323     19.3385    172.8570   1.4045434167e+02   3.6804009538e+01    0.3856566    0.2236387  61.37  0.001581546    1.767    0.434
       144 -11.3181     14.0680    167.0563   1.4104966045e+02   3.8632821964e+01    0.3579745    0.2936836  36.36  0.001546076    1.502    0.334
       145 -11.6980     45.2484    170.0286   1.3409230803e+02   3.4733991352e+01    0.7199181     0.367464 -76.85  0.001957257    1.883    0.469
       146  -8.5799    150.9452    170.0573   1.0816079662e+02   1.6968558625e+01    0.1793631    0.1682538 -60.91 0.0009397428    1.072    0.067
       147 -11.7306     84.7637    166.5763   1.2378207618e+02   3.0111671824e+01    0.6264693    0.4964455  36.95  0.003332089    1.381    0.276
       148  -8.6027    134.0117    167.7223   1.1171821142e+02   2.0932068750e+01    0.1845949     0.134211  44.48  0.000382589    1.365    0.267
       149  -9.2094     68.5132    166.4957   1.2786190047e+02   3.2572873075e+01    0.1417105    0.1241673 -84.07 -5.052773e-05    1.010    0.010
       150  -9.4893     58.1921    162.3907   1.2982262388e+02   3.4979082448e+01    0.2452471      0.17379 -77.66 0.0005204627    1.304    0.233
       151  -9.4878     22.8112    162.8728   1.3856655240e+02   3.8819470724e+01     0.271218     0.163203  -6.48 0.0009921279    3.363    0.703
       152 -10.0609     28.2263    171.1371   1.3824232927e+02   3.6337850189e+01    0.3530713    0.2046889 -56.82  0.001544886    1.638    0.389
       153 -10.4075     12.4680    161.8170   1.4087388749e+02   3.9989287270e+01    0.2382098    0.1589429  73.17  0.001076431    1.469    0.319
       154 -10.0782     89.7943    160.0925   1.2134444851e+02   3.0885346938e+01    0.2362243    0.2076883  51.06  0.000307536    1.174    0.149
       155  -8.8823     73.5101    159.5098   1.2544634000e+02   3.3562428365e+01    0.1442191    0.1274888 -83.83  0.000132666    1.032    0.031
       156  -8.3729     52.2651    158.3613   1.3071527665e+02   3.6712650436e+01    0.1376605   0.09291634 -44.89 0.0005797557    1.640    0.390
       157  -8.6488     47.0290    158.4895   1.3206245776e+02   3.7312280635e+01    0.1726188    0.1161919 -14.44  0.000810238    2.576    0.612
       158 -10.8945     31.8350    155.8433   1.3551056824e+02   3.9610822355e+01    0.3800299    0.2260357 -53.81 0.0008948192    1.586    0.369
       159 -10.5546     11.0202    150.0096   1.3992868776e+02   4.2859934094e+01    0.2100681    0.1480218 -58.15            0    1.304    0.233
       160 -11.5415     23.3477    154.6286   1.3745669174e+02   4.0719886705e+01    0.3927114    0.2757931  68.98  0.002344174    1.476    0.323
       161  -8.6451    228.4035    155.5125   8.8781048875e+01   4.1092303497e+00    0.1427578     0.128818 -40.23   0.00017898    1.048    0.046
       162 -10.0320     84.1950    155.4765   1.2195024483e+02   3.2920827562e+01    0.3875286     0.189497  28.62  0.001117189    2.652    0.623
       163  -9.9653    104.8297    153.5288   1.1617185465e+02   2.9895470455e+01    0.2624074    0.2199894 -81.26 0.0002696535    1.225    0.184
       164  -9.9732     90.2155    153.0832   1.1991581996e+02   3.2532364991e+01    0.3305702    0.2179678 -43.71 0.0009647869    1.624    0.384
       165 -10.3619     86.3586    150.1371   1.2036988686e+02   3.3883905568e+01    0.3662229    0.1882568 -72.64  0.001362555    2.566    0.610
       166  -9.5513    113.9650    150.8056   1.1323279009e+02   2.8863841789e+01    0.3110183    0.2078274 -56.27  0.000499748    1.463    0.316
       167 -10.4719     97.5332    151.1222   1.1759922452e+02   3.1772233608e+01    0.3446949    0.3057757 -66.88  0.001225709    1.063    0.060
       168 -10.0964     58.8095    149.3663   1.2758124616e+02   3.8080993523e+01    0.3441288    0.1960999  84.77   0.00141134    2.595    0.615
       169 -10.2252     23.9974    149.4818   1.3664631922e+02   4.1881027036e+01    0.1725033    0.1490668 -77.01  0.000420697    1.079    0.073
       170 -12.3443     68.3957    144.3827   1.2412441158e+02   3.8006247498e+01    0.6798587    0.4918407  84.72  0.002080274    1.606    0.377
       171  -9.0919     40.4808    147.4870   1.3212572735e+02   4.0715922604e+01    0.1340366    0.1124986 -76.36 0.0005831028    1.024    0.023
       172 -10.2761    236.2836    145.9063   8.5330352975e+01   4.3959278545e+00    0.2612713    0.2062378  34.35 0.0008335041    1.435    0.303
       173 -12.2239     12.8606    153.6477   1.3989393628e+02   4.1862667722e+01    0.4752834    0.3289624 -55.72   0.00117986    1.384    0.277
       174 -10.2878     32.3517    145.5105   1.3396294942e+02   4.2033505611e+01     0.237379    0.1237721 -51.45  0.001176327    1.786    0.440
       175  -9.9856    133.3316    141.0359   1.0609066152e+02   2.7327768019e+01    0.4940311    0.2689068 -54.45  0.001934895    1.891    0.471
       176  -8.8894    105.1301    142.8608   1.1385668867e+02   3.2425113652e+01    0.1942177    0.1744642 -28.99 0.0002664057    1.242    0.195
       177 -10.2699     32.8332    140.6852   1.3313096448e+02   4.3140293143e+01    0.2712303    0.1847467  82.87  0.001069417    1.606    0.377
       178  -9.1871    100.7513    146.5145   1.1580216664e+02   3.2329180990e+01    0.3340212    0.1690328 -41.42   0.00127072    2.275    0.560
       179  -9.5210     37.0517    140.3169   1.3194413466e+02   4.2803839589e+01    0.1770533    0.1602573 -83.00 0.0005913534    1.097    0.089
       180 -10.9975     60.3328    136.6898   1.2492386903e+02   4.0970805676e+01    0.3023198     0.248625 -84.97  0.001707424    1.231    0.187
       181  -8.7849     51.0050    138.0159   1.2775633026e+02   4.1811385043e+01    0.1613735    0.1457346 -70.90 0.0004098961    1.046    0.044
       182  -9.8378    109.4307    136.1648   1.1121671748e+02   3.3233047505e+01    0.3499421     0.252364 -24.80  0.001377357    1.828    0.453
       183 -11.1488     44.9117    130.8626   1.2820706497e+02   4.4230828860e+01    0.3885472      0.29414 -86.47  0.001725776    1.385    0.278
       184 -11.3643     67.7305    128.2962   1.2117660810e+02   4.1998386387e+01    0.4243944    0.3023445  85.70   0.00163265    1.810    0.448
       185 -10.2124     59.1076    128.0952   1.2362514560e+02   4.3199689233e+01    0.2095076    0.1887431 -63.70 0.0004711178    1.022    0.021
       186 -10.4799     33.3954    128.1832   1.3100829697e+02   4.6059154347e+01    0.2238657    0.1511332  71.33  0.001196148    1.831    0.454
       187 -11.5992     23.8381    126.6336   1.3345071207e+02   4.7290375839e+01    0.2868136    0.2126439 -66.16  0.001768747    1.099    0.090
       188 -10.2141    209.9556    125.7677   8.5513352107e+01   1.3678559518e+01      0.29629    0.2235857 -43.49 0.0005285226    1.249    0.199
       189 -14.1792     11.4358    210.3084   1.4533985160e+02   2.9132895987e+01     2.445313     1.195307 -74.11   0.01401291    1.677    0.404
       190  -9.0354     49.9827    122.4779   1.2518387872e+02   4.5650376657e+01    0.1849257    0.1027727  56.05 0.0008094705    2.480    0.597
       191 -13.6241      2.8462    191.1083   1.4556928098e+02   3.4137306680e+01     3.198531    0.2711171 -71.66  0.009386742    6.110    0.836
       192  -9.7555    231.9727    116.5245   7.9606858253e+01   1.0735183346e+01    0.2013865    0.1427134  56.97 0.0005099904    1.544    0.353
       193  -9.0462     67.3593    116.3158   1.1870989708e+02   4.4883938634e+01     0.147207    0.1028243 -25.09 0.0002519279    1.754    0.430
       194 -11.7717     11.0173    115.7085   1.3541281165e+02   5.0794715236e+01    0.3093337    0.2109963 -37.82 0.0009673185    1.524    0.344
       195 -11.7229      9.8010    112.4044   1.3525806393e+02   5.1625176782e+01    0.2786444    0.1891822 -31.70  0.001540681    1.632    0.387
       196 -10.2577    168.0302    113.2161   9.0939553432e+01   2.5779936956e+01    0.3667672    0.2816967 -89.23 0.0009273805    1.628    0.386
       197 -13.6313     39.7543    242.6583   1.4256145974e+02   1.9177282326e+01     1.445661    0.9059624  52.21  0.009239812    1.375    0.272
       198 -11.8579     14.3864    104.7687   1.3263067011e+02   5.3027063360e+01    0.3690468    0.2033438 -49.07    0.0020822    1.497    0.332
       199  -8.9947    203.4869    111.4924   8.3345955554e+01   1.7910800794e+01    0.1502436    0.1420934 -60.98 0.0002043142    1.024    0.023
       200  -8.1373     71.6986    100.2726   1.1352907474e+02   4.7905860546e+01    0.1304657    0.1095434  80.62 0.0002126434    1.533    0.348
       201 -10.3487     17.0228     99.0306   1.3077245982e+02   5.4112294965e+01    0.1864179    0.1517193 -56.46 0.0003307232    1.029    0.028
       202  -9.8813     28.5907     94.0892   1.2603343381e+02   5.4278265309e+01    0.2145616    0.1658531  46.61  0.001030444    1.626    0.385
       203 -12.4583    248.2818    173.0707   8.8956532727e+01  -2.6744402634e+00     1.068797    0.4242081 -41.90  0.004433805    2.284    0.562
       204 -13.1836    248.2308    113.8810   7.6536572325e+01   7.9198083671e+00     1.460371    0.8158702 -32.85   0.00674299    1.872    0.466
       205  -9.5689     23.9281     86.2552   1.2588215056e+02   5.6350783578e+01    0.1656293    0.1446924 -36.85 0.0004601983    1.096    0.088
       206  -8.5874    184.6973     77.6392   7.8386843432e+01   2.8588318531e+01    0.1470604    0.1184454  16.21 0.0007037579    1.724    0.420
       207 -10.9214    192.7778    248.8522   1.1349705696e+02  -6.0359730455e+00     0.282062    0.2130065  15.31  0.001212993    1.309    0.236
       208 -11.6569    198.4702    245.8841   1.1191750767e+02  -6.4998313526e+00    0.5020221    0.2470143  43.75  0.002450505    1.929    0.482
       209  -9.4605     16.7889     25.5926   1.1088453093e+02   6.7971144671e+01    0.1367982   0.09345276  27.34 0.0009438607    1.690    0.408
       210 -10.3023     81.6919    246.6575   1.3513164378e+02   1.2617572109e+01    0.3801562     0.215878 -84.46  0.002005209    1.986    0.496
