#   1 NUMBER                 Running object number                                     
#   2 MAG_AUTO               Kron-like elliptical aperture magnitude                    [mag]
#   3 X_IMAGE                Object position along x                                    [pixel]
#   4 Y_IMAGE                Object position along y                                    [pixel]
#   5 X_WORLD                Barycenter position along world x axis                     [deg]
#   6 Y_WORLD                Barycenter position along world y axis                     [deg]
#   7 A_WORLD                Profile RMS along major axis (world units)                 [deg]
#   8 B_WORLD                Profile RMS along minor axis (world units)                 [deg]
#   9 THETA_WORLD            Position angle (CCW/world-x)                               [deg]
#  10 FWHM_WORLD             FWHM assuming a gaussian core                              [deg]
#  11 ELONGATION             A_IMAGE/B_IMAGE                                           
#  12 ELLIPTICITY            1 - B_IMAGE/A_IMAGE                                       
         1 -12.3914    232.0960      5.6495   4.8823024677e+01   2.5948821359e+01     1.133206    0.9477648 -32.49  0.007015734    1.245    0.197
         2 -12.5659    249.0378      3.8336   4.7057480073e+01   2.2206184861e+01    0.6671739    0.5841144  19.94  0.003225338    1.489    0.328
         3 -13.9927    242.3918    116.6378   7.4975032771e+01   8.7802523821e+00     8.836915     1.193131 -32.90   0.02049323    6.923    0.856
         4 -10.5321    208.3192      5.9052   5.1080805282e+01   3.1754508474e+01    0.7220961    0.4833779  -8.00  0.002472387    1.873    0.466
         5 -15.2053    241.9261     24.5484   5.2566283211e+01   2.1586391422e+01     6.744332     2.974085  56.76   0.01758943    2.331    0.571
         6 -12.6595    172.4446     70.1421   7.5303757657e+01   3.2536458212e+01     2.079526     1.044096 -58.94  0.006592743    3.556    0.719
         7 -11.5314    219.5406     16.0211   5.2630450284e+01   2.7907852122e+01      1.43658    0.6369286 -50.94  0.005989136    2.356    0.576
         8 -14.0866    207.4101     63.1068   6.6991386307e+01   2.4879157303e+01     5.516346     3.312278 -78.07   0.02107779    2.764    0.638
         9 -10.1616    201.3608     16.7112   5.4827811994e+01   3.2408116470e+01    0.8319195    0.3972586 -34.14  0.003643758    2.026    0.506
        10  -9.4394    179.6929     21.2300   5.9020274693e+01   3.7524577925e+01     0.528355    0.1807484 -29.96   0.00191364    2.822    0.646
        11 -11.2330    132.9573     18.8903   6.6485013346e+01   4.9777452738e+01    0.8141481    0.3975032  49.09  0.003497795    1.850    0.460
        12  -8.5247    159.7496     14.4663   5.9922126868e+01   4.3455002003e+01    0.2402879    0.1914022 -21.16 0.0005687629    1.351    0.260
        13  -9.9474    125.2006     14.1896   6.6374097411e+01   5.2183823108e+01    0.3509138    0.2679124 -85.53  0.001370312    1.726    0.421
        14 -11.1883    119.4601      9.9697   6.5990107659e+01   5.3996030561e+01     0.741999    0.4279213  45.30  0.002733253    1.564    0.361
        15  -9.6489    143.5041      7.9558   6.0418307789e+01   4.8274374259e+01    0.4860983    0.2310222  -3.55  0.001845909    3.047    0.672
        16  -8.5765    144.5077      2.0184   5.8117791835e+01   4.8558060355e+01    0.3393583    0.2063394  47.66  0.001667868    1.498    0.332
        17  -8.1745    180.1546      6.2978   5.4374307578e+01   3.8949244784e+01    0.2964112   0.09515795  61.90  0.001084005    2.570    0.611
        18  -8.9474    188.9131    139.2682   8.9949540164e+01   1.6388962178e+01    0.2839746    0.1922792  30.71  0.001198233    1.554    0.357
        19  -8.3580    159.7284    138.3790   9.5994124737e+01   2.2754294613e+01     0.199471    0.1346892  37.45 0.0003968803    1.475    0.322
        20 -10.6455    198.9992    135.2434   8.7016296940e+01   1.4936321341e+01     0.467979    0.3303731  10.77  0.002181237    1.780    0.438
        21  -9.9477    196.4951    132.4789   8.6872124381e+01   1.5951567191e+01    0.3056251    0.2104238  34.61  0.001459304    1.466    0.318
        22  -8.1374    164.0267    133.9618   9.4042870010e+01   2.2700230866e+01    0.1802608    0.1655352  40.63  0.000325791    1.046    0.044
        23  -9.0241    196.4575    128.4947   8.5947533050e+01   1.6652111657e+01    0.1474796    0.1387276  11.15 5.150548e-05    1.008    0.008
        24  -9.4336    217.6942    125.9772   8.1339030662e+01   1.2483835955e+01    0.2608218    0.2406927 -19.35  0.001392366    1.071    0.066
        25  -8.7507    203.0309    127.0279   8.4318983356e+01   1.5470160922e+01    0.2314399    0.1862166 -78.32  0.001131857    1.762    0.433
        26  -8.5572    199.5001    123.5163   8.4166004014e+01   1.6846465595e+01    0.1465608    0.1409418   8.82  6.77707e-05    1.031    0.030
        27  -9.9666    185.8806    121.4810   8.6401664655e+01   2.0238730896e+01    0.3763205    0.2068029  35.82  0.001516932    2.014    0.503
        28 -10.3146    195.9292    118.8274   8.3729155803e+01   1.8455861835e+01    0.3576638    0.2708452 -32.47  0.001773719    1.323    0.244
        29 -10.4626    226.2818    115.8404   7.7431869586e+01   1.2267186035e+01     0.480466    0.1860503 -30.49  0.001756147    2.627    0.619
        30  -9.3498    186.8174    115.0894   8.4633321742e+01   2.1179951427e+01     0.223819    0.2076846 -67.00 0.0003284795    1.214    0.176
        31  -9.8872    167.9192    114.0612   8.8398135337e+01   2.5672000204e+01    0.3517114    0.3080868  58.06  0.000481897    1.184    0.156
        32 -10.7073    206.6741    110.5934   7.9639329005e+01   1.7443977010e+01     0.576304    0.3015079  58.21   0.00231412    2.200    0.545
        33  -7.8256     16.0144    245.4993   1.3785993638e+02   2.3888687882e+01    0.0987282   0.08442079   9.97 0.0008058496    2.301    0.565
        34  -9.3913    216.5452    116.7196   7.9343190515e+01   1.4234030796e+01    0.3196022     0.236332  22.92  0.001580758    1.496    0.331
        35 -10.7014    188.8458    104.8552   8.1619001427e+01   2.2539175704e+01    0.4327376    0.3916655  -4.84  0.001652683    1.134    0.118
        36 -10.9533    225.6945     98.5141   7.3306500757e+01   1.5116154658e+01     0.629532     0.367191  -1.40  0.002342405    2.993    0.666
        37  -8.4798    148.0256    100.9263   8.9573490862e+01   3.2730314254e+01    0.2347092    0.2260294  14.48 0.0006762003    1.049    0.046
        38  -9.4813    196.3189     96.2400   7.7907143043e+01   2.2276484354e+01    0.3778233    0.2663245  30.69  0.001516641    1.602    0.376
        39  -8.4494    134.0975     97.1184   9.2000950824e+01   3.6566401050e+01    0.2238256    0.2061286   1.57 0.0004259035    1.161    0.139
        40  -8.2619      1.4681    237.1650   1.3975284782e+02   2.6620791518e+01    0.1264435   0.07167763  89.32 0.0006040723    1.459    0.315
        41 -10.0443    158.2579     94.3793   8.5376287138e+01   3.1653205806e+01    0.4421178     0.338537  31.03  0.002088401    1.414    0.293
        42 -10.1279    149.6018    223.1227   1.1274010265e+02   9.6548797977e+00     0.219176    0.1835535  38.26 0.0003138333    1.090    0.083
        43  -9.1069    172.3095     92.0625   8.1619179617e+01   2.8752688151e+01    0.2504389    0.2164768  45.16  0.000610478    1.145    0.126
        44  -7.4932    135.2455     91.9534   9.0278386222e+01   3.7358164786e+01    0.1852872    0.1284166 -42.99   0.00083753    1.441    0.306
        45  -7.7952     22.6913    216.6639   1.3544293615e+02   2.8106538677e+01   0.08874819   0.07489137 -62.64 0.0005356248    1.678    0.404
        46  -9.0717    141.4914     90.4689   8.8286396706e+01   3.6262827659e+01    0.2816984    0.2634607 -82.29 0.0006309425    1.172    0.147
        47 -10.6267    173.7259     84.5502   7.9218054055e+01   2.9752354857e+01    0.5652223     0.411041  25.87   0.00157278    1.628    0.386
        48 -10.7278    156.6983     84.4966   8.2936813052e+01   3.3870594120e+01    0.5712178    0.3940072  38.28 0.0008852156    1.515    0.340
        49  -7.8179    150.9749    208.5108   1.1047934642e+02   1.1716241223e+01    0.1958286    0.1066559  42.28 0.0004252677    1.532    0.347
        50 -12.8565     10.2328    187.5988   1.3608103571e+02   3.4705585263e+01    0.8898335    0.6130326  87.87  0.004367754    1.144    0.126
        51  -9.7967    189.9548     74.0553   7.3041978365e+01   2.7522842827e+01    0.3254173    0.2785344  14.38 0.0008456107    1.297    0.229
        52 -10.3108    194.5966     71.4187   7.1456730229e+01   2.6790206645e+01    0.4556038    0.3313694  35.92  0.001218662    1.506    0.336
        53  -8.2943    115.0429     74.1304   9.0445540666e+01   4.5206364843e+01    0.2146517    0.2075036 -33.59 0.0004181531    1.041    0.040
        54  -8.7110    165.0377    161.0538   9.9568438176e+01   1.7372112799e+01    0.2081335    0.1911459  35.24            0    1.011    0.011
        55  -9.8221    152.1435     60.7614   7.6755537243e+01   3.9138674775e+01     0.795296    0.3098213 -52.32  0.002119453    4.871    0.795
        56 -10.5364     25.9311    175.7090   1.3224302423e+02   3.5626324097e+01    0.2511486    0.1905753 -27.82  0.001647187    2.279    0.561
        57 -10.1081    212.0050    156.9333   8.9282576380e+01   8.6924905135e+00    0.2495534    0.2225946  27.69 0.0003468555    1.075    0.070
        58 -10.4450    136.8959     58.2860   7.9536283710e+01   4.3235333051e+01    0.5408241    0.3152759  77.15  0.001862228    3.290    0.696
        59 -10.7534    127.8186     52.2457   7.9781446453e+01   4.6360443868e+01    0.4572322     0.269568  42.54 0.0002262213    1.691    0.409
        60  -8.9435     98.9982    164.1089   1.1489718973e+02   2.8786821289e+01    0.1870956     0.168047  70.37            0    1.010    0.010
        61  -9.2151    126.0000     39.9825   7.5905828466e+01   4.8698144565e+01    0.3412929   0.08261322 -31.64 0.0009671992    4.201    0.762
        62  -8.4147     97.9481    148.9631   1.1271220397e+02   3.2194883558e+01    0.1880579    0.1778566  84.41  0.001154319    1.057    0.054
        63  -9.7228    133.4422     31.0077   7.0852476038e+01   4.8175244930e+01     0.320143    0.1951607  80.28  0.001291651    2.483    0.597
        64  -8.4988    206.4059     29.0839   5.7676392036e+01   2.9710798195e+01    0.2696853    0.1831235  50.80   0.00095819    1.509    0.337
        65  -8.2121    197.4389     28.2054   5.8604664221e+01   3.2108875581e+01    0.2037566     0.139127 -28.61 0.0009966354    1.506    0.336
        66 -11.3590     42.4001    167.8669   1.2811076233e+02   3.5562765421e+01    0.4552804    0.3821709  83.87  0.001453424    1.067    0.062
        67 -11.2851     48.5680    163.8318   1.2634818719e+02   3.5731923322e+01    0.6839826     0.498669  60.09  0.003080413    1.249    0.199
        68 -11.0027     54.4905    159.4827   1.2453055555e+02   3.5977220181e+01    0.5612451    0.3950641  79.30  0.001806324    1.325    0.245
        69  -8.3415    192.2810    193.6399   1.0010795190e+02   6.7504996505e+00     0.120666    0.1032692  80.21 0.0007015094    1.671    0.402
        70 -10.2228     68.2030    145.0080   1.1938670701e+02   3.7439887768e+01    0.5535637    0.3356714  64.03  0.002288536    1.817    0.450
        71 -11.9927    237.3723    246.1293   1.0057097450e+02  -6.9783128173e+00    0.2185117    0.1690669  28.10 0.0002754585    1.207    0.171
        72  -8.1071    187.4822     22.7045   5.8355987963e+01   3.5327914489e+01    0.1818684    0.1412744  -2.31  0.000928256    1.527    0.345
        73  -7.6649    141.9929    143.1953   1.0108091365e+02   2.5424969536e+01    0.1955665    0.1094607  44.01 0.0003894044    1.706    0.414
        74 -10.2352    216.3879    138.9212   8.4549400533e+01   1.0672508832e+01    0.4415169    0.3231726  64.12  0.002195835    1.781    0.438
