#   1 NUMBER                 Running object number                                     
#   2 MAG_AUTO               Kron-like elliptical aperture magnitude                    [mag]
#   3 X_IMAGE                Object position along x                                    [pixel]
#   4 Y_IMAGE                Object position along y                                    [pixel]
#   5 X_WORLD                Barycenter position along world x axis                     [deg]
#   6 Y_WORLD                Barycenter position along world y axis                     [deg]
#   7 A_WORLD                Profile RMS along major axis (world units)                 [deg]
#   8 B_WORLD                Profile RMS along minor axis (world units)                 [deg]
#   9 THETA_WORLD            Position angle (CCW/world-x)                               [deg]
#  10 FWHM_WORLD             FWHM assuming a gaussian core                              [deg]
#  11 ELONGATION             A_IMAGE/B_IMAGE                                           
#  12 ELLIPTICITY            1 - B_IMAGE/A_IMAGE                                       
         1 -13.5148    227.9867      3.1355   3.7541964189e+01   2.7405809943e+01     1.871494    0.6045446  60.44  0.004371809    2.939    0.660
         2 -14.0980    195.0966     37.5308   5.0040606205e+01   3.1514800993e+01     1.434686     1.162047 -26.12  0.003546903    1.333    0.250
         3 -14.7043    204.4728     26.9239   4.5881810115e+01   3.0478742010e+01     1.774188     1.367085  30.11  0.001734302    1.661    0.398
         4 -11.6331     41.4954      7.8888   7.8203412693e+01   6.9310580131e+01    0.1826384    0.1643182   6.90  0.001309823    1.340    0.254
         5 -12.2378     60.2079      3.6330   6.8178313756e+01   6.6906118623e+01    0.4769446    0.2942999  47.36  0.002737448    1.702    0.413
         6 -10.8172     53.3946    172.7046   1.1677022130e+02   3.2675415406e+01    0.2677786    0.1936114  84.64 0.0005957423    1.229    0.187
         7 -11.6953    139.5452    248.2851   1.0791033587e+02   5.0908393434e+00    0.4715837    0.2733071 -66.46  0.002635138    2.495    0.599
         8 -16.6550     72.8472    150.4534   1.0906979552e+02   3.5288215150e+01     23.21392     11.29515  83.58   0.02039035    4.882    0.795
         9 -16.4822     57.7840    247.5476   1.2250829717e+02   1.7064372178e+01      5.60124     1.959754  31.14   0.02119063    5.305    0.812
        10  -9.9199    228.3079    170.6528   7.7843172139e+01   1.8514652649e+00     0.127994    0.1109092 -69.17 0.0006264216    1.703    0.413
        11  -9.2556    159.9714    197.0477   9.6563497383e+01   1.0172551881e+01    0.1619218    0.1495683  38.41 0.0003566458    1.036    0.035
        12 -10.5775    229.9945    166.0292   7.6565723917e+01   2.2765437409e+00     0.170221    0.1479576  -7.50 0.0004395838    1.032    0.031
        13  -9.7340    161.4950    166.0735   9.0459104090e+01   1.5833912978e+01    0.2112616    0.1473199 -47.60 0.0005984427    1.518    0.341
        14 -12.1219     91.5593    154.7868   1.0503499789e+02   3.1419468680e+01    0.6133978    0.4324723 -29.15  0.002901655    2.086    0.521
        15 -11.4212    133.6923    144.7729   9.2501343009e+01   2.6032661827e+01     1.256861    0.3146402 -54.60  0.002941868    5.922    0.831
        16 -10.8966    174.2509    148.9133   8.3949767035e+01   1.6626713603e+01    0.3320339    0.2874051  57.01 0.0009833938    1.222    0.182
        17  -9.3001    109.0889    147.3202   9.9213324423e+01   3.0167461294e+01    0.2027462    0.1758125  58.25 0.0003686023    1.135    0.119
        18 -10.4939    143.5022    145.5188   9.0274128358e+01   2.3858915595e+01    0.2879701    0.1458144 -58.81  0.001041664    2.491    0.599
        19 -10.3341     87.2458    146.0143   1.0460484699e+02   3.4182813030e+01    0.2470831     0.193036  57.83  0.000504247    1.288    0.224
        20 -11.1840    104.8183    139.5901   9.8769315190e+01   3.2745681192e+01    0.6443492    0.3506227 -40.69  0.002615911    2.175    0.540
        21 -12.3873     92.2146    139.9946   1.0218086384e+02   3.4815028043e+01    0.2907134    0.2594941 -54.40 0.0004455117    1.141    0.124
        22 -15.0876     85.4416    229.9104   1.1608030054e+02   1.6468355628e+01     1.782591      1.18124 -85.24  0.007509747    1.589    0.370
        23 -15.4813     10.9813    206.5495   1.2818794599e+02   3.0025360269e+01    0.5981993     0.564666 -88.55  0.002825183    1.509    0.337
        24 -11.4364    146.2283    183.5786   9.7177917225e+01   1.5313977892e+01    0.4614965    0.2962792  87.24  0.001842833    2.939    0.660
        25 -10.7124    105.9291    130.7937   9.6612963948e+01   3.4620288359e+01    0.3603804    0.3055674 -77.63  0.001194513    1.216    0.177
        26 -10.5522    113.0214    130.2448   9.4590234418e+01   3.3428273531e+01    0.3328404    0.2831746  11.46  0.001113316    1.440    0.306
        27 -11.3684    135.7603    127.9526   8.8136132624e+01   2.9377863519e+01    0.5801085    0.1991086 -50.15   0.00180442    3.049    0.672
        28 -11.2206    100.1852    126.8406   9.7308951166e+01   3.6588143068e+01    0.3985082    0.2514327 -35.60 0.0006179287    1.933    0.483
        29 -10.4605    160.4722    127.9166   8.2112919704e+01   2.3982039675e+01    0.3711894    0.2703128 -62.16  0.001646228    1.625    0.385
        30 -11.5900    119.5039    124.4027   9.1507977578e+01   3.3524269147e+01    0.6818711    0.4169266 -29.57  0.002690809    2.249    0.555
        31 -10.0889    108.9388    119.1452   9.3117376491e+01   3.6797039426e+01    0.2164015    0.2113656 -82.05  0.000344064    1.026    0.025
        32 -12.1304     17.9878    111.0510   1.1817585666e+02   5.0696599922e+01     0.413374    0.2239231  55.92   0.00216664    2.217    0.549
        33  -9.9096    167.3855    112.5108   7.6576722523e+01   2.5593747630e+01    0.3336413    0.2496165 -87.44 0.0009656937    1.900    0.474
        34 -12.1506    118.5435    109.4766   8.8032643730e+01   3.7132732514e+01    0.7086608    0.5464164 -59.68  0.002952834    1.352    0.260
        35 -10.1517    205.4978    110.2512   6.8117979146e+01   1.7089011398e+01    0.3089219    0.2414922  41.07 0.0009335785    1.341    0.254
        36 -10.2825     81.6544    195.1737   1.1313121037e+02   2.3888124251e+01    0.2659957    0.2360669  73.28 0.0009485848    1.093    0.085
        37 -11.0471     42.9778    179.6132   1.1981506303e+02   3.2364184707e+01    0.2625462    0.1865935  65.80  0.001078134    1.235    0.190
        38 -10.3170    134.5959    105.0275   8.2531683616e+01   3.4703096952e+01    0.5348335     0.151334 -43.52  0.001514355    3.493    0.714
        39 -12.2054     73.2695    175.7894   1.1259003093e+02   2.9342680799e+01    0.4092698    0.2820995 -40.44  0.002141414    2.008    0.502
        40 -11.3398     41.8717     91.9043   1.0734535444e+02   5.3136073262e+01    0.2166627    0.2057686 -34.06 0.0005621604    1.159    0.137
        41 -12.1501     77.1219    171.0849   1.1106512090e+02   2.9856742627e+01    0.3340728    0.2811513 -41.47 0.0007332588    1.504    0.335
        42  -9.1008    198.3423    177.6828   8.5028159131e+01   6.3334464913e+00    0.1357607    0.1145191  82.51 0.0007048823    1.714    0.416
        43  -9.6463    156.8094     80.8409   7.0047219757e+01   3.4397608015e+01    0.2180536    0.1878415 -73.82 0.0004712587    1.316    0.240
        44 -10.2383     62.6489     69.4012   9.4222406896e+01   5.5723256018e+01    0.2409819    0.1926992 -47.69 0.0002147239    1.149    0.130
        45 -11.2769    153.0105     56.0351   6.3142563744e+01   3.9680448411e+01    0.4189265    0.2956344 -79.01  0.001799613    1.982    0.496
        46  -9.3048    176.3457    241.4985   1.0020398298e+02   1.7091631985e-01    0.2004159    0.1099838 -60.96 0.0009413766    3.443    0.710
        47 -13.8232    184.6720     45.7825   5.4002659590e+01   3.3067845119e+01     1.174737     1.000486  19.90 0.0008167592    1.390    0.281
        48  -9.8631    204.2968    175.6550   8.3435208102e+01   5.5373557879e+00    0.1324767    0.1146566 -83.18 0.0004121115    1.671    0.402
        49 -11.0706     47.6206    173.5198   1.1816738314e+02   3.3187421100e+01    0.3823241    0.2112198 -64.72  0.001406484    1.666    0.400
        50 -11.0460    155.5944     50.2255   6.0713390847e+01   3.9929827129e+01    0.3769699    0.2867448 -89.72 0.0008429168    1.602    0.376
        51 -16.1160     51.8455    203.6697   1.2019256521e+02   2.6145591135e+01     3.420917     2.091789  74.21   0.02032297    1.476    0.322
        52  -9.9456    189.6781     14.9898   4.4373598990e+01   3.5614334964e+01    0.1907989    0.1754606 -58.41 0.0005668993    1.108    0.098
        53 -18.1414      7.5032    240.1217   1.3038589639e+02   2.4048830767e+01     6.331278     1.800439 -77.23   0.03203365    3.063    0.674
