#   1 NUMBER                 Running object number                                     
#   2 MAG_AUTO               Kron-like elliptical aperture magnitude                    [mag]
#   3 X_IMAGE                Object position along x                                    [pixel]
#   4 Y_IMAGE                Object position along y                                    [pixel]
#   5 X_WORLD                Barycenter position along world x axis                     [deg]
#   6 Y_WORLD                Barycenter position along world y axis                     [deg]
#   7 A_WORLD                Profile RMS along major axis (world units)                 [deg]
#   8 B_WORLD                Profile RMS along minor axis (world units)                 [deg]
#   9 THETA_WORLD            Position angle (CCW/world-x)                               [deg]
#  10 FWHM_WORLD             FWHM assuming a gaussian core                              [deg]
#  11 ELONGATION             A_IMAGE/B_IMAGE                                           
#  12 ELLIPTICITY            1 - B_IMAGE/A_IMAGE                                       
         1 -11.6257     16.6807     20.9520   6.5988670380e+01   6.8918888253e+01    0.3527059     0.227165   0.92  0.001798824    1.307    0.235
         2 -11.1780      2.6448     20.7704   7.2932155377e+01   7.0101699003e+01    0.2532499    0.2423261  53.47  0.001426746    1.983    0.496
         3 -11.6238    203.8477     19.9018   1.7682560836e+01   3.1597365817e+01    0.2784945    0.2101888 -49.03  0.001754378    1.370    0.270
         4 -12.1971    125.2058     17.5122   2.8478820375e+01   5.0338639349e+01    0.3380387    0.2339302  -8.13 0.0003314524    1.833    0.455
         5 -11.6189     35.7165     12.0136   5.3313771830e+01   6.7861093831e+01    0.3149349    0.2695801  45.55  0.002231557    1.880    0.468
         6 -10.8889    207.7420     12.7390   1.5764871783e+01   3.1519774060e+01    0.2024126    0.1548146 -51.25 0.0005526345    1.347    0.258
         7 -12.1566    203.2964     11.8507   1.6011410781e+01   3.2616796627e+01    0.2432515    0.1963454  84.79 0.0002471048    1.078    0.072
         8 -10.3163     25.8505     12.8122   5.8108585970e+01   6.9005249544e+01    0.2964355    0.1806678  25.26   0.00194945    1.462    0.316
         9  -9.3497     23.2373      8.6335   5.7451827083e+01   6.9798914476e+01    0.1688892    0.1417906  -0.42 0.0005837631    1.360    0.265
        10 -10.0908    185.3882     12.1600   1.7976995643e+01   3.6697435350e+01    0.1663479     0.102721 -51.11 0.0003525309    1.663    0.399
        11 -12.3513    125.4881      9.9291   2.6092250367e+01   5.0958740582e+01    0.4322393    0.3544094 -61.62  0.002751632    1.478    0.323
        12 -10.2323     90.3095     11.3255   3.4324491285e+01   5.8518958969e+01    0.2759906    0.1512496  20.29  0.001387618    2.189    0.543
        13  -9.9361     64.5961     11.4736   4.2010277458e+01   6.3419133835e+01    0.2748784    0.1115982 -17.61  0.001182659    3.025    0.669
        14 -12.5432     55.3225      9.7166   4.4507853091e+01   6.5165707692e+01    0.3987593    0.2543093  21.30  0.002497123    1.341    0.254
        15 -10.1467    230.9996     10.6549   1.3303152201e+01   2.6688669549e+01    0.1662116    0.1205674 -87.06 0.0004448355    1.089    0.082
        16 -10.6559    164.4853     10.7584   2.0203672917e+01   4.1748178350e+01     0.243305    0.1676482 -79.77 0.0006693529    1.495    0.331
        17 -10.3198     97.2151     10.3316   3.2228453334e+01   5.7168974352e+01    0.2134378    0.1872613 -55.21  0.001420149    1.510    0.338
        18 -11.6196     42.5865      9.3928   4.9262900224e+01   6.7178847866e+01    0.2811182    0.1834956  39.80 6.588369e-05    1.560    0.359
        19 -10.7800      9.4573      9.7617   6.4813323129e+01   7.1081953353e+01    0.3164405    0.2037226  44.64  0.001617463    3.346    0.701
        20  -9.8990    176.7973      9.7704   1.8415429726e+01   3.8944824244e+01    0.1712872    0.1245011 -78.76 0.0003650465    1.309    0.236
        21 -10.0155      3.4778      9.5258   6.7849204871e+01   7.1621578804e+01     0.185198    0.1258963 -22.87 0.0005560609    1.180    0.153
        22 -10.1046      2.9715      6.4179   6.6737308717e+01   7.2066426401e+01    0.1634116    0.1140718 -10.54 0.0004081496    1.022    0.022
        23 -11.3074     29.7382      8.4636   5.4360096549e+01   6.9031206190e+01    0.2790763    0.1496481  23.25  0.001037955    1.597    0.374
        24  -9.5588     16.4828      8.4714   6.0662761656e+01   7.0559029196e+01     0.112908   0.07909849  -2.44 0.0002151172    1.035    0.034
        25  -9.8762    100.8303      7.2086   3.0284909034e+01   5.6658544737e+01    0.1943039      0.11604  34.87  0.000245868    1.568    0.362
        26 -10.5537    104.5208      4.1464   2.8418254127e+01   5.6103448684e+01    0.2234864    0.1494651  58.46 0.0004334002    1.248    0.199
        27  -9.5901     88.9863      6.7144   3.2977066434e+01   5.9175210961e+01    0.1739188    0.1105149  22.54 0.0007327612    1.607    0.378
        28 -10.1828    247.0853      5.9548   1.1248925437e+01   2.3916668773e+01    0.1703399    0.1213893 -77.24 0.0003553962    1.034    0.033
        29 -11.4724    194.0956      4.7194   1.5387789999e+01   3.5439857416e+01    0.2321343    0.1803932  74.72 0.0002655605    1.147    0.128
        30 -11.2119    151.4273      5.9119   2.0735969805e+01   4.5267159248e+01    0.2643443    0.1933719  89.21 0.0003264384    1.325    0.245
        31 -11.0635    148.4932      2.2498   2.0171818678e+01   4.6262499699e+01    0.2360396    0.1701128  61.82 0.0005327226    1.144    0.126
        32  -9.8345    111.8128      5.9537   2.7491751747e+01   5.4366443278e+01     0.189904    0.1380198  42.28 0.0006791778    1.204    0.170
        33 -10.4821    153.3534     12.6699   2.2261031080e+01   4.4201134226e+01    0.2219188     0.168551  74.46   0.00022742    1.120    0.107
        34 -10.7608     34.6929      4.2190   5.0220170393e+01   6.8819423986e+01    0.1985471    0.1601972 -16.69  0.001347631    1.434    0.302
        35 -13.0123     20.2906      2.1735   5.5841335229e+01   7.0854083678e+01    0.2599258    0.1679325  15.54 0.0007116298    1.214    0.176
        36  -9.9089    234.5176      3.9361   1.1781119783e+01   2.6696788124e+01    0.1642171     0.102218 -43.82 0.0004668306    1.632    0.387
        37  -9.4476     44.3187      4.2919   4.6289171658e+01   6.7418151805e+01     0.119839   0.06826829  17.57 0.0004130736    1.603    0.376
        38 -10.0871     48.8456      4.2426   4.4523447176e+01   6.6719881281e+01    0.2027314    0.1222963  33.67 0.0008350015    1.325    0.246
        39  -9.7382    161.2199      2.8037   1.8619447687e+01   4.3238780458e+01    0.1674898    0.1202906  55.45 0.0003194363    1.310    0.237
        40 -10.0176     84.4037      2.0625   3.2429540392e+01   6.0462063379e+01    0.2740826    0.1431636  12.12  0.001046738    2.465    0.594
        41 -10.0049     13.6953      2.9738   5.9501514030e+01   7.1489180795e+01    0.1961656    0.1268034  21.46 0.0008506024    1.396    0.284
        42 -10.6207    138.2438      1.9410   2.1591217459e+01   4.8671788760e+01    0.2270806     0.144996  61.54 0.0003031048    1.242    0.195
        43  -9.8016    127.6236      1.8112   2.3263373409e+01   5.1125747756e+01    0.1540988    0.1111526 -40.98 0.0008234361    1.681    0.405
        44  -9.3794    245.4198      1.4425   1.0571499282e+01   2.4748460098e+01    0.1128962    0.0832326 -78.09 0.0001201811    1.029    0.028
        45  -9.0140     53.6988      1.2404   4.1428768965e+01   6.6189987371e+01   0.09580049   0.08428255  45.72 0.0001884602    1.484    0.326
        46 -10.5307     29.9732      1.3490   5.0942878640e+01   6.9737610565e+01     0.173786   0.08640316  36.35 0.0004356934    1.798    0.444
        47 -10.1577     26.9265    121.8228   8.9499328114e+01   4.7995681605e+01    0.2113655    0.1560676 -44.05 0.0007745854    1.253    0.202
        48 -13.1696     20.0037    248.2577   1.0464238823e+02   1.9063347095e+01     1.173373    0.4384915  35.38  0.005830287    2.712    0.631
        49 -12.8561      4.9917    241.8073   1.0691981780e+02   2.1983601450e+01    0.6934579    0.3748406  87.77  0.003654492    1.518    0.341
        50 -11.4534     11.2185    120.7196   9.4147818064e+01   4.9475561673e+01    0.4597109    0.2508693 -19.21 0.0005507458    2.507    0.601
        51  -9.4371     82.5012    118.4287   7.1141344397e+01   4.1847573094e+01    0.1495817    0.1418701 -33.54 0.0001084368    1.012    0.012
        52 -11.3298     69.3464    115.5995   7.4635327151e+01   4.4573825326e+01    0.3223883    0.3020653 -31.52  0.001833883    1.033    0.032
        53 -13.0471     23.2878    113.3976   8.9160794300e+01   5.0318577094e+01    0.2994759    0.2664075 -49.08 0.0004985278    1.078    0.073
        54 -10.5086     15.0150    111.6967   9.1519221544e+01   5.1346618892e+01    0.2225056    0.1645808  88.66 0.0009621388    1.550    0.355
        55 -11.4634     13.6894    107.5442   9.1232136527e+01   5.2408282787e+01     0.436866    0.1244417 -58.73   0.00177976    2.458    0.593
        56 -11.0341      2.8179    111.9198   9.5400946624e+01   5.2065051506e+01    0.2473892    0.1539342 -65.26 0.0003364011    1.270    0.213
        57 -10.4461      6.1851    107.1378   9.3592672804e+01   5.2978632985e+01    0.1616348    0.1333655 -86.69 0.0004356791    1.308    0.235
        58 -10.8775    247.8100    102.0536   2.9792527324e+01   9.8239173782e+00    0.2166945    0.1602959 -62.15  0.001173302    1.270    0.213
        59  -9.6671    112.5536    102.4259   5.7772413916e+01   3.9887851760e+01     0.152756    0.1485409   5.57 6.791057e-05    1.005    0.005
        60 -11.1579     17.9737     98.5333   8.8122786612e+01   5.4179207510e+01    0.4319768    0.2322151  47.21  0.001972621    2.629    0.620
        61 -10.4944     17.6660     94.1998   8.7357737649e+01   5.5179427774e+01    0.3292401    0.2114603 -64.52    0.0018319    1.431    0.301
        62 -10.7182     20.8967     92.5515   8.5868919387e+01   5.5308114744e+01    0.2660208    0.1546852 -53.20 0.0003910974    1.385    0.278
        63  -9.8809    217.8833     98.3611   3.3381600242e+01   1.6616425725e+01    0.1923348    0.1753433  71.43 0.0006187339    1.154    0.134
        64 -11.7382     57.8959     92.0050   7.2525114461e+01   5.1574346101e+01    0.3465378    0.2654863 -50.74  0.000623962    1.266    0.210
        65 -10.2379     48.6000    105.4291   7.9104336836e+01   4.9704259286e+01    0.2823573    0.1304319 -70.92 0.0009662191    3.544    0.718
        66  -9.6775     10.6247     94.1631   8.9813695919e+01   5.5661028602e+01    0.1874789   0.08544569 -53.40 0.0005280752    1.652    0.395
        67 -10.8087    125.3109     93.0516   5.1533513497e+01   3.9102082707e+01    0.2591128    0.2152113  49.22 0.0002542657    1.196    0.164
        68  -9.4310     80.6386     93.7457   6.5234617854e+01   4.7771773022e+01    0.1485555    0.1093863  -3.15 0.0006962629    1.620    0.383
        69  -9.3509    142.4211     92.4651   4.6941776164e+01   3.5314536081e+01    0.1519948    0.1496457  54.98 0.0001956566    1.010    0.010
        70 -10.0122    113.7557     91.9923   5.4457228384e+01   4.1820715760e+01    0.2048845    0.1942282 -28.98  0.001096538    1.064    0.060
        71 -11.1014    105.4861     91.1410   5.6636787995e+01   4.3704225999e+01    0.4908786    0.2965555 -59.82  0.001574314    2.265    0.559
        72  -9.9016     92.0056     92.5502   6.1207542575e+01   4.6021810178e+01    0.2174402    0.1440473  37.34  4.21786e-05    1.518    0.341
        73 -12.0114     66.6679     91.6348   6.9365261884e+01   5.0426328603e+01    0.2509183    0.2293469 -27.81 0.0002524748    1.044    0.042
        74 -12.5714    160.0753     89.1771   4.1932378688e+01   3.1759359731e+01    0.5520935     0.315001  38.02 0.0007417976    2.071    0.517
        75  -9.3663     31.2421     87.3042   8.0925679784e+01   5.5595133449e+01    0.1324782   0.08083309 -35.00 0.0002314763    1.491    0.329
        76 -13.7230     65.4943     81.7640   6.6946695082e+01   5.2669442678e+01    0.4464743    0.4353012  46.42 0.0007664436    1.262    0.207
        77 -10.6960     17.5104     84.9202   8.5425432452e+01   5.7236249147e+01    0.2436188    0.1873718 -65.13 0.0007371624    1.329    0.247
        78  -8.7562     49.3509     85.2939   7.3765957757e+01   5.4103408767e+01    0.1433931     0.093355 -20.06 0.0007031411    1.679    0.404
        79 -10.7963      8.6567     79.8455   8.7596945444e+01   5.8907104139e+01    0.2671664    0.2176678  81.74  0.001276509    1.685    0.406
        80 -11.6648      6.3542     74.2455   8.7232598415e+01   6.0219079582e+01    0.5667267    0.1751396 -38.80   0.00242717    2.783    0.641
        81 -10.8599     47.9387     79.3383   7.2627234728e+01   5.5518641749e+01    0.2660575    0.2075516 -42.84 0.0005496051    1.184    0.155
        82  -9.9110     87.7323     77.0075   5.7913343268e+01   4.9917844323e+01    0.3901954    0.2283006 -23.94  0.000821705    2.108    0.526
        83 -10.2430    176.9859     76.9924   3.5278342870e+01   2.9873066388e+01     0.307522    0.2116292  53.85  0.001128968    1.419    0.295
        84 -10.1629      7.5954     90.4359   9.0155813705e+01   5.6672580061e+01      0.31081   0.08576998 -60.42  0.001272638    2.619    0.618
        85  -9.8295     74.8524     76.7606   6.2155875449e+01   5.2204207223e+01    0.1708561    0.1640474  57.47 0.0002224597    1.299    0.230
        86 -10.5915     53.3790     75.4343   6.9463069100e+01   5.5628836518e+01    0.2908671    0.2219514  32.69 0.0006545901    1.433    0.302
        87  -9.7595     11.4935     76.5770   8.5790671728e+01   5.9422551726e+01    0.1229193   0.09745582 -40.33 4.360158e-05    1.015    0.015
        88 -10.3656    140.6069     72.6152   4.1735844772e+01   3.9386539338e+01    0.3783007    0.2256518  35.61 0.0009676008    1.938    0.484
        89  -9.6172     46.1980     72.5896   7.1321079587e+01   5.7088829957e+01    0.1684664    0.1170413   5.44 0.0003702985    1.510    0.338
        90  -9.7205     45.3647     68.5684   7.0428187766e+01   5.7973809335e+01    0.4154317     0.111215 -48.50  0.001480043    3.350    0.702
        91 -12.8789     80.8733     67.1994   5.7055362435e+01   5.2956316232e+01    0.4308511    0.3331444   4.57 0.0005787318    1.334    0.250
        92 -10.0876    106.0885     71.8831   5.0619125025e+01   4.7256357720e+01    0.2112456    0.1857928  57.86 0.0008175687    1.260    0.206
        93  -9.3243     91.3944     70.1451   5.4562315662e+01   5.0499208469e+01    0.1787393    0.1332554 -51.44  0.000337315    1.592    0.372
        94 -11.8203    211.9763     67.3952   2.7244221137e+01   2.3220887658e+01    0.2413737    0.2108878 -74.19 0.0003181908    1.016    0.016
        95 -11.0232      6.2400     62.8147   8.4546207775e+01   6.2544050295e+01    0.2849693    0.2455573  72.03  0.001966807    1.755    0.430
        96 -11.9750     11.6468     59.6728   8.1475470452e+01   6.2819627342e+01    0.3049562    0.2257772 -32.89 0.0002393539    1.044    0.042
        97 -11.9141     17.2598     64.6221   8.0507260920e+01   6.1458455774e+01     0.353172    0.2597272 -35.02 0.0007127516    1.071    0.066
        98 -13.6749     20.9774     58.5618   7.7246990280e+01   6.2336346836e+01    0.4053295    0.2551407 -33.82 0.0008455045    1.292    0.226
        99 -11.5242    128.4828     63.6341   4.2002359668e+01   4.3709916164e+01    0.3063045    0.2599639  75.06 0.0005207035    1.317    0.241
       100  -9.1090    166.4350     64.5067   3.3992635305e+01   3.4492860657e+01    0.1450732     0.133893  80.93 -3.366121e-05    1.015    0.015
       101 -11.2857     51.4578     62.8110   6.6255503414e+01   5.8291919006e+01    0.4120938    0.2512311 -61.21  0.001618245    2.631    0.620
       102  -9.7638    119.9356     62.5993   4.3862639963e+01   4.5820556864e+01    0.1931511    0.1669203  43.59  0.001054395    1.073    0.068
       103 -10.8023     98.1106     60.9499   4.9485325306e+01   5.0750627628e+01    0.2251457    0.1892835  36.30 0.0003563336    1.116    0.104
       104  -9.9180     83.6288     61.0269   5.4092722626e+01   5.3526688183e+01     0.274896    0.1689291   6.88  0.001140455    2.342    0.573
       105 -11.5465     58.3828     58.9869   6.2345619934e+01   5.8018252377e+01     0.279188     0.176584  32.00 0.0005495601    1.569    0.363
       106  -9.7888     39.1617     59.6328   7.0079986398e+01   6.0371549306e+01      0.17927    0.1086956   9.84 0.0009488426    1.758    0.431
       107  -9.9114    229.1794     56.4843   2.2650871166e+01   2.1086401710e+01    0.1895799    0.1521185 -61.08 0.0006497664    1.103    0.093
       108  -9.3285    130.7226     57.2761   3.9528622805e+01   4.4179875910e+01    0.1351259    0.1111896 -84.54 0.0002625215    1.497    0.332
       109  -9.9679     71.6608     56.7820   5.6740193111e+01   5.6324273767e+01    0.1979559    0.1632946  54.79 0.0006508044    1.612    0.380
       110 -12.8443    114.8185     53.5738   4.2355483540e+01   4.8349081186e+01    0.3050144    0.2840019  37.72 0.0004532546    1.044    0.042
       111 -11.1219     83.9754     53.8503   5.1539106077e+01   5.4622788195e+01    0.7572541    0.3684242  51.70  0.003184583    2.468    0.595
       112 -10.6711     63.8588     65.8253   6.2582471049e+01   5.5991495539e+01    0.2353242    0.2025537  -6.52  0.001416423    1.012    0.012
       113 -10.2498    225.2848     53.0502   2.2384323858e+01   2.2439971199e+01    0.2409316    0.1495921 -57.72 0.0007090829    1.472    0.321
       114 -11.6576    106.2822     50.5520   4.3679725788e+01   5.0646954442e+01    0.4342446    0.2423308 -38.31 0.0003616279    1.957    0.489
       115 -10.9780    103.0931     46.3159   4.3155911600e+01   5.1923521610e+01    0.3937575    0.2701275 -20.99  0.002056883    1.618    0.382
       116 -10.7293     98.2121     52.7978   4.6744210983e+01   5.2003719494e+01    0.3774039    0.3052084 -39.76  0.001281821    1.390    0.281
       117  -9.3796     34.1042     55.0000   7.0649113510e+01   6.1761099165e+01    0.1876735   0.06658353  26.70 0.0007970232    2.905    0.656
       118  -9.2647    182.4803     53.4784   2.8342144172e+01   3.2276862192e+01    0.1411893     0.124588  87.34 7.730367e-06    1.016    0.015
       119 -10.8703    137.5214     50.7323   3.6007280910e+01   4.3536614662e+01    0.4641515    0.2555109  32.60  0.001908288    2.405    0.584
       120 -11.1756     66.5537     52.5430   5.7093619286e+01   5.7850338769e+01    0.4103892    0.1664408  34.99  0.001625267    2.405    0.584
       121 -11.8837     62.0039     49.9053   5.7831415646e+01   5.8987858214e+01    0.2414039    0.1912977 -21.20 0.0003470256    1.181    0.153
       122  -9.3239    148.6228     51.7680   3.3969072613e+01   4.0733495743e+01    0.1775623     0.131638 -47.75 0.0004251098    1.471    0.320
       123 -10.5324     14.7820     49.0191   7.7006733279e+01   6.4581820876e+01    0.2548924    0.1483839  30.11  0.001424027    2.041    0.510
       124 -11.2817     66.3342     46.5305   5.5025975210e+01   5.8823106257e+01    0.3365418    0.2172701  -8.48  0.000899833    1.733    0.423
       125 -10.0112     53.2742     47.7881   6.0400637420e+01   6.0615763142e+01    0.2584432    0.1562488 -19.98  0.001358965    1.695    0.410
       126 -10.2664    156.5075     46.9701   3.1092868705e+01   3.9494614595e+01    0.3287842    0.1807452  59.09 0.0007413615    1.622    0.383
       127  -9.4626    129.5077     45.9617   3.6356230524e+01   4.6078666101e+01    0.1800133    0.1409588 -26.68 0.0009763318    1.433    0.302
       128  -9.3684     78.9947     45.4935   5.0247542330e+01   5.6792092219e+01     0.188541    0.1202595  40.61 0.0003931494    1.463    0.316
       129 -10.8833     26.5451     42.9337   6.9789405108e+01   6.4611925012e+01    0.3560738    0.2026161   7.64  0.001681953    1.806    0.446
       130 -10.1790     16.7967     44.0277   7.4502194152e+01   6.5301922721e+01    0.2508989    0.1946766 -76.16 0.0009085589    2.389    0.581
       131  -9.6861      2.0647     45.4558   8.1597576329e+01   6.6061356813e+01    0.1571359   0.09999395   3.96  0.001027913    1.588    0.370
       132 -10.5618    117.2044     42.1854   3.8082536319e+01   4.9396332882e+01    0.3684644     0.201135 -41.99  0.001273077    2.123    0.529
       133 -11.1368     90.7276     42.6219   4.5491519588e+01   5.4962134101e+01    0.4308546    0.4120139  42.39  0.002752007    1.229    0.186
       134 -11.0027     38.1344     41.6837   6.4332014564e+01   6.3554307044e+01    0.3271587    0.2332676  37.41  0.001319011    1.730    0.422
       135 -11.6900    183.3247     39.9361   2.4858650188e+01   3.3946743008e+01    0.5110731    0.2908917  82.46  0.002384476    1.910    0.476
       136 -12.5186    141.7431     40.6765   3.2153428002e+01   4.3881772952e+01    0.2694077    0.2304467  59.71 0.0004144021    1.034    0.033
       137 -11.3723    110.2079     40.3091   3.9234320867e+01   5.1191468939e+01    0.2316108    0.2208066  63.05  0.001443434    1.177    0.150
       138  -9.4872     57.9945     40.9846   5.6079785872e+01   6.0961391940e+01    0.1554391    0.1276395   0.78 0.0004240302    1.024    0.023
       139 -10.0220     67.9893     40.0296   5.2042151411e+01   5.9494642790e+01    0.1597008    0.1332055   9.44 0.0004910688    1.009    0.009
       140  -9.4005     97.6828     39.3234   4.2295399560e+01   5.3988520707e+01     0.125627    0.1074651 -84.52 0.0003873985    1.668    0.401
       141 -11.3698     82.0261     38.6064   4.6770469651e+01   5.7181344691e+01    0.2971234    0.2361348  36.36  0.001230484    1.153    0.132
       142 -10.8816     51.5501     38.7674   5.7743144715e+01   6.2237203942e+01    0.2252094     0.180818  13.47 0.0005192977    1.103    0.093
       143  -8.9622     44.3201     39.6551   6.0996007911e+01   6.3095365244e+01    0.1059003    0.1024603  78.30 0.0007049562    1.728    0.421
       144 -10.1524    191.8840     38.1469   2.3238868162e+01   3.2144559076e+01     0.192719    0.1529412 -84.54 0.0002739922    1.141    0.123
       145 -12.2438    121.6760     37.1100   3.5391014305e+01   4.9022889226e+01    0.3580292    0.2730774 -38.97  0.002013729    1.494    0.331
       146  -9.0973     21.2989     37.6509   7.0255856768e+01   6.5975602285e+01   0.09679979   0.09579021 -68.64 0.0007036481    1.686    0.407
       147  -9.3226    177.2777     36.2662   2.4831302394e+01   3.5868865687e+01     0.125517   0.09673011  44.10 0.0003786787    1.481    0.325
       148  -9.3171    102.7295     36.2752   3.9849355130e+01   5.3312464244e+01    0.1182578    0.1045862 -88.98  0.000688176    1.484    0.326
       149 -10.5442     14.8812     35.5039   7.2442517424e+01   6.6882336858e+01    0.2091583    0.1709972  -7.08  0.001291575    1.182    0.154
       150  -9.9310      2.9801     35.7420   7.8138829214e+01   6.7701037954e+01    0.1519493    0.1135587 -18.02 0.0002718151    1.088    0.081
       151  -9.2272    113.6255     35.7672   3.6876363264e+01   5.1001353672e+01    0.1420465   0.08746116  35.69 0.0002982283    1.610    0.379
       152 -10.5882     45.2908     33.0594   5.8062713952e+01   6.3926427338e+01       0.3373    0.1649214 -40.19  0.001738313    2.189    0.543
       153  -9.7344     49.6505     33.7488   5.6566595042e+01   6.3222569274e+01    0.1584602    0.1067918 -37.53 0.0004652378    1.646    0.392
       154 -10.3063     27.9441     33.7674   6.5807261211e+01   6.5924662904e+01    0.1956466    0.1216737 -22.00  0.000544845    1.381    0.276
       155  -9.3860      6.9233     34.5158   7.5848567559e+01   6.7646636579e+01    0.1584222   0.09701376   8.05  0.001026588    1.575    0.365
       156 -11.8952    212.9869     31.9518   1.9290952503e+01   2.8066977094e+01    0.2348392     0.190988 -83.14  0.001496623    1.005    0.005
       157 -12.3601    144.4144     30.9490   2.8820464833e+01   4.4421789437e+01    0.2871771    0.2568401 -54.77 0.0003166462    1.251    0.201
       158  -9.4201    127.7075     32.7153   3.2669983242e+01   4.8157115490e+01    0.1356416    0.0927217  34.13 0.0002273576    1.538    0.350
       159 -12.6057     11.0745     29.9295   7.2220658665e+01   6.8075934045e+01    0.2457794    0.1998792   3.11 0.0007756637    1.288    0.223
       160 -11.0416    135.7189     29.1381   2.9942180776e+01   4.6689643474e+01    0.2252081    0.1764018  56.43 0.0002896705    1.095    0.086
       161  -9.7969     39.1324     30.1170   5.9475415097e+01   6.5148284953e+01    0.1837058    0.1276392   0.89 0.0004049226    1.248    0.199
       162  -9.7740    163.1720     27.7602   2.4777327587e+01   4.0284003346e+01     0.291105    0.1398978  64.69 0.0009988336    1.783    0.439
       163 -10.2465    130.9422     26.8019   3.0185730493e+01   4.8066298182e+01    0.3709756    0.2040377  28.42  0.001409548    2.516    0.603
       164  -9.8115    130.0052     22.5154   2.9068951597e+01   4.8735264381e+01    0.1901029    0.1505882  56.04 0.0003979289    1.064    0.060
       165 -10.1525     68.7459     27.8809   4.7152389472e+01   6.0939223916e+01    0.2775989    0.2067262  84.52  0.001332144    3.337    0.700
       166 -11.3831     91.0152     26.5105   3.9656564268e+01   5.6881945122e+01    0.2360381    0.1923436 -26.07 -0.0002072874    1.390    0.281
       167 -10.0016     80.9541     26.5021   4.2636090030e+01   5.8864335126e+01    0.2157464    0.1704331 -39.23 0.0007333735    1.595    0.373
       168  -9.7350    216.7152     25.5830   1.7556172246e+01   2.8028073130e+01    0.1632504    0.1020864  86.61  0.000260141    1.429    0.300
       169 -10.3223     59.0613     23.7241   4.8954387448e+01   6.3064609235e+01    0.3704022    0.1950015 -46.09  0.001749374    3.146    0.682
       170 -10.9189     33.2308     24.0795   5.9588280302e+01   6.6703322345e+01    0.2075803    0.1624852   7.29 0.0003619848    1.118    0.106
       171 -10.5913     32.6251     20.3059   5.8277151824e+01   6.7268321336e+01    0.2425875    0.1534289   2.76 0.0008046381    1.422    0.297
       172 -10.0121     25.6734     23.7655   6.2881009991e+01   6.7614790518e+01    0.2875861   0.09583807 -41.91 0.0009654469    3.066    0.674
       173 -10.5495    100.5176     22.9801   3.5841498153e+01   5.5283330808e+01     0.485364    0.2497682  73.54  0.001834972    3.771    0.735
       174 -10.6473     47.8832     23.3335   5.3091622140e+01   6.4837942198e+01    0.1756213    0.1446761  -9.87 0.0003307889    1.209    0.173
       175 -10.3179     14.4198     15.8192   6.4944443951e+01   6.9832913516e+01    0.1912425     0.143646   0.32 0.0005266047    1.130    0.115
       176 -10.3827     21.5239     22.2668   6.4206257850e+01   6.8259029328e+01     0.241212    0.1369751  -5.36 0.0009850276    1.722    0.419
       177  -9.4961    230.2095    247.3950   6.1758000348e+01  -1.2473780460e+01     0.154535    0.1043015  33.37 0.0003700637    1.491    0.329
       178 -10.2643    131.3611    247.0770   8.2123978835e+01   3.2032770272e+00    0.1787926     0.167754  53.72   0.00062941    1.105    0.095
       179  -9.7973     83.9212     21.8500   3.9997173796e+01   5.8794670137e+01    0.1998844    0.1422708  24.86 0.0005905895    1.280    0.219
       180 -10.1786    115.8752    246.8288   8.5402241027e+01   5.8169604304e+00    0.1898665     0.175756  19.79 0.0006994447    1.240    0.194
       181 -11.7693      2.5383    233.1793   1.0686062913e+02   2.4008640323e+01    0.3468711    0.2434298  42.65  0.001860246    1.531    0.347
       182  -9.6917    113.7408     19.9058   3.1644291467e+01   5.2706700478e+01    0.2715834    0.1073236 -29.14  0.001189766    2.850    0.649
       183  -9.5546    106.7880     21.3790   3.3739892119e+01   5.4095385476e+01    0.1816859   0.09741673  46.53 0.0002771625    1.551    0.355
       184 -10.1152    163.4829     19.9788   2.2701452208e+01   4.1061861817e+01    0.1911408    0.1508825  71.41  0.000312259    1.062    0.058
       185 -10.1473     38.5663     19.7317   5.5440704118e+01   6.6579147397e+01    0.2465589    0.2215055  75.77   0.00162108    2.381    0.580
       186 -10.6805    210.8361     21.8288   1.7367861031e+01   2.9792308738e+01    0.1788743    0.1208231 -75.47 0.0004138984    1.329    0.247
       187 -10.6748     70.7298     18.6484   4.2866915871e+01   6.1614794475e+01     0.209176      0.17664  21.94 0.0004303621    1.088    0.080
       188 -10.9665     25.4683     17.8731   6.0500297059e+01   6.8421080641e+01    0.1988724    0.1568146  -9.28  0.000693258    1.171    0.146
       189  -9.9570    225.3285     18.3027   1.5261988706e+01   2.7016435366e+01    0.1108907   0.08754746  53.33 0.0007033508    1.647    0.393
       190 -11.1614    239.9338     15.3182   1.3464669189e+01   2.4289415487e+01    0.1865137    0.1517413 -58.26 0.0002955692    1.267    0.211
       191  -9.8202    215.3428     16.1921   1.5754685128e+01   2.9441851668e+01    0.1686049    0.0934465 -50.34 0.0006116669    1.690    0.408
       192 -10.4769    159.8650     15.6970   2.2110701261e+01   4.2362208027e+01    0.1885387    0.1715722  38.62 0.0004378099    1.292    0.226
       193 -10.6137     52.3193    244.5074   9.8277468628e+01   1.5861254870e+01    0.2139696    0.2018929  53.24  0.001298601    1.353    0.261
       194 -12.1267      9.9958    245.4283   1.0624797669e+02   2.0728720281e+01     0.515183    0.1773579 -64.38  0.002305886    2.847    0.649
       195  -9.7801    147.4799    243.5162   7.8141004668e+01   1.1547883556e+00    0.1370229    0.1186816  32.92 0.0001253283    1.023    0.022
       196  -9.7176    131.3275     13.2880   2.6039447181e+01   4.9317324435e+01    0.1337897   0.08135197  41.49 0.0004417769    1.614    0.380
       197 -11.4210      2.3896    248.0321   1.0771168548e+02   2.0995238511e+01    0.3791756    0.2391675  78.90  0.001703567    1.194    0.162
       198  -9.6430     59.1433    236.1052   9.6129899898e+01   1.6707848836e+01    0.1769903    0.1232368  68.77 0.0003577764    1.269    0.212
       199  -9.8274     54.3587    235.7089   9.7071872704e+01   1.7443728838e+01     0.138499   0.07757661  63.96 0.0007028053    1.691    0.408
       200  -9.2194    239.2766    234.3296   5.7741092953e+01  -1.1801337701e+01    0.1286445   0.08146945  -6.25 0.0005229794    1.595    0.373
       201 -11.0103     31.2156    232.8865   1.0145337550e+02   2.0972933235e+01    0.4112509    0.1231707  40.82  0.001425626    2.767    0.639
       202  -9.9237    245.9973    230.4960   5.5804165256e+01  -1.2140007856e+01     0.209068    0.1116466  35.73 0.0004872566    1.950    0.487
       203  -9.8665    140.2371    227.8302   7.7316392855e+01   5.4399308856e+00     0.240211    0.1487871  72.26 0.0009555956    2.843    0.648
       204 -10.6112      1.6314    226.9781   1.0665912040e+02   2.5402345318e+01    0.1676244    0.1271255 -81.28 0.0004700965    1.245    0.197
       205  -9.8350    223.3244    226.3130   5.9338600667e+01  -8.2672615673e+00    0.1372167   0.08979981  -1.77 0.0005234149    1.661    0.398
       206 -11.8047      3.2855    221.1670   1.0599231793e+02   2.6489330823e+01    0.4613933    0.1858756  76.87  0.002064555    2.564    0.610
       207 -10.6189      7.6299    220.9422   1.0515153119e+02   2.6116616188e+01    0.2529148   0.09167518 -76.15 0.0009692191    2.317    0.568
       208  -9.5435    197.6991    222.6525   6.3854395586e+01  -3.5800436639e+00     0.143802   0.09891298  -3.69 0.0007038227    1.687    0.407
       209 -10.1688     19.1706    221.0516   1.0291206419e+02   2.4907156007e+01    0.3586044    0.1548197  70.60  0.001262562    2.484    0.597
       210  -9.6902    134.9385     10.7707   2.4661646655e+01   4.8703427143e+01    0.1721769   0.08801495  62.43  0.000274314    1.582    0.368
       211  -9.4445     85.8330     10.3757   3.5164898476e+01   5.9508112262e+01    0.1724696   0.08823854  43.62  0.000238507    1.563    0.360
       212  -9.2687    210.2912    215.6927   5.9962164863e+01  -4.4315731798e+00    0.1208975    0.1119847  83.29 0.0003146936    1.578    0.366
       213  -9.4717     85.6520    215.1431   8.7944760215e+01   1.7459002636e+01    0.1774445    0.1230035 -55.24 0.0003375298    1.549    0.354
       214  -9.8013    111.3219    214.6830   8.1908211429e+01   1.3316922061e+01    0.1512291    0.1049165  68.48 0.0003338179    1.664    0.399
       215  -9.8120    229.9951    209.1969   5.4829869671e+01  -6.4463733062e+00    0.1844492    0.1438571 -50.32  0.001039205    1.612    0.380
       216 -10.3538     39.2442    207.2983   9.7521178573e+01   2.5756452492e+01    0.1972825    0.1774445 -86.09  0.000406713    1.172    0.147
       217 -10.9745      5.5437    207.0648   1.0460093737e+02   2.9388067760e+01    0.1816729   0.09570467 -81.47 0.0004380193    1.551    0.355
       218  -9.3897     21.9518    180.2171   9.8703995516e+01   3.4106834131e+01    0.1552395    0.1028542  34.52 0.0008742335    1.701    0.412
       219  -9.1794     37.6990    172.2783   9.3946580705e+01   3.4413812095e+01    0.1357406   0.09196119  70.89 0.0002280616    1.542    0.352
       220  -9.6418      4.9996    168.0319   1.0150066499e+02   3.8531208770e+01    0.1982545    0.1212751  69.65 0.0005049522    1.650    0.394
       221  -9.2495    229.4898    165.5101   4.6121550234e+01   1.5328432158e+00    0.1427541    0.1256061 -25.21 1.029775e-05    1.024    0.024
       222 -10.1115     14.1436    164.1850   9.8896595975e+01   3.8714872998e+01    0.2402619    0.1444112 -20.04   0.00116888    2.778    0.640
       223  -9.4409     29.4907    155.0582   9.3835633464e+01   3.9563521854e+01    0.1994112    0.1142248 -68.80 0.0004550258    1.479    0.324
       224 -10.4148     22.2307    149.6385   9.5068525705e+01   4.1583935559e+01    0.1624827    0.1271463   0.31 0.0009516196    1.684    0.406
       225 -10.4502     28.8868    139.7262   9.1813840413e+01   4.3432635176e+01    0.3967476    0.1477152 -62.38 0.0007849495    2.142    0.533
       226  -9.9133      1.9012    140.1774   9.9372942667e+01   4.5434950017e+01    0.1814835    0.1398897 -87.93 0.0003225698    1.186    0.157
       227  -9.5166    235.7614    138.0076   3.9189488974e+01   5.5888511524e+00    0.1944444    0.1062708 -41.69 0.0008801877    1.609    0.378
       228 -10.3607     24.0580    138.0103   9.2942486815e+01   4.4291947058e+01     0.195491    0.1623092  86.08 0.0005280179    1.229    0.186
       229 -10.9237     21.4703    135.5777   9.3328879083e+01   4.5110162979e+01    0.2117385    0.1406508 -63.86 0.0004474694    1.235    0.190
       230 -10.0834     95.8862    133.8449   7.0748149323e+01   3.5795111394e+01     0.318678    0.1965111 -49.24 0.0009102623    1.556    0.357
       231  -9.5106     28.6172    134.7298   9.1120310829e+01   4.4692100709e+01    0.1726002    0.1133981 -74.87 0.0001145505    1.416    0.294
       232  -9.4696     52.7446    129.9921   8.3003295034e+01   4.3290029432e+01    0.1872984    0.1113577 -59.43 0.0005156097    1.500    0.334
       233  -9.9243     10.2356    128.8122   9.5611294351e+01   4.7608088402e+01    0.1827552    0.1194798 -49.74 0.0004430135    1.363    0.266
       234 -10.4752    247.5156    127.0399   3.5015993032e+01   5.4359411786e+00    0.1993655    0.1006354 -58.07 0.0005732442    2.484    0.597
       235  -9.8921     65.0848    125.1359   7.8160761150e+01   4.2873311734e+01    0.2120215    0.1803388 -32.97 0.0002545003    1.181    0.153
       236 -10.0485    208.6472    123.3712   4.0686326527e+01   1.3870392850e+01    0.2415904    0.2101964 -75.51 0.0005504965    1.223    0.182
