#   1 NUMBER                 Running object number                                     
#   2 MAG_AUTO               Kron-like elliptical aperture magnitude                    [mag]
#   3 X_IMAGE                Object position along x                                    [pixel]
#   4 Y_IMAGE                Object position along y                                    [pixel]
#   5 X_WORLD                Barycenter position along world x axis                     [deg]
#   6 Y_WORLD                Barycenter position along world y axis                     [deg]
#   7 A_WORLD                Profile RMS along major axis (world units)                 [deg]
#   8 B_WORLD                Profile RMS along minor axis (world units)                 [deg]
#   9 THETA_WORLD            Position angle (CCW/world-x)                               [deg]
#  10 FWHM_WORLD             FWHM assuming a gaussian core                              [deg]
#  11 ELONGATION             A_IMAGE/B_IMAGE                                           
#  12 ELLIPTICITY            1 - B_IMAGE/A_IMAGE                                       
         1 -13.4227    176.4855     25.8249   6.1916723102e+01   3.7750451821e+01    0.9953091    0.5485044 -31.28  0.004393132    1.810    0.447
         2 -13.0110    171.0791     24.6540   6.2386081499e+01   3.9298116715e+01    0.8418021    0.3585206 -27.73  0.003276368    2.351    0.575
         3 -10.9082     11.0522    238.1105   1.3875355094e+02   2.5682799586e+01    0.1255194   0.09526318  69.63 0.0003419127    1.204    0.170
         4 -16.0319     10.1813     91.6337   1.2781881495e+02   5.5134254646e+01      8.03977      2.22112 -76.24   0.02952902    3.862    0.741
         5 -19.6694     70.5964    164.8296   1.2218322619e+02   3.2729509982e+01     16.31354     6.250981 -66.45   0.07208385    2.542    0.607
         6 -12.5986    123.6272    201.7272   1.1595622967e+02   1.7480004754e+01     0.403225     0.228356 -74.95  0.001464056    2.572    0.611
         7 -13.5621      4.9554    193.9689   1.3774447681e+02   3.3996388097e+01    0.9411636    0.2934191 -88.60   0.00459568    3.061    0.673
         8  99.0000      4.2482    177.3992   1.3698101522e+02   3.7245281124e+01    0.4697165    0.1758482 -60.00  0.002524357    2.864    0.651
         9 -11.2337     28.2914    200.4020   1.3396982007e+02   3.0568256651e+01    0.1450387    0.1202502  53.06  0.001145098    1.353    0.261
        10 -11.6814     14.6974    195.6994   1.3611498091e+02   3.2791018448e+01    0.2170583    0.1370365  73.35 0.0009981861    1.197    0.165
        11 -10.4362    132.9909    194.2786   1.1307814380e+02   1.7233061683e+01    0.1773342    0.1455006  51.83 0.0002734414    1.055    0.052
        12 -13.0360    202.8004    188.6989   9.8663392272e+01   5.6201155834e+00    0.3556872    0.2446716  32.44  0.001444819    1.292    0.226
        13 -12.8815    164.3395    186.4255   1.0560618011e+02   1.3028199605e+01    0.2771809    0.2269377 -74.24 0.0008712286    1.569    0.363
        14 -17.3211     47.7576    163.1343   1.2699776756e+02   3.5924865845e+01     2.884591     1.651875 -66.63   0.01683899    1.590    0.371
        15 -12.7756    184.6008    181.7975   1.0083549287e+02   1.0023076575e+01     0.391518    0.2781226 -54.18  0.001362738    1.792    0.442
        16 -14.6977     31.5115    249.3359   1.3617182769e+02   2.1800760067e+01    0.7279752     0.165747  41.12  0.003753967    3.192    0.687
        17 -12.7471    185.9625    173.7370   9.9072912764e+01   1.1063056336e+01    0.3818054    0.3217737  38.94  0.001069873    1.087    0.080
        18 -11.2964    185.2326    168.9722   9.8298992097e+01   1.1987463817e+01    0.2574149    0.2178484 -55.33  0.001112818    1.418    0.295
        19 -11.0056    192.9657    169.7144   9.6940257748e+01   1.0364318482e+01    0.1966165     0.165617  35.19 0.0005069952    1.082    0.076
        20 -10.6453    188.1487    163.1954   9.6582662616e+01   1.2376548144e+01    0.1822812    0.1674431  79.12 0.0004672775    1.327    0.247
        21 -12.2192    113.1016    226.5815   1.2088335293e+02   1.4950121280e+01    0.1860689    0.1548224 -88.76 0.0006656408    1.298    0.229
        22 -12.5086    160.2933    127.8602   9.4711023259e+01   2.4596746980e+01    0.3675436    0.2737496 -53.26  0.001531823    1.451    0.311
        23 -11.3101    110.4002    222.7049   1.2095633294e+02   1.5985665984e+01    0.4085957    0.1632954 -62.92  0.001990086    3.083    0.676
        24 -10.4713    231.0475    113.7363   7.7567374962e+01   1.1481982787e+01    0.1990897    0.1837927  18.65  0.001053469    1.081    0.075
        25 -14.0096      9.3999    213.5173   1.3794264541e+02   3.0022726991e+01    0.8225344    0.4986717  66.70  0.004793721    1.195    0.163
        26 -10.3768     18.9452    236.3264   1.3747634182e+02   2.5196494083e+01    0.1148508   0.07898341  40.54 0.0003904765    1.657    0.397
        27 -10.3571    154.0451    213.5621   1.1176522033e+02   1.0465375950e+01    0.1628529    0.1594392  67.43  7.15553e-05    1.191    0.161
        28 -10.2969    103.4228    234.9245   1.2343382297e+02   1.5047108902e+01    0.1291838    0.1109457  71.45 0.0003522511    1.166    0.142
        29 -12.3060    149.9251     65.8325   7.9954963487e+01   3.8718486281e+01    0.3588599    0.3407525  75.64  0.000866872    1.124    0.111
        30 -13.8517    161.4798     52.1359   7.3078704397e+01   3.8074384419e+01     1.022693    0.8004554 -16.12  0.003495738    1.370    0.270
        31 -12.6773    165.8394     43.6371   6.9475964114e+01   3.8209530329e+01    0.4685105    0.4238116  35.44 0.0009271142    1.112    0.101
        32 -10.3855    144.1966    212.6412   1.1347943573e+02   1.2256660548e+01    0.1709937    0.1520023  75.00 0.0004164723    1.214    0.176
