#   1 NUMBER                 Running object number                                     
#   2 MAG_AUTO               Kron-like elliptical aperture magnitude                    [mag]
#   3 X_IMAGE                Object position along x                                    [pixel]
#   4 Y_IMAGE                Object position along y                                    [pixel]
#   5 X_WORLD                Barycenter position along world x axis                     [deg]
#   6 Y_WORLD                Barycenter position along world y axis                     [deg]
#   7 A_WORLD                Profile RMS along major axis (world units)                 [deg]
#   8 B_WORLD                Profile RMS along minor axis (world units)                 [deg]
#   9 THETA_WORLD            Position angle (CCW/world-x)                               [deg]
#  10 FWHM_WORLD             FWHM assuming a gaussian core                              [deg]
#  11 ELONGATION             A_IMAGE/B_IMAGE                                           
#  12 ELLIPTICITY            1 - B_IMAGE/A_IMAGE                                       
         1 -10.6085     19.0118     28.7386   8.1584853111e+01   6.9124709578e+01    0.4946729    0.1937858 -45.31  0.000934357    2.520    0.603
         2 -11.1650      6.0409     35.5348   9.1481727384e+01   6.9080057896e+01    0.7237241    0.4537577 -61.03  0.004178557    2.049    0.512
         3 -10.9401     73.2639     38.1859   6.1231041841e+01   5.9603920046e+01    0.8328362    0.3753839 -22.28  0.002372934    3.011    0.668
         4  -8.8119     43.3057     11.0365   6.1193919856e+01   6.8220761760e+01    0.3332047    0.1420883  30.55  0.001296576    2.254    0.556
         5 -10.5681     28.3205     30.3502   7.7331993867e+01   6.7833780971e+01     1.049943    0.5251431 -19.37  0.005024422    2.341    0.573
         6 -10.1795     35.1738     18.1235   6.8353948028e+01   6.8648566888e+01    0.3063185    0.2165429   8.52 0.0002598462    1.197    0.164
         7 -10.5721     42.1016     15.9532   6.4080909354e+01   6.7865844631e+01    0.4441138    0.1792239  32.91  0.000574004    2.269    0.559
         8 -12.4207    107.8309     28.9935   4.7703630955e+01   5.3460325420e+01    0.4124322    0.3280506   8.97  0.002418065    1.447    0.309
         9 -12.4706    105.1605     20.8529   4.5507770179e+01   5.4927546918e+01    0.3160313    0.2775284  49.03 0.0004125728    1.031    0.030
        10 -10.8635    145.6882     28.6627   4.0109909713e+01   4.4699116520e+01      0.61057    0.3690789  57.26 0.0007701361    1.470    0.320
        11  -9.8474    225.7560     16.4241   2.8256185592e+01   2.8397654193e+01    0.3360932    0.1873253 -38.27  0.001412802    1.790    0.441
        12 -10.4278    230.6434     14.4687   2.7527262166e+01   2.7656284787e+01    0.3219256    0.1779134 -87.72  0.001595928    1.645    0.392
        13 -10.5752    219.8875     20.6487   2.9545026422e+01   2.9094356530e+01    0.3659401    0.3032522 -72.92  0.001638975    1.096    0.088
        14  -9.1429    144.1135     18.0745   3.7353367893e+01   4.6188355285e+01    0.4218591    0.1920246 -25.63  0.001968429    2.650    0.623
        15 -10.9275    146.2506     13.5402   3.5770178119e+01   4.6128207760e+01    0.6362852    0.4042765 -86.69  0.003481483    1.668    0.401
        16 -10.7831     86.1373     22.1938   5.0876685085e+01   5.8948448871e+01    0.3923272    0.2661349  74.82  0.001112763    2.020    0.505
        17  -9.6106     77.4973     11.8573   4.9273055649e+01   6.1762192837e+01    0.4517695    0.1748947  51.65 0.0008701028    2.062    0.515
        18 -10.0325     69.7919     11.4615   5.1458982206e+01   6.3356327195e+01    0.3086577    0.2242579  18.71 0.0002404206    1.325    0.245
        19 -11.9731     74.0860      4.7277   4.7316671125e+01   6.3069252854e+01     1.274624    0.5254897  -9.20  0.005345685    3.611    0.723
        20 -11.4221     79.4545      4.3791   4.5687715959e+01   6.1985015955e+01    0.3095061    0.2302993  46.05 0.0003857319    1.074    0.069
        21 -11.8870     61.7555     17.3392   5.6740922169e+01   6.4319612821e+01    0.5898575    0.3146406  28.48  0.002214874    1.852    0.460
        22 -10.8064    165.6858     18.8155   3.4596309156e+01   4.1101203582e+01    0.4130091    0.2708123  25.97 0.0009146344    2.449    0.592
        23  -9.9473      7.0854      9.2462   7.9578354906e+01   7.3202708209e+01    0.3099384    0.1895509  -5.69 0.0009269933    1.383    0.277
        24 -10.6805     14.9060     11.4656   7.5943948178e+01   7.2096619036e+01    0.3474784    0.2085508  19.97 0.0009268881    1.437    0.304
        25 -10.7224      5.3878     15.9290   8.3861929683e+01   7.2390266280e+01    0.3263333    0.2364951  32.19  0.001196759    1.842    0.457
        26 -10.3265      9.9175     14.7808   8.0545588120e+01   7.2150490066e+01    0.2423795    0.1550638   2.50 0.0008191123    1.307    0.235
        27  -8.8011    200.5331     13.6168   2.9730061623e+01   3.3897293484e+01    0.2414854    0.1580286  39.61    0.0013658    2.394    0.582
        28  -9.1619    185.7139      1.4359   2.8365739210e+01   3.8302771781e+01    0.2144095    0.1802935  60.93 0.0009336923    1.365    0.268
        29 -10.8985    182.2856     18.3887   3.2573506936e+01   3.7378627497e+01    0.3864562    0.2361035  51.36 0.0004758512    1.843    0.457
        30 -11.9196    177.7123      3.4328   2.9543727790e+01   3.9880728171e+01    0.4522647    0.2635838  82.34   0.00265042    1.464    0.317
        31  -9.9322    184.3584     12.8771   3.1079406667e+01   3.7492521825e+01    0.2314277    0.1888839 -75.29 0.0007246206    1.078    0.072
        32 -11.0566    175.9946     12.0493   3.1744541318e+01   3.9442895514e+01    0.7934235    0.3308673  78.95  0.003658345    2.319    0.569
        33  -9.3967    126.3430     16.2643   3.9717912377e+01   5.0512394694e+01    0.4110647    0.1968143  36.86  0.001401182    2.655    0.623
        34 -11.0776    133.0250     12.6537   3.7498881253e+01   4.9291497169e+01    0.2302262    0.1959454  72.67 0.0002709098    1.028    0.027
        35  -9.0850    129.3136      7.7228   3.6609147612e+01   5.0584205869e+01    0.3588261     0.235394  -1.74  0.002007626    2.134    0.531
        36  -9.4050    117.2250     14.8378   4.0942217212e+01   5.2754611545e+01    0.2266427    0.1744859   7.77  0.001196124    1.604    0.376
        37 -10.0086    244.4362     13.6069   2.6444587686e+01   2.5133851414e+01     0.245522    0.1542531  58.65  0.001617504    2.041    0.510
        38 -10.1827    218.5089     11.0740   2.7753007536e+01   3.0433410557e+01    0.2985316    0.1798866 -65.10  0.001164106    1.398    0.285
        39 -10.9779    212.6405      9.2844   2.7839313382e+01   3.1818148615e+01    0.4249943     0.326155 -23.29  0.002676093    1.809    0.447
        40 -10.6090    208.8593      3.6412   2.6986710557e+01   3.3172281805e+01    0.3778314    0.2854899 -83.33  0.001571713    1.047    0.045
        41  -9.1855     97.9251      5.7919   4.1775925183e+01   5.7887349662e+01    0.2947343    0.1881242 -10.64  0.001695629    1.923    0.480
        42 -10.2961     96.9596     12.8148   4.4544357671e+01   5.7514859847e+01    0.2876318     0.207717  46.42 0.0004574616    1.163    0.140
        43  -8.9767    101.1662     10.6184   4.2798373898e+01   5.6771718016e+01    0.2138691    0.1387851  42.01 0.0004894892    1.389    0.280
        44  -9.2946     51.2692     12.1479   5.8394455729e+01   6.6756151556e+01    0.2620864    0.1767678  34.32  0.001012829    1.214    0.176
        45  -9.4603     50.7636      7.9742   5.6633901541e+01   6.7259397487e+01    0.3666093    0.2563082  45.70  0.002317355    1.372    0.271
        46  -9.5810     31.7158     12.0821   6.7124601373e+01   6.9883379973e+01     0.393964    0.2082996  24.93  0.002202892    1.683    0.406
        47 -10.1755    191.6932      8.2024   2.9337880037e+01   3.6355004588e+01    0.5011759    0.2279083 -38.68  0.002692588    2.151    0.535
        48 -10.9651    196.0467      3.3754   2.7922467205e+01   3.5889938712e+01    0.4114252    0.3031088  60.09  0.002780143    1.504    0.335
        49  -9.5769    170.8748      5.9979   3.0828629881e+01   4.1174871075e+01     0.337239    0.1577925  52.79   0.00127403    2.234    0.552
        50 -11.7069    156.0081      3.5395   3.1838985803e+01   4.4772208746e+01    0.3795235    0.2005432  54.89 0.0001858552    1.781    0.438
        51 -11.8196    159.8745      1.8100   3.0963206371e+01   4.4037447134e+01    0.6070941     0.492163 -53.91  0.003708425    1.306    0.235
        52  -8.4994     55.7780     11.2388   5.6224237200e+01   6.6043975763e+01    0.1781124    0.1182943  22.24  0.001065628    1.355    0.262
        53 -10.9268     24.9626      7.0323   6.8030912226e+01   7.1410028807e+01    0.3265311    0.2670654  14.01  0.000384687    1.231    0.187
        54  -9.6134     21.3469      5.3185   6.9086850752e+01   7.2086007728e+01    0.2178457    0.1333762  11.57 0.0007506004    1.411    0.292
        55 -10.0633    119.8125      9.7317   3.8818854785e+01   5.2609924819e+01    0.3072884    0.2048064 -68.58 0.0004184825    1.899    0.474
        56  -9.9030    166.0044      9.1091   3.2116411074e+01   4.1988738694e+01    0.3015969    0.2519117 -77.74  0.001487068    1.108    0.098
        57  -8.7282     89.5546      9.5151   4.5101889383e+01   5.9418575893e+01    0.1262826    0.1034795  45.60 6.615763e-05    1.006    0.006
        58  -9.0958     92.8246      8.0451   4.3757269239e+01   5.8829818629e+01    0.2499402    0.1573363  61.71 0.0007038269    1.400    0.286
        59  -9.0396      1.2682      8.3996   8.2891672167e+01   7.3841606710e+01    0.1694547    0.0840408 -41.03 0.0004656058    1.916    0.478
        60  -9.2946    230.3214      6.9327   2.6137276990e+01   2.8535425737e+01    0.1821557    0.1476072 -61.28 0.0006431342    1.199    0.166
        61 -10.7288    107.1900      5.4473   3.9749432414e+01   5.5840301905e+01     0.504403    0.3592121 -20.04  0.002087503    1.685    0.407
        62  -9.1979    103.1888      1.2895   3.9095550004e+01   5.7052845219e+01    0.1749427   0.09619396  63.94 0.0009437808    1.499    0.333
        63  -8.6683     64.3954      6.7243   5.1152416576e+01   6.4838932145e+01    0.2171735    0.1615596 -46.11 0.0005214853    1.926    0.481
        64  -8.6906     61.5471      6.4681   5.1990871475e+01   6.5410218554e+01     0.172563    0.1525167  -0.82  0.000601634    1.252    0.201
        65  -9.2561     87.4124      6.1212   4.4332444437e+01   6.0158553561e+01    0.2083791    0.1484061  69.12 0.0005933241    1.443    0.307
        66  -9.9478     38.0541      4.6673   6.0370361805e+01   6.9722942272e+01    0.2647081    0.2147853  49.27  0.001479875    1.632    0.387
        67 -10.5118    235.6951      3.1951   2.5116578855e+01   2.7896201425e+01     0.440408     0.199726 -87.37  0.002277486    2.070    0.517
        68 -10.5168    217.5159      3.2539   2.6294749706e+01   3.1445846536e+01    0.2569042    0.2368787 -70.03 0.0009549253    1.341    0.254
        69  -9.3456    126.6377      1.6123   3.5175671640e+01   5.1691282734e+01    0.2703534    0.1607995  46.59 0.0008204996    1.617    0.381
        70 -10.1716     15.6187      3.4786   7.1355532984e+01   7.3016696229e+01    0.3945939    0.2191717  14.52  0.001615339    1.599    0.374
        71  -9.6246    119.8808      2.0678   3.6376740370e+01   5.3208766775e+01    0.2462386    0.1818219 -27.17 0.0009178147    1.625    0.385
        72 -10.9955    115.5653      1.9975   3.7074676366e+01   5.4200960963e+01    0.2714208    0.1666315  56.08 0.0003661354    1.326    0.246
        73 -11.5463     91.4288      2.2577   4.1915078517e+01   5.9583455355e+01    0.2675284    0.2198369 -69.35   0.00174179    1.574    0.365
        74  -9.9924     30.6516      2.7313   6.2857541971e+01   7.1062676833e+01     0.217092    0.1693745 -25.16  0.001038055    1.546    0.353
        75 -10.2278    135.2536      1.5950   3.3926587826e+01   4.9707290700e+01    0.2669884    0.1367519  74.24  0.000860702    1.691    0.408
        76  -9.5279      5.3313      1.3625   7.6550720148e+01   7.4411122175e+01    0.1866062   0.08544275  21.31 0.0005735201    1.921    0.479
        77 -11.0487    249.5451      2.0671   2.4130896678e+01   2.5449319219e+01    0.2304246    0.2130311  34.40  0.001881335    1.887    0.470
        78  -9.1045     29.2143    120.7839   1.0256050098e+02   4.8190405365e+01    0.2996349    0.1830801 -52.38 0.0006473696    1.404    0.288
        79  -9.7152    201.4226    249.6391   7.9270528568e+01  -6.6053486308e+00    0.2356612    0.1731213   0.95 0.0005695805    1.130    0.115
        80 -10.4286    115.9493    248.7702   9.7499392031e+01   5.3999755370e+00    0.3114125    0.2613503  71.12  0.001888073    1.422    0.297
        81  -9.7186     32.8355    117.8568   1.0074958464e+02   4.8615270827e+01    0.2461365    0.1959815 -49.27 0.0003515204    1.104    0.094
        82  -9.4044     33.5378    114.4835   9.9854953568e+01   4.9412698951e+01    0.2867438    0.2357187 -66.96 0.0008062527    1.174    0.148
        83  -8.9281    241.5046    124.0732   4.8233863530e+01   9.4805808239e+00    0.2109166     0.107593 -42.64  0.001033296    1.599    0.374
        84 -10.3493     61.7446    121.2332   9.1248611299e+01   4.4417797498e+01    0.3905562    0.2248046 -41.70 0.0004543161    1.709    0.415
        85 -10.0687      7.9979    121.7023   1.1001876704e+02   4.9515539753e+01    0.3288484    0.2393343 -31.10  0.001669718    1.441    0.306
        86  -9.2762    236.6700    121.6464   4.8429841101e+01   1.0719303933e+01     0.202515    0.1537052 -11.30  0.001124374    1.734    0.423
        87  -8.9043     84.4596    122.0748   8.3780641372e+01   4.0738698770e+01    0.2470178    0.1471471 -50.17  0.001027255    1.599    0.375
        88 -10.3801     45.0097    119.5459   9.6751805128e+01   4.6930907824e+01    0.3734153    0.2758452  27.35  0.001006724    1.467    0.319
        89  -9.7584      3.0685    108.9818   1.0994163721e+02   5.3000576357e+01     0.363043    0.2519216  54.02  0.001400751    1.781    0.438
        90 -10.3928     15.4716    108.0663   1.0528977862e+02   5.2500613264e+01    0.4208584    0.3621478 -72.22  0.001739776    1.153    0.133
        91 -11.5879     21.7714    119.2689   1.0491200621e+02   4.9197964856e+01    0.5062891     0.406205  54.23  0.001517707    1.461    0.316
        92 -11.3047     21.1129    108.7106   1.0332057292e+02   5.1934599382e+01    0.8381683    0.3723282 -60.54  0.003684499    1.842    0.457
        93 -10.7882     10.9468    115.8539   1.0816794131e+02   5.0826579926e+01    0.6989464    0.3606899  79.32   0.00284991    2.907    0.656
        94  -9.4232     13.9594    113.5060   1.0673902992e+02   5.1229489905e+01    0.2505945    0.1801878 -73.58 0.0006188014    1.295    0.228
        95  -9.9034    221.6868    119.2196   5.0168901827e+01   1.3808733078e+01    0.3031748    0.2473112  37.50  0.001190212    1.475    0.322
        96  -9.2855     93.7908    119.0269   8.0004146718e+01   3.9866043987e+01    0.2654479    0.2277448  23.65 0.0005726566    1.200    0.167
        97  -9.1606     38.0934    118.9115   9.9078870811e+01   4.7831504280e+01    0.2404888    0.1483347 -36.02  0.001117046    1.653    0.395
        98 -10.0016      3.7328    117.6404   1.1091607251e+02   5.0789057616e+01    0.3976134    0.2382383 -67.08  0.001239078    1.361    0.265
        99  -8.3343    104.0338    119.0000   7.6794454603e+01   3.7969241201e+01    0.2517836   0.09053285  38.24 0.0003644325    2.834    0.647
       100  -9.1578     55.1539    117.8924   9.2810937511e+01   4.6141071946e+01    0.2995616    0.1640773  51.27 0.0006191254    2.466    0.595
       101  -9.6875     70.3916    116.2473   8.7098650975e+01   4.4437044757e+01    0.2705494    0.2181363  75.99 0.0003196622    1.619    0.382
       102 -10.0161     46.9692    114.1305   9.4914435523e+01   4.8091920002e+01    0.3135172    0.2345651 -22.18 0.0005312465    1.427    0.299
       103  -7.9854    162.2889    114.2966   6.0146446299e+01   2.6816669175e+01    0.1494036    0.1214108  -1.80 0.0003426623    1.553    0.356
       104  -9.0098    129.9244    113.9453   6.8003229537e+01   3.3886358848e+01    0.2282403    0.2252336 -54.80            0    1.039    0.038
       105  -8.2961     83.6607    114.7288   8.2213843749e+01   4.2686819761e+01    0.1581423    0.1182299 -12.18 0.0006549032    1.605    0.377
       106  -8.6377     80.5680    114.2018   8.3116551994e+01   4.3333680287e+01    0.2301385    0.1342974 -40.73 0.0009440827    1.709    0.415
       107  -8.6820     76.7688    111.5137   8.3724489852e+01   4.4610956591e+01    0.3138332    0.1847673 -23.59 0.0007906012    2.378    0.579
       108  -9.0410    231.3219    109.6667   4.6714533885e+01   1.3749953073e+01    0.1372038   0.09244527 -65.99 0.0007050004    1.703    0.413
       109  -8.6451     37.4054    105.8368   9.6647866741e+01   5.1213638201e+01     0.226621    0.1282565 -58.15  0.000815739    1.575    0.365
       110  -8.6807     39.9448    102.9718   9.5047721627e+01   5.1659450386e+01    0.2257029    0.1710657 -34.03 0.0004909035    1.233    0.189
       111  -9.5195     44.5838     99.6732   9.2496167687e+01   5.1954011791e+01     0.455319     0.179177  28.84  0.001479696    2.626    0.619
       112  -9.5646     39.3752     99.1806   9.4390981512e+01   5.2646853736e+01     0.329273    0.2286332  19.49  0.000964496    1.546    0.353
       113 -10.1171     30.3451    103.5620   9.8841803738e+01   5.2455481165e+01     0.499667    0.2970463  80.55  0.001564742    2.977    0.664
       114  -8.4544     33.7611    102.9868   9.7413688919e+01   5.2279846245e+01    0.2187907    0.1072838 -49.07 0.0005443373    1.730    0.422
       115  -9.5491    132.2090    103.9871   6.4719319771e+01   3.5557537171e+01    0.2683592    0.2229602  49.58 0.0006369395    1.225    0.184
       116 -10.3429    118.9645    102.9965   6.8064596855e+01   3.8614369617e+01    0.3754568    0.2827906  29.78            0    1.415    0.293
       117 -11.6955    117.6663     97.9891   6.7025211071e+01   3.9961094688e+01    0.3928455    0.3041258  15.46  0.000319509    1.536    0.349
       118 -10.1410    100.8119    102.8642   7.3454950568e+01   4.2339696258e+01    0.3777046    0.2847694  14.65  0.001429556    1.543    0.352
       119  -9.5857    100.5108     99.5396   7.2610192508e+01   4.3139354759e+01    0.2661943     0.220639 -14.35 0.0007495861    1.308    0.236
       120  -9.6290     56.8583    100.7854   8.8113195549e+01   5.0158369835e+01     0.513615    0.1354829 -45.98  0.001559394    3.455    0.711
       121  -8.7238    127.2522    101.9790   6.5486891861e+01   3.7059631486e+01    0.1973091    0.1324607 -43.92 0.0002363973    1.485    0.327
       122  -8.4317     87.5039    102.5448   7.7683084718e+01   4.4908018201e+01     0.151129    0.1480002 -16.40 0.0001861873    1.067    0.063
       123 -10.0098     50.8104    100.9451   9.0430845168e+01   5.0902638177e+01     0.460204    0.2206278 -55.90  0.001898814    1.945    0.486
       124  -8.7559    177.0033    101.2962   5.3827457129e+01   2.6193661956e+01    0.1939336    0.1849873  81.63 0.0002904183    1.074    0.069
       125  -8.1961     80.7300    101.7112   7.9754736239e+01   4.6286988423e+01    0.1560192    0.1506169  85.12 0.0002124506    1.198    0.165
       126  -9.3151     78.1487    100.4282   8.0296488589e+01   4.7021044772e+01    0.3409821    0.1815091 -35.65  0.001338508    2.054    0.513
       127  -9.6742     95.0030    100.0706   7.4518910658e+01   4.4084683148e+01    0.2264489     0.213501 -11.68 0.0003435721    1.018    0.018
       128  -9.8161      2.5584     92.5810   1.0754336457e+02   5.7047720327e+01    0.4510747    0.2431607  50.48  0.001602984    2.656    0.624
       129  -9.8375      3.2127     80.8413   1.0510799360e+02   5.9789432704e+01    0.3951156    0.2644805 -59.67  0.001286943    1.261    0.207
       130  -9.7026      8.8664     98.1845   1.0606155904e+02   5.5359697014e+01    0.4074804    0.2697546 -88.91  0.002134839    1.792    0.442
       131  -8.8052      4.3423     97.8268   1.0773789219e+02   5.5690242666e+01    0.2384959    0.1939982   4.82  0.001482625    1.409    0.290
       132  -9.5358      2.0000     88.0433   1.0696887803e+02   5.8157585573e+01      0.35181    0.1441351 -67.06  0.001581472    2.075    0.518
       133  -9.0348      3.6619     84.6936   1.0566934084e+02   5.8869019622e+01    0.2057689    0.1231704 -55.15 0.0005630226    1.319    0.242
       134  -9.0895    149.6437     97.7248   5.8715858417e+01   3.2972114640e+01      0.21725     0.138234 -49.50 0.0007896636    1.603    0.376
       135 -10.0788    125.6459     96.9112   6.4504364513e+01   3.8469162114e+01    0.3067562     0.234279  53.04  0.001454143    1.360    0.265
       136  -9.0870    141.2935     96.6853   6.0418134368e+01   3.5052281646e+01    0.1531436    0.1212298 -80.73  0.000152585    1.598    0.374
       137  -9.4102     86.0119     96.0339   7.6344857903e+01   4.6652320365e+01    0.2294974    0.2208534   2.34 0.0003579635    1.050    0.048
       138 -10.0389     80.4685     95.4435   7.8081776304e+01   4.7764005122e+01    0.4483768     0.292101  41.68  0.001683238    1.612    0.380
       139 -10.1882     31.7196     94.0005   9.6194913011e+01   5.4661333310e+01    0.3677918    0.2503165 -63.54 0.0008979806    1.458    0.314
       140  -9.4912     34.2027     90.5868   9.4380700304e+01   5.5233936245e+01    0.2997538     0.202871 -16.84 0.0008902275    1.568    0.362
       141  -9.5534     13.0306     94.6634   1.0378812998e+02   5.5966028174e+01    0.3095145     0.203139 -44.12  0.001638393    1.282    0.220
       142 -10.5076     46.6078     91.1259   8.9543043452e+01   5.3748420440e+01    0.4967364    0.3147508 -75.22  0.001464037    2.318    0.569
       143  -9.6786    134.3083     92.0656   6.0869695482e+01   3.7534540005e+01      0.25323    0.2062308  35.43 0.0005016037    1.274    0.215
       144  -8.9166    104.8370     90.8346   6.8734983628e+01   4.4140127784e+01     0.236821     0.190665  80.60  0.001109381    1.704    0.413
       145  -8.5132     52.5869     90.8146   8.7106502475e+01   5.3070482524e+01    0.1947301    0.1362479 -64.83 0.0007937095    1.670    0.401
       146  -9.4237     18.2858     90.9555   1.0093312050e+02   5.6503261550e+01    0.2033234     0.176891 -11.07 0.0004652642    1.192    0.161
       147  -9.2837    113.4729     90.3652   6.6024826330e+01   4.2435169325e+01    0.2644695    0.1433973  44.69 0.0008829905    1.825    0.452
       148  -9.1617     75.2750     65.9965   7.0701789646e+01   5.4734147731e+01    0.2537725    0.2043571 -20.05 0.0007323496    1.224    0.183
       149  -9.3000     86.9393     83.5115   7.2287736109e+01   4.9170623142e+01     0.254976    0.2408239 -54.77 0.0003861847    1.199    0.166
       150 -10.8663     86.5842     67.2881   6.7172260244e+01   5.2383611161e+01    0.9504489    0.3610359  40.62  0.001271082    2.546    0.607
       151 -10.1266     79.2805     62.1266   6.7931137944e+01   5.4699163499e+01     1.734882     0.258808  44.69  0.003876543    7.344    0.864
       152 -10.4450     86.3428     88.7197   7.4079432976e+01   4.8189079644e+01     0.429016    0.3391445 -16.13 0.0008711329    1.356    0.263
       153  -9.8556     90.8680     83.6434   7.1009290252e+01   4.8398240241e+01    0.4435739    0.2708304 -24.04  0.001026928    2.063    0.515
       154 -11.6046     81.0197     83.3427   7.4281241338e+01   5.0290382288e+01    0.5041599    0.3459713  -4.49 0.0003447783    1.906    0.475
       155 -11.6242     72.4879     79.6504   7.6203232550e+01   5.2540686726e+01     1.055264    0.7044719 -16.60  0.003887041    1.800    0.445
       156 -10.4041     88.7179     74.1714   6.8726746415e+01   5.0687230415e+01     0.569418    0.5101554 -19.71  0.002987246    1.098    0.090
       157 -10.6149     94.3810     71.7554   6.6084753893e+01   5.0021633913e+01    0.6002364    0.3398519 -43.40  0.002641661    1.848    0.459
       158  -9.3170     39.4734     88.5702   9.1734514275e+01   5.5159456970e+01    0.3152764     0.175861 -51.02  0.001480062    1.585    0.369
       159 -11.1428     26.4670     87.0703   9.6700347893e+01   5.6776624173e+01    0.6438586    0.3982061 -29.49  0.002298926    1.568    0.362
       160  -9.5029     97.6397     88.6804   7.0341050704e+01   4.6037595095e+01    0.3017487    0.2544451  60.09  0.001024333    1.383    0.277
       161  -9.7606     57.4577     87.3885   8.4248297677e+01   5.3190279483e+01     0.503026    0.2950512  58.91  0.001630193    3.267    0.694
       162  -9.1318     14.4224     87.7635   1.0183948726e+02   5.7528429105e+01    0.4099282    0.1720105 -41.83  0.001816558    2.041    0.510
       163  -9.4937      6.8734     89.0697   1.0518637588e+02   5.7669563785e+01    0.1903518    0.1715136  48.35 0.0005939104    1.389    0.280
       164 -10.1420    118.0258     83.6406   6.2738140650e+01   4.2787710078e+01    0.5323436    0.3082775  57.06   0.00126304    1.982    0.495
       165 -10.9268    123.6571     87.0576   6.2209904296e+01   4.0887338861e+01    0.4604895    0.3296408  34.57  0.001103857    1.469    0.319
       166 -10.3331    130.0502     84.9151   5.9909422237e+01   3.9875930150e+01    0.5213418    0.3435307   3.78  0.001987553    2.747    0.636
       167 -10.9537    155.5653     84.4867   5.3837185492e+01   3.4137956323e+01    0.7137957    0.4022163 -23.07 0.0005880946    2.647    0.622
       168  -8.7414    146.0675     70.3189   5.1945430747e+01   3.8802567875e+01    0.2217543    0.1975481 -45.80 0.0007611255    1.151    0.131
       169 -10.4127    150.1715     80.4479   5.3892485604e+01   3.6104042433e+01    0.4511012    0.3427076  64.74  0.001735695    1.364    0.267
       170 -10.5137    145.8319     74.6945   5.3233640972e+01   3.8115777425e+01    0.3190091    0.2783801 -55.21  0.000676513    1.174    0.148
       171  -9.8092    141.4733     75.4576   5.4423077706e+01   3.8992268042e+01    0.2213534    0.2151551  41.35 0.0004916317    1.053    0.050
       172 -10.2685    110.5489     85.4979   6.5428638983e+01   4.4034682146e+01    0.4489042    0.2114991  53.50  0.001627002    2.494    0.599
       173 -10.0955    105.8597     82.2725   6.5841478920e+01   4.5658295019e+01    0.4495366    0.2334571 -37.60            0    2.009    0.502
       174 -10.7274    141.3506     83.5369   5.6746413444e+01   3.7569993221e+01    0.5955968    0.3705066  59.55  0.001709173    1.719    0.418
       175 -11.4926     45.1119     68.6606   8.3619128063e+01   5.8863372124e+01     0.320168    0.2335626 -38.52 0.0002577066    1.257    0.204
       176 -10.7248     51.3208     82.9333   8.5389059152e+01   5.5017590404e+01    0.4676353    0.3008726   0.58  0.002048688    1.855    0.461
       177 -13.0701     52.9152     74.4364   8.2179644931e+01   5.6632698606e+01    0.7291264    0.3838251 -55.72  0.001227347    2.175    0.540
       178 -10.0025     43.5865     81.7300   8.8196281859e+01   5.6251234267e+01    0.4331918    0.2573617  19.34  0.001032414    1.776    0.437
       179 -10.2757     38.1565     81.6052   9.0419333336e+01   5.6895106681e+01    0.4174369    0.2744923   1.39  0.001294876    1.669    0.401
       180  -9.8824     20.3082     81.9569   9.8070793489e+01   5.8466389199e+01    0.3564933    0.2430327  42.08  0.001502428    1.870    0.465
       181  -9.5719     18.4699     75.0571   9.7180015095e+01   6.0173297714e+01    0.5537883    0.1795104 -54.41  0.002260671    2.395    0.582
       182 -10.4194    167.9261     78.3054   4.9725234711e+01   3.2395303277e+01    0.2639908    0.2387044 -80.94 0.0004105577    1.084    0.078
       183 -10.3058    170.0021     73.5124   4.8097151192e+01   3.2727578848e+01    0.3367667     0.209609 -30.54  0.001012742    1.821    0.451
       184  -9.8609    178.3307     78.0670   4.7782069810e+01   3.0075460021e+01    0.2734284    0.2453799  -6.08 0.0006542893    1.380    0.276
       185 -10.7043    175.6012     74.9392   4.7468428986e+01   3.1215142751e+01    0.4401801    0.2108299  55.77  0.001866937    2.079    0.519
       186  -9.1059    136.6230     77.8262   5.6232734750e+01   3.9690702851e+01    0.3239965    0.1748063 -61.22  0.001152339    2.977    0.664
       187  -9.5505    121.6325     77.6338   5.9952939884e+01   4.3121343291e+01    0.4697027    0.2922204  79.18  0.001687196    3.160    0.684
       188  -8.3775     12.6533     78.1064   1.0046742181e+02   5.9888729930e+01    0.1940894   0.08807159 -49.81 0.0004651248    1.718    0.418
       189  -9.3269    111.3841     76.9456   6.2574978561e+01   4.5500147076e+01    0.2102801    0.1928658 -29.09 0.0005244956    1.115    0.103
       190 -10.1377     64.2175     75.3011   7.7951894727e+01   5.4783080670e+01    0.3947118    0.3246114 -73.23  0.002063397    1.720    0.419
       191  -8.6806    215.7594     75.7809   4.1589519124e+01   2.2406943165e+01    0.1787037    0.1304692 -64.77  0.000296343    1.293    0.227
       192  -8.8090     37.4987     75.9369   8.9102840932e+01   5.8222918413e+01    0.2060312    0.1169064 -45.78 0.0009947105    1.552    0.356
       193  -9.7615     28.8126     74.8278   9.2558068694e+01   5.9350213690e+01    0.3339244    0.1992753 -39.91  0.001459918    1.443    0.307
       194  -9.3543    184.9995     75.2968   4.5972321719e+01   2.9044766929e+01    0.1915601    0.1691188  82.06 0.0003748985    1.110    0.099
       195  -8.5669    132.5016     74.4636   5.6241885663e+01   4.1231032955e+01    0.1462744    0.1410761  62.70 -4.781084e-05    1.024    0.023
       196 -11.1442    157.8823     70.7449   4.9642912044e+01   3.5982162006e+01    0.4431309    0.3605876 -88.39  0.002358744    1.332    0.249
       197 -11.0227      9.1686     51.2567   9.5011793055e+01   6.5875099477e+01    0.5963988    0.3868243  12.09  0.003023713    1.572    0.364
       198 -12.3692      2.4000     66.2118   1.0231637265e+02   6.3126579542e+01    0.4465387    0.2354312 -63.04 0.0003188127    1.726    0.421
       199  -9.1175      8.6769     62.4596   9.8428610968e+01   6.3592380409e+01    0.2647379    0.1915005  19.88  0.001579657    1.552    0.356
       200 -10.9094      4.4153     59.3346   9.9658391410e+01   6.4501279436e+01     0.595229    0.2658675 -32.86   0.00263395    1.956    0.489
       201  -9.6080    102.6832     69.5422   6.2786250555e+01   4.8708327630e+01    0.4049771     0.278236  -4.63  0.001799724    2.027    0.507
       202 -10.4785    173.5156     68.9233   4.6296410403e+01   3.2670721526e+01    0.2559174    0.2327677 -64.86 0.0003731066    1.051    0.049
       203 -10.4043    140.9299     68.3283   5.2494605746e+01   4.0328661361e+01    0.2894037     0.251655 -69.35 0.0004977119    1.236    0.191
       204 -10.2820    143.7614     65.7554   5.1137543976e+01   4.0088359075e+01    0.2558746    0.2193135 -55.38 0.0006698131    1.213    0.175
       205  -8.0981    122.6985     70.7377   5.7577899221e+01   4.4111179498e+01    0.1441633    0.1114673  21.02 0.0002109478    1.516    0.340
       206  -8.3544     36.5418     70.4611   8.7900826734e+01   5.9504887977e+01    0.2201001     0.181313 -21.54 0.0008233305    1.044    0.042
       207  -8.5444     38.3081     67.3085   8.6151175019e+01   5.9964905316e+01    0.2243215    0.1677326 -13.85 0.0006186567    1.253    0.202
       208  -9.7355     21.7436     64.9965   9.2972497959e+01   6.2102101939e+01    0.6172323    0.1625057 -40.80  0.002176412    3.375    0.704
       209 -10.5495     44.4921     54.6661   7.9141299334e+01   6.1666542300e+01    0.4535632    0.2743098  31.08  0.001372319    1.643    0.391
       210  -9.6919     32.2730     47.9571   8.2357437833e+01   6.4410472245e+01    0.2376688    0.2027911  37.60 0.0007077516    1.535    0.349
       211  -9.9479     28.9934     68.5490   9.0689788549e+01   6.0691736981e+01    0.4185354    0.3416492  21.82  0.001641597    1.341    0.254
       212 -10.5033     27.9542     63.5406   8.9657454426e+01   6.1841569613e+01     0.426192    0.2830253 -19.47  0.000419156    1.428    0.300
       213 -10.1305     35.4084     53.6908   8.2934502910e+01   6.2988674231e+01    0.3863324    0.2725515   0.89  0.001503775    1.354    0.261
       214 -11.9756     24.4361     55.8567   8.8885296187e+01   6.3731274050e+01     0.551292    0.3730727  33.39  0.001078827    1.737    0.424
       215 -10.8070     29.1187     52.0373   8.5338312189e+01   6.4002293134e+01    0.4309613    0.1925187  20.56  0.001093463    2.301    0.565
       216  -7.8956     11.3036     69.9786   9.9128430993e+01   6.1798554354e+01    0.2823856    0.1430842  35.78  0.001365276    2.482    0.597
       217  -8.9738     64.4305     69.1308   7.5853859057e+01   5.5984015422e+01    0.2424374    0.1798705  18.61 0.0006243458    1.326    0.246
       218  -9.0908    120.0148     67.0554   5.7138566397e+01   4.5345636233e+01    0.2249454    0.2098507  40.64 0.0007289289    1.018    0.018
       219  -8.5587    191.5732     66.5574   4.2839529462e+01   2.8984065513e+01    0.1352481    0.1196361 -72.04 3.865454e-05    1.013    0.013
       220 -10.6049    134.6375     64.6216   5.2823983812e+01   4.2396503863e+01     0.327352    0.3198948 -15.00 0.0008100651    1.091    0.083
       221  -9.7657     14.3630     64.9739   9.6413671168e+01   6.2680384249e+01    0.4904313    0.2032088  -9.17  0.001882381    3.531    0.717
       222  -8.6991     15.7284     60.2413   9.4436438928e+01   6.3579049407e+01    0.3070976    0.2188046 -20.27  0.001218523    1.236    0.191
       223 -11.1454     54.6421     61.2442   7.7104888027e+01   5.9009875405e+01    0.5214273     0.376537  61.50  0.001108798    2.380    0.580
       224 -11.7650     56.2877     56.7542   7.4831512832e+01   5.9588056105e+01    0.3955988     0.325381  58.47 0.0002665071    1.765    0.433
       225  -9.9304    194.0545     61.3920   4.1259195570e+01   2.9225096591e+01    0.3504026    0.2045466 -44.27  0.001016802    1.603    0.376
       226  -9.2159    175.0957     62.8412   4.4480038092e+01   3.3261761559e+01    0.2311176    0.2051437 -27.18 0.0003622477    1.300    0.231
       227  -9.9805     64.4686     62.0541   7.3421908925e+01   5.7320434920e+01    0.5284731    0.2321862  30.92  0.002132676    2.364    0.577
       228  -9.3733     71.7094     60.6350   7.0157175029e+01   5.6340687742e+01    0.3015322    0.2329188  51.30  0.001599607    1.553    0.356
       229  -8.5069    228.5905     62.4454   3.7218911226e+01   2.1880748755e+01    0.1256388    0.1015179 -62.74 5.579938e-05    1.016    0.016
       230 -11.5057    160.9190     54.8170   4.4771824408e+01   3.7742512183e+01    0.5665519      0.25663 -38.07 0.0005039115    2.237    0.553
       231  -9.9790    164.8344     46.2970   4.1849590606e+01   3.8021514207e+01    0.6692328    0.2314624  57.60  0.002620603    2.587    0.613
       232 -10.1646    153.6784     60.6462   4.7687714571e+01   3.8568960430e+01    0.4048016    0.2508861  59.70   0.00194705    1.541    0.351
       233  -9.8905    132.1068     59.6848   5.1924071050e+01   4.3765293349e+01    0.4899006    0.2916948  31.60  0.001700281    2.208    0.547
       234  -9.9479    127.5209     57.4993   5.2319321696e+01   4.5164511085e+01    0.4690543    0.1910061  59.80  0.001712822    2.654    0.623
       235  -7.9014    114.3281     60.6777   5.6621445046e+01   4.7671943268e+01    0.1437224    0.1141785 -83.49 0.0004686974    1.691    0.409
       236  -9.4644    141.8491     59.3556   4.9693811220e+01   4.1540985054e+01    0.2698103    0.1720244  49.46  0.001060246    1.506    0.336
       237  -8.5898     99.5302     59.5230   6.0426061772e+01   5.1087093729e+01    0.1414216    0.1333612  35.49 0.0003519742    1.067    0.063
       238  -8.6663    111.6771     56.9171   5.6112529661e+01   4.8857835428e+01    0.1818301    0.1734782  18.40 0.0001681794    1.055    0.052
       239  -9.3511    187.4410     55.9155   4.0884738443e+01   3.1498407189e+01    0.2674746    0.1775929 -85.12  0.001371349    1.679    0.404
       240  -8.5727    167.4873     56.4939   4.4097903023e+01   3.5967704444e+01    0.1358996    0.1267295  81.41 -4.400206e-05    1.053    0.050
       241  -8.7530     75.6911     55.5186   6.6874463621e+01   5.6502001132e+01    0.2154066    0.1712769 -58.94 0.0009289567    1.729    0.422
       242  -9.4304    136.5526     56.2355   4.9903427571e+01   4.3253251110e+01    0.3000174    0.1821786 -30.49  0.001401791    1.843    0.457
       243  -9.7390     93.5882     54.0371   6.0358388258e+01   5.3212685414e+01    0.4359877    0.2582081  22.37  0.001737827    2.235    0.552
       244 -12.7010     62.0596     44.3224   6.7823650415e+01   6.0734428279e+01    0.4750193    0.2760668  35.83 0.0005340876    1.589    0.371
       245 -10.0821    145.7125     52.5595   4.6947830495e+01   4.1639988261e+01    0.4079876    0.2679783 -78.56  0.001872992    2.088    0.521
       246  -9.7834    142.8757     49.1943   4.6530533925e+01   4.2783408709e+01    0.2408632    0.2280132  70.99 0.0002516789    1.036    0.035
       247 -10.3544    145.9700     45.8247   4.4966477139e+01   4.2515170108e+01    0.3364353    0.2588484 -16.04 0.0007744168    1.622    0.384
       248  -9.3814    144.0115     41.4383   4.4066344447e+01   4.3554462777e+01     0.290185    0.2228455  64.57 0.0007565971    1.183    0.154
       249  -9.9174    194.2702     52.7840   3.9210131017e+01   3.0431353551e+01    0.3986132    0.2120649  71.10  0.001932237    1.917    0.478
       250  -8.9878    107.1191     52.7884   5.5984042264e+01   5.0499466398e+01    0.2878129    0.1730245  35.88 0.0009737829    1.723    0.420
       251  -9.1054     83.9996     53.2718   6.3178831979e+01   5.5278093245e+01     0.194249     0.165285  22.89 0.0003659549    1.069    0.065
       252  -9.6502     61.3666     52.1112   7.1063622808e+01   5.9588056381e+01    0.2503613    0.1966056  21.01 0.0004096504    1.161    0.138
       253 -10.0224    177.4527     44.1466   3.9411698949e+01   3.5394727802e+01    0.3582405    0.2319938  74.10   0.00187486    1.477    0.323
       254  -8.6342    174.5405     51.4912   4.1684178655e+01   3.5057776089e+01    0.2100497    0.1743974 -32.33 0.0006948722    1.357    0.263
       255  -9.4292    175.9550     48.4629   4.0707549436e+01   3.5154404719e+01    0.2779795    0.1873626  60.14  0.001024381    1.429    0.300
       256  -9.0239    165.9743     51.2764   4.2977763912e+01   3.7069478733e+01    0.1956699    0.1660811  77.32 0.0007125353    1.093    0.085
       257  -9.7032    126.7370     39.8140   4.6997921544e+01   4.7819521012e+01    0.4354677    0.2326143  69.92  0.001907159    2.118    0.528
       258  -9.8721    123.0459     50.4735   5.1180095805e+01   4.7237189697e+01    0.7021161    0.2348198  59.04  0.002372103    3.166    0.684
       259 -10.8327    127.5610     48.4451   4.9509501904e+01   4.6477691694e+01    0.3375457    0.2671111  81.66 0.0006312732    1.413    0.292
       260 -10.9164    125.8501     45.0460   4.8830073084e+01   4.7341472269e+01    0.3606003    0.2762077  77.06 0.0006162114    1.424    0.298
       261 -10.7647    153.8264     47.5038   4.4016864856e+01   4.0436880992e+01    0.3265401    0.2927621  82.53 0.0009143878    1.034    0.033
       262 -10.0450    114.9965     46.7042   5.1911026974e+01   4.9611941298e+01    0.4530804    0.2861728 -18.41  0.001586592    1.991    0.498
       263 -10.4730     45.7067     47.6027   7.5984148768e+01   6.2754595786e+01    0.6049951    0.3182535   6.49  0.002476818    2.895    0.655
       264  -8.6295     52.0387     46.9406   7.2963397265e+01   6.1937175861e+01    0.1624569    0.1525885  25.82            0    1.321    0.243
       265  -8.6175     21.6310     39.4297   8.4489494251e+01   6.7068698510e+01    0.6444722     0.392895  -6.44  0.003499665    1.611    0.379
       266 -10.9127     23.3672     47.3220   8.6508683390e+01   6.5472120125e+01    0.4649466    0.3231636  25.85  0.001856626    1.535    0.349
       267  -9.2415     27.7294     42.9296   8.2710187218e+01   6.5817612250e+01    0.2694641    0.1571705 -33.34 0.0008808178    1.522    0.343
       268  -8.8461    150.5418    249.4852   8.9920510759e+01   3.0284074881e-01    0.1324757    0.1113211  13.95 5.938109e-05    1.026    0.025
       269  -9.7992     19.3146     23.1647   7.8984498579e+01   6.9956962045e+01    0.2534232    0.2062642  48.67  0.001615194    2.132    0.531
       270 -10.2393     16.3103     46.8020   8.9914612560e+01   6.6207905887e+01    0.2911922    0.1948949 -43.34  0.000305244    1.335    0.251
       271 -10.5201     14.0791     39.3086   8.8440936276e+01   6.7781931964e+01    0.5638837    0.3050072 -51.43  0.003071812    1.879    0.468
       272  -8.4076     56.9976    249.0043   1.1055383228e+02   1.3310534099e+01    0.1425013    0.1205179  59.33 0.0009272646    1.021    0.021
       273 -10.1603      9.5112     31.5095   8.8016514458e+01   6.9531090231e+01    0.3473608    0.1739551  31.52    0.0016724    2.310    0.567
       274  -8.9183    196.8994     48.9559   3.7985227439e+01   3.0389243761e+01    0.2153034     0.135289 -70.68 0.0009537568    1.676    0.403
       275 -10.4101    183.2420     48.4447   3.9662194193e+01   3.3497741040e+01    0.3765654    0.2500484  49.32  0.002008468    1.689    0.408
       276  -9.9088    185.2491     43.8061   3.8267437339e+01   3.3671451097e+01    0.2715506    0.2088096  47.72  0.000670748    1.525    0.344
       277  -8.5907    136.7025     49.3912   4.7831631350e+01   4.4207987183e+01    0.1854016    0.1203091  51.01  0.000524328    1.435    0.303
       278  -9.5264     87.1664     48.6237   6.0466178279e+01   5.5362614521e+01    0.2481769    0.2181088   8.48 0.0008149171    1.096    0.088
       279  -9.5753    201.7145     47.3135   3.7024148540e+01   2.9568523848e+01    0.2309199    0.2021179  25.43 0.0006342387    1.633    0.388
       280 -11.2592     68.4315     48.5040   6.6964626524e+01   5.8964924789e+01    0.6046008    0.4009461 -48.81  0.002457073    1.918    0.479
       281  -9.6988     38.2419     47.1760   7.9233173543e+01   6.3828251366e+01    0.2921249    0.1679831  18.44 0.0007468117    1.726    0.421
       282  -8.3365    131.4965     45.5221   4.7752686495e+01   4.5960078110e+01    0.1384177    0.1255582  55.96 0.0001074899    1.025    0.025
       283 -10.4936     80.1600     43.2593   6.0796952077e+01   5.7552325873e+01    0.4684287    0.3084223  58.25  0.002337665    1.846    0.458
       284  -9.0942    245.0018     44.7258   3.2128446261e+01   2.1225390487e+01    0.1382716   0.09294046  79.64 0.0008538523    1.500    0.333
       285  -9.5785    107.4899     43.8075   5.2856408783e+01   5.1700508113e+01    0.3625664    0.1744478  54.75 0.0006389526    1.927    0.481
       286 -10.5836    227.1123     33.0907   3.1414857630e+01   2.6156704497e+01    0.2323167    0.1731899  78.83 0.0002697535    1.307    0.235
       287 -10.6911    234.2022     30.3346   3.0281292695e+01   2.5109706585e+01    0.4894273    0.2054885  55.84  0.001549555    2.941    0.660
       288 -10.8452    227.4990     40.6111   3.2882738928e+01   2.5120904304e+01    0.4785523    0.2675213 -29.95  0.002565861    2.200    0.545
       289 -10.4111    222.8399     40.6283   3.3326445061e+01   2.6049581601e+01    0.2847563    0.2240992  66.33 0.0007458525    1.409    0.290
       290  -8.9788    199.9173     42.9479   3.6251197038e+01   3.0543129856e+01    0.2216359    0.1509015  76.36 0.0009158345    1.392    0.281
       291  -9.4122     92.9844     42.3439   5.6395162779e+01   5.5057226096e+01    0.3950766    0.2643832  57.69  0.002022738    1.570    0.363
       292 -10.8122     95.5117     35.6396   5.3241507875e+01   5.5396682366e+01    0.5283889    0.3183754  28.83  0.001650535    1.856    0.461
       293  -8.9131     86.8382     43.1910   5.8591040883e+01   5.6219489875e+01     0.188898    0.1770027  39.16 0.0003715031    1.143    0.125
       294  -9.9340     61.5824     32.5470   6.3284925256e+01   6.2521467206e+01     0.516041    0.3053351 -10.06  0.002543706    2.092    0.522
       295  -9.2334     66.4914     27.9135   5.9522780578e+01   6.2223109523e+01    0.3907841    0.1922527  29.73  0.001787508    2.155    0.536
       296 -10.7283     87.0451     34.0232   5.5115894172e+01   5.7395417278e+01    0.4225326    0.3078229  18.48  0.002346528    1.448    0.309
       297 -10.5689     80.3888     31.7371   5.6316240186e+01   5.9046138355e+01      0.47543    0.2675563  40.98  0.001316028    1.555    0.357
       298  -9.1932    163.0035    246.4975   8.6767554832e+01  -9.3807924102e-01    0.2008189    0.1136851  29.57 0.0004356138    1.551    0.355
       299 -10.0949     72.4356     29.0459   5.7887596592e+01   6.0952284674e+01    0.5652114    0.2485997  34.68  0.002144281    2.306    0.566
       300 -10.0537     74.8648     23.4213   5.4797158430e+01   6.1130734243e+01    0.3159097    0.1957745 -19.31 0.0005797751    1.797    0.443
       301  -9.5394     33.7666     42.0771   7.9407983109e+01   6.5267671317e+01    0.2952076     0.183528  14.60  0.001568168    1.540    0.350
       302  -8.9071     48.6923     40.8915   7.2035411286e+01   6.3423778361e+01    0.2324955    0.1546829  19.30 0.0007370588    1.402    0.287
       303  -9.4414    203.5448     39.3980   3.5047611154e+01   3.0224626712e+01    0.2352266    0.1609615 -61.64  0.001390004    1.321    0.243
       304  -8.3765    107.6899     40.2925   5.1608870880e+01   5.2122841213e+01    0.1304855    0.1061524 -84.49 0.0004110087    1.587    0.370
       305 -12.1091     40.1429     39.5308   7.5359235484e+01   6.4867638472e+01    0.2238719    0.1820993  -7.60 0.0002863072    1.045    0.043
       306  -9.8788    163.2339     37.5494   3.9789796154e+01   3.9530395344e+01    0.5304143    0.2344283  44.98  0.002168871    2.820    0.645
       307  -9.4804    158.0577     38.9673   4.0970050508e+01   4.0562993912e+01    0.1960642    0.1744686  87.52  0.001208747    1.030    0.029
       308  -9.1229    121.0215     39.0495   4.8003470411e+01   4.9243661823e+01    0.2035401    0.1839791  77.19 0.0004708373    1.140    0.123
       309  -9.5389    103.2965     38.5514   5.2152663025e+01   5.3325901174e+01    0.3003135    0.1888036 -16.08  0.001472135    1.974    0.494
       310  -9.6542    178.2454     37.1813   3.7578698581e+01   3.6112872802e+01    0.3480417    0.2337393  57.68   0.00180431    1.478    0.323
       311  -8.7499    148.8848     38.4757   4.2353111055e+01   4.2781461418e+01    0.2025117     0.120783  63.78 0.0005509639    1.517    0.341
       312  -9.5399    138.1193     37.2650   4.3940364965e+01   4.5468885801e+01    0.4185745    0.1893002  50.70  0.001251397    2.033    0.508
       313  -9.3006    118.0749     32.9206   4.6672887403e+01   5.0670993137e+01     0.310344    0.1814391  21.25  0.001196172    2.637    0.621
       314  -9.2105    115.0000     37.0623   4.8733290970e+01   5.0877302990e+01    0.2583458    0.1875169 -21.85  0.001056129    1.585    0.369
       315  -9.7540    112.9751     33.6856   4.8083157383e+01   5.1749994093e+01    0.4223236     0.223141 -23.78  0.001501134    2.277    0.561
       316  -8.9095     53.1753     38.1540   6.8997698146e+01   6.3146853671e+01    0.1859734    0.1458063   4.80   0.00025225    1.128    0.114
       317  -9.8607    241.3018     35.7106   3.0732091785e+01   2.3084954317e+01    0.3015338    0.2157398  22.18  0.001614554    3.400    0.706
       318  -9.0416    186.0471     35.6578   3.6218789256e+01   3.4539579720e+01      0.22752    0.1570777 -56.51    0.0013131    1.375    0.273
       319  -9.6818    131.1845     35.6541   4.4794455978e+01   4.7295142875e+01    0.3566849    0.2600808 -89.09 0.0004497535    1.608    0.378
       320  -8.7635    202.4931     35.4777   3.4295217275e+01   3.0949382661e+01    0.2231581   0.09247126  56.97  0.001024912    2.485    0.598
       321  -9.1385     55.4164     33.5912   6.6181700375e+01   6.3440706018e+01    0.3562168    0.2470647 -49.61  0.001931614    2.083    0.520
       322  -9.2138      1.4594    244.0419   1.2157998184e+02   2.0333214208e+01    0.1641231   0.09563036 -86.62 0.0003842966    1.526    0.345
       323 -10.5512     46.7520     32.9126   6.9601634860e+01   6.4925108745e+01    0.8074566    0.3804803  45.27  0.003710039    2.501    0.600
       324  -8.7728    244.6929    241.9919   6.9880092525e+01  -1.0529975753e+01     0.162653     0.119241 -11.46   0.00111778    1.022    0.022
       325  -9.3000    145.5597    242.4850   8.9997603791e+01   2.2930587708e+00    0.1345841     0.115754  13.49 3.931078e-05    1.029    0.029
       326  -9.9360     40.9473     21.0760   6.7000109354e+01   6.7419733668e+01    0.3032228     0.270443  88.04  0.001491152    2.195    0.544
       327  -8.5296    127.3218    240.6368   9.3846653138e+01   5.3268395575e+00    0.1378738   0.09944065  61.35  0.000704092    1.782    0.439
       328  -9.5717     34.6226     31.5820   7.4697547286e+01   6.6850934347e+01     0.200758    0.1394358  14.04   0.00120925    1.262    0.208
       329 -10.2750     36.9875     26.6389   7.1389626494e+01   6.7252523746e+01    0.3960641    0.2423023 -12.06  0.001412388    1.687    0.407
       330 -11.3775     48.3830     26.8522   6.6271116109e+01   6.5509509238e+01    0.3481248    0.2227732  40.09 0.0004398859    1.534    0.348
       331 -10.1911     50.2396     22.1632   6.3398208728e+01   6.5803448459e+01    0.3041247    0.1988917 -13.26 0.0009838946    1.565    0.361
       332  -9.0901    145.5865     34.2251   4.1712832526e+01   4.4078220720e+01    0.2567059    0.1692127  66.03  0.001106058    1.364    0.267
       333  -9.0226    246.6427    239.2972   6.9087531494e+01  -1.0356632492e+01   0.09707281   0.09191415   1.25  0.000703431    1.702    0.412
       334 -10.1283    110.7653     23.8871   4.5285907261e+01   5.3348328284e+01    0.2207192    0.1925566  65.14 0.0002629039    1.106    0.096
       335  -8.4086    228.3539    234.3133   7.1531394440e+01  -7.5529893687e+00    0.1322311   0.07770006  -7.29 0.0007045194    1.734    0.423
       336 -10.4525    153.0208     31.9457   3.9851663101e+01   4.2598961635e+01    0.2520128     0.194998  88.58  0.001467667    1.259    0.206
       337 -10.4002    247.8005     30.7469   2.9308902612e+01   2.2498192695e+01    0.3183717    0.1709222 -41.42  0.001941519    1.673    0.402
       338  -9.0474    160.2440     31.6806   3.8680814721e+01   4.0938920576e+01    0.3046363    0.1331991  62.07   0.00126434    2.000    0.500
       339  -8.9891    221.7851    233.3681   7.2599986307e+01  -6.6116911263e+00    0.1701843    0.1013043  15.51 0.0005144916    1.618    0.382
       340 -10.0352    133.5649     30.1248   4.2653734775e+01   4.7384522560e+01    0.4380484    0.2512764  -9.42  0.001978418    2.736    0.635
       341  -8.7035    125.3922     30.2179   4.4263167300e+01   4.9286147189e+01    0.1761304    0.1209072 -43.42 0.0009483447    1.634    0.388
       342  -8.7159     94.0767     29.8532   5.1531928161e+01   5.6404773934e+01    0.1934522    0.1311981  37.93 0.0009928669    1.342    0.255
       343  -9.0223    190.2242     28.9184   3.4154509915e+01   3.4426655411e+01    0.1995687    0.1438587 -71.73  0.001206294    1.272    0.214
       344  -9.4610    222.5173     27.1928   3.0634712122e+01   2.7796308649e+01     0.234175    0.2169749 -77.15  0.001742696    1.289    0.224
       345  -8.8473     32.0228    232.6444   1.1463650819e+02   1.9723688145e+01    0.1723834    0.1414318  54.62 0.0004857214    1.094    0.086
       346  -9.6916    187.2264    230.4382   7.9000067792e+01  -1.5531622393e+00    0.2512911      0.11817  26.31 0.0007110835    2.079    0.519
       347  -8.3838      3.4687    230.4115   1.2050529111e+02   2.3050310781e+01    0.1182829   0.09387075  71.27 0.0001295843    1.017    0.017
       348  -9.2744    217.7748     17.2028   2.9026489969e+01   2.9912663824e+01     0.215562    0.1563772  48.17 0.0009972061    1.933    0.483
       349  -9.3507    211.9419     26.6628   3.1462345057e+01   3.0025031127e+01     0.184356    0.1669437 -23.69 0.0007260324    1.516    0.340
       350  -9.3735    161.5844     26.6264   3.7153962477e+01   4.1206671692e+01    0.2303615    0.1709918  69.81 0.0004591747    1.188    0.158
       351  -9.4954    203.9173     25.2165   3.1910155437e+01   3.1885716312e+01    0.3346721    0.1944063  51.26  0.001833664    2.119    0.528
       352  -9.1187    204.2003     20.9427   3.0965957828e+01   3.2315511111e+01    0.2083511    0.1604289  22.01   0.00125295    2.239    0.553
       353  -9.4653    100.9228     26.1248   4.8384296232e+01   5.5323984045e+01    0.2443818    0.1607026  48.62 0.0005710075    1.299    0.230
       354  -8.6225     82.8175     25.9852   5.3321311254e+01   5.9228762125e+01    0.1732097    0.1462299  31.88            0    1.020    0.019
       355 -10.4509      2.0368     25.0949   8.9851207734e+01   7.1180581481e+01    0.2213661    0.1399959 -34.47 0.0004273535    1.270    0.213
       356 -10.0106    131.4474     22.2269   4.0644549214e+01   4.8734272090e+01    0.3664996    0.2398678 -12.87  0.001845269    2.016    0.504
       357  -9.6594    232.9101     23.6298   2.9099083649e+01   2.6166955113e+01    0.3446337    0.1624927 -86.10  0.001117061    2.296    0.564
       358  -9.8336    173.4561     23.0416   3.4700095239e+01   3.8869041547e+01    0.4817583    0.2299798  69.91  0.002177977    1.859    0.462
       359  -9.0030    162.7686    225.9034   8.3536396720e+01   2.8604681210e+00    0.3431623    0.2443737 -82.65   0.00152968    2.897    0.655
       360 -10.6199    153.5997     22.8312   3.7272166238e+01   4.3481831387e+01    0.2347189    0.2107468  82.91 0.0002857097    1.054    0.051
       361  -9.8551    151.8732     18.1164   3.6236838586e+01   4.4372563694e+01    0.2302466    0.2025737 -61.12 0.0003372609    1.199    0.166
       362  -8.4036    207.4605    226.5140   7.4189206833e+01  -3.6638730924e+00    0.1332854    0.1051461  -7.13 0.0001566667    1.045    0.043
       363  -8.8051    223.9944    225.0478   7.0738392454e+01  -5.5687514835e+00    0.1924409    0.1504617  -8.04 0.0005849341    1.023    0.022
       364  -8.8258    132.0303    225.3065   9.0507383710e+01   7.7033801552e+00    0.1974069    0.1700904  28.96 0.0003979568    1.066    0.062
       365  -9.3284     72.0180     14.9429   5.2218843459e+01   6.2583051790e+01    0.1869834    0.1556271  36.40 0.0003806741    1.054    0.051
       366  -8.5855    125.5166    225.5122   9.2076840136e+01   8.6646619529e+00    0.1403419    0.1277255  26.92 0.0003464363    1.019    0.019
       367  -8.5900    196.3362    222.3280   7.5700715672e+01  -1.4159267428e+00    0.1429745   0.09103435  -7.60 0.0007051875    1.726    0.421
       368  -9.5991     89.2998    220.7381   1.0012937036e+02   1.5146509065e+01    0.2551092    0.2342035  -3.79  0.000879576    1.231    0.188
       369 -10.9563     62.1191     22.4809   5.8836208309e+01   6.3681661660e+01    0.2767523    0.1942786  24.29 0.0008849882    1.262    0.208
       370  -8.1119    110.3347    214.6698   9.4118015423e+01   1.3371155412e+01    0.1504535    0.1066724  63.38 0.0007052112    1.727    0.421
       371  -9.2088     26.2266     22.3118   7.4854415820e+01   6.9282233203e+01    0.2585995    0.1381071 -32.29 0.0007484489    1.771    0.435
       372  -8.8952    116.9600     22.3490   4.3449978517e+01   5.2088171348e+01     0.178943     0.140947  54.54  0.000342957    1.091    0.084
       373  -8.7377    117.7077    212.0521   9.1896310316e+01   1.2805568928e+01    0.1945533    0.1876996 -26.87 0.0004427788    1.082    0.076
       374  -8.9073      6.4140     20.5656   8.5314219944e+01   7.1588492856e+01    0.2029686    0.1015671 -27.04  0.001136436    1.736    0.424
       375  -8.4535      2.4925    212.4571   1.1971079281e+02   2.7165614149e+01    0.1259015   0.09657576  73.01 -0.000331046    1.072    0.067
       376  -9.0378    242.5064    209.8851   6.4682502969e+01  -5.4339090363e+00    0.1780536    0.1520566 -27.55 0.0005235426    1.293    0.227
       377  -8.0430    145.2878    210.3148   8.4914153157e+01   8.7490867237e+00     0.146926    0.1074265 -11.68 0.0002434463    1.587    0.370
       378  -8.5725    194.5362    209.4707   7.3752182457e+01   1.1659951802e+00    0.1403404    0.1164672  -8.72 0.0001434892    1.045    0.043
       379  -9.3351    199.6587     18.8172   3.0929866234e+01   3.3522395551e+01    0.2378201    0.1513768 -34.69 0.0006003006    1.727    0.421
       380  -9.7781    123.9940    205.9885   8.9357566304e+01   1.3163732604e+01    0.2080445    0.1957392  11.44            0    1.026    0.026
       381  -9.6441    193.3664     20.0252   3.1803160248e+01   3.4751689903e+01    0.1978199    0.1652474  59.13 0.0006868062    1.379    0.275
       382  -9.4875    195.4433     15.8726   3.0681489238e+01   3.4751103088e+01     0.294542    0.1623776  79.42 0.0008970699    1.619    0.382
       383  -8.2787     20.6979    204.2825   1.1501855612e+02   2.7453210652e+01    0.1341168   0.08183596  63.05 0.0003468525    1.552    0.356
       384  -8.5899    221.4679    198.5377   6.6377774801e+01  -7.6785402441e-01    0.1354225    0.1088189 -16.50 6.637988e-05    1.033    0.032
       385  -8.6297     96.0175    195.5311   9.4820608710e+01   2.0096021619e+01     0.220285    0.1424275  32.69 0.0004552345    1.514    0.340
       386  -9.0913      7.3786    194.9593   1.1746317131e+02   3.0902621200e+01    0.3166859    0.1538595  41.32  0.001600883    1.960    0.490
       387  -8.9288      9.4595    179.8562   1.1578595882e+02   3.4468367529e+01     0.196981    0.1116036 -79.21 0.0004930553    1.519    0.342
       388  -8.8312     96.4692     20.2761   4.7389533256e+01   5.6918394872e+01    0.2795759     0.165198  76.56  0.001306307    2.351    0.575
       389  -9.8172    237.6822     17.5637   2.7612237031e+01   2.5954136962e+01    0.2259919    0.1927068  -6.69 0.0008777624    1.999    0.500
       390  -9.1565    139.1366     19.2849   3.8473843517e+01   4.7232371676e+01    0.2911146    0.1638515  59.99  0.001523021    1.506    0.336
       391  -8.2251     80.3533     19.2471   5.1408630530e+01   6.0461692518e+01    0.1344552   0.07972559  33.34 0.0003010381    1.591    0.371
       392  -8.7994     20.0699     18.8831   7.6595594926e+01   7.0498093453e+01    0.2186017    0.1359657  44.30  0.001199281    2.553    0.608
       393  -9.1578     15.1047     18.1037   7.9047027894e+01   7.1150452425e+01    0.2778728     0.142438   1.16 0.0008800636    2.215    0.549
       394  -9.7552      6.1123    174.9777   1.1623897568e+02   3.5954853005e+01    0.2286039    0.1698037  58.96 0.0007069996    1.326    0.246
       395  -9.2214     17.9100    174.4987   1.1310512422e+02   3.5129485619e+01     0.185095    0.1353024  21.41  0.001031918    1.601    0.375
       396 -10.3166     11.3820    166.8243   1.1412454757e+02   3.7629370406e+01    0.3599254    0.1416471 -65.69  0.001554883    2.063    0.515
       397  -8.3825     29.5150     17.0101   7.0648262151e+01   6.9578963336e+01    0.1415771    0.1052087 -54.00 0.0008101233    2.524    0.604
       398 -10.2499      7.7697    166.3797   1.1505939787e+02   3.8014871702e+01    0.2632691     0.181277  18.83  0.001323475    1.743    0.426
       399  -8.4092    111.5142     14.9787   4.2117736700e+01   5.4050191782e+01    0.1599606   0.09611943  25.47 0.0004607308    2.107    0.525
       400  -9.2837     84.2867     14.7893   4.8518878238e+01   6.0075973375e+01    0.2483458    0.1204049  37.71   0.00119491    1.948    0.487
       401  -9.9565     15.2068    165.0683   1.1290588461e+02   3.7780750145e+01    0.2037131    0.1909262  47.49  0.000286595    1.201    0.167
       402 -12.3315     40.4788    161.5074   1.0526015298e+02   3.6354984477e+01    0.8367068    0.4247226  57.01  0.000803932    2.456    0.593
       403 -12.0102     30.6334    154.8715   1.0728676605e+02   3.9103305066e+01    0.6970888    0.4582846  63.46  0.003219291    1.714    0.417
       404  -9.7279     24.5121    163.0079   1.1007375472e+02   3.7526968094e+01    0.2303706     0.174949  53.96 0.0003832885    1.372    0.271
       405  -9.6641      8.3495    161.8411   1.1448084814e+02   3.9135649113e+01    0.1902512   0.09760609 -64.33 0.0009173416    1.631    0.387
       406 -10.7743      1.9382    158.5222   1.1593896807e+02   4.0425384689e+01    0.5100099    0.1583841 -65.92 0.0007319626    2.426    0.588
       407  -8.7822     24.5159    158.5579   1.0955160467e+02   3.8692216648e+01     0.138444    0.1214865 -75.59 4.418781e-05    1.011    0.010
       408  -8.6624     88.9634     13.5118   4.6775397643e+01   5.9196295858e+01    0.1888138    0.1034991  52.60 0.0007907503    1.492    0.330
       409  -8.8681     48.9311    157.3392   1.0213755221e+02   3.6516907483e+01    0.1967331    0.1867994  27.41  0.000842591    1.152    0.132
       410  -9.2985    248.8675    153.8501   5.3066782031e+01   3.1478259543e+00    0.1977352    0.1500929 -24.72 0.0005517103    1.216    0.177
       411 -10.7795     20.0859    150.7004   1.0991160555e+02   4.1130140415e+01    0.4894704    0.2033699 -62.97  0.002083978    1.959    0.490
       412 -11.0743     10.1271    147.0844   1.1246073154e+02   4.2824033926e+01    0.5193624    0.2479665 -42.48  0.001919059    2.243    0.554
       413 -10.1724     11.4555    151.4795   1.1255012221e+02   4.1589093728e+01     0.245028    0.1956859 -79.31 0.0006300795    1.078    0.073
       414  -9.9070     14.7619    150.5904   1.1148064674e+02   4.1576568635e+01     0.229042    0.2222258  83.62 0.0006826595    1.147    0.128
       415  -8.4000     63.0356    148.9759   9.6405090788e+01   3.6977476258e+01     0.172665    0.1692025 -60.81 0.0009541487    1.044    0.042
       416  -9.2761     35.5482    149.0068   1.0498219346e+02   4.0179249552e+01    0.2178247    0.1275391 -67.37 -1.271144e-05    1.523    0.343
       417  -9.6284      3.8144    145.6387   1.1417347257e+02   4.3611725958e+01     0.295202    0.1536508 -51.01  0.001112649    1.768    0.434
       418  -8.4944     62.2892    145.3167   9.5969929763e+01   3.8048393535e+01    0.1563337    0.1091185 -33.21 0.0004200633    1.594    0.372
       419  -8.4323     55.4459    145.5485   9.8181753029e+01   3.8870197346e+01    0.1494492    0.1369746 -55.31 0.0001058061    1.026    0.025
       420  -9.0546    240.9977    143.9850   5.2313197854e+01   6.0659781430e+00    0.1663038    0.1265492 -38.43 0.0004468614    1.072    0.067
       421  -9.4093     38.2407    143.0742   1.0324254704e+02   4.1481495579e+01    0.2189227    0.2068012   7.69 0.0002887936    1.183    0.155
       422  -9.6626     15.9568    142.9603   1.1021561791e+02   4.3478912863e+01    0.2042114    0.1795373 -68.94 0.0003410698    1.033    0.032
       423 -10.2719     20.2167    140.4420   1.0856830753e+02   4.3810484538e+01    0.3884393    0.1298016  22.26  0.001466411    3.272    0.694
       424  -9.9733      1.9737    139.9869   1.1413432873e+02   4.5175505841e+01    0.3264691    0.1815917  85.45  0.001581529    1.865    0.464
       425 -10.3923     40.7802    138.1022   1.0161918340e+02   4.2535290765e+01    0.3376021    0.1836917  43.80  0.001467463    2.062    0.515
       426  -8.9838    230.7747    137.1697   5.2515056662e+01   8.9481219813e+00    0.1804484    0.1475937 -16.59 0.0007000406    1.323    0.244
       427  -9.0192    235.9576    136.5319   5.1578603717e+01   8.2013935664e+00    0.1723146    0.1342905  45.05 0.0004973773    1.548    0.354
       428  -8.5648     82.8423    136.1038   8.7553617820e+01   3.7438046143e+01    0.2189476      0.17709 -26.65 0.0004273331    1.326    0.246
       429  -8.6928     58.5015    135.5109   9.5328356543e+01   4.1139010562e+01     0.202915    0.1486851   4.87 -9.169339e-05    1.629    0.386
       430 -10.1989     60.7346    131.4120   9.3767816453e+01   4.1920777346e+01    0.3565565    0.3412338  -3.34  0.001982209    1.096    0.088
       431  -9.5235     16.0438    135.2070   1.0919490429e+02   4.5495919851e+01    0.2123358     0.164432 -43.82  0.001203648    1.265    0.209
       432  -8.9705    249.1611    133.8235   4.9099811845e+01   6.5616077754e+00    0.1791205     0.130792 -26.92 0.0005304877    1.356    0.263
       433 -11.3836      7.7594    132.5523   1.1149863955e+02   4.6742962285e+01    0.5650832    0.4141693 -39.85  0.003241304    1.382    0.276
       434  -8.9510     42.4920    130.4627   9.9720322831e+01   4.4367311134e+01    0.1468958    0.1312106 -52.51 9.107243e-05    1.017    0.017
       435  -9.1117     47.4690    133.5007   9.8605285256e+01   4.3015636181e+01    0.1478738    0.1344451 -56.78 0.0001700588    1.007    0.007
       436  -9.8879     18.5910    126.7289   1.0717026065e+02   4.7513009384e+01    0.4294267    0.1578159 -52.05  0.001730709    2.225    0.551
       437  -8.6213     88.2320    127.4497   8.3852561518e+01   3.8753027328e+01    0.2207698    0.1460432  46.13 0.0009439529    1.650    0.394
       438 -10.6744     50.1771    126.3482   9.6320097444e+01   4.4573814757e+01    0.3843827    0.2718394  36.44  0.001888905    1.532    0.347
       439 -10.4210     33.3152    125.6005   1.0198079659e+02   4.6566254867e+01    0.5408534     0.301656 -89.83  0.002180809    2.529    0.605
       440  -9.6289     38.6398    123.4285   9.9746064523e+01   4.6608091788e+01    0.3616591     0.247399 -19.55  0.001752855    1.707    0.414
       441 -10.4263     28.0081    114.6390   1.0188490870e+02   4.9873340404e+01    0.6160244     0.235456 -42.89  0.002355517    2.521    0.603
