#   1 NUMBER                 Running object number                                     
#   2 MAG_AUTO               Kron-like elliptical aperture magnitude                    [mag]
#   3 X_IMAGE                Object position along x                                    [pixel]
#   4 Y_IMAGE                Object position along y                                    [pixel]
#   5 X_WORLD                Barycenter position along world x axis                     [deg]
#   6 Y_WORLD                Barycenter position along world y axis                     [deg]
#   7 A_WORLD                Profile RMS along major axis (world units)                 [deg]
#   8 B_WORLD                Profile RMS along minor axis (world units)                 [deg]
#   9 THETA_WORLD            Position angle (CCW/world-x)                               [deg]
#  10 FWHM_WORLD             FWHM assuming a gaussian core                              [deg]
#  11 ELONGATION             A_IMAGE/B_IMAGE                                           
#  12 ELLIPTICITY            1 - B_IMAGE/A_IMAGE                                       
         1 -14.7769    162.2002     50.7814   7.3231909538e+01   3.8060247516e+01      1.23736    0.9570149  -3.24  0.003576859    1.388    0.280
         2 -14.7514    175.9690     21.5774   6.0927566607e+01   3.8105073202e+01    0.9418374    0.9294479 -62.23  0.004162629    1.087    0.080
         3 -11.0315     29.0000    243.7713   1.3317186966e+02   2.5892420363e+01    0.1110055   0.04262251 -78.87 0.0007559072    2.629    0.620
         4 -20.2474     75.0874    174.8218   1.2057782250e+02   3.1674285367e+01     12.49642     5.557758 -67.63   0.06755787    2.342    0.573
         5 -13.2040    164.3033    186.3968   1.0504551217e+02   1.5873856830e+01     0.286967    0.2110909 -75.87  0.001668302    2.123    0.529
         6 -13.7096    162.6733    181.0475   1.0450660466e+02   1.6927169874e+01    0.3677243    0.2360677  55.36  0.001739078    1.560    0.359
         7 -10.6364     27.3720    228.1260   1.3271718116e+02   2.8298898045e+01    0.1194013    0.0802113  74.81 0.0004412339    1.145    0.126
         8 -14.3454    186.6575    174.4388   9.8993296966e+01   1.3519289154e+01    0.6218293    0.3936191 -43.28  0.002018606    1.926    0.481
         9 -12.7596    193.6331    170.9224   9.7105486416e+01   1.2698676903e+01    0.2598278     0.241293   7.56 0.0007531905    1.162    0.139
        10 -14.2083    178.0730    171.7712   1.0009814610e+02   1.5475282749e+01    0.6915188    0.3404239 -57.89  0.002632272    4.442    0.775
        11 -15.6287    134.1761    146.6807   1.0430136186e+02   2.7611597169e+01     1.543052    0.5461363 -55.21  0.005537408    3.865    0.741
        12 -15.2577    143.1886    142.9182   1.0168764776e+02   2.6611158392e+01     1.074862    0.5375248 -61.66  0.004212837    3.310    0.698
        13 -11.7788    191.7399    151.7927   9.3798385200e+01   1.5708223286e+01    0.2853845    0.2147075 -49.01  0.001013252    1.678    0.404
        14 -11.4000    138.4487    226.4910   1.1480193619e+02   1.4610131145e+01    0.2775716    0.1655746  69.38 0.0009382698    2.295    0.564
        15 -12.2595    135.4395    236.1339   1.1630262222e+02   1.3831738115e+01    0.2529472      0.19135 -79.82 0.0009481246    1.763    0.433
        16 -10.3188      6.2433    225.6823   1.3575016125e+02   3.0618569327e+01   0.09033772   0.04292233  66.80 0.0006888111    1.517    0.341
        17 -13.2172    163.3884    151.5260   9.9205446660e+01   2.1311546368e+01    0.2719643    0.2428437  55.56 0.0007932035    1.141    0.123
        18 -14.6165    135.9338    128.5741   1.0037979192e+02   3.0556344536e+01     1.905969    0.3207155 -49.23  0.004333745    8.247    0.879
        19 -12.8039    174.5628    149.1334   9.6537595324e+01   1.9505323588e+01    0.2615667     0.248888  33.06 0.0007075091    1.092    0.084
        20 -12.5525     27.5189    145.6545   1.2741982543e+02   4.2459921254e+01    0.2798575    0.2366237 -89.21  0.001011569    1.136    0.120
        21 -11.0005     14.9532    220.2263   1.3424365402e+02   3.0660418943e+01    0.1050434   0.07319824 -88.57 0.0004554903    1.348    0.258
        22 -10.8616     26.0707    139.1022   1.2714181410e+02   4.3876371598e+01    0.1491053    0.1270063 -72.84 0.0004873741    1.250    0.200
        23 -13.4535    160.6394    127.6820   9.4850248228e+01   2.5800207728e+01    0.4123036    0.3212154 -63.08  0.001576153    1.615    0.381
        24 -11.6254    129.1524    242.6454   1.1793491838e+02   1.3926030273e+01    0.1401764    0.1110685  61.24 0.0004197428    1.194    0.163
        25 -11.1629    231.1877    113.9142   7.8430494762e+01   1.2695972175e+01     0.238078    0.1908968  39.18 0.0007599925    1.201    0.167
        26 -15.0278    152.2488    151.7804   1.0149210936e+02   2.3394351607e+01      1.15136    0.6772128 -79.72  0.003665458    5.825    0.828
        27 -11.6602     24.8362    214.2464   1.3244483749e+02   3.0654746107e+01    0.1470346    0.1006142  65.74 0.0005432804    1.032    0.031
        28 -11.1106    205.5243    110.0540   8.1878333021e+01   1.8831202450e+01    0.2263034    0.1857557  40.56 0.0006217126    1.159    0.137
        29 -12.5403    187.4121    154.1661   9.5078714259e+01   1.6220462345e+01     0.438694    0.2406049  36.99  0.002120492    1.694    0.410
        30 -11.7825    127.9361    228.3664   1.1673127942e+02   1.5914272474e+01    0.4522787    0.2160687  42.48  0.002698637    1.630    0.387
        31 -11.6273     23.8185    107.0496   1.2426029839e+02   5.0603492498e+01    0.1954924    0.1656417  11.70 0.0006313335    1.612    0.380
        32 -11.3080     21.0247    210.5855   1.3286893043e+02   3.1591851831e+01    0.1517129     0.101384 -83.42 0.0006502039    1.416    0.294
        33 -14.1178     11.8144    206.0440   1.3412195344e+02   3.3154395361e+01     0.366512    0.3379075 -82.39  0.003582898    1.589    0.371
        34 -12.1730    133.5148    195.5133   1.1197587024e+02   1.9691328920e+01     0.221183    0.1646008  59.62  0.001473617    1.250    0.200
        35 -13.5158    196.2245    228.9000   1.0569090234e+02   5.4000168136e+00    0.2492888    0.1508631 -32.17  0.001671343    2.158    0.537
        36 -13.7751    150.9691     64.4797   8.0058657277e+01   3.8736981493e+01    0.4850163    0.4571843 -27.28 0.0009378023    1.081    0.075
        37 -11.6205    150.9938    228.3316   1.1294231830e+02   1.2487067338e+01    0.2289413    0.1848988 -75.82  0.001751801    1.693    0.409
        38 -10.9165    116.1876    247.2224   1.2036164055e+02   1.5151714003e+01    0.1255699    0.1046424  39.94 0.0006749304    1.341    0.254
        39 -13.2253    167.0314     42.1116   6.9406377996e+01   3.8017117253e+01    0.4451807    0.4210482  33.71 0.0008570981    1.031    0.030
