#   1 NUMBER                 Running object number                                     
#   2 MAG_AUTO               Kron-like elliptical aperture magnitude                    [mag]
#   3 X_IMAGE                Object position along x                                    [pixel]
#   4 Y_IMAGE                Object position along y                                    [pixel]
#   5 X_WORLD                Barycenter position along world x axis                     [deg]
#   6 Y_WORLD                Barycenter position along world y axis                     [deg]
#   7 A_WORLD                Profile RMS along major axis (world units)                 [deg]
#   8 B_WORLD                Profile RMS along minor axis (world units)                 [deg]
#   9 THETA_WORLD            Position angle (CCW/world-x)                               [deg]
#  10 FWHM_WORLD             FWHM assuming a gaussian core                              [deg]
#  11 ELONGATION             A_IMAGE/B_IMAGE                                           
#  12 ELLIPTICITY            1 - B_IMAGE/A_IMAGE                                       
         1 -15.9441    222.7110    182.9528   9.5924383436e+01   2.5763317924e-02     5.584639     4.168572  53.39    0.0295165    1.588    0.370
         2 -19.1472    219.1890     65.7962   7.0149497554e+01   2.2458967243e+01     8.391264      5.44782  63.26   0.03960158    1.545    0.353
         3 -11.7988    212.0122     14.1034   5.9275790889e+01   3.1152865710e+01     0.420018    0.1967493  48.58  0.001904548    2.828    0.646
         4 -10.0155    225.4273      7.3713   5.6619526687e+01   2.8888697776e+01    0.1184981   0.09597444  87.23   0.00040399    1.125    0.111
         5  -9.8271    149.8357      6.9128   6.5032447904e+01   4.6426236290e+01    0.1876628    0.1472507  49.05 0.0004098656    1.230    0.187
         6 -10.0628    176.8451      2.5237   6.0327197895e+01   4.0497305145e+01    0.3311998    0.2296195  26.34   0.00188148    2.080    0.519
         7  -9.7703    180.5414      5.5034   6.0636289324e+01   3.9354352454e+01    0.2866047    0.1604671 -77.50  0.001438744    2.000    0.500
         8 -11.7269    180.5269    148.7740   9.7031853168e+01   1.5375266245e+01    0.5599678    0.3930401  54.49  0.001286207    1.516    0.340
         9 -11.3698    166.0697    152.1677   1.0100522975e+02   1.7768630157e+01    0.4051497    0.3112868 -79.43 0.0005326049    1.634    0.388
        10 -10.4044    176.4443    190.7304   1.0687022899e+02   7.3197235287e+00    0.2794448    0.2280457  74.27 0.0007826979    1.510    0.338
        11 -14.0647     61.7480    141.7635   1.2552327791e+02   3.9553515307e+01     1.228063    0.9945116 -83.38  0.003387372    1.210    0.174
        12 -14.6002     74.9865    136.3064   1.2082301180e+02   3.9025595489e+01     1.667653     1.529967 -51.45  0.004679387    1.094    0.086
        13  -9.7107    167.7061    187.4615   1.0812322574e+02   9.7215434398e+00    0.4751312     0.249082  63.97  0.001547715    3.605    0.723
        14  -9.2464    210.0446    146.4626   9.0497887692e+01   9.5438087405e+00    0.2325463    0.1894544 -44.29 0.0007930943    1.155    0.134
        15  -8.9119    226.3017    145.2638   8.7231020049e+01   6.4624804370e+00    0.1375311     0.111545   0.05 0.0002929989    1.519    0.342
        16 -10.9736    200.0225    144.0970   9.1915577487e+01   1.2142606091e+01    0.3335936    0.2564591  75.91 0.0003608175    1.643    0.391
        17  -9.3770    195.7850    141.6599   9.2203674508e+01   1.3559651073e+01    0.2575062     0.204371 -71.87 0.0007088571    1.475    0.322
        18  -9.3712    192.1170    144.0696   9.3507565689e+01   1.3854302631e+01    0.2230515    0.2092147 -66.61 0.0003723456    1.078    0.072
        19  -8.9319    105.9832    143.0204   1.1379552964e+02   3.2215372903e+01    0.1830444    0.1664543 -64.51 -0.003769674    1.039    0.038
        20 -10.9191    124.6351    141.0625   1.0848266268e+02   2.9088554190e+01    0.3090717    0.2338433  52.16 0.0007842876    1.366    0.268
        21 -10.9681    121.4918    138.5054   1.0870574404e+02   3.0325741527e+01    0.2512962    0.2416486 -74.67 0.0007115867    1.008    0.008
        22 -11.5763    187.0784    137.8824   9.3107538618e+01   1.6260404162e+01    0.4705324    0.3521485  52.53    0.0019039    1.393    0.282
        23  -9.2380    107.6977    158.0117   1.1647735136e+02   2.8253464781e+01    0.2112751    0.1821131 -63.60 0.0002414924    1.106    0.096
        24 -12.1508      9.4505    132.0036   1.3813444915e+02   4.7213998644e+01    0.4113456    0.2409523 -54.38  0.002395296    1.468    0.319
        25 -10.8348    111.7379    131.3851   1.0962054139e+02   3.3927722813e+01    0.4420847    0.2422363 -69.61    0.0015457    2.771    0.639
        26 -12.6172     20.0786    158.1349   1.3869003873e+02   4.0193202890e+01    0.6740388    0.4061067  71.09  0.003690713    1.777    0.437
        27  -9.9549    188.7990    129.6655   9.0798727631e+01   1.7599597201e+01    0.3274783    0.2283473 -48.39 0.0007263576    1.386    0.278
        28 -11.3911    116.0275    127.7645   1.0760477044e+02   3.3946145815e+01    0.3816645    0.2656908 -79.96  0.001081576    1.974    0.493
        29 -12.1712      2.0679    167.2641   1.4375960117e+02   3.9578250378e+01    0.3078077    0.1954417 -68.78  0.001940681    1.285    0.222
        30 -10.0417    143.8145    166.9815   1.0941860166e+02   1.9087200502e+01    0.4649997    0.2896597  78.04  0.001664385    2.849    0.649
        31 -10.1891    229.6799    124.9847   8.2133373162e+01   9.6450219472e+00    0.1882432    0.1569848 -45.08  0.000388518    1.082    0.076
        32  -9.8282    101.1892    124.9209   1.1097105743e+02   3.7431866522e+01     0.289784    0.2300946  30.11 0.0008990395    1.403    0.287
        33 -11.3517    205.1956    122.7875   8.5947532383e+01   1.5329818873e+01    0.3563845    0.2876901  43.58  0.001426193    1.353    0.261
        34  -9.5918    106.0744    118.8716   1.0813255658e+02   3.7939484307e+01    0.2309716    0.2010738 -78.75 0.0005720977    1.248    0.198
        35 -10.0884     41.0937    119.0867   1.2717291373e+02   4.7474869248e+01    0.2025063    0.1560869 -45.25 0.0003948776    1.221    0.181
        36  -9.3128    194.4696    118.1806   8.6890505075e+01   1.8668467145e+01    0.1946205    0.1381523 -58.03 0.0004419917    1.466    0.318
        37 -11.6006    200.3448    100.9611   8.1578340705e+01   2.0686734277e+01    0.5607421    0.3836768 -58.49  0.002600115    1.510    0.338
        38  99.0000    207.6696    103.2299   8.0831169800e+01   1.8570995590e+01    0.8119962     0.425731 -69.92  0.002541309    3.918    0.745
        39 -10.4018    206.9741    109.7874   8.2527040973e+01   1.7478041841e+01    0.4236227    0.3683107 -46.36  0.002000928    1.097    0.088
        40 -11.9306    211.9928    114.0315   8.2644175579e+01   1.5534371545e+01    0.6373298    0.4019806 -59.97  0.002269797    1.766    0.434
        41 -11.3091    215.8246    112.0251   8.1506024564e+01   1.5070052566e+01    0.3696795     0.251664 -71.88  0.001307181    1.841    0.457
        42  -9.3184    178.3261    109.8605   8.8071315363e+01   2.4090490789e+01    0.3644168    0.1814404 -42.48  0.001396589    1.955    0.489
        43 -11.6804    241.5014    104.4889   7.5729118431e+01   1.0971188396e+01    0.2492866    0.2175807  61.46 0.0008528625    1.281    0.219
        44 -11.1555    245.0124    104.0000   7.5117336828e+01   1.0340022841e+01    0.2046509    0.1844812  67.20  0.001152794    1.240    0.193
        45 -10.1076     85.5396     98.6108   1.0884231374e+02   4.6154168906e+01    0.3004118    0.2173438 -51.68 0.0009790777    1.332    0.249
        46 -10.0487    149.5616    163.8598   1.0740366439e+02   1.8624207935e+01    0.3504179    0.2408759  80.86  0.001418597    2.157    0.536
        47 -11.0802    158.1104    162.0054   1.0501348263e+02   1.7261231300e+01     0.578194    0.3569005 -78.76  0.001938018    2.998    0.666
        48 -11.4091    157.4720    155.9538   1.0382967808e+02   1.8763215329e+01    0.4121124    0.2770731 -71.49  0.001206551    1.981    0.495
        49  -9.1397    179.5378     32.0655   6.7476562841e+01   3.6697900583e+01    0.2258931    0.1562468  49.56 0.0006091856    1.512    0.339
        50 -11.9807    237.5211     25.5783   5.9271629440e+01   2.4084231069e+01    0.3008191    0.1729992  68.18  0.001114301    1.660    0.398
        51 -12.1123    231.0394     26.1163   5.9992355516e+01   2.5436020009e+01    0.3792201    0.1774934  73.19  0.001139762    1.985    0.496
        52 -13.9560     39.6957    150.9276   1.3287506184e+02   3.9971675802e+01     1.119267    0.8215901 -61.65  0.003826995    1.193    0.162
        53  -9.3318    169.1832     22.2390   6.6394854563e+01   4.0332746072e+01    0.2075933     0.177149  -3.22  0.001260036    1.512    0.338
        54 -12.7056     13.9805    148.2141   1.3900191810e+02   4.3065432028e+01    0.9880424    0.3165717 -82.19  0.003164324    4.667    0.786
        55 -11.7073    246.5318    237.1188   1.0182476158e+02  -1.2534827188e+01    0.1998388    0.1646144  16.31  0.000335711    1.146    0.127
        56 -10.4587    207.2140     21.0281   6.1318920376e+01   3.1461720352e+01    0.2040991    0.1473403  56.01 0.0007890911    1.501    0.334
        57 -11.2337    147.5682    157.7246   1.0654881289e+02   2.0448943291e+01    0.5135853    0.3961628  66.21  0.001603042    1.454    0.312
        58  -9.7794    159.3517    215.3217   1.1505121422e+02   5.6170010428e+00    0.2307734    0.1959065  36.43 0.0002384268    1.116    0.104
        59  -9.8807     12.4954    234.4848   1.4681151274e+02   2.3895782270e+01    0.1147559   0.08271402  79.57 -1.629674e-06    1.023    0.022
        60 -10.3921    182.8079    153.8199   9.7689965920e+01   1.3799628998e+01    0.2923268    0.2446707  84.40 0.0004083798    1.427    0.299
        61  -9.4695     91.8919    158.3752   1.2060162706e+02   3.0926199203e+01    0.2330169    0.1864588 -76.76 0.0004023394    1.221    0.181
