#   1 NUMBER                 Running object number                                     
#   2 MAG_AUTO               Kron-like elliptical aperture magnitude                    [mag]
#   3 X_IMAGE                Object position along x                                    [pixel]
#   4 Y_IMAGE                Object position along y                                    [pixel]
#   5 X_WORLD                Barycenter position along world x axis                     [deg]
#   6 Y_WORLD                Barycenter position along world y axis                     [deg]
#   7 A_WORLD                Profile RMS along major axis (world units)                 [deg]
#   8 B_WORLD                Profile RMS along minor axis (world units)                 [deg]
#   9 THETA_WORLD            Position angle (CCW/world-x)                               [deg]
#  10 FWHM_WORLD             FWHM assuming a gaussian core                              [deg]
#  11 ELONGATION             A_IMAGE/B_IMAGE                                           
#  12 ELLIPTICITY            1 - B_IMAGE/A_IMAGE                                       
         1 -13.3571    209.0120      2.2252   5.8876658141e+01   3.1467441350e+01     1.732871    0.8476231  68.08  0.003049549    1.981    0.495
         2 -14.2304    186.7990     25.6938   6.9241123787e+01   3.5062537127e+01      2.04137     1.474377  -8.41   0.00564099    1.418    0.295
         3 -13.8920    193.3566     18.7517   6.5983632861e+01   3.4059615556e+01     1.363845      1.05993 -59.40  0.004179772    1.481    0.325
         4 -12.9022    200.1353     10.8436   6.2551788124e+01   3.3033353278e+01    0.7524258    0.6393985  26.80  0.001224473    1.184    0.155
         5 -10.5344     41.2491      5.2521   1.0238773971e+02   6.9718596521e+01    0.2004457   0.09216657 -48.44 0.0006859629    2.445    0.591
         6 -12.8608    124.7138    248.0236   1.2888646946e+02   1.2908840628e+01    0.6216625    0.3301872  40.69  0.004343455    1.373    0.272
         7 -11.0989    249.8077    248.3993   1.0916046424e+02  -4.3284639644e+00    0.2082696    0.1513335 -21.74   0.00169536    1.852    0.460
         8 -11.8873    192.6652    249.8576   1.1818126913e+02   3.3831316554e+00    0.5092071     0.103847  38.95  0.002127714    3.527    0.717
         9 -15.1373     75.1736    149.2799   1.2806121548e+02   3.5388353963e+01     11.24659     5.391009  70.91   0.04560929    3.639    0.725
        10 -11.9396     78.2798    185.5322   1.3139744628e+02   2.8192179981e+01    0.2348367    0.2162952 -66.79 0.0005919643    1.325    0.245
        11  -8.9011    181.5137    192.4271   1.1231482530e+02   1.1558307886e+01    0.1251151   0.09720037  28.85 1.352889e-05    1.048    0.046
        12 -11.6196     86.9417    174.3482   1.2849643316e+02   2.9078606499e+01    0.4924382    0.2163539  53.70 0.0008679166    2.298    0.565
        13 -13.3721     74.1148    171.2088   1.3080362670e+02   3.1288769062e+01    0.3854519    0.2517393 -44.57  0.001579946    2.072    0.517
        14 -11.0636     44.6914    172.0801   1.3686433772e+02   3.4418154189e+01    0.3178674    0.1746263  38.68  0.002041856    1.725    0.420
        15 -10.5480    138.1195    171.1534   1.1746311084e+02   2.1997998195e+01    0.2243853    0.1884047 -51.92 0.0009219435    1.374    0.272
        16  -9.6332    230.3154    166.6454   9.8930322642e+01   6.3617058418e+00    0.1098506     0.105652 -74.76 0.0007045584    1.741    0.426
        17 -10.5324    103.6942    149.0245   1.2150687158e+02   3.1485542356e+01    0.2597193    0.2292994  54.29 0.0008540421    1.049    0.047
        18  -9.7471    106.2404    145.1487   1.2031007538e+02   3.1852946614e+01    0.3179992    0.2095248 -27.33  0.001573686    2.336    0.572
        19 -12.3627     92.6761    148.5950   1.2396437564e+02   3.3181227933e+01    0.2458122    0.2321229  20.67 0.0005870904    1.235    0.190
        20  -9.4451    133.0000    139.9904   1.1322695986e+02   2.8402583540e+01    0.3064886   0.07742692 -48.26 0.0009717125    4.239    0.764
        21  -9.5154    134.4030    148.6195   1.1450434171e+02   2.6562802476e+01    0.2430707    0.1312966 -55.09  0.001135349    2.170    0.539
        22 -10.1369    113.3758    135.0838   1.1690435400e+02   3.2702851542e+01    0.2948062    0.2161468 -20.66 0.0009438382    1.902    0.474
        23 -15.5287     87.7705    243.8836   1.3446381494e+02   1.8068472841e+01     6.293115     1.358952  37.35   0.02743963    4.043    0.753
        24 -10.9525    100.8720    132.1908   1.1941157359e+02   3.5271710001e+01    0.2811871    0.2264483 -21.33 0.0009740988    1.608    0.378
        25  -9.5463    160.6622    127.3216   1.0433430626e+02   2.5475399373e+01     0.140137    0.1156041  83.81 0.0005706614    1.714    0.416
        26 -10.3861    228.2659    204.5399   1.0604105573e+02   2.5625807100e+00      0.19412    0.1831747 -14.42 0.0007469072    1.612    0.380
        27 -10.9982    192.8831    194.6127   1.1058393186e+02   9.3896093446e+00    0.6954138    0.3693059 -58.68  0.002439115    6.827    0.854
        28  -9.7303    109.1745    122.7888   1.1560365684e+02   3.5876031239e+01    0.1872297     0.173089  71.53 0.0003568474    1.101    0.092
        29 -11.2191     66.9435    195.9299   1.3447122024e+02   2.7761286891e+01    0.3683622    0.1641558  56.61  0.002072401    2.061    0.515
        30  -9.5685    205.1999    110.3180   9.1007043012e+01   1.8832198738e+01    0.3402248    0.1548808  38.69  0.001334552    2.171    0.539
        31 -10.8788    168.3067    113.0612   9.9278609318e+01   2.6389436890e+01     0.348803    0.2977799  85.03 0.0009349376    1.618    0.382
        32 -12.0519     73.8766    192.1889   1.3285707918e+02   2.7579307789e+01      0.31321    0.2440045 -44.43  0.001762924    1.806    0.446
        33  -9.3425    154.2589     75.9877   9.2301482321e+01   3.6041066475e+01    0.2003093    0.1309158 -32.67 0.0006474711    1.512    0.339
        34 -13.5247     51.3625    225.1537   1.3913804931e+02   2.4817223845e+01    0.4711131    0.4517419 -36.81  0.002491592    1.690    0.408
        35 -16.1563     51.6369    204.9841   1.3788482891e+02   2.7948284999e+01     6.882961     2.320933  65.31   0.03019836    4.227    0.763
        36 -15.9477      2.1135    146.9657   1.4387876500e+02   4.2804492479e+01     15.91069          nan -77.59   0.03149899   18.228    0.945
        37 -12.8885     73.7795    227.0877   1.3558018683e+02   2.2060230313e+01    0.6287978    0.2230243  59.25  0.002742819    3.129    0.680
        38 -15.7314     11.0985    239.6328   1.4589968410e+02   2.6519554679e+01     2.420643     1.304098 -73.70   0.01117255    2.063    0.515
        39 -14.1789     10.8810    206.5492   1.4484719384e+02   3.1531850997e+01    0.8042352    0.5799359  33.75  0.003868317    1.653    0.395
