#   1 NUMBER                 Running object number                                     
#   2 MAG_AUTO               Kron-like elliptical aperture magnitude                    [mag]
#   3 X_IMAGE                Object position along x                                    [pixel]
#   4 Y_IMAGE                Object position along y                                    [pixel]
#   5 X_WORLD                Barycenter position along world x axis                     [deg]
#   6 Y_WORLD                Barycenter position along world y axis                     [deg]
#   7 A_WORLD                Profile RMS along major axis (world units)                 [deg]
#   8 B_WORLD                Profile RMS along minor axis (world units)                 [deg]
#   9 THETA_WORLD            Position angle (CCW/world-x)                               [deg]
#  10 FWHM_WORLD             FWHM assuming a gaussian core                              [deg]
#  11 ELONGATION             A_IMAGE/B_IMAGE                                           
#  12 ELLIPTICITY            1 - B_IMAGE/A_IMAGE                                       
         1 -14.3625     68.5001    144.2694   1.0001044867e+02   3.7333182933e+01     5.058393     2.407803  64.38   0.01503162    4.572    0.781
         2 -13.4880    201.4255     41.6190   4.1304536636e+01   3.0017703623e+01     1.240962      1.18358  15.37  0.005152137    1.339    0.253
         3 -13.4635    212.3164     31.1562   3.7579366217e+01   2.8898125202e+01    0.8984746    0.7899626  37.39   0.00226859    1.513    0.339
         4 -12.1755    240.6980      6.0385   2.9852318764e+01   2.5766266439e+01    0.6003656    0.4451564 -34.46  0.004106935    1.538    0.350
         5 -12.0295    234.3436      5.2602   3.0122401685e+01   2.7144234179e+01    0.5863381    0.3495962 -38.23   0.00362021    1.640    0.390
         6 -13.1170      2.3275      7.5823   8.8501552913e+01   7.3679960514e+01     1.998474     0.601049 -46.68  0.009417785    3.037    0.671
         7 -10.5476    111.2536    203.8528   9.8549681006e+01   1.6241855803e+01    0.3289382    0.2459234  88.98  0.001366328    1.637    0.389
         8 -10.4257    140.1148    249.7380   9.8598940382e+01   2.7538936110e+00    0.2891328    0.1884454  49.04  0.001631107    1.527    0.345
         9 -10.9601    101.9491    247.3224   1.0620048097e+02   8.8402424307e+00    0.6838105    0.2554095 -67.23  0.002749864    3.821    0.738
        10  -8.8145     90.8467    250.2000   1.0877516167e+02   9.8862396677e+00    0.1552277    0.1355948  24.40 0.0003675729    1.311    0.237
        11 -13.0299     52.8003    187.0658   1.1048024234e+02   2.8640633167e+01     1.294578     1.045837  80.28  0.007642563    1.129    0.114
        12 -14.1165     38.2954    193.3456   1.1461313467e+02   2.8836310880e+01     4.129981     1.506735  64.76  0.009313503    4.571    0.781
        13 -15.3702      6.7593    163.2859   1.1949364121e+02   3.9015518452e+01      8.29335     1.147631 -73.71   0.02414713    5.211    0.808
        14 -13.4931     20.1395    221.0748   1.2073320498e+02   2.4524370429e+01    0.9242851    0.7653584  57.10  0.006590185    1.184    0.155
        15 -16.8139     16.2729    243.2679   1.2276100540e+02   2.0371532034e+01     6.661276     2.184063  25.63   0.02663649    4.798    0.792
        16  -9.9378    107.3120    203.4603   9.9425353303e+01   1.6964454220e+01    0.2713463    0.1797406  81.45  0.001234573    2.098    0.523
        17  -9.1748     31.6209    204.5841   1.1712233144e+02   2.6961869249e+01    0.2977405    0.1336171  64.14  0.001351682    2.365    0.577
        18 -10.9133    184.2251    212.8816   8.3657038155e+01   2.2545951482e+00    0.2986402    0.2633369  64.34  0.001755748    1.558    0.358
        19 -10.8942    193.3968    195.3761   7.8522768833e+01   3.8969209947e+00    0.8850546    0.4863377 -64.52  0.002755461    5.392    0.815
        20  -9.0144     89.3085    211.2276   1.0471366007e+02   1.8028737919e+01    0.2030736    0.1611516 -68.00 0.0003617839    1.311    0.237
        21 -10.5336    121.5307    197.3093   9.5076530401e+01   1.5980952016e+01    0.4395203    0.2599122 -68.46   0.00155522    2.162    0.537
        22 -14.4778      9.4183    207.3304   1.2205095890e+02   2.8544473231e+01     1.097072    0.8824627   7.37    0.0073797    1.846    0.458
        23  -9.6329    147.3761    187.0184   8.7111881076e+01   1.3690923946e+01    0.2635184    0.2436171 -60.82  0.001063513    1.182    0.154
        24  -8.0548     76.2882    184.6726   1.0431806052e+02   2.6089078038e+01     0.146913    0.1007299  71.12 0.0002543872    1.614    0.380
        25  -8.7974     79.5300    182.5194   1.0318787693e+02   2.6140330251e+01    0.2660955    0.1352354 -77.92  0.001031256    2.540    0.606
        26  -9.6842     99.3908    180.7504   9.7836363272e+01   2.3490519104e+01    0.2714554    0.2514346  47.01 0.0006486647    1.067    0.063
        27 -10.9385     40.9407    176.7701   1.1225828036e+02   3.2535117011e+01    0.4043052    0.3049763 -24.42  0.001456767    1.874    0.466
        28 -12.0930     80.5281    159.3942   9.9250500980e+01   3.1732337809e+01    0.9723991    0.5815321  66.12 0.0001730293    2.261    0.558
        29 -12.8827     68.6485    154.4892   1.0174375598e+02   3.4700112092e+01    0.6525056     0.449884 -54.99  0.001165355    1.377    0.274
        30 -10.6018    114.7234    248.1840   1.0365540403e+02   6.8153708812e+00    0.2776553    0.2597166   3.33   0.00190088    1.250    0.200
        31  -8.5962    193.5207    170.4776   7.3496145540e+01   8.5961765711e+00    0.1456023     0.133292 -12.52  0.000809881    1.010    0.010
        32  -9.7660    240.7319    169.5500   6.4418600636e+01   6.9862148828e-01    0.1627969    0.1295589  49.25  0.000950087    1.635    0.389
        33  -9.6407    187.3955    175.7905   7.5885629924e+01   8.6755918366e+00    0.3605338    0.2628262 -44.96  0.001586997    1.398    0.284
        34  -8.1454    120.5091    165.5631   8.9627437231e+01   2.3480839111e+01    0.1502846    0.1477871  57.60 0.0001336062    1.010    0.010
        35  -9.9310     33.8308    156.1121   1.1169814493e+02   3.8435811982e+01    0.3000888    0.2258503 -70.09 0.0009770442    1.159    0.137
        36 -11.4870     87.6788    152.8559   9.6067518569e+01   3.2273041183e+01    0.6374864    0.4715137 -18.50  0.002938574    1.831    0.454
        37 -11.3144     54.5652    146.8896   1.0453987394e+02   3.8485691650e+01    0.8260142    0.5365126 -74.29  0.004024246    1.495    0.331
        38  -9.9531    133.0000    139.9929   8.0842273270e+01   2.7156955326e+01    0.3740952     0.219901 -53.24  0.001511335    1.749    0.428
        39  -8.7525    111.2267    149.7998   8.8888239970e+01   2.8994744680e+01    0.2720799    0.1685297  73.45  0.000960856    2.846    0.649
        40  -9.2836    174.8747    149.0999   7.2822368849e+01   1.6551285936e+01    0.2340031     0.210754 -75.22 0.0005986916    1.305    0.233
        41 -10.3812     29.5563    143.5685   1.1129869587e+02   4.2020337956e+01    0.3763721     0.274779  30.77  0.002129923    1.556    0.357
        42 -10.2358    101.7163    138.6007   8.9142871687e+01   3.3477261831e+01    0.5851963    0.3661381 -21.39  0.002193911    2.573    0.611
        43 -11.5341     89.0954    138.2266   9.2739465302e+01   3.5737226841e+01    0.3047747     0.265214 -39.17 0.0004380015    1.172    0.147
        44 -10.4460     26.2768    137.7061   1.1147447160e+02   4.3800201973e+01    0.3708646    0.1773639  35.59  0.001336101    2.244    0.554
        45 -10.2798    134.0074    146.5549   8.2087427155e+01   2.5415320522e+01    0.7623464    0.2282672 -52.70  0.002123656    3.757    0.734
        46 -10.0273    105.9784    131.0173   8.6189063568e+01   3.4571342071e+01     0.411037    0.3017232 -52.43  0.001598155    1.325    0.245
        47  -9.4973    111.1376    129.6191   8.4374325371e+01   3.3941223835e+01    0.3319481    0.2573369  -0.20 0.0008469924    1.674    0.403
        48 -10.1965    135.6853    128.5479   7.7383293218e+01   2.9266119640e+01    0.4787972    0.2020459 -47.07  0.001648212    2.328    0.570
        49 -11.4182     67.6692    172.4503   1.0480302334e+02   3.0301121903e+01    0.4824937    0.2996215 -35.81   0.00215896    2.177    0.541
        50  -9.1803    160.0372    128.0075   7.1203681518e+01   2.4189034036e+01    0.2561773     0.201104 -87.46   0.00114559    1.729    0.422
        51  -9.9017     28.5531    128.4917   1.0948645137e+02   4.5932375550e+01     0.243605    0.1370079  22.15  0.001133384    2.096    0.523
        52 -10.2441     98.2906    125.4087   8.7126321071e+01   3.7346850961e+01    0.3085136    0.2632449  -9.43 0.0007313341    1.344    0.256
        53 -11.4007     71.9507    167.7940   1.0296768037e+02   3.0870152199e+01    0.4809515    0.2787464 -53.44 0.0007989242    1.688    0.408
        54  -9.2796    116.5036    124.4535   8.1588070559e+01   3.4136760737e+01    0.1578894    0.1516256 -22.30 6.420496e-05    1.048    0.046
        55  -8.4126    147.8317    173.8922   8.4457769181e+01   1.6471545377e+01    0.1993622    0.1789493 -85.97 0.0004327277    1.310    0.237
        56  -8.9950     86.0012    119.9434   8.9585109172e+01   4.0815107417e+01    0.2448195    0.1857928  75.59 0.0008912612    1.742    0.426
        57  -9.2296    107.5448    118.5512   8.2689843359e+01   3.7286754069e+01    0.2553538    0.2264636  20.79 0.0007361507    1.197    0.165
        58 -10.0596    231.2475    113.7221   5.4063361178e+01   1.2089554794e+01    0.2633331     0.247954 -59.54 0.0007585409    1.117    0.105
        59 -11.2631     33.8715    110.2042   1.0469480482e+02   5.0044566450e+01    0.6253173    0.1701928 -62.11  0.002178576    2.950    0.661
        60  -9.9928    115.6604    108.6632   7.7726904874e+01   3.7981738356e+01    0.3185843    0.2412872  -6.54  0.001404869    1.733    0.423
        61 -10.1812    247.4156    107.2436   5.0317944312e+01   1.0169169085e+01    0.2011253    0.1043007 -46.21 0.0009593904    1.671    0.402
        62  -9.0426    134.6000    106.7911   7.2000258548e+01   3.4379065494e+01    0.2312678    0.1474656 -53.66 0.0009536638    1.687    0.407
        63  -8.1636    137.6363    104.2864   7.0523234939e+01   3.4248661873e+01    0.1604816    0.1262677  87.18  0.000324205    1.691    0.409
        64 -11.0054    243.8448    101.7713   4.9625284338e+01   1.1737878579e+01    0.3901834    0.1794658  51.35  0.001776356    2.533    0.605
        65 -11.3241     53.0093    109.5067   9.8006067967e+01   4.8164623788e+01    0.6641293     0.245802 -58.58  0.002194462    2.397    0.583
        66  -9.0925     32.8266    100.1661   1.0309272298e+02   5.2608912990e+01    0.1954882    0.1393325 -39.77 0.0009066591    1.311    0.237
        67  -9.3398     42.2183     99.0909   9.9483997558e+01   5.1940945230e+01    0.2617508    0.1664125  54.76   0.00123517    2.126    0.530
        68  -9.3539    205.2394    110.1692   5.7518760267e+01   1.7989818371e+01    0.2954693    0.2208432  49.48  0.001219903    1.455    0.313
        69  -9.2949     34.5893    171.4469   1.1327747628e+02   3.4527942572e+01    0.2575099    0.1838317  76.32 0.0005701722    1.341    0.254
        70  -8.7731     75.0758     85.0634   8.3945183494e+01   5.0797284913e+01    0.2182367    0.1811028  75.32 0.0008184419    1.659    0.397
        71  -9.0112    159.1737     82.8532   5.9401978733e+01   3.3546120843e+01    0.2069443    0.1830339   9.05 0.0007110764    1.313    0.238
        72  -8.8533    151.0463     82.8139   6.1188831882e+01   3.5473371361e+01    0.2259096     0.199759 -88.06 0.0004178657    1.244    0.196
        73  -8.8411    110.7206     80.7946   7.1061163451e+01   4.4980520988e+01    0.2794482    0.1979853  71.38  0.001199137    2.053    0.513
        74  -8.5326     69.2203     81.4172   8.4949096943e+01   5.2521108281e+01    0.1854177    0.1341019  45.28 0.0005074663    1.591    0.371
        75 -11.7229      2.2772     60.4696   1.0658775047e+02   6.3846043672e+01    0.6234375    0.3018399 -72.08  0.003087077    2.241    0.554
        76 -11.1090      2.1585     49.9419   1.0402596981e+02   6.6066322031e+01    0.4158452     0.196143 -63.97  0.002155939    2.006    0.501
        77 -10.4072     13.4451     59.9453   1.0147629191e+02   6.3324860959e+01    0.2566411     0.192063 -53.71  0.000437313    1.196    0.164
        78 -12.8944    191.4629     48.7103   4.4396693446e+01   3.1363536820e+01     1.017527    0.7885698  36.92  0.002104355    1.624    0.384
        79  -9.7891     70.8795    247.7381   1.1257043467e+02   1.3071283338e+01    0.2142244    0.1803633 -17.19  0.001126194    1.809    0.447
        80 -12.0898      2.2955     29.3511   9.7609036242e+01   7.0055622245e+01    0.5830557    0.2606665 -46.20  0.002684187    1.701    0.412
        81  -9.0059    197.9075     23.6779   3.7346025895e+01   3.3075256503e+01    0.1994206    0.1782581 -23.51 0.0006218439    1.381    0.276
        82 -11.0285    126.5047    245.3196   1.0085598841e+02   5.5709909877e+00    0.3762467    0.1921331  50.84  0.001802342    2.047    0.512
        83  -8.7308    189.4884     14.9305   3.6111489046e+01   3.6004228049e+01    0.1754883    0.1239431 -32.77 0.0007749081    1.556    0.357
        84 -10.9069     95.0843    241.3310   1.0697633718e+02   1.0962385073e+01    0.5132046    0.2183768 -63.53  0.002118899    2.706    0.630
        85 -10.2514    193.8156    206.6569   8.0552187596e+01   1.8009954588e+00    0.2454955    0.1887611 -70.55  0.001249217    2.195    0.544
