#   1 NUMBER                 Running object number                                     
#   2 MAG_AUTO               Kron-like elliptical aperture magnitude                    [mag]
#   3 X_IMAGE                Object position along x                                    [pixel]
#   4 Y_IMAGE                Object position along y                                    [pixel]
#   5 X_WORLD                Barycenter position along world x axis                     [deg]
#   6 Y_WORLD                Barycenter position along world y axis                     [deg]
#   7 A_WORLD                Profile RMS along major axis (world units)                 [deg]
#   8 B_WORLD                Profile RMS along minor axis (world units)                 [deg]
#   9 THETA_WORLD            Position angle (CCW/world-x)                               [deg]
#  10 FWHM_WORLD             FWHM assuming a gaussian core                              [deg]
#  11 ELONGATION             A_IMAGE/B_IMAGE                                           
#  12 ELLIPTICITY            1 - B_IMAGE/A_IMAGE                                       
         1 -16.4849    244.9738    184.8571   3.1545070662e+01   1.1901513553e+00     6.937127     1.279629 -34.51   0.02507119    4.802    0.792
         2 -14.1122      3.8540     65.2701   7.7102710843e+01   6.4384733470e+01     2.333819     0.105018 -71.36  0.005811889    6.355    0.843
         3 -13.3835      2.9431     94.8682   8.0985829324e+01   5.6772475367e+01     1.038353    0.2574635 -70.38  0.003718113    3.061    0.673
         4 -13.5827    245.7307     54.3234   4.7922434805e+00   1.7939984980e+01     1.141669    0.7254265 -25.26  0.004753863    1.482    0.325
         5 -13.8664    223.9681     56.7313   7.3906807573e+00   2.1895190785e+01     2.676572    0.6886689 -41.85  0.009811025    3.078    0.675
         6 -15.3472    170.8359     11.0245   3.6048499140e-01   3.9705257798e+01     2.945149     2.265512 -73.58   0.01378872    1.188    0.158
         7 -12.4235    202.3224     11.1862   3.5782406546e+02   3.1987138414e+01    0.8228279    0.4583962 -68.83  0.003824338    1.739    0.425
         8 -12.5494    128.5821     19.4252   8.7100757976e+00   5.0048197861e+01    0.7164676    0.3842584  80.55  0.002970703    2.004    0.501
         9 -12.8117    229.6055     10.7907   3.5601279874e+02   2.6019041594e+01    0.9758033    0.3814364 -45.25  0.004083029    1.953    0.488
        10 -11.3598    249.8197      2.4415   3.5318922049e+02   2.2811956123e+01    0.3211495    0.2550333 -77.90  0.001803347    1.251    0.200
        11 -11.2700    244.2192      2.3808   3.5341008149e+02   2.3896485436e+01    0.3475043    0.1865184 -54.96  0.002079301    1.478    0.323
        12  -9.9434    235.2663      1.5939   3.5362843987e+02   2.5752950806e+01    0.1459134    0.1032629  74.92 0.0007641874    1.561    0.360
        13 -12.6951     74.8786    197.6960   6.8830444155e+01   2.4168005527e+01    0.7100744    0.4751599  70.68  0.003123354    1.671    0.401
        14 -12.9378    129.1714    246.9887   6.1963070102e+01   8.2806534187e+00    0.7066634    0.4301739  29.00  0.002939773    1.246    0.197
        15 -14.2930     70.6833    248.8488   7.4093575729e+01   1.5278726945e+01    0.9475637    0.3531598  36.66  0.003306677    1.850    0.459
        16 -13.2329     60.7540    248.8048   7.6129992231e+01   1.6430407850e+01    0.4353492    0.3220524  64.32  0.002236316    1.338    0.253
        17 -14.5091     58.2625    222.2457   7.4897102155e+01   2.1406648458e+01      1.64271    0.9520684  63.55  0.009410057    1.736    0.424
        18 -13.2390     20.6408    145.2633   7.8951719198e+01   4.2558404411e+01     1.385567    0.4049234  50.04   0.00500827    3.203    0.688
        19 -14.3582      8.4367    148.6079   8.2893722878e+01   4.2709159992e+01       1.6705    0.8137589  83.73  0.008019918    1.923    0.480
        20 -14.6597     20.3390    241.4043   8.4032691363e+01   2.1944004326e+01     1.125037    0.4792361  57.88  0.005427879    1.874    0.467
        21 -14.7709      9.2483    245.9847   8.6376144796e+01   2.2176390444e+01     0.934558     0.463973  55.76  0.004993132    1.477    0.323
        22 -14.5982     27.3003    175.8857   7.9251042170e+01   3.4566122774e+01     1.799181     1.114983  82.72    0.0099066    1.553    0.356
        23 -15.0176     14.2599    223.3999   8.4683887570e+01   2.5810434334e+01     1.432401    0.5796109  54.98  0.007858153    1.884    0.469
        24 -14.6573      2.8020    216.0712   8.6933385720e+01   2.8231792745e+01     1.524586    0.3191029 -83.05  0.005937553    4.769    0.790
        25 -15.6447      9.9987    192.3909   8.4525580546e+01   3.2475007372e+01     2.475915    0.8190113  72.87   0.01032412    3.144    0.682
        26 -15.3533     16.5535    177.8980   8.2217412175e+01   3.5109176494e+01     2.453417    0.8199536  79.51  0.009286501    3.535    0.717
        27 -12.3353     81.3015    210.9786   6.8626726718e+01   2.0670219720e+01    0.8101904    0.2850015  35.00  0.003513192    2.197    0.545
        28 -13.0312     84.7647    203.8750   6.7072597949e+01   2.1586409599e+01     1.001106    0.5661147  28.01  0.004558079    1.631    0.387
        29 -13.3356    104.0340    217.2267   6.4054173060e+01   1.6420996420e+01    0.8058771    0.5735602  47.12  0.003023536    1.276    0.216
        30 -13.0853     95.0738    215.7966   6.5931757493e+01   1.7912199017e+01    0.8427939     0.615524 -54.25   0.00421566    1.671    0.402
        31 -11.6781    128.3011    209.8432   5.7711554142e+01   1.4237423566e+01    0.3135413    0.2334301  51.32  0.001785979    1.451    0.311
        32 -12.7530    120.8659    203.1460   5.8486367628e+01   1.6521173888e+01    0.7284952    0.3635055  39.91  0.003539202    1.697    0.411
        33 -14.0946     36.8236    224.5415   7.9822628100e+01   2.3366390412e+01     1.652164    0.7833906  52.78  0.009239534    1.694    0.410
        34 -14.0137     39.4056    144.3054   7.2977950398e+01   4.0955096809e+01     2.105043     0.843345 -48.97  0.001501123    3.024    0.669
        35 -12.0820    109.3763    199.1381   6.0627909137e+01   1.8981760248e+01    0.5212264    0.4730515 -82.40  0.003175057    1.318    0.241
        36 -13.5740    247.3637    145.4297   2.3915529099e+01   5.8007790943e+00     1.075179    0.4625933 -24.64  0.005225008    2.210    0.548
        37 -10.1565     36.2547    199.4282   7.8499024803e+01   2.8449792795e+01    0.1827725   0.08968707  40.67 0.0006662016    1.597    0.374
        38 -12.8645     57.4422    193.5642   7.2790050446e+01   2.7272036891e+01    0.8413672    0.5882825  28.67  0.003569471    1.369    0.270
        39 -13.0805     51.6413    186.0548   7.3607768668e+01   2.9608081577e+01    0.8522441    0.5731987  81.63  0.002469135    1.551    0.355
        40 -11.0064    126.5628    186.2386   5.4710590868e+01   1.8778139889e+01    0.3840417     0.221782  41.10  0.001330239    1.546    0.353
        41 -12.7360     71.5196    132.5051   6.0943028799e+01   3.9738453672e+01    0.6147464    0.5377784 -41.04 0.0005080897    1.272    0.214
        42 -14.9824     67.6615    175.4360   6.8262801749e+01   2.9955670668e+01      3.05507     2.148642  26.49   0.01461158    1.426    0.299
        43 -13.5408     73.8068    165.8840   6.5380269040e+01   3.1295746018e+01     1.863914     0.576739  30.73  0.006385765    3.056    0.673
        44 -15.1629     66.9068    153.9183   6.5743191663e+01   3.5114324536e+01     2.515089     1.521638 -85.61  0.009436495    1.973    0.493
        45 -13.6512     22.8034    133.0416   7.7204870125e+01   4.5468971756e+01     1.722648    0.5846963 -77.47  0.006485634    2.796    0.642
        46 -11.5396     84.6945    135.7152   5.7368550901e+01   3.6839484014e+01    0.2607135    0.2391672  -9.04 0.0009060152    1.253    0.202
        47 -10.5240    105.7570    130.6574   5.0019747175e+01   3.4304244450e+01    0.3128925    0.2179547 -66.18  0.001412007    1.657    0.397
        48 -12.0147      7.2260    128.4632   8.2031331801e+01   4.7837325382e+01    0.5419405    0.4122319 -15.73  0.002352382    1.677    0.404
        49 -12.6870     56.1483    150.6141   6.8538013405e+01   3.7373241934e+01    0.5728781    0.4434886  61.68  0.001275839    1.227    0.185
        50 -13.0752    217.5296    111.0116   2.0985857870e+01   1.5502592780e+01     2.012411     0.658531 -44.42  0.007222475    3.341    0.701
        51 -12.0762    215.7325    104.0615   1.9664198441e+01   1.6877526776e+01    0.6640344    0.4536065 -38.60  0.003007506    1.319    0.242
        52 -12.5652    222.3735     88.9599   1.5237604811e+01   1.7811649596e+01    0.7269759    0.4202865 -31.25  0.002620817    1.521    0.342
        53 -12.4276    220.7356     97.5862   1.7459258241e+01   1.6881831286e+01    0.5561132    0.3279602 -39.18  0.002248635    1.496    0.331
        54 -12.1232    100.9347    116.3040   4.8206082108e+01   3.8597374867e+01    0.6562032    0.3312441  30.13 0.0003461998    2.355    0.575
        55 -12.0549     87.3251    122.0044   5.3779513359e+01   3.9749369944e+01    0.6106205    0.4057997  17.06 0.0006294596    1.966    0.491
        56 -12.1062     99.9803    126.7545   5.0880958169e+01   3.6303010962e+01    0.5599675    0.2997665  36.62  0.001749761    1.828    0.453
        57 -13.1378     94.2660    124.0448   5.2034179861e+01   3.8005423419e+01    0.8911152    0.6572659  18.66  0.004100427    1.617    0.382
        58 -12.9597      5.8535    116.2471   8.1633963540e+01   5.1059985969e+01    0.7504731     0.428976 -78.80  0.003218863    1.544    0.352
        59 -12.7843     10.2690    110.8570   7.9565513678e+01   5.2183733379e+01    0.6967181    0.5029444  15.92  0.003341966    1.568    0.362
        60 -11.1188     42.0625    157.9314   7.3605677473e+01   3.7276260391e+01     0.232048    0.2017529  17.04 0.0004204378    1.315    0.240
        61 -11.3949     31.2710    109.1375   7.1356762764e+01   5.0933716763e+01    0.3869183    0.2001372  68.85  0.001560145    2.413    0.586
        62 -11.2347     95.9942    246.2831   6.8665740241e+01   1.2618944931e+01     0.436826    0.2840335  16.46  0.002692136    1.656    0.396
        63 -13.0450    114.3657    239.8914   6.4244936207e+01   1.1262287530e+01    0.7680733    0.5450007  32.39  0.004956984    1.071    0.066
        64 -12.2182    241.8376     66.9588   7.9739691891e+00   1.7091229665e+01     0.676001    0.5194542 -75.47  0.004287783    1.507    0.337
        65 -11.2292    102.0253    247.8640   6.7563357978e+01   1.1617035526e+01    0.4348949    0.1797111  33.39  0.001736585    1.775    0.436
        66 -12.1730    248.5513     44.4292   2.3744101455e+00   1.8591926283e+01    0.5681758    0.3671891 -55.11  0.003500222    1.397    0.284
        67 -10.8213     49.0598    240.3272   7.8055402102e+01   1.9176561443e+01    0.3007619    0.1564114  33.32  0.001574495    1.492    0.330
        68 -12.0950     13.3443     60.3175   7.1084834097e+01   6.5126479595e+01    0.2495062    0.2230422  89.66 0.0006246083    1.164    0.141
        69 -13.2613      7.3305    100.5681   7.9737387804e+01   5.5051945191e+01    0.7094178      0.57481  68.27  0.003078098    1.188    0.158
        70 -11.8770    136.7463     42.9570   1.5857608073e+01   4.4815197165e+01    0.4103768    0.2913412  22.57  0.001832422    1.902    0.474
        71 -11.2694     95.2989    238.6676   6.8133343864e+01   1.3926175844e+01    0.5591115    0.2060642  40.75  0.002380688    2.038    0.509
        72  -9.9257     55.2511    237.7825   7.6597196290e+01   1.8930162106e+01    0.1424608    0.1256878  17.52 0.0006761577    1.372    0.271
        73 -11.6489    134.3307    233.1504   5.9357037477e+01   9.6317922012e+00    0.3349134    0.2054831 -39.54  0.002009813    2.020    0.505
        74 -13.3469     73.2673    219.7330   7.1294752271e+01   2.0049076527e+01    0.9204342    0.5803658 -89.99  0.004533603    1.995    0.499
        75 -12.7036    102.9448    227.7594   6.5428623301e+01   1.4741518071e+01     2.514305    0.3236106  32.53  0.006836921    6.013    0.834
        76 -11.7602     72.9741    205.7528   7.0095029264e+01   2.2786216510e+01    0.4715855    0.3025934  88.58  0.002088364    1.909    0.476
