#   1 NUMBER                 Running object number                                     
#   2 MAG_AUTO               Kron-like elliptical aperture magnitude                    [mag]
#   3 X_IMAGE                Object position along x                                    [pixel]
#   4 Y_IMAGE                Object position along y                                    [pixel]
#   5 X_WORLD                Barycenter position along world x axis                     [deg]
#   6 Y_WORLD                Barycenter position along world y axis                     [deg]
#   7 A_WORLD                Profile RMS along major axis (world units)                 [deg]
#   8 B_WORLD                Profile RMS along minor axis (world units)                 [deg]
#   9 THETA_WORLD            Position angle (CCW/world-x)                               [deg]
#  10 FWHM_WORLD             FWHM assuming a gaussian core                              [deg]
#  11 ELONGATION             A_IMAGE/B_IMAGE                                           
#  12 ELLIPTICITY            1 - B_IMAGE/A_IMAGE                                       
         1 -14.5374     99.5900    169.6893   8.7792294713e+01   2.6382954380e+01     9.237864      4.45579  62.23   0.02520476    4.899    0.796
         2 -13.9931     70.3545    145.0361   9.1696393096e+01   3.7313843215e+01     2.532186     1.485094  79.66  0.005912574    3.145    0.682
         3 -12.9245    201.1657     45.8919   3.6525091468e+01   2.9927831919e+01    0.8716751    0.7520968 -70.38  0.003122733    1.068    0.063
         4 -13.2777    210.9431     37.2137   3.3611855813e+01   2.9001451771e+01    0.7238723    0.6473364  56.84  0.001372889    1.438    0.305
         5 -12.4432    239.9164     12.6361   2.6513514884e+01   2.6197141940e+01    0.5935528    0.5784907 -25.71  0.004891712    1.636    0.389
         6 -12.2369    234.6794      8.8223   2.6161488334e+01   2.7596907826e+01    0.5464073    0.4564066   3.29  0.003892143    2.251    0.556
         7 -10.0677     44.5096      6.5012   5.7475272531e+01   6.8244044326e+01    0.1197485   0.09281928  24.27 0.0008105972    1.010    0.010
         8  -9.8714     44.7852      1.5849   5.5010422018e+01   6.8647166182e+01    0.1556464   0.09883613  51.96 0.0004416229    1.602    0.376
         9 -10.7858    140.3810    202.8295   8.3293816438e+01   1.1675903575e+01    0.3246628    0.1866291 -52.76   0.00137131    1.844    0.458
        10 -11.7980    140.1990    248.1653   9.0431684647e+01   2.6118067618e+00    0.5152744    0.4160979 -68.35  0.003080525    1.635    0.388
        11 -15.7832     36.1497    188.2505   1.0801392106e+02   3.0435871649e+01     15.46391     4.794956  50.03   0.05150337    3.760    0.734
        12  -9.6513    163.9861    202.9843   7.7858672227e+01   7.7496104017e+00    0.1772014    0.1616019 -13.16  0.001017011    1.038    0.036
        13 -10.8604    193.0627    194.9886   7.0149595559e+01   4.6559872630e+00    0.9458119    0.4915363 -64.53  0.002717756    6.221    0.839
        14 -10.1360     31.0985    199.7292   1.1046017670e+02   2.8130885943e+01    0.2925298    0.2101941  33.35 0.0009288847    1.441    0.306
        15 -10.5611    204.7420    196.4837   6.8109766297e+01   2.5811936031e+00    0.3057719    0.1457192 -31.90   0.00132138    2.165    0.538
        16 -15.3812      8.4678    208.1645   1.1653428684e+02   2.8307534657e+01     1.919877     1.011953 -53.89     0.009877    2.120    0.528
        17 -17.3226      6.9068    242.3180   1.1890363772e+02   2.0849880686e+01     3.219152     2.021959  11.52   0.01200848    2.395    0.583
        18  -8.8359     88.9207    190.7271   9.4292848792e+01   2.2855604791e+01    0.1978276    0.1820306  66.33 0.0004248747    1.079    0.074
        19 -11.1347     39.8648    173.7685   1.0532631955e+02   3.3718210744e+01    0.5321357    0.4050148  72.25  0.002450978    1.336    0.252
        20 -10.4758     62.6382    249.4566   1.0773490012e+02   1.3123452105e+01     0.383135    0.1896779  57.20  0.001840728    2.079    0.519
        21 -12.6990     53.7088    181.7598   1.0252199245e+02   3.0036980919e+01     1.000566    0.8495678  74.17  0.004375027    1.153    0.133
        22 -10.9017     61.2773    179.0189   1.0005565123e+02   2.9766537999e+01    0.2763799    0.2629016  77.22 0.0003864951    1.026    0.025
        23 -10.2031     58.5439    248.9732   1.0857850352e+02   1.3737764093e+01    0.2709137    0.1932901 -76.35 0.0009188754    1.487    0.328
        24 -11.4017    120.8123    180.6917   8.4156774908e+01   2.0058168024e+01    0.4239119    0.2826281 -77.56  0.001550333    2.130    0.531
        25 -10.8494     99.1239    181.0269   8.9960763252e+01   2.3638196073e+01     0.362498     0.314499 -40.96  0.001037242    1.200    0.167
        26  -9.8184     74.5440    180.8229   9.6648242541e+01   2.7472847327e+01    0.5548646    0.2884743 -84.12   0.00196186    3.025    0.669
        27 -14.5862     11.9912    246.8409   1.1813128359e+02   1.9411063318e+01     0.533448    0.2301023 -74.77  0.002803451    2.208    0.547
        28 -11.5647     72.3023    164.0551   9.4566639208e+01   3.2101378050e+01    0.4610505    0.4165084 -50.92 0.0008763983    1.105    0.095
        29 -12.7332     69.1608    151.0669   9.3203294039e+01   3.5924645607e+01    0.7907446    0.5138171 -49.65   0.00107979    1.490    0.329
        30  -9.9989     71.8259    244.3907   1.0523415621e+02   1.2985516672e+01    0.2831101    0.1845219 -68.99  0.001068024    1.670    0.401
        31 -15.4790      3.2150    179.4431   1.1571066116e+02   3.5675601130e+01     18.42343          nan -73.62   0.03469611   12.026    0.917
        32  -9.9927     51.8410    169.5261   1.0136407785e+02   3.3420036894e+01    0.2514103     0.222581  88.63 0.0004556056    1.087    0.080
        33 -11.5066     80.4309    156.5307   9.0824625359e+01   3.2827228767e+01    0.6800654     0.510336  27.72  0.003284186    1.405    0.288
        34 -11.9592     67.0610    169.2019   9.6936276863e+01   3.1512529927e+01    0.5182943    0.3764944 -29.86  0.002470974    1.677    0.404
        35 -11.1619     42.1208    162.3774   1.0317745769e+02   3.6421485734e+01    0.4496798    0.2374339  31.69 0.0008124137    1.953    0.488
        36  -9.6063     62.5093    156.0318   9.6106316088e+01   3.5560536501e+01    0.2921157    0.1973736  48.72 0.0009937927    1.576    0.366
        37 -11.2515    133.7754    145.4346   7.3478791952e+01   2.6029125460e+01     1.262861    0.3460522 -55.20   0.00291584    5.692    0.824
        38 -11.5977     88.1775    149.8367   8.7214344718e+01   3.3305272070e+01    0.7239961    0.4842804 -13.75  0.002928176    2.248    0.555
        39  -9.1004    174.8161    149.0866   6.4614808884e+01   1.7146403782e+01    0.2292464    0.2011908 -69.48 0.0008464341    1.284    0.221
        40  -9.6319     47.9018    144.8418   9.8726676356e+01   4.0338233384e+01    0.2306984    0.1888947 -37.64  0.001022801    1.268    0.212
        41 -11.1296     26.1936    137.8433   1.0456191105e+02   4.4418375535e+01    0.4685989     0.322956  57.16  0.001191233    1.656    0.396
        42 -11.0634     31.2789    143.2718   1.0373968118e+02   4.2536512742e+01    0.5677588    0.4004526  28.66  0.002985068    1.546    0.353
        43  -9.8593    105.4666    130.5251   7.7815306769e+01   3.5055563205e+01     0.386373    0.3010363 -51.52  0.001389058    1.270    0.212
        44 -11.4865     89.4066    135.9125   8.3884837869e+01   3.6616774151e+01    0.3044226    0.2790065 -43.85 0.0004586719    1.066    0.062
        45 -11.4087     43.4880    129.6939   9.7502523977e+01   4.4773393289e+01    0.4021923    0.2343728  39.54  0.001459271    1.850    0.459
        46 -10.5779    102.1437    136.7115   8.0233819814e+01   3.4167687350e+01    0.6041656    0.3536185 -25.47  0.002167389    2.659    0.624
        47 -10.9625    135.3318    128.7588   6.9167734653e+01   2.9543708779e+01    0.5738455    0.2394488 -49.60  0.001992083    2.424    0.587
        48  -9.1250    143.4658    126.1800   6.6500846028e+01   2.8428916760e+01    0.2332247    0.2044151 -86.26 0.0009271549    1.303    0.232
        49  -8.6918    125.6860    125.3528   7.0867439944e+01   3.2293467808e+01     0.161355    0.1253588  89.12 0.0007045827    1.732    0.423
        50 -10.3816     98.2456    123.9489   7.8388530773e+01   3.7979971477e+01    0.3347511    0.2644795  -0.24 0.0007185435    1.550    0.355
        51 -10.5754     87.1651    173.1584   9.1882014956e+01   2.7521878635e+01    0.5516671     0.339524  24.33  0.001885204    1.819    0.450
        52 -10.6956     27.6284    128.1080   1.0258221794e+02   4.6793555498e+01    0.2440254    0.2030607   4.08 0.0005928673    1.360    0.264
        53  -9.5121    111.2950    128.2410   7.5575791737e+01   3.4487938507e+01    0.2909214    0.2385682   0.35 0.0007581451    1.460    0.315
        54  -9.2288    162.4622    120.0105   6.0602735015e+01   2.5736779466e+01    0.4014743    0.2080101 -61.18   0.00140614    2.852    0.649
        55  -9.0823     74.7418    120.9905   8.5151872080e+01   4.2736878544e+01    0.2118306    0.1915025 -45.48 0.0001959389    1.061    0.057
        56  -9.5133     37.7094    120.4211   9.7750732109e+01   4.7765478943e+01    0.2435222    0.1314936  30.21 0.0007331718    1.964    0.491
        57 -10.8059     32.6562    119.2748   9.9313198845e+01   4.8566469161e+01    0.3467165    0.1988047 -47.86   0.00119692    1.574    0.365
        58  -9.0459    107.7505    117.7623   7.4003223920e+01   3.7628280294e+01    0.2181761    0.2044672   0.43 0.0005011181    1.106    0.096
        59  -9.7270    135.0000    112.4606   6.5180544411e+01   3.3195285994e+01    0.3470578   0.08679756 -44.92 0.0009384521    3.965    0.748
        60 -11.1660     53.0716    110.6165   9.0217228011e+01   4.8406357351e+01    0.4502461    0.2582401 -41.93  0.002009466    1.696    0.410
        61 -10.1011     39.8875    113.1387   9.5527443133e+01   4.9356736196e+01    0.2157576    0.1932662  77.45   0.00122888    1.285    0.222
        62 -11.5912     33.3676    108.0868   9.6873065922e+01   5.1281438168e+01    0.7968676    0.1971438 -59.43  0.002618444    3.274    0.695
        63  -9.4069    205.5062    110.3261   5.0223326846e+01   1.8747062551e+01    0.2286834    0.2083325 -80.72 0.0006422732    1.128    0.113
        64 -10.9026    115.1702    108.7603   6.9521622079e+01   3.8165376150e+01    0.4315369    0.2700615 -42.29  0.001867669    1.610    0.379
        65  -9.1862    134.6025    106.4156   6.3710666932e+01   3.4556410637e+01    0.3137562    0.1314875 -56.07 0.0009569713    3.450    0.710
        66 -11.6140     17.1221     90.4594   9.9491967629e+01   5.6918775620e+01       0.6281    0.2238921  37.83  0.002449547    3.419    0.708
        67  -8.2465     60.2756     94.6613   8.3600229308e+01   5.1176103313e+01    0.1379551    0.1152939  81.76 0.0003888138    1.613    0.380
        68  -8.4503    159.3183     84.3260   5.2321357346e+01   3.3309573277e+01    0.1430268    0.1157332  14.64 0.0006289732    1.677    0.404
        69  -9.6362     33.3601     69.2165   8.7211041180e+01   6.0126018640e+01    0.1818427     0.121142 -59.75 0.0006359189    1.702    0.412
        70 -11.2615    242.3596    169.6201   5.6386488440e+01   1.8378446583e+00    0.2486907    0.1898239   1.31  0.001507706    1.496    0.331
        71 -12.2488    189.6031     54.1352   3.9829626185e+01   3.1297743939e+01    0.5516002    0.4657894  39.18 0.0008172396    1.536    0.349
        72 -10.6962     48.4586    244.4146   1.1037273938e+02   1.5924139504e+01    0.3397064    0.2600443  28.29 0.0005294379    1.388    0.280
        73 -14.1136     15.1551    215.0963   1.1549429695e+02   2.6074645713e+01    0.8990377    0.6496297  18.12  0.005384317    1.716    0.417
        74 -10.2288     32.5327     40.7397   7.7901774655e+01   6.5527349773e+01    0.2244696    0.1858379   0.13 0.0002960202    1.041    0.039
        75 -13.9863     53.4738    229.6410   1.0794920895e+02   1.8524558535e+01     1.158787    0.9375219  81.60  0.003560858    1.181    0.153
        76  -9.0967     60.1957     20.9161   5.7907468681e+01   6.3974715852e+01    0.1738287    0.1590309  35.98 0.0005256277    1.228    0.186
        77 -10.8859    106.2674    237.1119   9.6572988530e+01   9.7040818702e+00    0.3623814     0.196272  18.23  0.001480423    2.349    0.574
        78  -9.3711     75.5402    247.0922   1.0468009582e+02   1.1935285710e+01    0.4687824    0.1389909 -55.06   0.00180457    3.598    0.722
        79 -10.2015     77.6373     17.5064   5.0807613500e+01   6.0954197565e+01    0.4376174    0.2230423  74.11  0.001588709    4.467    0.776
        80  -8.6803    189.3245     14.7013   3.0877565526e+01   3.6215121571e+01     0.126435   0.07415392 -70.68 0.0004220122    1.629    0.386
        81 -10.1035    152.5028    222.5023   8.3809454363e+01   5.6572023342e+00    0.2246524    0.1381396 -61.85  0.001022852    2.209    0.547
