#   1 NUMBER                 Running object number                                     
#   2 MAG_AUTO               Kron-like elliptical aperture magnitude                    [mag]
#   3 X_IMAGE                Object position along x                                    [pixel]
#   4 Y_IMAGE                Object position along y                                    [pixel]
#   5 X_WORLD                Barycenter position along world x axis                     [deg]
#   6 Y_WORLD                Barycenter position along world y axis                     [deg]
#   7 A_WORLD                Profile RMS along major axis (world units)                 [deg]
#   8 B_WORLD                Profile RMS along minor axis (world units)                 [deg]
#   9 THETA_WORLD            Position angle (CCW/world-x)                               [deg]
#  10 FWHM_WORLD             FWHM assuming a gaussian core                              [deg]
#  11 ELONGATION             A_IMAGE/B_IMAGE                                           
#  12 ELLIPTICITY            1 - B_IMAGE/A_IMAGE                                       
         1 -12.1728    171.8345     50.7994   5.0254950516e+01   3.5993906141e+01     1.297481     1.019405   5.10  0.006232155    1.713    0.416
         2 -11.5483    193.0617     22.4561   3.9565434173e+01   3.4454310312e+01    0.7801525    0.4852449 -13.09  0.003839965    2.279    0.561
         3 -12.0253    189.6586     18.6453   3.8955459020e+01   3.5695529826e+01     1.032634    0.7181018  18.07  0.005313103    2.256    0.557
         4  -9.6735    120.0942      9.6999   4.6242776632e+01   5.3464908297e+01    0.4148397    0.2870426 -22.81  0.002339528    1.608    0.378
         5  -8.3610    208.0964    240.0626   8.6342046693e+01  -5.0829721081e+00     0.173182    0.1456189  15.89            0    1.095    0.087
         6  -8.0588    237.3122    250.5855   8.2806320755e+01  -1.0421515028e+01    0.1474458    0.0873839  20.65 0.0003340942    1.434    0.302
         7  -9.0561    152.5047    249.0832   9.8324990473e+01   1.9486433610e+00    0.2732407    0.2157601  33.30  0.001059328    1.060    0.057
         8 -18.4247     54.7358    219.5157   1.1487427097e+02   2.1937803805e+01     4.858103     3.955323 -81.20   0.01413987    1.219    0.179
         9 -10.3211    226.9342    216.2174   7.8847787416e+01  -4.4191895346e+00    0.2147761    0.1869452  17.03 0.0003089282    1.199    0.166
        10  -8.8204    195.1710    216.9656   8.4953921169e+01   3.7633851102e-01    0.2062638    0.1664559  26.49            0    1.123    0.110
        11  -9.0310    166.1872    216.6895   9.0748088412e+01   5.2126879574e+00    0.2411456    0.2315975  76.86 0.0006967978    1.243    0.195
        12  -8.9693    196.4198    212.3121   8.3893546181e+01   9.3485219667e-01     0.234533    0.1996623  14.04  0.000316567    1.037    0.036
        13  -8.9320    197.0133    207.8224   8.2973401247e+01   1.5832822810e+00    0.2102336    0.1806066 -19.47 0.0003380452    1.142    0.124
        14  -7.8259    175.5581    206.1064   8.6998443184e+01   5.5143453661e+00    0.1874233    0.1333273 -44.37 0.0005806136    1.512    0.339
        15  -7.9590    223.8287    204.1997   7.7220414943e+01  -2.1366590791e+00    0.1790118    0.1323235  -1.31 0.0003439464    1.303    0.233
        16 -10.0547    191.9964    193.1129   8.1235978112e+01   4.9926769523e+00    0.8267421    0.4713727 -63.26  0.003101915    3.637    0.725
        17  -9.1267    186.1588    187.2960   8.1301281663e+01   7.0984625717e+00     0.232674    0.2259542  22.12 0.0003065028    1.127    0.112
        18  -7.9558      1.2218    197.3244   1.2421322406e+02   3.2472666187e+01    0.1064574   0.07227815 -66.93  0.000681707    1.503    0.334
        19 -10.5383    142.0680    228.7105   9.7610239263e+01   7.0523252683e+00    0.4395577    0.3765944 -54.14   0.00276069    1.338    0.253
        20  -9.7226    180.2685    194.7962   8.3957885465e+01   6.7602726931e+00    0.3390165    0.2498481  26.73  0.001795275    1.334    0.250
        21  -7.9383      5.4462    191.0948   1.2296052358e+02   3.3488598422e+01    0.2914573    0.1544679 -50.39  0.001563692    2.455    0.593
        22  -9.2914    158.7226    223.1745   9.3332126395e+01   5.3075670152e+00    0.2792817     0.225191  85.31  0.001194438    1.757    0.431
        23  -8.3511    202.6881    188.9883   7.8311896310e+01   3.8570414178e+00    0.1934172    0.1694192 -19.98  0.000628641    1.085    0.079
        24  -9.1711    150.5300    229.7423   9.6014591729e+01   5.4934901302e+00    0.4696958     0.156016 -50.91  0.001829459    3.501    0.714
        25  -9.1449    151.8524    183.1383   8.7918968842e+01   1.4268471994e+01    0.2799078    0.2348395  82.49 0.0004379602    1.472    0.321
        26  -7.8111    149.2935    185.6740   8.8974791734e+01   1.4214274442e+01    0.2350306     0.141806  43.75 0.0006291603    1.602    0.376
        27  -9.7232    145.2440    184.6054   8.9697314535e+01   1.5188113980e+01    0.2952754    0.2198377  33.51  0.001478352    1.335    0.251
        28  -8.3776    183.5206    178.4608   8.0092054193e+01   9.2597682527e+00    0.2444789    0.1385025 -42.33 0.0007673718    1.764    0.433
        29  -9.9055    180.3996    175.7686   8.0200354262e+01   1.0370466873e+01    0.6160769    0.2658496 -47.25  0.002184737    2.427    0.588
        30  -7.8556    166.2706    180.5948   8.4213763099e+01   1.2082674762e+01    0.1451112    0.1157226 -85.32 0.0006529746    1.756    0.430
        31 -10.8567    146.6708    222.5171   9.5739430756e+01   7.4233535018e+00    0.5207347    0.4492674 -74.20  0.003179389    1.399    0.285
        32  -9.4616    156.5152    169.1492   8.4091362188e+01   1.6334077137e+01    0.2548767    0.2442336   3.69 0.0006964338    1.049    0.046
        33  -9.2663    191.4611    168.5035   7.6391115436e+01   9.6778352074e+00    0.3530545     0.261147  59.10  0.001153003    1.696    0.411
        34 -10.8852    147.8385    156.3299   8.3404559394e+01   2.0847513082e+01    0.7397968    0.5386804  72.22  0.003287611    1.848    0.459
        35 -10.4590    143.7766    150.6531   8.3132972911e+01   2.2938453713e+01    0.6412524    0.3529094 -48.02  0.002612357    1.803    0.445
        36  -9.4441      2.3700    158.5643   1.2130039064e+02   4.1242552822e+01    0.2789999    0.1594236 -58.20 0.0009078787    1.680    0.405
        37  -8.5136     16.8785    156.9269   1.1756930083e+02   4.0482965191e+01    0.2688876    0.1747235 -25.69  0.001033956    2.388    0.581
        38 -11.2845    134.3154    149.4069   8.5185750647e+01   2.5127597197e+01     1.418586    0.4534503 -55.86  0.003859509    4.214    0.763
        39  -8.5450    124.6917    143.7127   8.6368435366e+01   2.8362136713e+01    0.2524979    0.2363954  89.64 0.0003010131    1.097    0.089
        40  -9.8422    127.9231    141.5917   8.5054134015e+01   2.8219012199e+01    0.4135479    0.2716268  46.08  0.001054984    1.553    0.356
        41 -11.2666      9.1789    128.9595   1.1662037075e+02   4.7887485922e+01    0.5636656    0.3452428 -66.23  0.003234282    1.306    0.234
        42 -10.9964     23.2455    140.4400   1.1404656717e+02   4.3964842869e+01    0.4954005    0.3139913 -69.48  0.001507737    1.300    0.231
        43 -10.4850     16.6004    137.6310   1.1554963655e+02   4.5213486429e+01    0.3648964    0.2415973 -85.85  0.001992545    1.331    0.249
        44 -10.8152      3.9783    122.1888   1.1733427515e+02   4.9870352529e+01    0.6605552     0.282172 -59.81  0.003286107    1.827    0.453
        45 -10.6973      3.6700    112.8185   1.1628234515e+02   5.2145376039e+01    0.6063968    0.2950054 -45.65  0.003121475    1.997    0.499
        46 -10.9563    154.4676    217.7332   9.3361875036e+01   6.9976596952e+00    0.9113942    0.3642977  41.66  0.003781296    2.255    0.557
        47 -10.2460     12.4209    142.8240   1.1727353866e+02   4.4271922458e+01    0.3237486    0.2588463 -28.86   0.00146583    1.616    0.381
        48  -9.0199    165.3180    227.5242   9.2659771800e+01   3.4707250172e+00    0.3364401    0.2281701  69.54  0.001625355    2.518    0.603
        49 -13.4426     17.4042    249.2009   1.2399139864e+02   2.0329645728e+01    0.2442547    0.2202715 -83.75  0.001098904    1.474    0.322
        50  -9.1454    150.1968    147.9524   8.0983406894e+01   2.2228740489e+01    0.3534695    0.2128026 -56.91  0.000863586    1.856    0.461
        51  -9.5823    191.1493    133.8302   6.8665597878e+01   1.6549857666e+01    0.2681502    0.2304274 -38.59 0.0002645466    1.100    0.091
        52  -9.5812    135.0336    133.3960   8.1309600858e+01   2.8666658363e+01    0.3213324    0.2292007 -40.61 0.0005479251    1.416    0.294
        53  -7.2828    192.2890    227.3348   8.7269808029e+01  -8.1802187318e-01    0.1297746   0.08994678   0.55  0.000475303    1.631    0.387
        54 -10.8814      2.6362    131.1882   1.1871146227e+02   4.7781937855e+01     1.053345    0.3017019 -79.85  0.003846691    3.395    0.705
        55  -7.8056    195.9800    130.5340   6.6930216915e+01   1.6173506569e+01    0.2163793    0.1498983  48.74 0.0005785031    1.542    0.352
        56  -9.3736    119.0214    127.2013   8.4007992283e+01   3.3375522902e+01    0.2762222    0.2188741 -48.80 0.0005767163    1.225    0.183
        57  -9.2695    207.0854    222.7673   8.3664540218e+01  -2.4095199734e+00    0.2801222    0.2477722 -78.47  0.001238898    1.846    0.458
        58  -8.6374    107.5264    122.3998   8.6013051249e+01   3.6757182961e+01    0.2608779    0.2383085 -45.89 0.0006181037    1.067    0.063
        59  -9.3233    121.8162    122.5993   8.2110273852e+01   3.3884986950e+01    0.3158646    0.2497551 -20.77  0.001030861    1.522    0.343
        60  -9.0159    184.5043    217.5248   8.7159478420e+01   2.0196337229e+00    0.2365802    0.1953232  41.88 0.0006056629    1.259    0.206
        61 -11.1452    183.7818    211.1702   8.6207538680e+01   3.2201548550e+00     1.130093     0.530257 -50.03  0.004897511    2.595    0.615
        62  -8.3229    168.1098    113.2951   6.8364094188e+01   2.5775207847e+01    0.3098926    0.2030478 -67.59  0.001234811    2.126    0.530
        63  -9.9682     56.2942    103.1025   9.7225237628e+01   4.9689395220e+01    0.3433286    0.2764319 -68.37  0.001889673    1.233    0.189
        64 -10.5980     71.2876    111.3606   9.4257675949e+01   4.5616343478e+01    0.5726064    0.3031628 -57.04  0.002361272    1.753    0.430
        65 -11.6902     60.3716    109.7030   9.7397343526e+01   4.7560047248e+01    0.9317773      0.48351  16.60  0.003681275    2.906    0.656
        66  -9.8263     61.7021    102.7999   9.5336779717e+01   4.9045431325e+01    0.3763778    0.2718561   7.95  0.001880238    1.757    0.431
        67  -9.5844    156.3825    227.9115   9.4541291742e+01   4.8606804613e+00    0.2912466    0.2384817  50.13  0.001471525    1.244    0.196
        68  -8.8224     15.1259    110.1022   1.1229082209e+02   5.2057315731e+01    0.2029624    0.1732818  38.69 0.0008366811    1.398    0.285
        69  -9.2939     88.8862    109.0163   8.8147218668e+01   4.3339184080e+01    0.2332408    0.2159707 -44.02 0.0005725725    1.029    0.028
        70  -7.4037    139.2481    107.6717   7.3618508410e+01   3.3494649822e+01    0.1554651    0.1220958 -73.27 0.0001721861    1.544    0.352
        71  -9.8301     81.7113    105.0135   8.9357523482e+01   4.5498852074e+01    0.3083477     0.250089  79.00 0.0002767761    1.546    0.353
        72 -11.0499      5.9258    147.8215   1.1947865894e+02   4.3547670397e+01    0.8760923    0.4392111 -61.55  0.003987098    1.696    0.410
        73 -10.6374     66.7411    105.1984   9.4249214467e+01   4.7766106428e+01     0.415628    0.3484024  34.58  0.002286582    1.307    0.235
        74  -9.5537     42.0441    102.3503   1.0189688418e+02   5.1549601581e+01    0.3475301    0.1385269  22.29  0.001358635    3.199    0.687
        75  -8.9674     11.5453    218.9903   1.2343629519e+02   2.6896858170e+01    0.2932075    0.2433538 -76.29  0.002175303    1.368    0.269
        76  -9.0494    195.1313     86.7111   5.6125637742e+01   2.4567399284e+01    0.3368959     0.235696 -28.93 0.0009651608    1.521    0.342
        77 -10.3693     98.9018     85.9418   7.8535032796e+01   4.6673809418e+01    0.2403945    0.2248144 -32.58  0.001312564    1.025    0.025
        78  -7.7040    170.2672     75.6272   5.7635783891e+01   3.2429392904e+01    0.1992147    0.1372365  48.05 0.0002804986    1.508    0.337
        79 -10.8267    158.9476     64.2267   5.6538039630e+01   3.7108235578e+01    0.4342977    0.4010668  65.99 0.0009654381    1.065    0.061
        80  -8.9172    127.5453    247.4625   1.0303359084e+02   6.0469240767e+00    0.2877802    0.1748183  50.29  0.001537874    1.504    0.335
        81  -8.7880    145.3262     61.2933   5.8462898746e+01   4.0909271158e+01    0.4399383    0.2417883 -61.93  0.001155157    2.857    0.650
        82  -7.6564    221.9616     40.4454   4.0854935603e+01   2.5494769173e+01    0.1858082   0.09777006 -77.65 0.0007612368    2.383    0.580
        83  -7.9257    128.4910     40.4126   5.5325976670e+01   4.8065604384e+01      0.14088    0.1301142  47.73 0.0001159571    1.022    0.022
        84 -10.3663    177.5078     42.8980   4.7110864489e+01   3.5700039504e+01    0.4039035    0.3839503  74.08  0.000875958    1.090    0.082
        85  -8.0662    159.3711     32.9805   4.7052773697e+01   4.1464020311e+01    0.1782655    0.1704302 -43.34 0.0003591209    1.125    0.111
        86  -8.5942    127.2233     27.9340   5.1288347194e+01   4.9925554714e+01     0.221402    0.1798121  59.89 0.0003154538    1.143    0.125
        87  -8.8793    140.0585    242.3643   9.9896928172e+01   4.9812591616e+00    0.2841427    0.2205338 -27.42   0.00157503    1.628    0.386
        88  -8.4421    154.4350    239.8912   9.6684129516e+01   3.1385753979e+00    0.2911389    0.1183356 -44.07  0.001297724    2.889    0.654
        89  -8.4315    232.9491     19.0951   3.4997194378e+01   2.5727437223e+01    0.1829927    0.1520695 -69.19 0.0004162525    1.044    0.042
        90  -7.6910    244.8656     14.1221   3.3052509876e+01   2.3778847545e+01    0.1408695    0.1302168 -62.13  0.001015714    1.279    0.218
