#   1 NUMBER                 Running object number                                     
#   2 MAG_AUTO               Kron-like elliptical aperture magnitude                    [mag]
#   3 X_IMAGE                Object position along x                                    [pixel]
#   4 Y_IMAGE                Object position along y                                    [pixel]
#   5 X_WORLD                Barycenter position along world x axis                     [deg]
#   6 Y_WORLD                Barycenter position along world y axis                     [deg]
#   7 A_WORLD                Profile RMS along major axis (world units)                 [deg]
#   8 B_WORLD                Profile RMS along minor axis (world units)                 [deg]
#   9 THETA_WORLD            Position angle (CCW/world-x)                               [deg]
#  10 FWHM_WORLD             FWHM assuming a gaussian core                              [deg]
#  11 ELONGATION             A_IMAGE/B_IMAGE                                           
#  12 ELLIPTICITY            1 - B_IMAGE/A_IMAGE                                       
         1 -13.1019    203.0351     36.1550   5.4607747628e+01   2.9300999246e+01     1.336961     1.224896  12.07  0.007367114    1.196    0.164
         2 -13.6414    220.6444     18.2150   4.7445896588e+01   2.6903980530e+01     1.319138     0.932094  34.44  0.005943886    1.727    0.421
         3 -12.2853      2.4223      7.2434   1.0582034320e+02   7.3720763477e+01     1.002869    0.2156591 -55.29    0.0042017    3.255    0.693
         4 -11.6781      2.1150     26.2981   1.1263576235e+02   7.0048337264e+01    0.5717531    0.1149221 -63.72  0.002144634    3.865    0.741
         5 -11.4915     15.4740      3.9814   9.6577157356e+01   7.3337083907e+01    0.3424307    0.1607781 -44.23  0.001931562    1.695    0.410
         6  -9.6675     89.4803    244.9709   1.1923222783e+02   1.6120937865e+01    0.1458637   0.07380763  77.56 0.0008101415    2.680    0.627
         7 -10.1334    183.9776    250.2318   1.0393396695e+02   1.7417410858e+00    0.1559521   0.06809491  41.16 0.0008882774    1.671    0.402
         8 -11.8280    162.0528    249.1449   1.0743423762e+02   5.1375789555e+00     0.396906    0.2039151  38.22  0.002458998    1.481    0.325
         9 -12.3912    140.2184    248.3233   1.1100301887e+02   8.4846732530e+00    0.4916712     0.262047  48.17  0.003128973    1.429    0.300
        10 -11.7884    125.9425    248.8917   1.1345620587e+02   1.0492066611e+01     0.309304    0.2459948  80.09  0.002417306    1.455    0.313
        11 -10.0271     63.5404    250.1657   1.2383267649e+02   1.8649518952e+01    0.1657878   0.09707797  43.50  0.001199196    1.423    0.297
        12 -15.1582      8.4321    239.3540   1.3196217193e+02   2.6274498021e+01     11.99908     4.166779 -83.99    0.0753428    2.658    0.624
        13 -14.0092     29.5119    215.4155   1.2751928881e+02   2.8141539177e+01    0.7607341    0.5140187  67.17  0.002425093    1.061    0.057
        14 -14.1107     27.7034    183.7636   1.2598532750e+02   3.4152853405e+01     3.954837     1.150106  71.63 0.0004532938    9.001    0.889
        15 -10.1337    101.2174    249.5962   1.1764413234e+02   1.3870010668e+01    0.1481133   0.08126205  37.94  0.000581924    1.634    0.388
        16  -8.4978     95.4610    219.4870   1.1600815923e+02   1.9266004071e+01    0.1144273   0.08940753  56.73 0.0001453917    1.032    0.031
        17 -12.8139     23.1590    222.3978   1.2894393966e+02   2.7599679188e+01    0.2846351    0.2170379  83.26 0.0007710728    1.242    0.195
        18 -10.1394    224.4688    198.2603   8.9538647838e+01   1.3274091698e+00    0.2552702     0.204322 -53.23  0.001183832    1.982    0.495
        19  -9.7511    192.3027    193.6207   9.4417149412e+01   7.4272803672e+00    0.3400562    0.2001063 -67.69  0.001165399    6.134    0.837
        20 -11.5151     53.0185    191.2019   1.2155688970e+02   2.9925639583e+01    0.2288961    0.2110744 -72.42 0.0005233433    1.428    0.300
        21  -8.2385    181.6524    192.3019   9.6169313839e+01   9.4987260274e+00    0.1237545   0.09544351  66.51 0.0005192205    1.689    0.408
        22 -11.7382     60.0061    183.6461   1.1949024960e+02   3.0530206694e+01    0.2306129    0.2032414 -81.33 0.0004532674    1.277    0.217
        23 -13.5380     10.0560    207.0662   1.3047886501e+02   3.1525412722e+01     1.079471    0.5739916  39.84  0.002916767    1.781    0.439
        24 -10.8068     71.4348    171.9073   1.1587272160e+02   3.1385070593e+01    0.2200466    0.1930718  87.67 0.0003958245    1.133    0.118
        25 -13.0249     57.5459    169.1639   1.1859342832e+02   3.3739844021e+01     0.436493     0.259292 -48.88  0.001775787    2.241    0.554
        26 -11.8162     79.7046    163.5825   1.1304048213e+02   3.1943123421e+01    0.5353541    0.4817334  70.81  0.003593986    1.105    0.095
        27 -14.1134     58.8435    213.1550   1.2216670824e+02   2.5204942409e+01     2.443446    0.3665697  51.37  0.001636132    5.760    0.826
        28 -10.4618     22.6437    156.2196   1.2506967589e+02   4.0205067197e+01    0.1609762    0.1189186  71.06  0.001029207    1.114    0.102
        29 -10.0555     93.6071    148.9230   1.0771796404e+02   3.2932797026e+01    0.2665939    0.2268883  77.62 0.0007545957    1.090    0.082
        30 -11.8013     81.9991    147.5259   1.1028140195e+02   3.5007024572e+01     0.272918    0.2222446 -61.31 0.0004408013    1.272    0.214
        31 -12.2259     67.6466    143.7751   1.1322311224e+02   3.7841365658e+01    0.6609295     0.402346  66.56  0.002523955    1.747    0.428
        32  -8.9831     97.1600    145.1210   1.0624878467e+02   3.3173469555e+01     0.187665    0.1816331 -30.02 0.0004511001    1.264    0.209
        33  -9.5734    107.0607    134.7215   1.0197495881e+02   3.3731548466e+01    0.3267052    0.2407124 -15.42  0.001228672    2.223    0.550
        34  -9.7235     68.8157    134.8135   1.1163018976e+02   3.9665430273e+01    0.1834224    0.1717029 -76.66 0.0005536217    1.158    0.136
        35 -10.1030     93.8968    131.8391   1.0473689926e+02   3.6583668660e+01    0.2206725    0.2035379 -51.14 0.0004207949    1.200    0.167
        36 -13.2330     40.4674    205.5074   1.2498874277e+02   2.8716100900e+01    0.8949723    0.6095484 -73.48  0.002390523    1.541    0.351
        37  -9.0608    105.0004    122.2446   1.0001081626e+02   3.6798596820e+01    0.1829489    0.1713512  63.58 0.0002488861    1.056    0.053
        38 -10.3112     53.3057    118.8072   1.1326809574e+02   4.5251336252e+01    0.2705947    0.1092222 -73.30  0.001093496    2.680    0.627
        39  -9.2596    167.6818    112.6943   8.2729507690e+01   2.5832157182e+01    0.2923826    0.2153833 -83.47  0.001104224    2.029    0.507
        40  -8.8536    203.4815    111.5177   7.5290634663e+01   1.7902746496e+01      0.14867    0.1361179   9.99 3.422476e-05    1.062    0.058
        41 -10.2608    244.5153    108.5034   6.7755539644e+01   9.5008561215e+00    0.1371182    0.1230811 -11.69 0.0008104069    1.020    0.019
        42 -11.3661    243.4869     93.8377   6.4392732468e+01   1.1753708147e+01    0.2728657    0.2217177 -63.20  0.001500035    1.519    0.342
        43 -10.2209     49.0304    233.9648   1.2524099775e+02   2.2877680867e+01    0.1622791    0.1135267  64.42 0.0006976537    1.029    0.028
        44 -11.0549     12.8881     61.2265   1.1622818658e+02   6.2030543906e+01    0.2866955    0.1286549 -61.48  0.001296269    1.673    0.402
        45 -10.5170    243.0277    250.0000   9.4528391771e+01  -6.6929097555e+00    0.2929128   0.04465656  41.37  0.001058438    4.999    0.800
        46 -11.8465    170.5142    247.7512   1.0586520193e+02   4.0344889690e+00     0.351084    0.2162873  27.76  0.002299886    1.572    0.364
        47 -10.4328     42.9554    237.4787   1.2643596565e+02   2.3006935216e+01    0.1539674    0.1071727  76.72 0.0009532108    1.202    0.168
        48 -10.8286     53.5309    242.9031   1.2501801697e+02   2.0943121072e+01    0.2441274    0.1143538  71.13  0.001057077    2.041    0.510
        49 -10.1162     23.0160     28.2742   1.0297864137e+02   6.8240351958e+01    0.1590486    0.1408077 -25.13 0.0006487826    1.146    0.127
        50 -11.5297      9.4929     17.0348   1.0570342883e+02   7.1442944539e+01    0.2154362    0.1386472 -19.75  0.001391358    1.596    0.373
