#   1 NUMBER                 Running object number                                     
#   2 MAG_AUTO               Kron-like elliptical aperture magnitude                    [mag]
#   3 X_IMAGE                Object position along x                                    [pixel]
#   4 Y_IMAGE                Object position along y                                    [pixel]
#   5 X_WORLD                Barycenter position along world x axis                     [deg]
#   6 Y_WORLD                Barycenter position along world y axis                     [deg]
#   7 A_WORLD                Profile RMS along major axis (world units)                 [deg]
#   8 B_WORLD                Profile RMS along minor axis (world units)                 [deg]
#   9 THETA_WORLD            Position angle (CCW/world-x)                               [deg]
#  10 FWHM_WORLD             FWHM assuming a gaussian core                              [deg]
#  11 ELONGATION             A_IMAGE/B_IMAGE                                           
#  12 ELLIPTICITY            1 - B_IMAGE/A_IMAGE                                       
         1 -10.7984     48.9309     26.6466   8.1518327315e+01   6.5577343470e+01    0.3942208    0.3079451  70.82  0.001963732    2.690    0.628
         2 -11.5009    153.6611     23.0799   5.0403862284e+01   4.3999695915e+01    0.3103645    0.2408484 -31.41 0.0002292442    1.368    0.269
         3 -12.0144      5.8909     16.5200   9.8063963045e+01   7.1697082902e+01    0.3612493    0.2781765 -48.94  0.001874814    1.392    0.282
         4 -11.8286      1.9685     24.3956   1.0321019561e+02   7.0546554779e+01    0.4091194    0.1502017 -55.09  0.001391917    2.194    0.544
         5 -11.7129    166.5676     18.1084   4.6789618246e+01   4.1260445846e+01    0.4025829    0.3211288  78.30  0.001104329    1.186    0.157
         6 -10.9388    116.9361     14.9116   5.4638443221e+01   5.3895272252e+01    0.4167562     0.265964   6.92  0.001383736    1.897    0.473
         7 -10.9195    120.7439      8.1380   5.1233644934e+01   5.3641865306e+01    0.3686545     0.266391  39.16  0.001386664    1.286    0.222
         8 -11.1688    173.4312     13.2380   4.4367109940e+01   4.0022917410e+01    0.3272696    0.2053671 -31.66  0.001656577    1.674    0.402
         9 -11.2103    175.7581     11.0021   4.3409264581e+01   3.9658538165e+01    0.3068266    0.2069175 -63.37  0.001219872    1.582    0.368
        10 -10.5130    148.5347     12.2253   4.7672433503e+01   4.6432869722e+01    0.4298668    0.1675412  51.38  0.001727429    2.281    0.562
        11 -10.9625    133.0843     12.7299   5.0531254874e+01   5.0227910442e+01    0.2195494    0.1986631 -18.11 0.0003050221    1.202    0.168
        12 -10.2024     32.3974     12.4184   8.2326282792e+01   6.9836976819e+01    0.1996656    0.1905918 -30.95 0.0008040806    1.598    0.374
        13 -10.8543     70.6174     11.9202   6.6243328017e+01   6.4017071706e+01    0.2169118    0.1625437  35.52 0.0002145479    1.230    0.187
        14 -11.2218     14.5419      9.4950   9.0111765970e+01   7.2152336282e+01    0.4457116    0.2381608 -28.48  0.001344741    1.535    0.348
        15 -11.8769     20.6065      7.0340   8.5584994363e+01   7.1927822324e+01    0.4904048    0.2322423 -42.77  0.002710886    2.103    0.524
        16 -10.5095     24.7653      6.9228   8.3341177973e+01   7.1494930404e+01    0.2343023    0.1523856 -40.36 0.0008787482    1.673    0.402
        17 -11.6025    106.7171      7.2401   5.3905776453e+01   5.6990068711e+01    0.6389232    0.4163837  58.35  0.003440894    1.424    0.298
        18 -10.3095      4.8110      8.8106   9.5259615943e+01   7.3045730593e+01     0.256572    0.1167842 -42.64   0.00133271    1.698    0.411
        19 -11.5324    204.2696      7.8145   3.9389754338e+01   3.2874699637e+01    0.3217839     0.278452  36.78  0.001209729    1.421    0.296
        20 -11.3242    192.4305      7.5078   4.0504234618e+01   3.5820207110e+01    0.5505882    0.2558224  68.57  0.002513898    1.917    0.478
        21 -11.6069    194.2039      3.6322   3.9283692742e+01   3.5759405563e+01    0.6178436    0.2228858  71.43  0.002519545    2.460    0.594
        22 -10.0398    164.9848      8.4566   4.4045874695e+01   4.2635062813e+01    0.2730804    0.1685489 -46.46  0.001367284    1.720    0.419
        23  -8.9324     74.2825      8.2968   6.3299066189e+01   6.3718119585e+01     0.130163   0.08315503  19.56 0.0003510307    1.542    0.351
        24  -9.5273     46.7771      8.4250   7.3701929558e+01   6.8413664142e+01    0.1645958   0.09759309  25.48 0.0005226615    1.601    0.375
        25 -10.4660     87.6248      6.4619   5.8422766098e+01   6.1228594720e+01    0.2295302    0.1870415  59.88 0.0008708256    1.360    0.265
        26  -9.9995    134.6293      6.1253   4.7900603453e+01   5.0455347566e+01    0.2107971    0.1728735  75.92 0.0003464048    1.206    0.171
        27  -9.3824     61.6245      5.8146   6.6463933182e+01   6.6294924932e+01    0.1677863    0.1042464 -30.32 0.0007471827    1.680    0.405
        28 -10.8669     38.4513      3.0285   7.4546910997e+01   7.0266369658e+01    0.3625684    0.2590324 -47.68  0.001131721    2.274    0.560
        29 -11.0417    147.3113      2.8876   4.4762372405e+01   4.7584883256e+01    0.3538939    0.2780462 -14.61  0.002050641    1.448    0.310
        30  -9.2949    247.7133      4.6818   3.5127167074e+01   2.3174688968e+01     0.107514   0.09351584  40.42 0.0002319066    1.592    0.372
        31 -10.9451    160.0772      3.0013   4.3015185949e+01   4.4369399632e+01     0.305048    0.2803042  70.31 0.0009033196    1.043    0.041
        32  -9.1844    243.6562      3.3194   3.5110782362e+01   2.4202921960e+01    0.1366937   0.07198362 -62.46 0.0007049528    1.723    0.420
        33 -11.7603    216.7574      1.9884   3.6828046229e+01   3.0467091028e+01    0.2921011    0.1896523  79.32 0.0007237161    1.400    0.286
        34 -10.0352     30.8216      3.1739   7.8265293013e+01   7.1266915328e+01     0.162677    0.1344585 -14.95 0.0005063912    1.254    0.202
        35 -10.8128    180.1757      1.9217   4.0279489889e+01   3.9408585353e+01    0.2955375    0.1669611  67.17  0.001034147    1.557    0.358
        36 -10.5242    124.1277      2.0773   4.8301208566e+01   5.3347819199e+01    0.3490627     0.189229  76.39  0.001609917    2.051    0.512
        37 -10.9227    115.6446      1.9822   4.9890493171e+01   5.5371403231e+01     0.237642    0.1752636  60.18  0.000351853    1.230    0.187
        38  -9.8122     88.2983      1.6816   5.6092791964e+01   6.1511887880e+01     0.332309    0.1289836  47.54  0.001488019    2.119    0.528
        39  -9.7856     82.0194      2.0068   5.7978337635e+01   6.2785484297e+01    0.2281553    0.1617726  44.08  0.001357122    1.242    0.195
        40 -11.4375     74.5868      1.8197   6.0109198696e+01   6.4283492763e+01    0.4699328    0.1736857  55.00  0.001589203    2.639    0.621
        41 -10.5516     49.5936      2.1877   6.9251675366e+01   6.8690465015e+01    0.2395148    0.1432818  31.95 0.0003132909    1.504    0.335
        42  -9.3414     14.4526    218.7903   1.2687479507e+02   2.7022626717e+01    0.1371182   0.08470862 -74.02 0.0007416986    1.555    0.357
        43 -10.3680    187.0873    250.4794   9.7736698055e+01  -2.8919275143e+00    0.1689028    0.1145944  35.37 0.0003838726    1.176    0.150
        44 -11.1143    116.1059    249.3187   1.1070998847e+02   8.2657856366e+00    0.2790109    0.2106687  68.21  0.001380098    1.319    0.242
        45 -10.3562    112.0800    246.1174   1.1111899047e+02   9.3975660801e+00    0.1914275    0.1640746 -42.12 0.0003589942    1.585    0.369
        46  -9.6345     31.0102    250.5539   1.2577293179e+02   1.9372311205e+01    0.1464631   0.08068421  47.16 0.0003004632    1.480    0.324
        47 -10.0439     16.0765    250.5113   1.2817644112e+02   2.0991962792e+01    0.2220351    0.1008262  48.62 0.0008158649    1.660    0.398
        48 -11.2860     12.4952    249.5482   1.2869989023e+02   2.1528719222e+01    0.2399934    0.1749503  23.17  0.001751332    2.300    0.565
        49  -9.4845     12.3222    214.9858   1.2704681241e+02   2.7980377935e+01    0.1474057    0.1098423  80.94 0.0004793774    1.083    0.077
        50  -9.4974    144.1611    214.3983   1.0081164361e+02   9.7371984994e+00    0.1918476    0.1075633  49.28 0.0005845214    1.666    0.400
        51 -10.1164    111.9118    213.3312   1.0732628478e+02   1.5321808302e+01     0.183664     0.148923  48.94 0.0003148208    1.090    0.083
        52 -10.7825    126.8825    209.8803   1.0373717614e+02   1.3517510211e+01    0.2445592    0.2157715   7.56 0.0002833205    1.406    0.289
        53 -10.8582      8.4204    209.5444   1.2745452007e+02   2.9436676088e+01    0.2009723    0.1630865 -88.34 0.0005811487    1.263    0.208
        54  -9.7177    155.6365    209.7854   9.7744617316e+01   8.5718645187e+00    0.1734592    0.1278671 -62.25 0.0009461202    1.682    0.406
        55  -8.9977     47.3112    210.3321   1.2015029737e+02   2.5113035468e+01    0.1061428   0.08954658 -49.13 0.0007043384    1.674    0.403
        56  -9.0484    230.6816    209.6466   8.3170537896e+01  -4.1634879188e+00    0.1342306   0.08476079   4.19 0.0007046769    1.745    0.427
        57  -9.0299     39.6542    209.6930   1.2159476430e+02   2.6147358242e+01    0.1034538   0.08892408 -47.46 0.0007043107    1.697    0.411
        58 -10.3743     18.7174    208.3126   1.2548860442e+02   2.8685981180e+01    0.2871885    0.1283414  61.17  0.001602888    1.911    0.477
        59 -10.7386     67.0431    207.2894   1.1590954049e+02   2.3220745987e+01    0.2889409     0.176863  44.54  0.001003522    1.491    0.329
        60 -10.4024     57.6401    204.7626   1.1758678744e+02   2.4983338939e+01    0.3178558    0.1408847 -58.85  0.001177256    2.369    0.578
        61  -9.6393     40.0383    204.9757   1.2114775527e+02   2.7078466536e+01     0.160844    0.1347362 -55.41 0.0006183815    1.584    0.369
        62  -9.3038      1.4278    204.4995   1.2845902076e+02   3.1087435313e+01      0.11216   0.07749241  76.93  6.88947e-05    1.041    0.039
        63 -10.2332    142.3505    203.2228   9.9478741017e+01   1.2116145219e+01    0.2315561    0.1669156  41.57 0.0002649816    1.244    0.196
        64 -10.2962    121.4469    199.6535   1.0341079775e+02   1.6445026206e+01    0.2835789    0.2161866 -75.88  0.001136148    1.471    0.320
        65 -11.3592     33.3799    199.4880   1.2203788670e+02   2.8978757818e+01    0.2668285    0.2022021  70.06  0.001828596    1.073    0.068
        66  -9.5065      5.8021    199.9945   1.2741278754e+02   3.1616679370e+01    0.1499919    0.1045994  81.72 0.0003661219    1.057    0.054
        67 -10.5889     62.4096    198.3597   1.1596359821e+02   2.5720065801e+01    0.2042675    0.1706786  69.06 0.0001971234    1.059    0.056
        68  -9.9213     39.2004    197.7128   1.2071939860e+02   2.8706325091e+01      0.23149    0.1240356  78.65 0.0009668797    1.809    0.447
        69  -9.2035     21.6662    198.2504   1.2426536095e+02   3.0470318152e+01    0.1192639   0.06532706  64.03 0.0002234173    1.558    0.358
        70  -9.6855     12.7880    197.8120   1.2595933767e+02   3.1426513105e+01    0.1791499   0.09913851 -46.80 0.0009648603    2.917    0.657
        71  -9.7911    109.6720    197.3128   1.0563277234e+02   1.8898095780e+01    0.1418447   0.09500243  69.12 0.0007042796    1.669    0.401
        72  -9.7398     95.8012    194.7794   1.0832540531e+02   2.1663724048e+01    0.1822908    0.1737832  61.21 0.0009441336    1.169    0.145
        73  -9.8932     82.7468    195.0189   1.1121752339e+02   2.3599147913e+01    0.1779923    0.1530287  84.98  0.000254144    1.069    0.064
        74 -11.0155     58.9543    191.2089   1.1595414426e+02   2.7719908145e+01    0.3412893    0.1647399 -70.50  0.001535508    1.954    0.488
        75 -10.1029      5.8078    192.9126   1.2700581984e+02   3.3087564579e+01    0.1751811    0.1191959  77.95 0.0009066991    1.105    0.095
        76 -11.0695     91.4761    188.6290   1.0845644422e+02   2.3663952139e+01    0.3964463    0.2328638  59.59 0.0008421026    1.752    0.429
        77  -9.4235     86.7132    186.6663   1.0926377733e+02   2.4824920347e+01    0.1409715    0.1189814  73.87 0.0004137224    1.058    0.054
        78  -9.4490     67.1660    189.8780   1.1401896297e+02   2.6925845324e+01    0.2765119   0.09297395 -72.40  0.001007636    3.476    0.712
        79 -10.3972    105.3277    186.0627   1.0495932645e+02   2.2001464327e+01    0.2288595    0.1846858  48.48 0.0005255789    1.164    0.141
        80 -10.8682    239.7093    184.9834   7.6884362772e+01  -2.0819309681e+00     0.188558    0.1540291  -9.62 0.0008032246    1.063    0.059
        81 -10.4493     44.3755    184.0558   1.1838807949e+02   3.1091077369e+01    0.2632306    0.1571257 -83.70 0.0008762724    1.510    0.338
        82  -9.6319     16.3811    181.8682   1.2416169668e+02   3.4499295145e+01    0.1750986   0.08260457 -66.55 0.0009520094    1.883    0.469
        83  -9.9563     55.2746    181.2690   1.1568862354e+02   3.0399029075e+01    0.1786323    0.1251509  72.82  0.000648706    1.310    0.237
        84  -9.9659     31.8174    180.1256   1.2074692633e+02   3.3358085902e+01    0.1819397    0.1336361  79.68  0.000356445    1.119    0.106
        85  -9.4733    222.7668    178.0071   7.8528556711e+01   1.8957096309e+00    0.1727813    0.1066913 -33.65 0.0003889994    1.571    0.363
        86  -9.7412     46.4877    176.9891   1.1720000038e+02   3.2435215356e+01    0.1819042    0.1090372 -75.22 0.0003348495    1.478    0.323
        87 -10.1448     32.2442    175.9849   1.2027734320e+02   3.4242685578e+01     0.187287    0.1543885  70.42 0.0003917983    1.123    0.109
        88  -9.9669     17.1330    175.4021   1.2351223719e+02   3.5856259412e+01    0.1923766    0.1321144 -75.68 0.0005910858    1.256    0.204
        89 -11.0346     78.4892    173.6276   1.0937737869e+02   2.8989386791e+01    0.3707024    0.2425968  76.28  0.001114809    1.684    0.406
        90 -10.9681    242.8281    171.1197   7.3539898886e+01  -5.1689260964e-01    0.1948691    0.1421743  -3.77  0.001086562    1.357    0.263
        91 -10.2900    248.3278    168.3265   7.2030760037e+01  -1.0197046537e+00    0.1387102   0.09201977   1.54 0.0005954799    1.701    0.412
        92  -9.2647      5.1782    168.6560   1.2556794768e+02   3.8384175278e+01    0.1219871    0.1110761  20.73 0.0003430021    1.564    0.361
        93 -10.2959     47.9729    166.1947   1.1565538465e+02   3.4747486408e+01    0.2703594    0.1840696  22.12  0.001486369    1.975    0.494
        94  -9.9767     24.8095    162.8164   1.2071799490e+02   3.7989790284e+01    0.1726776    0.1406756 -77.33 0.0003668568    1.145    0.127
        95 -10.8553    249.0086    161.0648   7.0401380167e+01  -2.6999900546e-02    0.1945634    0.1637907 -61.04 0.0008420486    1.696    0.410
        96 -11.0390     30.5158    154.5040   1.1852048206e+02   3.9373114264e+01    0.4090592    0.2193746  56.46  0.002001454    1.915    0.478
        97 -10.5122     39.4822    160.4783   1.1702053899e+02   3.7043272167e+01    0.2663401    0.2059939  79.65  0.001115068    1.143    0.125
        98 -10.9722     35.8159    158.6116   1.1769159608e+02   3.7871082697e+01    0.3511359    0.2076502  51.09  0.001938665    1.686    0.407
        99  -9.2252    219.6084    158.1829   7.4940269670e+01   5.7745413500e+00    0.1871178    0.1260343 -24.59 0.0003234771    1.476    0.322
       100 -11.3020    248.5185    155.7643   6.9358591786e+01   8.7857160088e-01    0.2529226    0.2260403 -23.19  0.000727213    1.137    0.120
       101 -11.7076    249.0931    150.3619   6.8105189727e+01   1.6242946410e+00    0.4058936    0.2028616 -39.21  0.001372862    1.851    0.460
       102 -12.5435    244.3674    149.8690   6.8774526687e+01   2.5449705001e+00     0.408602    0.3323424 -48.87  0.002060123    1.429    0.300
       103  -9.8620    143.9842    153.4252   8.9944208448e+01   2.2054040094e+01    0.2162848    0.1981211 -50.50 0.0001494475    1.109    0.098
       104  -9.4082     45.5891    151.5025   1.1442859777e+02   3.8493911298e+01    0.1318615    0.1094367 -82.41 6.598289e-05    1.021    0.020
       105  -9.0691     80.5549    150.4609   1.0528901621e+02   3.4138276401e+01    0.1408123    0.1278158 -81.72 4.503238e-05    1.022    0.022
       106 -11.0014      5.2471    147.3837   1.2390026569e+02   4.3190610456e+01    0.2968624    0.1636279  69.51  0.000647077    1.763    0.433
       107 -13.3393    239.2473    141.9772   6.7890095378e+01   4.7691818131e+00    0.7757283    0.3245854 -41.77  0.003141732    2.292    0.564
       108 -12.9619    236.3568    138.2493   6.7538988105e+01   5.9370286231e+00    0.6311847    0.3010755 -39.94  0.002720878    1.937    0.484
       109 -10.1782     24.2055    144.0010   1.1892508508e+02   4.2444694061e+01    0.2249413    0.1821617  38.46 0.0007272979    1.450    0.310
       110 -11.2493     18.8307    141.0385   1.1995926270e+02   4.3609338122e+01    0.5165021     0.312103   3.48  0.002731039    2.752    0.637
       111 -12.4024    247.3135    137.5084   6.5577305143e+01   3.9950388077e+00    0.6063892      0.30832 -37.29  0.001074454    1.744    0.427
       112 -12.2956    248.0166    129.6485   6.3709792457e+01   5.1352468724e+00    0.7581787    0.3115731  45.20  0.003130035    2.700    0.630
       113  -9.9203      2.0422    139.9901   1.2403410448e+02   4.5117919533e+01    0.1785125    0.1375732 -86.76 0.0006408319    1.027    0.026
       114 -10.3950     49.8629    136.6670   1.1121523771e+02   4.1584798655e+01    0.2357912     0.158123 -58.68 0.0005963831    1.344    0.256
       115 -10.1508     34.0476    136.6316   1.1547275671e+02   4.3282851109e+01    0.2417546    0.1435604  48.07  0.001295853    1.802    0.445
       116 -10.0438      7.6882    133.4695   1.2201154522e+02   4.6243379607e+01    0.2146263    0.1073072 -58.39 0.0007942478    1.744    0.427
       117  -9.0799     76.2782    133.3004   1.0335184183e+02   3.8931957259e+01    0.1384529    0.1062509 -34.74 0.0006957482    1.541    0.351
       118 -12.2109     28.3643    131.8130   1.1636516221e+02   4.4977386182e+01    0.3063637    0.2376311  69.80  0.001908699    1.306    0.235
       119  -9.2962    217.9782    131.9428   6.9294140958e+01   1.0701194683e+01    0.1789442    0.1550296 -28.24 0.0004132569    1.070    0.066
       120 -11.3622     12.9375    130.9986   1.2038804502e+02   4.6443841824e+01    0.1951818    0.1476011 -78.79            0    1.036    0.035
       121 -10.1569     43.3531    130.5142   1.1206303807e+02   4.3807462384e+01    0.2871902   0.06506668 -54.94 0.0009609956    3.475    0.712
       122  -9.8974      2.4989    129.9972   1.2300342492e+02   4.7401866728e+01    0.1785219   0.07847395  80.16 0.0008105895    2.566    0.610
       123 -10.4949     34.0630    129.0870   1.1443249838e+02   4.5100533551e+01    0.2027694     0.150815 -51.22 0.0007364812    1.349    0.259
       124 -11.1172    247.6912    122.9562   6.2247155889e+01   6.2837212602e+00     0.266756    0.2153977 -61.86  0.001481446    1.503    0.335
       125 -11.0704    243.9587    124.5073   6.3179125599e+01   6.7492326991e+00    0.3092251     0.137199  48.59  0.001067014    2.498    0.600
       126 -13.0056    238.8560    121.1458   6.3211830356e+01   8.3094315933e+00    0.7082793    0.4311585 -23.75   0.00331069    1.707    0.414
       127 -11.4651    229.2718    122.8698   6.5183977122e+01   9.9569387326e+00    0.4055376    0.2115674 -53.65  0.001586003    2.542    0.607
       128  -9.9075      2.4772    122.9242   1.2230270266e+02   4.9049917163e+01    0.1614389    0.1385494 -85.35 2.359036e-06    1.133    0.117
       129  -9.1398     74.3339    122.2867   1.0172172979e+02   4.1898494160e+01    0.1418225    0.1081772 -27.22 0.0003859824    1.624    0.384
       130  -9.5047     30.0200    125.4718   1.1504687849e+02   4.6351859045e+01    0.1563276    0.1298898  29.43 -1.514451e-05    1.466    0.318
       131  -9.0547    194.0224    121.7356   7.1374514408e+01   1.7775210608e+01    0.1773551    0.1345678  49.24  0.000242933    1.373    0.271
       132 -10.2126     32.8831    121.1279   1.1359640064e+02   4.7134939570e+01    0.1931735    0.1548071  86.68 -0.0006383859    1.213    0.176
       133 -12.0047     21.9645    119.1434   1.1644559208e+02   4.8562655004e+01    0.4186407    0.3708962  57.49  0.001332896    1.284    0.221
       134 -10.9753    223.3134    117.4985   6.4914458410e+01   1.2133173882e+01    0.5070988    0.2208896 -35.98  0.001474182    2.117    0.528
       135 -10.0299    206.0736    119.0949   6.8388983154e+01   1.5585770268e+01    0.2403807    0.1820517 -67.74  0.000800511    1.698    0.411
       136  -9.1944     93.3150    118.6955   9.5435513746e+01   3.9751423341e+01    0.1502263    0.1151518  81.81  0.000393757    1.621    0.383
       137 -10.5973     54.7775    118.0233   1.0663787562e+02   4.5547572442e+01    0.2168083    0.2007287  19.46 0.0005326883    1.280    0.219
       138 -10.7375    232.6476    117.1084   6.3265430010e+01   1.0248380098e+01    0.2701823    0.2069907  38.10 0.0009187768    1.439    0.305
       139 -10.8210     10.1567    117.1120   1.1953813780e+02   4.9917958454e+01    0.2421502    0.1286198 -58.32 0.0009989394    1.556    0.357
       140 -10.6414     13.3529    113.4293   1.1815661503e+02   5.0568666807e+01     0.302233    0.1524037   0.05   0.00142011    3.387    0.705
       141 -10.8941      3.0535    115.9732   1.2139751380e+02   5.0636701161e+01    0.2987152    0.1882492  15.65  0.001606759    2.128    0.530
       142 -10.7884    249.6326    114.9482   6.0129140488e+01   7.2082536759e+00    0.2437876    0.2107248  63.75 0.0009013012    1.390    0.281
       143 -11.2555     61.2743    113.1758   1.0372343871e+02   4.5911655393e+01    0.3769928    0.2616408 -45.31  0.001320262    1.402    0.287
       144  -9.8266     33.5912    114.4755   1.1234152040e+02   4.8673503961e+01    0.1778793    0.1712437 -44.61 0.0004828304    1.210    0.174
       145 -10.5192     32.0855    111.1900   1.1225384818e+02   4.9602778206e+01    0.2335342    0.1620218  88.69 0.0007785283    1.524    0.344
       146 -11.7662    243.9038    109.4750   5.9716490469e+01   9.2307541951e+00    0.3986073    0.2681589 -12.71  0.001163554    1.818    0.450
       147 -10.6049      3.9928    111.5748   1.2062493554e+02   5.1607963538e+01    0.1959326    0.1276864 -73.35 0.0004710627    1.178    0.151
       148 -11.2915    232.8238    110.9110   6.1764644781e+01   1.1263603931e+01    0.2836451    0.2264407 -72.36 0.0008118737    1.569    0.363
       149 -11.2468     19.6974    109.9667   1.1580133417e+02   5.0928282493e+01    0.3284417    0.2031956 -47.94  0.001871204    1.546    0.353
       150 -10.5282    250.1087    107.6243   5.8379850963e+01   8.2963281993e+00    0.2589283    0.1823147 -27.28 0.0006000756    1.323    0.244
       151 -10.1231     37.4552    107.1992   1.0990718063e+02   5.0055517207e+01    0.2725276   0.09890686 -59.03  0.001138445    2.154    0.536
       152  -9.4989      8.4196    106.5178   1.1869334919e+02   5.2522207721e+01    0.1235921   0.09539238 -74.08 0.0007629252    1.035    0.034
       153 -10.3157     28.9958    103.7088   1.1193684269e+02   5.1666000431e+01    0.3017413    0.1352526 -56.87  0.001440545    1.765    0.433
       154 -10.3653     48.0903    103.7610   1.0588611081e+02   4.9769506358e+01    0.2549559    0.1659036 -54.88 0.0003181005    1.310    0.236
       155 -10.8127    231.1151    101.9202   5.9871205131e+01   1.3143294083e+01    0.4878893    0.2337297  58.96  0.001189196    2.460    0.594
       156  -9.9269    225.4540     99.4984   6.0171206549e+01   1.4780979088e+01    0.2155199    0.1261952 -45.38 2.631533e-05    1.625    0.385
       157 -10.0113    174.9403    102.9462   7.0424457578e+01   2.5839796509e+01    0.2229474    0.2163028 -28.34  0.001170937    1.020    0.020
       158 -10.4631    103.1599    100.8003   8.8049830849e+01   4.2154823583e+01     0.228095    0.1990688  -7.70 0.0002507385    1.296    0.229
       159 -10.2927    235.3417     92.5756   5.6969130565e+01   1.3786154883e+01    0.2843937    0.2008807  89.61  0.001366529    1.940    0.485
       160 -12.4835    245.3297     98.1372   5.6856567061e+01   1.0784827348e+01    0.5918355    0.5013874 -57.61  0.002459834    1.212    0.175
       161  -9.5126    162.1937     99.7735   7.2352502793e+01   2.9493853807e+01     0.204216    0.1808359   3.47 0.0002627395    1.268    0.211
       162  -9.8495     23.2911    100.0534   1.1311605935e+02   5.3002196568e+01    0.1779048     0.133905 -66.96  0.000274734    1.082    0.076
       163 -10.5678      8.8783     99.0963   1.1752161980e+02   5.4229500043e+01    0.2591032     0.187106  77.10 0.0008489697    1.506    0.336
       164 -10.3738      3.8938     97.9910   1.1891930194e+02   5.4776072091e+01    0.2223629    0.1898365  73.38  0.001159709    1.305    0.234
       165  -9.1167    110.4625     99.4615   8.5562244568e+01   4.1039414099e+01    0.1526414    0.1464096 -42.65 0.0001615306    1.003    0.003
       166  -9.6991     50.9647     99.0035   1.0394661173e+02   5.0576402166e+01    0.1671767    0.1389816 -57.45 0.0003482779    1.037    0.036
       167 -10.9982     42.0141     98.8627   1.0683678223e+02   5.1589561529e+01    0.2342912    0.2003517 -37.67 0.0003879506    1.200    0.167
       168 -10.2744     46.1859     93.9941   1.0441274627e+02   5.2296621328e+01    0.2072523    0.1936814   6.69 0.0002958423    1.237    0.191
       169 -10.5653     21.2528     87.7115   1.1156202028e+02   5.6045687035e+01    0.1919973    0.1598256 -75.53 0.0002976798    1.164    0.141
       170 -10.5221     28.5668     92.7082   1.1004995039e+02   5.4301919222e+01    0.2742651     0.190641 -81.41 0.0005843551    1.493    0.330
       171 -11.0567     27.3077     87.0524   1.0934841234e+02   5.5723899276e+01    0.3326341     0.262245 -23.38 0.0009167691    1.418    0.295
       172 -10.4690     30.8063     84.1891   1.0752172784e+02   5.6087541898e+01    0.2338624      0.18052 -32.26 0.0006213485    1.322    0.244
       173 -10.4846    105.1816     90.9859   8.4682697188e+01   4.3949320352e+01    0.3187737    0.2170029  41.37  0.001469372    1.537    0.349
       174  -9.5961    250.5016     89.9329   5.4232612701e+01   1.1032638391e+01    0.2153617    0.1196659 -36.41 0.0006307662    1.554    0.357
       175  -9.4677    157.6367     90.1873   7.0669099635e+01   3.2474236786e+01    0.2132834    0.1483786 -28.60 0.0003706117    1.545    0.353
       176 -10.6201      7.2500     89.5418   1.1659634763e+02   5.6539889563e+01     0.234521    0.1653367  77.63 0.0006027966    1.619    0.382
       177  -9.7267     43.5176     88.0458   1.0396152410e+02   5.3970903989e+01    0.2033282    0.1164593 -61.16 0.0009371263    1.541    0.351
       178  -9.4330     66.6452     87.3358   9.5880400329e+01   5.1283105648e+01    0.1420576    0.1096041  81.68 0.0005057659    1.798    0.444
       179 -10.7263    222.7919     87.4371   5.7586002676e+01   1.7404869792e+01    0.2632087    0.2280025 -37.35 0.0002951694    1.074    0.069
       180  -9.7501    177.1952     86.0347   6.5272686706e+01   2.8502484591e+01    0.2751092    0.1739708 -61.27  0.001097981    2.033    0.508
       181 -10.5179    193.9437     84.1867   6.1555464181e+01   2.4745436338e+01    0.2432872    0.2109649 -41.60 0.0003156311    1.107    0.097
       182 -10.1303    155.0912     85.0325   6.9744465821e+01   3.4082077361e+01    0.2277444    0.2267949  30.18 0.0003290253    1.015    0.015
       183 -11.0770     50.0762     83.4056   1.0054511890e+02   5.4309230197e+01    0.4270637    0.2631609   0.56  0.001507072    2.402    0.584
       184  -9.2921     17.2428     85.0016   1.1242771634e+02   5.6957523553e+01    0.1684583   0.08599272 -64.66  0.000871292    1.559    0.359
       185  -9.4648     11.3655     85.2121   1.1448974082e+02   5.7291291850e+01    0.1769096   0.09815382 -76.44 0.0009435005    1.677    0.404
       186  -9.2756     86.4917     84.5909   8.8565042567e+01   4.8786745962e+01    0.1449687    0.1352226 -30.29 6.743408e-05    1.020    0.019
       187 -10.5526    148.0873     82.8661   7.0735165614e+01   3.6180001428e+01    0.2477265    0.2235488 -19.33 0.0002576413    1.151    0.131
       188  -9.4590     60.4896     83.0409   9.6817267451e+01   5.3096775119e+01    0.2047742    0.1216161 -50.65 0.0003995648    1.472    0.321
       189 -10.2176     73.6394     80.3692   9.1554642507e+01   5.1806732600e+01    0.4071764    0.1947655 -43.95  0.001713323    1.913    0.477
       190  -9.8867      1.6594     93.0912   1.1894126554e+02   5.6026357004e+01    0.1769397    0.1198918 -66.34 0.0006112552    1.116    0.104
       191  -9.6949    239.3336     80.8136   5.3569497648e+01   1.4813707239e+01     0.306574   0.09788759 -41.20  0.001090942    2.671    0.626
       192  -9.9911     20.3234     81.6672   1.1069600650e+02   5.7503710888e+01    0.1220099   0.08964288  77.96 0.0007050475    1.706    0.414
       193 -10.1507     44.4634     80.0638   1.0168355981e+02   5.5696420553e+01    0.2402298    0.1948203  34.58 0.0007091622    1.440    0.306
       194  -9.5971      2.2743     80.2568   1.1677882165e+02   5.8921999198e+01    0.1578307    0.1236088  83.42  0.001058209    1.411    0.291
       195 -10.4605    249.4236     79.2157   5.1876245468e+01   1.2919582373e+01    0.2237357     0.194399  70.91 0.0006357699    1.290    0.225
       196 -10.1603     64.5801     75.8065   9.3332569055e+01   5.4137996049e+01    0.2084845       0.1973  51.71 0.0003034116    1.246    0.197
       197 -10.0562     61.2850     74.9834   9.4256122716e+01   5.4773267336e+01    0.2011144    0.1785261 -60.02 0.0002047059    1.197    0.165
       198 -11.4081     52.9637     75.1330   9.7290661669e+01   5.5816348346e+01    0.2238501    0.1900865 -29.67  0.001341751    1.114    0.102
       199 -11.3172     17.4870     73.8922   1.1009943168e+02   5.9462170615e+01    0.3188323    0.2255432 -26.40 0.0006493797    1.506    0.336
       200 -10.5393    176.3213     75.3248   6.2383401969e+01   3.0632114288e+01    0.4017763    0.1826335  59.86  0.001451799    2.366    0.577
       201  -9.9568    216.6456     73.7465   5.5032198516e+01   2.1063408888e+01    0.2859958    0.1648085 -44.38  0.001275464    1.618    0.382
       202  -9.2111     68.7652     73.9483   9.1303728405e+01   5.3932602888e+01    0.1874927    0.1066381 -47.05 0.0008653868    1.580    0.367
       203 -10.3351    170.1651     73.0549   6.2942682762e+01   3.2560871760e+01    0.4260814    0.2183902  62.85  0.001611377    2.192    0.544
       204  -9.2867     44.9933     73.0098   9.9621394420e+01   5.7211013291e+01    0.1673037    0.1264252 -49.27 0.0004782592    1.127    0.113
       205 -11.7700    222.6359     71.1282   5.3488897724e+01   2.0082039678e+01    0.3382118    0.2626813 -62.53 0.0005202662    1.308    0.235
       206 -11.4600    199.8341     71.5587   5.7094473752e+01   2.5450950477e+01    0.2602467    0.2374342 -47.51 0.0002667404    1.047    0.045
       207  -9.4262     89.1325     71.8841   8.3765647039e+01   5.1005965547e+01    0.1961286    0.1616219 -14.37 0.0002910016    1.267    0.210
       208 -10.3318    230.7163     70.7993   5.2289328197e+01   1.8284615967e+01    0.2577003     0.243107  28.63 0.0007274785    1.238    0.192
       209  -9.1891    137.4628     71.5770   6.9818613315e+01   4.0829610536e+01    0.1503949    0.1497979  26.45 9.808187e-05    1.026    0.025
       210 -11.7570     79.7614     69.8866   8.6225344125e+01   5.3046065696e+01    0.2317733    0.2177599 -13.28 0.0002698901    1.054    0.051
       211 -10.9297     52.7957     69.6645   9.5766175269e+01   5.7024547536e+01     0.249258    0.2028505 -66.68 0.0008165066    1.392    0.282
       212 -10.6878     45.5697     68.6997   9.8189468786e+01   5.8085170998e+01    0.3133755    0.1845882 -12.75   0.00144036    2.451    0.592
       213 -12.0975      6.2295     59.6913   1.1131194097e+02   6.3261329456e+01    0.4376928    0.3938971 -88.42 0.0009425561    1.345    0.256
       214 -11.5536      1.2506     65.6243   1.1451800628e+02   6.2223843617e+01    0.4640147    0.1717411 -75.77  0.001932306    3.032    0.670
       215 -11.3569      1.5004     62.0246   1.1369736145e+02   6.2994660277e+01     0.445094    0.1268616 -63.63  0.001963684    2.494    0.599
       216 -11.9439    245.5093     64.8386   4.8983272011e+01   1.5919039736e+01    0.4640758    0.2373168 -41.80   0.00110538    1.678    0.404
       217  -9.3381     24.6891     67.6558   1.0591777138e+02   6.0311163007e+01    0.1362002   0.07491862 -37.25 0.0007045631    1.703    0.413
       218  -9.7223    235.4915     66.5372   5.0618630882e+01   1.7863957443e+01     0.139511    0.1249643 -51.81 -2.563813e-05    1.015    0.015
       219  -9.5399    105.5781     66.6412   7.6886263284e+01   4.8850250683e+01    0.2829473    0.1353297  40.35 0.0007901481    2.187    0.543
       220  -9.6290     75.1872     66.1665   8.6573657293e+01   5.4555136516e+01    0.1732582    0.1624698 -65.87 0.0002603222    1.261    0.207
       221  -9.2065     63.7225     69.3090   9.1658034228e+01   5.5648167085e+01    0.1274225    0.1083496 -82.36 0.0002657131    1.556    0.357
       222 -11.3388     32.2273     64.6715   1.0219314111e+02   6.0313758897e+01    0.2716524    0.2165299  13.40  0.001722447    1.437    0.304
       223 -10.5038     21.8119     64.0412   1.0613313159e+02   6.1321111456e+01    0.2464233     0.127061 -44.49 0.0007111585    1.584    0.369
       224 -10.1347     14.3500     64.9523   1.0929406191e+02   6.1645668700e+01    0.1753801    0.1657628  30.01  0.001015193    1.342    0.255
       225 -11.0368    193.3085     62.7335   5.5736577237e+01   2.8479574268e+01     0.282504    0.2515649  -6.89 0.0003699496    1.284    0.221
       226 -10.3586    133.6769     63.5071   6.8140577488e+01   4.3168447381e+01    0.3644659    0.2493808  73.90  0.001071066    1.961    0.490
       227  -9.4028    202.9916     63.0000   5.4266703052e+01   2.6044930950e+01    0.2287167   0.08326767  61.06 0.0004785622    2.818    0.645
       228  -9.7223    215.4308     60.9881   5.1902760151e+01   2.3343898611e+01    0.2307034    0.1770539  68.49 0.0008426457    1.348    0.258
       229 -10.1639     71.1672     60.3669   8.6029176599e+01   5.6350698883e+01     0.338341     0.222489  54.74     0.001353    2.135    0.532
       230  -9.9179     16.4292     60.1956   1.0731278871e+02   6.2535452652e+01    0.2050423    0.1287354 -64.91 0.0006208032    1.465    0.317
       231  -9.9036    150.0532     59.8000   6.3098536584e+01   3.9820178096e+01    0.2356108    0.2037995 -78.82 0.0006812802    1.309    0.236
       232 -10.5376     31.3827     58.5698   1.0079228343e+02   6.1686013088e+01    0.2577843    0.1894877 -69.57 0.0003546709    1.584    0.369
       233  -9.9006     59.3710     58.9651   8.9892092417e+01   5.8377847737e+01    0.2705854    0.1765563   4.06  0.001327188    1.985    0.496
       234 -11.0294     23.6465     57.0316   1.0351684963e+02   6.2673000866e+01    0.4238753    0.2263892 -42.10  0.002310577    1.540    0.351
       235  -9.9974    199.9885     58.0561   5.3382011940e+01   2.7544733435e+01    0.2293995    0.1785071  19.46  0.001119075    1.697    0.411
       236  -9.5418    187.3102     57.9381   5.5375770673e+01   3.0728385822e+01    0.2075817    0.1882291 -49.15 0.0005220699    1.078    0.072
       237 -10.3861    167.9923     56.9918   5.8545031678e+01   3.5763874309e+01    0.2453449    0.1781454 -69.73 0.0009595308    1.669    0.401
       238 -10.4959    126.3722     56.9635   6.7785903198e+01   4.6000197938e+01    0.2503543    0.2136299  59.10  0.000412147    1.231    0.187
       239  -9.5714    244.2331     55.0402   4.6824626044e+01   1.7618854908e+01    0.1864501    0.1519725 -43.96 0.0004153492    1.101    0.092
       240 -11.2382    224.1289     54.2014   4.9007226020e+01   2.2293372028e+01    0.4794427    0.2980534 -86.83  0.002208115    1.997    0.499
       241 -10.4555    145.2033     54.2010   6.2352330101e+01   4.1921975147e+01    0.3494314    0.2059687 -26.11  0.001479459    1.858    0.462
       242  -9.8615    118.9547     54.8201   6.8991492696e+01   4.8060307879e+01    0.2310159    0.1904015  10.32 0.0003388627    1.316    0.240
       243  -9.8053    122.0334     52.2416   6.7269264015e+01   4.7780996380e+01    0.2886393    0.1455162  49.13 0.0009991238    1.925    0.481
       244  -9.5494    106.3797     54.3615   7.2359444235e+01   5.0896245678e+01     0.282191    0.1311878 -22.43 0.0009413793    3.251    0.692
       245 -11.3542     93.2313     54.3435   7.6376168419e+01   5.3576033773e+01    0.2683946    0.2211851 -17.28 0.0002886738    1.180    0.153
       246 -10.8220     94.8658     49.5500   7.4086576352e+01   5.4080288925e+01    0.4190225    0.2103844  35.85  0.001546451    2.156    0.536
       247  -9.6300     52.7112     53.9872   9.0748984812e+01   6.0255041263e+01    0.1901292    0.1496927 -38.14  0.000567877    1.117    0.105
       248 -10.5761     30.1701     53.2592   9.9687676378e+01   6.2894868118e+01    0.3170837    0.2011282  11.99  0.001815203    1.826    0.452
       249  -9.8247    219.0605     56.7131   5.0303154777e+01   2.3120008376e+01    0.1905202    0.1747713  84.59  0.000358322    1.105    0.095
       250 -10.4685    200.0837     51.2952   5.1516037012e+01   2.8526318369e+01    0.3446501    0.2335736  -1.70  0.001099689    2.229    0.551
       251  -9.5808     60.8127     51.8420   8.6843307003e+01   5.9555603077e+01    0.1632518    0.1580317 -50.28 0.0004698274    1.284    0.221
       252 -11.0545     42.1178     51.4786   9.4144619756e+01   6.2032137575e+01    0.3284388    0.1507108 -44.28 0.0008637626    1.822    0.451
       253 -10.0238    236.0250     45.9138   4.5565469047e+01   2.0723545147e+01    0.1989391     0.180944 -56.68 0.0004780421    1.072    0.067
       254 -10.7252      6.5119     49.9182   1.0882674661e+02   6.5307741020e+01    0.2866918    0.1927408 -82.41  0.001440746    1.904    0.475
       255 -11.2240      9.7629     48.3627   1.0699961052e+02   6.5441736932e+01    0.2912385    0.2502231 -79.76  0.001850259    1.436    0.304
       256 -11.5634     12.3874     43.9190   1.0455802860e+02   6.6177408777e+01    0.2636391     0.165963 -46.09 0.0005940272    1.208    0.172
       257 -12.1754     14.3524     39.7360   1.0235631989e+02   6.6870362088e+01    0.5228221    0.2665654 -58.37  0.002037572    1.811    0.448
       258 -10.4301     65.8942     49.1390   8.3921033364e+01   5.9296188534e+01    0.3162615     0.184988 -27.47  0.001522613    1.752    0.429
       259 -10.0750     67.7956     44.2468   8.1337182848e+01   5.9865434345e+01    0.2389728    0.2016866 -12.45 0.0005631367    1.050    0.048
       260  -9.7029     31.8294     47.7975   9.7222997844e+01   6.3834297552e+01    0.1440757    0.1408157  -6.95 0.0007937627    1.299    0.230
       261 -10.1481     17.0204     47.0855   1.0344632375e+02   6.5223036003e+01    0.2107635    0.1391359 -47.64 0.0005730786    1.184    0.155
       262 -10.3926    241.0884     46.8521   4.5239923487e+01   1.9458989120e+01    0.2323862    0.1715986 -45.88  0.000462328    1.188    0.158
       263 -10.3705    242.0255     43.5268   4.4359505680e+01   1.9704584493e+01    0.2859645    0.1816849 -74.36  0.001082417    1.712    0.416
       264  -9.7204    114.5522     46.6734   6.7262661293e+01   5.0364798282e+01    0.2420183    0.1418142 -26.19 0.0005545237    1.808    0.447
       265  -9.3656     46.5978     47.4848   9.0899212933e+01   6.2278248936e+01    0.1314806    0.1060739 -27.08 5.147156e-05    1.040    0.039
       266  -9.6396     39.1534     46.8779   9.3785533417e+01   6.3258107923e+01    0.1774631     0.163158 -39.75 0.0004873084    1.233    0.189
       267 -12.0284     61.9407     44.2623   8.3563047672e+01   6.0773384416e+01    0.3162358    0.2238716 -37.98 0.0004305217    1.309    0.236
       268  -9.5610    166.7109     45.0338   5.5106964185e+01   3.7874153296e+01    0.3365626    0.1513889  41.17  0.001192983    2.771    0.639
       269 -10.5167    124.2616     45.0549   6.4149755218e+01   4.8382062371e+01     0.388388      0.20024  52.40  0.001632234    1.866    0.464
       270  -9.9260    102.2463     44.2987   6.9857852488e+01   5.3416904053e+01    0.3447922    0.1871868  14.01   0.00113639    3.858    0.741
       271 -10.8180    234.9835     50.3263   4.6745056138e+01   2.0345793091e+01    0.2664944    0.1805376 -38.20 0.0003132606    1.351    0.260
       272  -9.7291     26.8564     44.1717   9.8168969763e+01   6.5007578344e+01      0.17131    0.1173621 -27.98 0.0004299644    1.290    0.225
       273  -9.2225    143.9588     43.4852   5.9057676373e+01   4.3841709768e+01    0.1927353    0.1285702 -86.74 0.0006769825    2.204    0.546
       274 -10.6174    238.0452     40.8709   4.4146905422e+01   2.0951161158e+01    0.3660108     0.155131 -39.74  0.001610345    2.017    0.504
       275  -9.1741     82.2353     42.6221   7.5551389562e+01   5.7647441648e+01     0.130764    0.1045638 -55.52 0.0005169876    1.621    0.383
       276  -9.2283     53.2207     42.6675   8.6389024417e+01   6.2309007665e+01    0.1168221   0.09636047 -55.16 0.0002591677    1.516    0.340
       277  -9.5120     90.8850     40.8822   7.2019720505e+01   5.6271965249e+01    0.1801005    0.1646608 -48.42 0.0004755403    1.304    0.233
       278 -10.0034     36.6660     41.3042   9.2838430379e+01   6.4584488471e+01    0.2601647    0.1431469  21.03  0.001377398    2.037    0.509
       279 -10.9564     41.6681     36.8716   8.8958878550e+01   6.4819518011e+01    0.3747525    0.2362133 -35.69  0.001335862    1.347    0.258
       280 -10.6301    228.1568     38.7491   4.4690473837e+01   2.3496858964e+01    0.3614675    0.3197785 -47.64  0.001035322    1.109    0.098
       281 -10.7814    127.3670     39.6808   6.1467902849e+01   4.8426678801e+01    0.2774882    0.2549105  79.92 0.0008998606    1.208    0.172
       282  -9.4153    174.5997     50.2135   5.5286329891e+01   3.5113744116e+01    0.2004693    0.1455387 -18.22  0.000944424    1.589    0.371
       283 -11.3813      4.5280     37.6476   1.0629196878e+02   6.7891645698e+01    0.3950515    0.3025074  52.15  0.002662869    1.983    0.496
       284 -10.2071      4.6503     32.4784   1.0461397771e+02   6.8885214061e+01    0.2678761    0.1385988 -38.68  0.001377387    1.494    0.331
       285  -9.6120    250.7739     39.0573   4.2466834627e+01   1.8389857124e+01    0.1784983   0.09408145 -36.46 0.0008811356    1.679    0.404
       286 -10.0682    158.7188     39.2219   5.4732806957e+01   4.0715201040e+01    0.2915987    0.2084024 -58.61  0.001401308    1.591    0.372
       287  -9.7382    222.9600     39.3335   4.5415271285e+01   2.4637056177e+01    0.1904189    0.1657728  88.08 0.0005547501    1.117    0.104
       288 -11.9241    103.6724     38.7645   6.7325046848e+01   5.3949404582e+01    0.2491446    0.2237764  28.64 0.0003163094    1.057    0.054
       289  -9.5786    194.0531     38.5059   4.8842950406e+01   3.1815023928e+01    0.2084478    0.1357856  69.27 0.0004090459    1.502    0.334
       290 -10.0604    186.0514     36.0340   4.9282605399e+01   3.4161861430e+01    0.2481913      0.20324 -37.94 0.0007781211    1.240    0.194
       291  -9.6226    187.3737     32.2054   4.7997904400e+01   3.4316245914e+01    0.3319231    0.1789329 -44.42  0.001482426    1.840    0.456
       292 -11.0885    191.8967     28.3850   4.6309275944e+01   3.3646472914e+01    0.4143853    0.2051978  62.99 0.0007576405    1.881    0.468
       293 -10.7734    175.8314     35.3659   5.0628670184e+01   3.6852669455e+01     0.503828    0.3163164 -54.79  0.002329685    1.744    0.426
       294 -10.9050    134.3832     36.1731   5.8614806484e+01   4.7212122099e+01    0.7361376    0.2428841  60.70  0.002293328    3.147    0.682
       295  -9.5954     85.8854     37.0828   7.2119244571e+01   5.7828915452e+01    0.1827357    0.1446561   2.21            0    1.250    0.200
       296 -10.8595    201.7151     33.9716   4.6578323783e+01   3.0491976693e+01    0.2906788    0.2607056 -37.27 0.0007272494    1.170    0.146
       297  -9.4742    166.2837     34.9575   5.2054276326e+01   3.9347018405e+01      0.23041     0.159014  23.67    0.0006733    1.892    0.471
       298  -9.4526     58.0079     35.1999   8.1460520409e+01   6.2904996548e+01     0.158288    0.1336747  -9.07 0.0009868304    1.015    0.015
       299  -9.9896     54.8798     33.1157   8.1845799491e+01   6.3705425566e+01    0.2054003    0.1796093  16.67 0.0003628539    1.207    0.172
       300 -12.1993    107.8477     29.0124   6.2368238665e+01   5.4368745941e+01     0.418276    0.2629416 -21.91  0.002054192    1.663    0.399
       301 -10.1728    153.3630     32.2480   5.3459469574e+01   4.2983832212e+01    0.2782162     0.226799 -49.46  0.001103136    1.303    0.232
       302 -10.0914     72.1414     29.3154   7.3589736886e+01   6.1509315210e+01    0.2709693    0.1873218  13.59  0.000824673    1.514    0.339
       303 -10.4558     75.4585     33.0113   7.3983991287e+01   6.0377441584e+01    0.2766137    0.1765052 -23.96  0.001309728    1.522    0.343
       304  -9.5367    175.6457     54.6851   5.6438545767e+01   3.4177755700e+01    0.1570286    0.1134725  27.95 0.0007045578    1.739    0.425
       305 -11.6550    221.3213     29.6702   4.3185423711e+01   2.6272084815e+01    0.3008897    0.2255055 -50.67 0.0004000245    1.217    0.178
       306 -11.1346    145.2056     29.3446   5.4023044442e+01   4.5400157987e+01    0.4271685    0.3389015  54.67  0.002292846    1.174    0.148
       307 -11.3855     25.5872     30.8308   9.3868161087e+01   6.7611717716e+01    0.7432812    0.3326458  11.80  0.003414687    3.112    0.679
       308 -10.4099     19.1611     29.0725   9.6274024154e+01   6.8498549430e+01    0.1892008    0.1597324 -25.48 0.0004296652    1.139    0.122
       309  -9.7636    158.9567     29.9411   5.1718397641e+01   4.1847518403e+01    0.2206352    0.1604865 -63.92 0.0003776496    1.575    0.365
       310 -10.1094    138.1212    248.9185   1.0657930469e+02   4.9538940864e+00    0.1846534    0.1416653  57.18 0.0007572885    1.248    0.199
       311 -10.8980    207.8166     27.0636   4.4007726826e+01   2.9850074265e+01    0.3530937    0.2282212  86.39 0.0006032638    1.578    0.366
       312  -9.9793    181.8874     26.9758   4.7257573528e+01   3.6350648549e+01    0.2667898    0.2111772 -16.04  0.001173454    1.466    0.318
       313  -9.5199    134.3593     27.2387   5.5460441172e+01   4.8346703455e+01    0.1926713    0.1264706 -37.52 0.0005125481    1.617    0.382
       314  -9.3396     99.9833     26.9671   6.3700832729e+01   5.6353003444e+01    0.1634949    0.1456575  22.43  0.000315767    1.011    0.011
       315 -10.0128    165.1888     26.0443   4.9458105663e+01   4.0723156751e+01    0.2811421    0.1749713 -78.05  0.001086073    2.077    0.519
       316 -11.4000    128.1915    247.8195   1.0830251452e+02   6.6641606717e+00    0.3177218    0.2394509  63.26        0.001    1.323    0.244
       317 -10.0846     38.6145    248.9663   1.2442609047e+02   1.8784081589e+01    0.1672382    0.1267607  50.62 0.0008457034    1.304    0.233
       318 -10.0804    247.1663     24.7587   3.9573089930e+01   2.0986540942e+01    0.2401922   0.09708856 -61.15 0.0009619973    2.870    0.652
       319 -10.5029    232.0996     23.5802   4.0637948881e+01   2.4503561931e+01    0.2880927     0.200975 -66.72 0.0009330994    1.323    0.244
       320  -9.5274     26.3327    249.6692   1.2648963674e+02   2.0044794850e+01    0.1166484   0.05324608  64.09 0.0007052096    1.724    0.420
       321  -9.6955     61.1664     24.1927   7.5427920628e+01   6.4097006944e+01    0.2055371    0.1493233  -1.83 0.0007218655    1.313    0.238
       322 -10.7722     18.5463     23.5855   9.4373302806e+01   6.9513623145e+01    0.2564531    0.1542515 -42.58 0.0008766099    1.379    0.275
       323  -9.8302    211.9433     23.3326   4.2586619149e+01   2.9292798903e+01     0.186823    0.1608973 -88.61 0.0005634337    1.068    0.064
       324 -10.2070    212.0130     19.3087   4.1553736478e+01   2.9745140777e+01     0.206306    0.1878721 -29.06  0.000725686    1.254    0.203
       325 -11.1456    194.8714     22.6753   4.4356147055e+01   3.3578242712e+01     0.278883    0.2142001  80.39 0.0003612052    1.224    0.183
       326  -9.4468    142.6366     22.8102   5.2280155218e+01   4.6807316038e+01    0.1819311     0.126149 -38.62 0.0001449734    1.538    0.350
       327  -9.6897    124.1402     23.1975   5.6183035508e+01   5.1295472637e+01    0.2256401    0.1614822 -83.04   0.00108571    1.955    0.489
       328 -12.4466    116.9356     22.3069   5.7488516596e+01   5.3100032537e+01    0.2712633    0.2371296  -3.53 0.0005582705    1.171    0.146
       329 -10.5412     26.6860     21.6794   8.9498251217e+01   6.9062903113e+01    0.3346188    0.1782748 -18.76  0.001294208    2.034    0.508
       330 -11.0249    174.1030     20.9467   4.6571364496e+01   3.9029553435e+01    0.3612446    0.2603256 -27.11   0.00190227    1.501    0.334
       331 -10.3363    132.3044     21.8398   5.3954070271e+01   4.9472332190e+01    0.2636694      0.23618  83.70  0.001350001    1.205    0.170
       332 -10.8545    105.1347     20.9429   5.9865289705e+01   5.5949714992e+01    0.2401319    0.2188309 -80.34 0.0003419712    1.381    0.276
       333  -8.9590     10.2902     22.2847   9.8074927419e+01   7.0393146045e+01    0.1174964    0.0657815 -27.48 0.0002466763    1.534    0.348
       334  -9.7517    211.8386     28.1641   4.3838081957e+01   2.8734779284e+01    0.1920837    0.1730836  63.28 0.0003020935    1.198    0.165
       335  -9.4180     35.8774     20.8120   8.4697600832e+01   6.8174413478e+01    0.1502276    0.1311152 -27.26 0.0004756373    1.306    0.234
       336 -10.4615    182.2510     18.7727   4.4837040994e+01   3.7198879610e+01    0.2575898    0.2166939  -4.48 0.0008048343    1.438    0.305
       337 -10.7983    164.3585    246.5134   1.0138082046e+02   1.1945364876e+00    0.2846141    0.2207642 -89.99  0.001760974    2.023    0.506
       338  -9.8448    163.0147     15.0019   4.6345275565e+01   4.2490354164e+01    0.2022352    0.1795742 -89.20  0.001186875    1.096    0.087
       339  -9.8223    109.7691     20.4052   5.8474672735e+01   5.4967062622e+01    0.2000745    0.1110096  45.38 0.0008690262    1.634    0.388
       340  -9.6301     93.8093     19.8672   6.2511847083e+01   5.8529022702e+01    0.1629174    0.1570476 -54.19 0.0002741665    1.296    0.229
       341  -9.5210    139.7056     19.5922   5.1715827174e+01   4.7891073387e+01    0.1936124    0.1295181  74.57 0.0009443535    1.571    0.364
       342 -10.4375     14.6539     18.6606   9.4283435723e+01   7.0676734602e+01    0.2630248     0.140179 -23.22  0.001243909    1.765    0.433
       343  -9.8446    188.5017     17.4759   4.3688730563e+01   3.5762666151e+01    0.1366078    0.1239173  86.25 0.0008100644    1.025    0.025
       344 -10.5202     64.2358     16.0901   7.0506483272e+01   6.4662248452e+01    0.4278254    0.1889054  36.21  0.001304467    2.215    0.548
       345  -9.8162     45.7895     17.0189   7.8415991913e+01   6.7434764202e+01    0.1809911    0.1395344 -53.27   0.00107471    2.042    0.510
       346 -11.6578     20.2881    245.3364   1.2725630052e+02   2.1460927453e+01    0.2238392    0.1719869 -84.63  0.000675631    1.382    0.276
       347  -9.9371    211.0072    245.5097   9.2694625777e+01  -5.8690069842e+00    0.1669112    0.1376933   5.81 0.0004786032    1.141    0.124
       348  -9.3447    243.5186     15.5551   3.7814857686e+01   2.2878823631e+01    0.1258114    0.1060564 -68.08 2.679512e-05    1.033    0.032
       349 -10.9106    147.7822    244.8255   1.0426902742e+02   4.0685387507e+00    0.3218546    0.2001759  83.23  0.001485842    3.471    0.712
       350 -10.8337     26.7550    245.9868   1.2622948650e+02   2.0648698549e+01    0.1513874    0.1060251  69.91 0.0007258792    1.022    0.022
       351  -9.9324    139.0068     14.0422   4.9911258719e+01   4.8637183125e+01    0.2164121    0.1876726  59.95  0.001149629    1.053    0.050
       352 -10.7928    202.0955    244.4758   9.4140289746e+01  -4.3993057874e+00     0.226984    0.1603556 -16.31  0.001117961    1.578    0.366
       353  -9.8013     58.2742    215.7771   1.1846513065e+02   2.2641054272e+01    0.1735766    0.1275641  68.22  0.000559129    1.105    0.095
       354  -9.9283     88.9230     13.5218   6.1184991993e+01   6.0254657547e+01    0.1851391    0.1189183  49.49  1.32002e-05    1.458    0.314
       355  -8.8961     42.0000     12.9697   7.8110348107e+01   6.8517891504e+01    0.1964143   0.06023005 -35.29 0.0008091175    2.989    0.665
       356  -9.4306      1.4932    243.5279   1.3018245775e+02   2.3674914176e+01    0.1020221   0.07087007  71.80 7.948645e-05    1.052    0.049
       357  -9.7373     91.9148    242.2749   1.1448289990e+02   1.3025200434e+01    0.1680245    0.1239875  51.25 0.0005085054    1.100    0.091
       358  -9.5639     55.0816    240.8411   1.2105908596e+02   1.8251076090e+01    0.1696123    0.1098606  70.17 0.0005037455    1.269    0.212
       359 -10.5324    148.3717    239.5293   1.0347719082e+02   4.7986963521e+00    0.1936065    0.1534342 -44.76 0.0005462256    1.543    0.352
       360  -9.2660     44.0157    240.5126   1.2298162967e+02   1.9662987863e+01    0.1482584   0.09021297  45.74 0.0003514516    1.435    0.303
       361 -11.5802     34.1688    239.0179   1.2459109773e+02   2.1080844048e+01    0.2382504    0.1902654  43.57 0.0003250003    1.468    0.319
       362  -9.8718    246.6752    239.3349   8.5512443312e+01  -1.0222861540e+01   0.09631715   0.09020272  35.33  0.000705118    1.714    0.417
       363  -9.7485    109.4685    238.9535   1.1084565979e+02   1.1007010035e+01    0.1583902    0.1178277 -66.32 0.0006391354    1.555    0.357
       364  -9.7940    167.9821    237.6762   9.9483803124e+01   1.9192124774e+00     0.179626    0.1364664  38.59 0.0006107033    1.093    0.085
       365 -10.9859    144.1969    238.0292   1.0408209122e+02   5.7084073064e+00    0.2670781    0.1410967  37.02 0.0008016691    1.631    0.387
       366  -9.6843     76.4486    241.5238   1.1726343577e+02   1.5327886129e+01     0.180213   0.09905268 -87.85 0.0007747402    2.100    0.524
       367 -10.2358    104.1805    237.1708   1.1166159874e+02   1.2117083718e+01    0.1664409    0.1193374  66.35 0.0002986019    1.315    0.239
       368  -9.3628      5.4054    237.4990   1.2931339167e+02   2.4380956982e+01    0.1055133   0.07095322  72.20 -0.0004529256    1.023    0.023
       369 -10.1988    133.0699    234.5580   1.0578868266e+02   8.0672008113e+00    0.1821993    0.1578767  75.31  0.001217984    1.248    0.199
       370 -11.5278     17.7316    234.0258   1.2711322793e+02   2.3785135619e+01    0.3066471    0.1065528  68.07  0.001508242    2.787    0.641
       371  -9.5905     41.4756    233.9833   1.2299800321e+02   2.1169493138e+01     0.150561    0.0937667 -83.80 0.0003445394    1.481    0.325
       372  -9.4030    230.6814    232.7031   8.7170270171e+01  -7.1836397136e+00    0.1230135   0.07645305   9.55 0.0003024109    1.613    0.380
       373  -9.4839    142.4698    232.4389   1.0368405638e+02   6.9007755335e+00      0.18168    0.1444238  43.16 0.0006183905    1.047    0.045
       374  -9.9236    146.2762    231.5838   1.0282584648e+02   6.4199776661e+00    0.1915078    0.1602508  20.71 0.0007482163    1.286    0.222
       375 -10.7779     46.5579    229.8867   1.2180150768e+02   2.1337374578e+01    0.3756206    0.1723147  72.51  0.001333909    2.271    0.560
       376 -10.0710     29.3717    230.5837   1.2491900514e+02   2.3187637936e+01     0.192218    0.1307789  80.73 0.0006138179    1.168    0.144
       377  -9.2058    138.6610    228.2805   1.0387825380e+02   8.2244017680e+00    0.1289115   0.08721437  61.63 0.0002974085    1.623    0.384
       378 -11.1611     15.0126    235.4987   1.2764324317e+02   2.3792045231e+01    0.2169853    0.1168077  41.95 0.0003954864    1.731    0.422
       379  -9.5525    164.5092    225.4852   9.8380649305e+01   4.3877253312e+00    0.1291936     0.109102  33.22 -0.0001022603    1.022    0.022
       380  -9.3542      2.1766    224.5705   1.2928237525e+02   2.7088628861e+01    0.1151299   0.09620049  39.66 0.0004170534    1.612    0.380
       381 -10.4840     89.0383    221.2314   1.1291289242e+02   1.7316622353e+01    0.1876318    0.1694178 -78.52 0.0007147474    1.256    0.204
       382 -10.1300     93.3280    217.6833   1.1166198958e+02   1.7368117381e+01     0.212378    0.1555633 -89.14 0.0007851729    1.411    0.291
       383 -11.4956     89.9975    215.2241   1.1206169319e+02   1.8349177604e+01    0.3213092    0.2248026 -79.72 0.0005421115    1.488    0.328
       384  -9.8113     38.8191    218.4545   1.2240780632e+02   2.4475026247e+01    0.1903478    0.1234904 -62.36 0.0006933105    1.760    0.432
