#   1 NUMBER                 Running object number                                     
#   2 MAG_AUTO               Kron-like elliptical aperture magnitude                    [mag]
#   3 X_IMAGE                Object position along x                                    [pixel]
#   4 Y_IMAGE                Object position along y                                    [pixel]
#   5 X_WORLD                Barycenter position along world x axis                     [deg]
#   6 Y_WORLD                Barycenter position along world y axis                     [deg]
#   7 A_WORLD                Profile RMS along major axis (world units)                 [deg]
#   8 B_WORLD                Profile RMS along minor axis (world units)                 [deg]
#   9 THETA_WORLD            Position angle (CCW/world-x)                               [deg]
#  10 FWHM_WORLD             FWHM assuming a gaussian core                              [deg]
#  11 ELONGATION             A_IMAGE/B_IMAGE                                           
#  12 ELLIPTICITY            1 - B_IMAGE/A_IMAGE                                       
         1 -13.9963      3.6244    135.6956   1.4550188916e+02   4.6609050635e+01     2.136562    0.5478253 -76.80  0.008824567    3.072    0.675
         2 -13.1433    198.5555     26.4504   6.9053585220e+01   3.2518790325e+01     1.401233     1.114162  44.60    0.0062878    1.397    0.284
         3 -13.0408    214.0196      6.6839   6.1967600560e+01   3.0805803948e+01    0.8989413    0.7452413  78.76  0.003346763    1.145    0.127
         4 -10.6106      1.7559     11.9950   1.2211494332e+02   7.2906531829e+01    0.3738163   0.03390073 -50.90   0.00132652    4.688    0.787
         5 -11.5575    101.5771    248.0053   1.3594535554e+02   1.2364128508e+01     0.339435    0.2369778  81.89  0.002341346    1.475    0.322
         6 -11.9336    243.8492    247.3837   1.1155442792e+02  -9.3245879022e+00    0.4306957    0.3192569   8.17  0.003225939    1.156    0.135
         7 -10.8332    217.1484    249.7338   1.1624993037e+02  -5.7083528806e+00    0.3307788     0.106954  43.25  0.001546819    2.595    0.615
         8 -12.5177    174.9525    248.3229   1.2322022692e+02   9.7380279651e-01    0.7643948    0.3409392  34.90  0.003944219    2.028    0.507
         9 -13.2361     10.5266    246.0579   1.5066574449e+02   2.4007270117e+01     1.943134    0.4449142  41.59   0.01031066    3.094    0.677
        10 -14.2462     34.8583    231.5949   1.4608425606e+02   2.3917022111e+01    0.9533547    0.6902552 -68.67  0.007180017    1.675    0.403
        11 -11.5091    185.4230    239.3296   1.2019475470e+02   4.8006753410e-01    0.3899855     0.260873  74.03  0.002036331    2.910    0.656
        12 -10.7328     81.3027    248.9293   1.3947445873e+02   1.5081578308e+01    0.2292544    0.1424698  59.91 0.0009871217    1.227    0.185
        13 -11.0210     17.1732    234.9613   1.4915128304e+02   2.5237393428e+01    0.2257419    0.1348718  73.99 0.0007399268    1.199    0.166
        14  -9.1882     90.6627    235.3056   1.3669436008e+02   1.6043369257e+01    0.1236193   0.06893288  64.99 0.0007040596    1.674    0.403
        15 -11.4520     10.1299    231.1535   1.5010116058e+02   2.6624450561e+01    0.2532767    0.1530533  65.45  0.001922924    1.154    0.134
        16 -10.3818      2.2985    227.9531   1.5121065104e+02   2.7952086423e+01    0.1802019   0.09702518 -85.08  0.001294875    1.535    0.348
        17 -11.4765    105.0145    230.7925   1.3366543100e+02   1.4693274189e+01     0.440362    0.1336928  48.60  0.001893741    2.677    0.626
        18 -10.4045     53.6134    230.3833   1.4281175733e+02   2.1902259337e+01    0.1956646    0.1858715 -71.73  0.001565607    1.620    0.383
        19 -12.3543    124.1301    232.6225   1.3037027745e+02   1.1417194092e+01      0.78266    0.1618893  41.88  0.002737055    3.946    0.747
        20 -10.9005     92.7566    228.2271   1.3564692282e+02   1.6969736282e+01    0.2732566    0.1272091  53.51  0.001453922    1.792    0.442
        21 -12.3229     46.5118    217.1385   1.4311295377e+02   2.5221263401e+01    0.8415784     0.388059  51.16  0.004381373    1.737    0.424
        22  -9.7114     57.3469    211.9280   1.4071770982e+02   2.4876402484e+01    0.1637426    0.1247908  79.10  0.000689037    1.072    0.068
        23  -9.5801     19.9138    211.8848   1.4749970486e+02   2.9189176205e+01    0.2348194    0.1223424  28.66  0.001367195    2.759    0.638
        24 -11.8501     10.1055    206.9986   1.4894881053e+02   3.1098049323e+01    0.5021811    0.3197273  35.84  0.002733094    1.885    0.470
        25 -10.3362     54.6603    206.2395   1.4074525678e+02   2.6328292424e+01    0.2185194    0.1423446  70.94  0.001093511    1.266    0.210
        26 -11.5080     58.5229    201.3792   1.3957372014e+02   2.6805065779e+01     0.243704    0.2046891  88.65 0.0005415939    1.186    0.157
        27 -11.7098     65.1856    192.5986   1.3739681910e+02   2.7721684593e+01    0.2419332    0.2077126  85.92 0.0004720171    1.151    0.131
        28 -12.5628     62.2226    177.7313   1.3642208295e+02   3.1263564646e+01    0.4657429    0.2600946 -49.51  0.001908722    2.308    0.567
        29 -10.3749     76.1720    179.0535   1.3355847788e+02   2.9061143642e+01    0.2251046    0.1842258  82.80 0.0003308147    1.041    0.039
        30  -8.5652     98.3916    175.2968   1.2817230595e+02   2.6475340324e+01    0.1762146     0.119546 -78.19 0.0006369801    1.529    0.346
        31 -11.6217     83.5689    170.0912   1.3074595066e+02   2.9925450831e+01    0.5614713    0.5406961   0.93   0.00362879    1.423    0.297
        32 -10.9037    230.4833    249.4791   1.1402228694e+02  -7.6380752308e+00    0.2742699    0.1093968  34.56  0.001455557    2.032    0.508
        33 -11.4633     85.0044    152.8327   1.2783205646e+02   3.3578772833e+01    0.2777355    0.2410038 -55.69 0.0005431277    1.267    0.211
        34 -11.4313     67.4737    143.3135   1.3064711357e+02   3.8323034648e+01    0.6421774    0.3577381  61.72  0.003037513    2.042    0.510
        35  -9.6345    108.8192    137.9889   1.1926525391e+02   3.2987571289e+01    0.4256175    0.2758746 -25.67  0.001743268    2.657    0.624
        36 -10.1185     95.6981    135.6206   1.2211702117e+02   3.5822376455e+01    0.2460205    0.2261864 -56.26 0.0003907996    1.155    0.134
        37  -9.0661    116.2651    128.7634   1.1543499957e+02   3.3696168603e+01    0.4729521    0.2480396 -26.00  0.001216212    6.259    0.840
        38 -10.9362     26.3515    129.0503   1.3916561882e+02   4.6299030357e+01    0.4565747     0.175774  53.66  0.001999679    3.077    0.675
        39 -10.4078     19.8342    125.7094   1.4045459150e+02   4.7630820874e+01    0.2216787    0.1398308  57.71  0.001273833    1.661    0.398
        40  -8.6535    106.0534    124.4763   1.1711524110e+02   3.6580350662e+01    0.1976879    0.1443907  44.19 0.0003603601    1.422    0.297
        41 -10.2550     96.4108    153.7514   1.2523723666e+02   3.1550371172e+01    0.3229993    0.2909543 -42.92 0.0008870669    1.331    0.249
        42 -12.2313      2.8328     77.8241   1.3891554900e+02   5.9636379634e+01    0.6618082    0.1994808 -71.88  0.002868382    2.713    0.631
        43  -9.5083     99.3670    149.4565   1.2377670805e+02   3.2030121316e+01    0.2387607    0.2168711 -82.79  0.001398664    1.046    0.044
        44  -9.7227    158.0444     76.2701   9.1108962146e+01   3.5427892712e+01    0.2224627    0.2068703  60.87 0.0005867911    1.085    0.078
        45  -9.8993      2.1642     50.1400   1.3383803983e+02   6.5605420145e+01     0.148484    0.1189234 -78.28 0.0007053748    1.317    0.241
        46  -9.6623      2.4989     37.5203   1.3049205617e+02   6.8141463368e+01    0.1141713   0.08437101 -48.51 0.0001176933    1.007    0.007
        47 -12.9666    124.9241    248.7659   1.3197963643e+02   8.7560402164e+00     1.076727    0.4201847  33.52   0.00456313    3.421    0.708
        48 -12.5651    146.7199    248.1892   1.2811660850e+02   5.4553177676e+00    0.6101893    0.2955973  42.74  0.003416828    1.610    0.379
