#   1 NUMBER                 Running object number                                     
#   2 MAG_AUTO               Kron-like elliptical aperture magnitude                    [mag]
#   3 X_IMAGE                Object position along x                                    [pixel]
#   4 Y_IMAGE                Object position along y                                    [pixel]
#   5 X_WORLD                Barycenter position along world x axis                     [deg]
#   6 Y_WORLD                Barycenter position along world y axis                     [deg]
#   7 A_WORLD                Profile RMS along major axis (world units)                 [deg]
#   8 B_WORLD                Profile RMS along minor axis (world units)                 [deg]
#   9 THETA_WORLD            Position angle (CCW/world-x)                               [deg]
#  10 FWHM_WORLD             FWHM assuming a gaussian core                              [deg]
#  11 ELONGATION             A_IMAGE/B_IMAGE                                           
#  12 ELLIPTICITY            1 - B_IMAGE/A_IMAGE                                       
         1 -13.4676    154.6582     61.1049   7.1105489460e+01   3.8222463176e+01     1.407481     1.127354 -22.91 0.0009059557    1.303    0.233
         2 -13.3677    166.7130     46.4986   6.3922062411e+01   3.7406909355e+01     1.347492     1.119022  18.35  0.004109779    1.346    0.257
         3 -14.9782    122.8446     19.2568   6.3111621147e+01   5.2280337380e+01     4.171734     3.093829 -21.12   0.02147939    1.372    0.271
         4 -13.0963    182.5570     15.7396   5.1392611680e+01   3.7070580721e+01     1.005937    0.9809846  58.53  0.004221425    1.053    0.050
         5 -10.2863    150.8130    240.6196   1.0855785800e+02   7.9578881457e+00     0.225325    0.1746075  36.71  0.000878023    1.145    0.127
         6 -19.0667     66.6032    225.4297   1.2180438529e+02   2.2213659473e+01     4.541521     3.587389  61.33   0.02800097    1.119    0.106
         7 -10.7450    242.8454    187.4223   8.4844768992e+01  -3.8094966030e-01    0.2202486    0.1884956 -50.92  0.001123121    1.840    0.457
         8  -9.3547     35.7849    187.4809   1.2475726988e+02   3.2646212094e+01    0.1591507    0.1460991  47.79  0.001256391    1.441    0.306
         9 -12.3033     11.4840    206.9171   1.3031877749e+02   3.1485513161e+01    0.2652866    0.1636106  46.49  0.001437192    1.447    0.309
        10 -11.0108     25.7321    186.0297   1.2661002733e+02   3.3967094762e+01    0.1598744    0.1257415  63.20 0.0002555139    1.156    0.135
        11 -11.3726     29.6510    184.1248   1.2572408020e+02   3.3937637036e+01    0.2709012    0.1633176  47.53 0.0005561044    1.467    0.318
        12  -9.6458    230.8833    182.5173   8.5919487008e+01   2.1968576836e+00    0.1811281    0.1073223  39.61 0.0004518096    1.502    0.334
        13 -11.6189    188.9613    178.3537   9.2622837343e+01   1.0272528816e+01    0.5941262    0.3834093 -53.64   0.00245804    2.129    0.530
        14 -10.1974    185.5751    170.7684   9.1879660297e+01   1.2064094082e+01    0.3177784    0.2350561 -59.72  0.001623483    1.861    0.463
        15 -11.9684    173.3236    219.7267   1.0203067738e+02   7.1464660631e+00    0.3852937    0.2718623 -24.94   0.00246058    1.868    0.465
        16  -9.9503     51.8979    177.1197   1.2067505990e+02   3.2854842544e+01    0.2613528    0.1359236  40.80 0.0003948929    1.802    0.445
        17 -10.1343     46.3554    174.3120   1.2157993406e+02   3.4065221531e+01    0.2456623    0.2032949 -35.48  0.001380639    1.893    0.472
        18 -10.8546     42.2194    178.8394   1.2281822432e+02   3.3628649668e+01    0.4360202    0.2614334 -53.18  0.001586208    2.166    0.538
        19 -11.0479     41.9786    173.9729   1.2246474632e+02   3.4627189152e+01    0.4787079    0.1968746  34.96  0.002465239    2.489    0.598
        20 -10.7307    133.3635    199.7364   1.0673631815e+02   1.6746283889e+01    0.3806497    0.2272033  30.09  0.001643203    1.921    0.479
        21  -9.3222      6.0840    179.8891   1.3003393322e+02   3.6968278434e+01    0.1600985    0.1215454  77.24  0.001267789    1.083    0.077
        22 -10.1835    127.0902    250.2549   1.1355274938e+02   1.0211516452e+01    0.1536659    0.1432084  35.70  0.001295311    1.360    0.265
        23 -10.4259    231.9326    177.5410   8.4818475668e+01   2.6331101810e+00    0.1880008    0.1543452  -4.46 0.0005800035    1.149    0.129
        24  -9.7452    128.5008    178.5015   1.0469763309e+02   2.1257742629e+01    0.1313404    0.1132013  55.95 -0.0001898992    1.015    0.014
        25 -11.3375    181.5870    198.9911   9.7477452194e+01   8.5946739947e+00    0.2924475    0.2188854  78.86  0.001634436    2.180    0.541
        26 -11.7804    138.4710    173.8096   1.0188511586e+02   2.0351004345e+01    0.5644898    0.3813953 -80.39  0.002240743    2.147    0.534
        27 -11.2610    142.4148    172.2528   1.0080737711e+02   1.9917938549e+01    0.4016079    0.2678449  71.01 0.0008913141    1.982    0.496
        28 -10.0679    203.5040    175.0471   8.9323970441e+01   8.0633835611e+00    0.2618683    0.1810429 -51.86  0.001346917    1.989    0.497
        29 -10.5686    195.5401    174.1024   9.0615326280e+01   9.6798775927e+00    0.2789982    0.2550644 -44.89  0.001034899    1.328    0.247
        30 -10.7757    231.7564    172.9518   8.3977435132e+01   3.2418303199e+00      0.17832    0.1497617   0.90 0.0004239765    1.094    0.086
        31  -9.4956    207.7058    172.5032   8.8084006757e+01   7.6474123931e+00    0.2551505    0.1863306 -60.22  0.001348848    2.169    0.539
        32 -10.7081     13.5376    241.4084   1.3135363349e+02   2.5538041388e+01    0.1994226   0.07170523  89.16  0.001213761    2.648    0.622
        33 -10.0846    152.7772    172.2395   9.8663025270e+01   1.8014372473e+01    0.1779119    0.1500076  19.57  0.000525961    1.317    0.241
        34 -11.9487    150.0852    196.5368   1.0304834826e+02   1.4439073722e+01    0.4682869    0.3377749  71.53  0.002696179    1.740    0.425
        35 -10.3076    199.9557    170.1573   8.9054951621e+01   9.4327037493e+00    0.2088885     0.194922  30.79 0.0003454133    1.137    0.121
        36 -10.6420    154.6936    194.6606   1.0188061623e+02   1.3939436664e+01    0.2157904    0.1841546  19.05 0.0007654715    1.293    0.227
        37 -11.2770     47.6539    166.3177   1.2056975096e+02   3.5544980763e+01    0.2845268    0.2251605  26.30 0.0006921225    1.675    0.403
        38  -9.8431     42.5068    166.9991   1.2174527565e+02   3.5986776039e+01    0.2984524    0.1557946 -55.83  0.001649861    2.202    0.546
        39  -9.5878    229.6909    167.3330   8.3237311563e+01   4.3331337947e+00    0.1149332    0.1048566 -75.73 0.0002968997    1.672    0.402
        40  -9.9129    192.0596    166.1695   8.9771706282e+01   1.1535840300e+01    0.2392129    0.1810629 -70.07  0.001236024    2.086    0.521
        41 -10.1444    140.8188    165.1745   9.9943501925e+01   2.1499399751e+01    0.3544839    0.2195908  88.35  0.001411452    3.280    0.695
        42  -9.4259     24.5292    166.6940   1.2554085033e+02   3.7910416372e+01    0.1581865    0.1279168  27.54 0.0006011384    1.658    0.397
        43 -11.1737    120.5914    165.2455   1.0432416588e+02   2.5123498686e+01    0.4018417    0.2389523  63.92   0.00115253    1.990    0.498
        44 -10.9057    159.4434    195.9477   1.0116153089e+02   1.2909845574e+01    0.2507896    0.2262797  77.41 0.0005448042    1.289    0.224
        45 -17.1014     11.9772     88.3976   1.2101313824e+02   5.6019704504e+01     6.235072     1.008888 -64.55   0.02328565    3.533    0.717
        46 -11.0202    189.0881    155.7894   8.8294086148e+01   1.3750552189e+01    0.5133444    0.4065889  32.09  0.002352545    1.171    0.146
        47  -9.3417    120.5965    157.9108   1.0311696643e+02   2.6560879997e+01    0.2257766    0.1744514  37.32 0.0005847284    1.319    0.242
        48 -11.7531    154.1509    186.7359   1.0076896001e+02   1.5313368258e+01    0.4018452    0.3025358 -78.84  0.001550619    1.844    0.458
        49 -11.1925    133.8362    146.9113   9.8150277881e+01   2.6305556817e+01     1.156785    0.3020915 -55.32  0.003009576    6.142    0.837
        50  -8.4227    219.7286    153.2468   8.2113285976e+01   8.1117365725e+00    0.1136731    0.1065741  83.59 0.0001779293    1.442    0.307
        51 -10.1211    143.9048    147.5272   9.6016474729e+01   2.4238488308e+01    0.4320762    0.2314233 -67.40  0.001586062    3.341    0.701
        52  -9.6001    160.1917    238.8212   1.0675005609e+02   6.7534206057e+00    0.1418285    0.1143068  22.18  0.000577098    1.338    0.253
        53 -10.4301    115.9833    136.3979   1.0029030501e+02   3.1789295831e+01    0.3939127    0.2617759 -38.23  0.001319314    1.825    0.452
        54 -11.4751    105.8817    135.7457   1.0262438027e+02   3.3727176576e+01    0.2639326    0.2337246  54.12 0.0004908178    1.101    0.091
        55 -11.1021    134.8235    122.5670   9.2832452087e+01   3.1016922361e+01    0.7416513    0.1981067 -48.85   0.00219066    3.998    0.750
        56  -9.9744    160.3253    128.9082   8.8444135859e+01   2.4422346806e+01    0.3709696     0.271926 -59.51  0.001540844    1.610    0.379
        57  -9.8736    120.4763    128.3140   9.7564355147e+01   3.2652562387e+01    0.2631884    0.2319332 -25.26 0.0007830983    1.347    0.257
        58 -12.4950    147.6198    180.5644   1.0109398930e+02   1.7517642318e+01    0.6875479     0.350106  51.98  0.001995455    1.904    0.475
        59 -10.2839    108.8845    124.0270   9.9557365715e+01   3.5717196950e+01    0.2491409    0.2136665 -51.49 0.0005290859    1.197    0.164
        60  -9.7284     71.7320    119.9630   1.0854903604e+02   4.2612853582e+01    0.1824231    0.1458914  83.59 0.0008382457    1.239    0.193
        61  -9.5838     75.7563    118.4374   1.0718059476e+02   4.2382804756e+01    0.3795386    0.1328213  36.49  0.001449851    3.041    0.671
        62 -11.2248     32.6916    119.2644   1.1903500777e+02   4.7360960210e+01    0.3619166     0.177579  36.71  0.001813403    2.159    0.537
        63  -9.3363    113.9726    118.2030   9.7008217680e+01   3.6032988646e+01     0.212785    0.1832867  76.37 0.0003770005    1.209    0.173
        64  -9.5030     25.9167    118.3102   1.2073774017e+02   4.8196750042e+01    0.1542977    0.1419452  79.24 0.0006750321    1.189    0.159
        65  -9.7007    168.2111    114.1290   8.3218490238e+01   2.5449527606e+01    0.3408407    0.2652971 -80.04  0.001606483    1.740    0.425
        66 -10.3126      4.6214    234.2608   1.3247404874e+02   2.7514513360e+01   0.09139536    0.0566067  59.80 0.0002077671    1.112    0.101
        67 -10.1787    176.0210    228.5599   1.0274637045e+02   5.5718045524e+00    0.1610959    0.1459146  24.06 0.0004863727    1.200    0.167
        68 -10.3931     69.5031    112.5166   1.0780382878e+02   4.4614395101e+01    0.2794516    0.2067208  77.55  0.001072422    1.474    0.321
        69 -10.2553     95.3839    111.7658   1.0048930090e+02   4.0780714035e+01    0.3247522    0.2428186 -37.05 0.0009291476    1.543    0.352
        70 -10.9645     62.0273    109.3907   1.0934061483e+02   4.6330013763e+01    0.4403771    0.3860154   2.71  0.001682832    1.492    0.330
        71  -9.9638     66.0350    105.6862   1.0748359115e+02   4.6646527113e+01    0.2827579    0.2557607 -50.14   0.00100676    1.177    0.150
        72  -8.5017    163.2396    104.2906   8.1792030646e+01   2.8408706848e+01    0.1436728    0.1175848   3.56 0.0001745446    1.464    0.317
        73  -9.2670    219.2611     98.2900   6.9512531046e+01   1.6423904902e+01    0.1805155    0.1615567 -57.72 0.0003652609    1.260    0.207
        74 -10.2390    125.5094     82.5059   8.4793046001e+01   4.1168256608e+01    0.2699062    0.1455106  59.04 0.0007755164    2.275    0.560
        75  -8.9666    159.0743    249.4685   1.0814941286e+02   5.6089475265e+00    0.1708719   0.08117626  40.89  0.001012747    1.547    0.354
        76 -10.2757    164.9008    188.7104   9.8984077938e+01   1.3075705780e+01    0.2094535     0.190585 -61.86 0.0005182096    1.328    0.247
        77 -11.9036    171.4060     38.6198   6.0502023484e+01   3.7279327482e+01    0.4457515    0.3945803  35.23 0.0008243768    1.167    0.143
        78 -11.9724    121.1947     61.1031   7.9196763231e+01   4.6227618301e+01    0.7114085    0.2974927 -33.32  0.002516262    2.587    0.613
        79  -9.1977    146.2058    247.0317   1.1003489733e+02   7.8286108804e+00    0.1390028    0.1168382  47.48 0.0004863874    1.148    0.129
