#   1 NUMBER                 Running object number                                     
#   2 MAG_AUTO               Kron-like elliptical aperture magnitude                    [mag]
#   3 X_IMAGE                Object position along x                                    [pixel]
#   4 Y_IMAGE                Object position along y                                    [pixel]
#   5 X_WORLD                Barycenter position along world x axis                     [deg]
#   6 Y_WORLD                Barycenter position along world y axis                     [deg]
#   7 A_WORLD                Profile RMS along major axis (world units)                 [deg]
#   8 B_WORLD                Profile RMS along minor axis (world units)                 [deg]
#   9 THETA_WORLD            Position angle (CCW/world-x)                               [deg]
#  10 FWHM_WORLD             FWHM assuming a gaussian core                              [deg]
#  11 ELONGATION             A_IMAGE/B_IMAGE                                           
#  12 ELLIPTICITY            1 - B_IMAGE/A_IMAGE                                       
         1 -12.5801     37.7579     50.8931   1.0049441341e+02   6.2022685527e+01    0.7326603    0.4843788 -34.13  0.004308858    1.322    0.243
         2 -11.1897     78.5158     31.5822   7.7598036562e+01   5.9857364366e+01    0.6155404    0.3442152  -5.64  0.002451345    2.703    0.630
         3 -10.9571     21.0904     27.5306   9.9493122394e+01   6.8025489957e+01     1.091011    0.1607235 -42.44  0.003541887    4.779    0.791
         4 -11.3380     18.6794     16.2891   9.6048233711e+01   7.0192810158e+01    0.3935529    0.2610171  42.12  0.002433448    2.378    0.579
         5 -11.8918     60.5228     23.5890   8.0703361461e+01   6.4036194469e+01    0.6320403    0.3938767 -51.43  0.003156108    2.378    0.579
         6 -10.7536     64.2104     14.7398   7.5166777621e+01   6.4687257248e+01    0.6756985    0.2821128  24.62  0.002441688    3.955    0.747
         7 -10.8532     91.7498      6.7314   6.2375748799e+01   6.0422494807e+01    0.4638637    0.2934313  36.43  0.001497035    1.420    0.296
         8 -11.5259     74.0594      7.1552   6.7996074830e+01   6.3864768069e+01     0.307298    0.2059231 -15.95 0.0003145532    1.389    0.280
         9 -12.2546     80.8480      7.0910   6.5771076880e+01   6.2583383976e+01    0.6670185    0.3557036  21.70  0.003141891    2.112    0.526
        10 -11.2906     70.3255     15.0248   7.3066181633e+01   6.3611584709e+01     0.429738    0.1962466 -20.59  0.001544242    2.314    0.568
        11 -11.5651     75.3099     16.0552   7.1807704202e+01   6.2594459470e+01    0.4140868    0.2870809  25.66  0.001724668    1.357    0.263
        12 -11.6610    129.9414     21.0754   5.8911971584e+01   5.0244086311e+01    0.6389678    0.5275707  12.97  0.002575583    1.228    0.186
        13 -12.3057     84.8798     20.3645   7.0596678269e+01   6.0256573522e+01    0.5062979    0.4201188 -40.14  0.001124099    1.441    0.306
        14 -11.4107      4.7714     18.6170   1.0403095381e+02   7.0791599596e+01    0.3633667    0.2708291  24.38  0.002469385    1.737    0.424
        15  -9.8725     35.0032     15.4400   8.7780788318e+01   6.8695224292e+01    0.2967114    0.1696633 -10.45 0.0007365809    1.956    0.489
        16 -10.1955     50.4151     11.3914   7.8991155713e+01   6.7270561058e+01    0.2884325    0.1609188  -6.02 0.0009955184    2.122    0.529
        17 -10.5482     99.9830     12.9221   6.2861016635e+01   5.8038725679e+01    0.3139408    0.1906703 -12.41  0.001084556    1.706    0.414
        18 -10.4527     54.9884     13.0709   7.7945089376e+01   6.6367864300e+01    0.3508727    0.1581796 -29.25   0.00104396    2.008    0.502
        19 -10.1382     58.8600     10.3782   7.5079581846e+01   6.6113560849e+01    0.2258266    0.1620329  24.63 0.0006734449    1.297    0.229
        20 -10.7095     26.5962     13.9251   9.1062377660e+01   6.9840250338e+01    0.1971045    0.1364575 -15.06 0.0003568517    1.226    0.184
        21 -11.6276    116.9832      8.8110   5.6957473576e+01   5.4620091085e+01     0.653636      0.28105 -34.84  0.002690876    2.490    0.598
        22 -10.0644    157.2792     12.1351   5.0583740387e+01   4.4307364729e+01    0.2743647    0.1729803 -77.19  0.001220599    2.093    0.522
        23 -10.1518    138.4124     12.0256   5.3812254703e+01   4.9113582086e+01    0.2531065    0.1911854  83.19 0.0006277577    1.509    0.337
        24 -10.3142    132.9704     11.5553   5.4683378747e+01   5.0509519122e+01    0.2982164    0.1657088   8.27  0.001136802    2.416    0.586
        25 -11.3970     17.3598      3.2139   9.0475724144e+01   7.2372020496e+01    0.3736537    0.2503092 -10.63  0.001736925    1.267    0.211
        26 -11.8953     11.5118      2.8357   9.3453179310e+01   7.2944647010e+01    0.4316135    0.1973553 -31.43  0.001294405    1.742    0.426
        27 -11.5598     23.2917      7.2819   8.9471697346e+01   7.1193342998e+01    0.4115618    0.3208984 -18.90  0.001861401    1.099    0.090
        28 -13.0324     32.0228      2.0835   8.2402244389e+01   7.0952835811e+01    0.2907307    0.1948029  17.93  0.000602109    1.422    0.297
        29 -10.5130     27.4853      3.4327   8.5359121277e+01   7.1300427244e+01    0.1943908    0.1558976   6.63 0.0006957452    1.244    0.196
        30 -10.1047      5.5035     11.4629   1.0076331942e+02   7.1997036627e+01    0.2035742    0.1038502 -35.84 0.0005351764    1.456    0.313
        31  -9.8466      6.4143      8.1463   9.8809378844e+01   7.2490723350e+01    0.1763059    0.1430062 -52.97 0.0004621246    1.573    0.364
        32 -11.2710    235.7047     10.0458   4.0806100522e+01   2.4681957212e+01    0.3160108     0.237694  21.65  0.001357564    1.889    0.471
        33 -10.0273     39.8799     10.6794   8.3218945978e+01   6.8805555670e+01    0.2100449    0.1789665  53.27  0.001381234    1.987    0.497
        34  -9.2232    183.0271     10.0213   4.6257261531e+01   3.7840333750e+01    0.1604041    0.1539123 -85.97 0.0003908536    1.050    0.047
        35 -10.8975    127.2731      8.4742   5.4642324761e+01   5.2196880899e+01    0.2796942    0.2164864 -49.14 0.0001529233    1.538    0.350
        36  -9.3905    107.9962      9.0303   5.9140845968e+01   5.6666844263e+01    0.2206594    0.1399221  23.46 0.0007303949    1.625    0.384
        37  -9.3096     43.4740      7.9923   8.0245878090e+01   6.8699471559e+01     0.155311   0.09596145 -48.37 0.0008093687    2.512    0.602
        38 -10.7396    147.2020      7.4045   5.0594145895e+01   4.7336838715e+01    0.3873005       0.2428 -45.13  0.001877897    1.810    0.448
        39 -10.0211    243.9676      4.4607   3.8819938970e+01   2.3361242120e+01    0.2945556   0.09120615 -54.90  0.001048206    3.548    0.718
        40 -10.1878    228.7643      5.2799   4.0230134935e+01   2.6835176302e+01    0.2234594     0.151817  85.06 0.0008454751    1.395    0.283
        41  -9.0612    132.3156      5.3330   5.2463398979e+01   5.1248670184e+01    0.1501323   0.09074908  33.41 0.0007046753    1.687    0.407
        42  -9.5783     59.6353      5.4535   7.2293741334e+01   6.6578519159e+01    0.2647969    0.1145093  45.76  0.001263738    2.384    0.581
        43 -11.4096    167.8927      2.2977   4.5819172905e+01   4.2480565104e+01    0.2317026    0.2193021 -72.46 0.0002930234    1.099    0.090
        44 -10.1565    126.0231      2.4308   5.2546535883e+01   5.3033757786e+01    0.3082425    0.1968141 -57.67  0.001471457    2.152    0.535
        45 -10.6771    236.4200      2.4787   3.8931822367e+01   2.5312964092e+01     0.268896    0.1166128  74.57  0.001220488    2.205    0.546
        46 -10.4022     31.0518    215.8631   1.2682547800e+02   2.6393928538e+01     0.233071    0.1369595  45.96  0.001572471    1.564    0.361
        47 -10.7514    250.3945    245.6516   9.1020637362e+01  -1.0748380650e+01    0.3394116    0.1365883 -26.77  0.001832533    2.712    0.631
        48  -9.8541     72.6052    250.0855   1.2217023804e+02   1.5341928354e+01    0.1570427    0.1405637  38.99  0.001251382    1.565    0.361
        49 -10.2356      5.7080    235.3861   1.3195659011e+02   2.5445916990e+01    0.2393198    0.1309744  59.46  0.001384353    1.319    0.242
        50 -12.0687     16.7472    238.3953   1.3039714646e+02   2.3838211658e+01    0.9205421    0.2353242  38.62  0.004709993    3.379    0.704
        51 -12.9071     20.4650    248.6842   1.3030422964e+02   2.1719549699e+01    0.9164705    0.3018129  39.65  0.005276602    2.704    0.630
        52 -12.6787      6.1987    244.5945   1.3225285583e+02   2.3835242274e+01    0.6853966    0.3749475  50.05  0.004084627    1.484    0.326
        53  -9.7275    194.5321    215.4724   9.5905736414e+01   1.6012412355e+00     0.128525    0.1063355  27.40 -3.315208e-05    1.010    0.010
        54  -9.6434    170.3096    213.3167   1.0015489219e+02   6.1408874504e+00    0.1276028   0.09409238  12.72 0.0004442384    1.636    0.389
        55 -10.7648     21.3784    212.2499   1.2827566265e+02   2.8091912749e+01    0.3171624    0.1313515  56.27   0.00185978    1.942    0.485
        56 -10.1881    208.9797    212.0778   9.2659775876e+01  -3.9508052722e-01    0.1950995    0.1578066  20.98 0.0004702861    1.041    0.040
        57  -9.1294     76.3404    212.3081   1.1829465542e+02   2.1500418439e+01    0.1028073   0.09556644 -17.24 0.0007043371    1.687    0.407
        58  -9.5009      2.2944    212.3277   1.3149168870e+02   2.9903140410e+01    0.1329959   0.09210376  45.34 0.0004867792    1.549    0.354
        59 -12.2261      4.8847    207.7353   1.3084178439e+02   3.0532792020e+01    0.6312404    0.2204029  85.78  0.003238732    2.689    0.628
        60  -9.9525     10.8740    208.4402   1.2986272589e+02   2.9845274480e+01    0.1619923    0.1184822 -78.49 0.0007555445    1.376    0.273
        61  -9.6890    124.0938    205.9056   1.0817786418e+02   1.5398655790e+01    0.1795792    0.1454719  62.08            0    1.125    0.111
        62 -11.3667     18.8779    202.9304   1.2815572773e+02   3.0135785838e+01    0.3160956    0.2184827 -88.90  0.001198472    1.176    0.150
        63  -9.2197     67.9637    203.7687   1.1906863217e+02   2.4296273784e+01    0.1456983    0.0884626  43.83 0.0003918923    1.546    0.353
        64  -9.4742    223.5856    201.7845   8.8164740712e+01  -1.4669096571e+00    0.1608189    0.1182518 -42.26  0.000708778    1.703    0.413
        65 -10.2913    175.2812    202.6945   9.7466500434e+01   6.9600721157e+00    0.2172179    0.1810612  52.50 0.0005290289    1.231    0.188
        66  -9.9213    174.7092    219.2610   1.0023432059e+02   4.4590586747e+00    0.3362429    0.1312607  35.35  0.001405797    2.502    0.600
        67  -9.4662     34.5566    201.2168   1.2519569689e+02   2.8847008947e+01    0.1390435   0.08955903 -70.41 0.0004440115    1.517    0.341
        68  -9.2619    227.1304    196.8807   8.6613419675e+01  -1.3971636984e+00    0.1847909    0.1321238  10.47 0.0007235239    1.349    0.259
        69  -9.2524     56.6680    197.6682   1.2068891234e+02   2.6975837151e+01    0.1067828   0.09054112 -44.26 0.0004414105    1.725    0.420
        70 -10.2032    215.6640    194.6424   8.8287358888e+01   9.2155058912e-01    0.2256265    0.1519388 -17.05 0.0006423843    1.603    0.376
        71  -9.1305    203.3105    195.6873   9.0801349028e+01   2.9798434576e+00    0.1219179    0.1063145  74.44 0.0005037434    1.629    0.386
        72 -10.1429      2.1213    188.9541   1.3035000728e+02   3.4433592395e+01    0.3036834    0.1108771  76.02   0.00151212    2.669    0.625
        73  -9.5417    211.3956    188.7678   8.7968469941e+01   2.5640195781e+00    0.1869347    0.1199625 -19.79 0.0009447673    1.737    0.424
        74 -11.3396     16.1064    182.7659   1.2736321664e+02   3.4456644357e+01    0.3932747      0.18129  83.59   0.00217121    1.965    0.491
        75  -9.8310    167.4552    183.5107   9.5678808723e+01   1.1712867996e+01    0.1388434    0.1267677  36.15 0.0003824738    1.004    0.004
        76  -9.5998    142.6689    183.6650   1.0092098515e+02   1.6348257062e+01    0.1373939    0.1089961   2.50 0.0003999994    1.731    0.422
        77  -9.5026     58.5272    182.4592   1.1880452590e+02   2.9905146309e+01    0.1232556     0.101184  81.34 0.0002437043    1.021    0.021
        78  -9.7503      2.0269    180.3063   1.2987984282e+02   3.6189569972e+01    0.1505725    0.1091714  74.13  0.000532285    1.104    0.094
        79 -10.3115    244.1731    178.3209   7.9963249181e+01  -1.7458103767e+00    0.2336159    0.1568668 -14.25 0.0009856699    1.435    0.303
        80 -10.9562    224.1540    178.5125   8.3569318263e+01   1.7852886863e+00    0.2510251     0.231879  24.91 0.0004183878    1.195    0.163
        81  -9.6824     70.1748    177.7429   1.1579391953e+02   2.9395150160e+01    0.1525064    0.1451645 -57.42 0.0005009348    1.350    0.259
        82  -9.2782     36.4509    178.4575   1.2298472137e+02   3.3333414967e+01    0.1187939   0.09282545  84.29 0.0001941838    1.014    0.014
        83  -9.7387    250.6695    177.6955   7.8725496127e+01  -2.7667452468e+00    0.1365304    0.0876646   8.15 0.0004710635    1.655    0.396
        84  -9.8541     46.4875    177.1967   1.2078557356e+02   3.2486509703e+01    0.2197342    0.1547786  47.99  0.001395254    1.413    0.292
        85 -10.0441    200.3041    176.3816   8.7665629394e+01   6.6132309872e+00    0.2197689     0.154735   9.53  0.001041623    1.675    0.403
        86 -11.1557     18.1724    173.0226   1.2625161695e+02   3.6309754000e+01     0.365191    0.1514385  65.33  0.001825935    2.461    0.594
        87  -9.4360     75.4208    170.7366   1.1375537952e+02   3.0200649647e+01    0.1779673    0.1096571 -55.55 0.0009346281    1.680    0.405
        88 -10.7274     12.8968    170.0701   1.2709542722e+02   3.7408554895e+01     0.329099    0.1178817 -89.95  0.001473905    2.867    0.651
        89  -9.5882      4.7684    168.2645   1.2859910404e+02   3.8470332987e+01    0.1804184   0.05895245 -67.98 0.0008968019    2.414    0.586
        90 -11.1417     50.6084    165.3001   1.1863221207e+02   3.4613894120e+01     0.405574    0.2143927 -53.79  0.002099853    2.033    0.508
        91 -11.3354     44.3023    162.6927   1.1974669500e+02   3.5918432837e+01    0.3255787    0.1963399 -71.40  0.001407351    1.427    0.299
        92 -10.0002     48.2069    159.5833   1.1851587433e+02   3.6174094683e+01    0.3035022    0.2042585  45.77  0.001778794    1.525    0.344
        93 -11.4375     36.7080    164.9618   1.2165761199e+02   3.6237306467e+01    0.5279267    0.2921182 -62.38  0.002139057    1.677    0.404
        94 -11.8807     36.9908    157.9458   1.2087295922e+02   3.7769645542e+01      0.23051    0.1776558  88.79 0.0003149856    1.052    0.050
        95  -9.3998    210.0616    166.0000   8.3626314341e+01   6.4350347659e+00    0.2278078   0.07665154  45.00 0.0007939044    2.884    0.653
        96  -9.6955     67.1916    165.1662   1.1488204058e+02   3.2564756360e+01    0.1870554    0.1325792  73.99   0.00076591    1.362    0.266
        97  -9.3785    200.4524    162.5757   8.4773013825e+01   8.9246509637e+00    0.1416398    0.1322625  17.52 0.0001961573    1.050    0.048
        98 -11.4040     22.5897    156.4187   1.2392831985e+02   3.9514165337e+01    0.4342308    0.3210678  62.97  0.002962592    1.286    0.222
        99 -10.2732    247.4663    158.4741   7.5242441969e+01   5.2662087419e-01    0.1352304    0.1172309  -6.25 9.035375e-05    1.047    0.045
       100  -9.0910    147.6649    156.3298   9.4705313888e+01   2.0877610683e+01     0.152124    0.1156905  81.90 0.0007052079    1.727    0.421
       101  -9.1864    197.9712    154.3149   8.3469692822e+01   1.0881952459e+01    0.2325122    0.1208202  64.79 0.0007047778    4.312    0.768
       102 -10.4093     12.2422    153.2870   1.2592022841e+02   4.1097763065e+01    0.2244836    0.1876567  20.87  0.001166611    1.696    0.410
       103 -10.3851    178.0686    151.4568   8.6953307036e+01   1.5575882909e+01    0.2705266     0.248917 -64.15 0.0009416858    1.232    0.188
       104  -8.6002     32.6699    149.6962   1.2097282755e+02   4.0069060534e+01    0.1170924   0.08377694 -48.62 0.0002346462    1.653    0.395
       105 -10.1462     17.9452    146.6445   1.2405412583e+02   4.2101545587e+01    0.2549695     0.167234 -26.88 0.0008922372    2.601    0.616
       106 -10.9225     12.5328    146.6893   1.2528653513e+02   4.2534855126e+01    0.2570966    0.1159028  46.92 0.0007926072    2.241    0.554
       107 -10.0703    207.0080    146.0871   7.9827879093e+01   1.0454629016e+01    0.2249624    0.2101453   8.45 0.0006678269    1.027    0.026
       108  -9.6271    220.3167    144.2853   7.6886775986e+01   8.0047308055e+00    0.1476449     0.106718   9.89 0.0006996566    1.586    0.369
       109  -9.6134     30.5605    144.5313   1.2089746006e+02   4.1449082578e+01    0.1238854   0.09716141 -86.20 8.041113e-05    1.020    0.020
       110 -10.3633      2.9475    144.0209   1.2720891607e+02   4.3846737366e+01    0.1775819    0.1092306 -54.46   0.00112939    1.741    0.426
       111 -10.4994     21.0261    135.8537   1.2222854540e+02   4.4286229402e+01    0.2386442    0.1641113 -70.14 0.0008598007    1.193    0.162
       112 -10.6633     19.9259    141.2401   1.2306086070e+02   4.3153017407e+01    0.2924313    0.1365668 -81.15 0.0003927172    1.836    0.455
       113 -10.9504     15.8348    139.8183   1.2388160840e+02   4.3811783541e+01    0.2335423    0.1604482  10.90  0.001456952    2.217    0.549
       114  -9.4087     50.2042    141.2108   1.1570291724e+02   4.0160690608e+01    0.2095252    0.1181946 -36.44 0.0009481295    2.777    0.640
       115  -9.3354    239.6934    140.7224   7.2623735021e+01   4.6999966117e+00    0.1411997    0.1013277   8.18 0.0003189273    1.552    0.356
       116  -9.1093     57.5107    139.4111   1.1360987212e+02   3.9717291038e+01    0.2842325    0.1558632 -74.19  0.001222172    1.729    0.422
       117  -9.8692     55.2626    135.9869   1.1366614063e+02   4.0791992163e+01    0.2111304    0.1686853  70.28  0.000381601    1.253    0.202
       118 -10.3472     54.1959    132.9958   1.1348353037e+02   4.1622086339e+01    0.3350416    0.1919463  38.65  0.001709846    1.906    0.475
       119 -11.3236      9.0926    136.7589   1.2517346835e+02   4.5019317399e+01    0.2090133    0.1434245 -77.95 0.0002362355    1.116    0.104
       120 -10.9524      2.7205    136.8623   1.2666745634e+02   4.5447231844e+01    0.3550999     0.147765 -68.96   0.00125372    1.804    0.446
       121 -10.0098      5.5094    133.0051   1.2567192191e+02   4.6117338471e+01    0.2377483    0.1372398  80.62 0.0008792785    1.582    0.368
       122  -9.2891    138.3190    135.3338   9.2360467729e+01   2.7243880969e+01    0.1542758    0.1219771  -4.95 0.0007048813    1.697    0.411
       123  -9.3448    250.0047    134.2264   6.9427357794e+01   3.7139966928e+00    0.1717256    0.1138369  45.06 0.0008705585    1.634    0.388
       124 -10.2014    106.9887    133.1731   9.9726889299e+01   3.3756558426e+01    0.2622925    0.2417808  46.75   0.00115353    1.136    0.120
       125 -11.5174     37.6666    130.5046   1.1740277486e+02   4.4001410331e+01    0.3258584    0.2420233 -76.31 0.0001348165    1.106    0.096
       126 -11.0365     33.2925    125.9806   1.1792151178e+02   4.5480839110e+01    0.2495755    0.1784573  80.96 0.0009901627    1.378    0.275
       127  -9.3358    227.0421    131.7827   7.2746913539e+01   8.7080747081e+00    0.1830762    0.1183576  47.72 0.0004464244    1.634    0.388
       128  -9.5435    124.2138    130.7729   9.4807432108e+01   3.1082558223e+01    0.2354127    0.1222587  31.56 0.0008720289    2.476    0.596
       129 -10.5209     74.1911    129.3051   1.0758326951e+02   3.9907669117e+01    0.2435469    0.2215672  79.15 0.0008219965    1.102    0.093
       130 -11.5928     10.5762    122.5858   1.2338040679e+02   4.8122068611e+01    0.3868169    0.2179768  72.84  0.002194115    1.879    0.468
       131 -11.2952      2.3258    123.9113   1.2558664058e+02   4.8371587382e+01    0.4847747    0.1224039 -65.92  0.001955384    2.638    0.621
       132  -9.8688     82.0317    125.0676   1.0466014817e+02   3.9764419450e+01    0.2105875    0.1870026 -64.84 0.0004475439    1.035    0.034
       133  -9.9652    225.9932    124.2248   7.1121469448e+01   1.0196303560e+01    0.1905246    0.1213365  48.49 0.0008756543    1.661    0.398
       134 -10.0405    219.9355    124.5047   7.2271939912e+01   1.1451640269e+01    0.2126974    0.1465251  47.57 0.0006544998    1.519    0.342
       135  -9.7102    244.2918    123.6470   6.7892950452e+01   6.4902172166e+00    0.1416294    0.1062076 -56.45 0.0003794326    1.679    0.404
       136 -10.7371     20.8642    121.4860   1.2059266457e+02   4.7603898025e+01    0.2023209    0.1349763 -55.72  0.001245316    1.398    0.285
       137  -9.8082     32.8055    118.9181   1.1705510072e+02   4.7177969613e+01    0.1908614    0.1385834 -59.13 0.0004719349    1.222    0.182
       138 -11.3285     17.3983    115.4626   1.2075319336e+02   4.9262847946e+01    0.2997814    0.2007986 -60.79  0.001400456    1.267    0.211
       139  -9.6775    220.4442    116.9812   7.0327762173e+01   1.2632210358e+01    0.2261802    0.1384436 -35.03 0.0004442255    1.535    0.349
       140 -10.6849     51.0897    116.5118   1.1160714462e+02   4.5877334866e+01    0.3061945    0.1528434 -59.22            0    1.669    0.401
       141  -9.6386    166.0846    115.7139   8.0985048780e+01   2.5323631730e+01    0.2134505      0.20768  37.43 0.0004253705    1.038    0.037
       142  -9.2410    214.1793    115.5958   7.1113159704e+01   1.4267057486e+01    0.2053136    0.1375017  36.93 0.0005655552    1.602    0.376
       143 -10.0565     35.1904    114.2181   1.1568818097e+02   4.8058872130e+01     0.205194    0.1620919 -75.62  0.000661014    1.063    0.059
       144 -12.0557     35.4413    108.3555   1.1467226626e+02   4.9411099403e+01    0.4282449    0.2609349  86.82  0.001675281    1.924    0.480
       145 -12.6538     15.4844    109.2903   1.2047316097e+02   5.0825445337e+01    0.4902963    0.4076118  77.93 0.0007162765    1.246    0.197
       146 -11.6644     23.6554    106.9772   1.1784395795e+02   5.0747167155e+01    0.3482985    0.2320732  62.60 0.0009459142    1.734    0.423
       147 -11.0150     55.0760    110.1453   1.0929632201e+02   4.6924680120e+01    0.2866972    0.2320626 -44.79 0.0006879434    1.254    0.203
       148 -10.0980     86.1820    116.7555   1.0177832584e+02   4.1083365813e+01    0.1946702    0.1591073 -37.78 0.0005828153    1.308    0.235
       149 -10.9307      6.1777    105.8149   1.2261106550e+02   5.2234203788e+01    0.3793772    0.2124804 -61.17  0.001653601    1.402    0.287
       150 -11.1179      2.5057    105.9013   1.2363353162e+02   5.2431092099e+01    0.3634307    0.1187746 -64.06  0.001759877    2.112    0.526
       151 -11.9584      2.7835    100.4503   1.2290186827e+02   5.3649857007e+01     0.244652    0.2068287 -78.21 0.0004406653    1.134    0.118
       152 -11.2856      1.3952     96.1822   1.2276389773e+02   5.4690109069e+01    0.4337713    0.1208786 -70.58 0.0009715899    2.557    0.609
       153 -10.9872     62.8287    106.7815   1.0634753766e+02   4.6768151776e+01    0.2691934    0.2577378  70.69  0.000841777    1.158    0.137
       154  -9.0504     69.6102    106.2910   1.0423951111e+02   4.5986081055e+01    0.1422728    0.1028033  74.88 0.0007009433    1.769    0.435
       155 -10.6795    243.3322    104.5650   6.3462217889e+01   9.7240745507e+00    0.2527166     0.186036   8.36 0.0006010596    1.662    0.398
       156 -10.9828    247.5221    102.1996   6.2252779928e+01   9.2150139173e+00    0.2902436    0.2129399  62.84   0.00150302    1.633    0.388
       157  -9.8758    223.2956    103.9961   6.6561749856e+01   1.4205943641e+01    0.2152316    0.1802846 -30.24 0.0004452691    1.113    0.101
       158 -10.9397    249.0390    112.1713   6.4422114274e+01   7.3376225568e+00    0.2559828    0.1865961 -31.05 0.0007934743    1.219    0.180
       159  -9.3456     93.6245    103.7238   9.6599857384e+01   4.2898524056e+01    0.1469479    0.1137713 -12.02 0.0004774315    1.696    0.410
       160 -10.4167     36.7281    101.7700   1.1315452509e+02   5.0833105321e+01    0.3553397    0.1906936  38.92  0.001454662    2.156    0.536
       161  -9.5226    119.5147    101.4934   8.8740847990e+01   3.8564725487e+01    0.1541872    0.1454818 -24.90 0.0001004179    1.073    0.068
       162  -9.5025     72.7626    100.9568   1.0208813300e+02   4.6794806417e+01    0.1953057    0.1060268 -54.77  0.000850345    1.624    0.384
       163  -9.8199    145.5014    100.0335   8.1596267161e+01   3.3264468868e+01    0.2516143    0.1532914 -41.72  0.001038533    1.608    0.378
       164 -10.6504     95.6060     90.7253   9.2566518889e+01   4.5492270246e+01    0.5049895    0.2914754  14.01  0.001770799    3.472    0.712
       165 -10.9371     92.8592     96.3722   9.4923815631e+01   4.4704964004e+01    0.5083491    0.1936259 -44.15  0.001813127    2.533    0.605
       166  -9.1428     67.3201     93.2925   1.0192256605e+02   4.9324298377e+01    0.2489592   0.09205595 -47.53 0.0006996696    2.407    0.584
       167 -10.8894     62.2998     98.6098   1.0472814445e+02   4.8751846775e+01    0.3126579    0.2733341 -28.60 0.0008159371    1.250    0.200
       168 -10.3154     66.5873     98.2564   1.0333292101e+02   4.8274144659e+01    0.3021298     0.149533 -48.09  0.001343492    1.808    0.447
       169 -10.6891    161.8296     98.4995   7.7279868958e+01   2.9772902952e+01    0.3119426    0.1954587 -15.72  0.001162733    2.326    0.570
       170 -11.5276     20.2117     96.9628   1.1730527722e+02   5.3327000762e+01    0.4048444    0.2224225 -76.37  0.002100949    1.618    0.382
       171  -9.2827     85.4471     98.4897   9.7678099093e+01   4.5449753574e+01    0.1450233    0.1312464 -52.38 4.487518e-06    1.008    0.008
       172 -10.0391     40.8193     97.1293   1.1103794985e+02   5.1523064378e+01    0.2455395    0.1428508 -48.76 0.0008129712    1.529    0.346
       173 -10.2060     13.9722     96.7381   1.1914052012e+02   5.3813962862e+01    0.1664982    0.1359656 -66.85 0.0007042415    1.071    0.066
       174  -9.8027    249.9421     95.5125   6.0276274134e+01   9.7486793881e+00    0.1890754    0.1423725  54.98 0.0003691491    1.495    0.331
       175 -10.0490     31.4992     93.0330   1.1315062223e+02   5.3334983398e+01    0.3360797    0.1036264 -64.28  0.001335046    2.619    0.618
       176 -11.4058    103.9300     91.9314   9.0455914606e+01   4.3711166096e+01    0.2881878     0.224176 -42.85 0.0002959564    1.208    0.172
       177 -10.8021     25.6723     91.3903   1.1467607482e+02   5.4194850974e+01    0.2425995    0.2010961 -49.42 0.0009795481    1.168    0.143
       178 -11.6646     10.3470     90.9294   1.1935986264e+02   5.5369734456e+01    0.2300466    0.2148985 -87.41  0.001735737    1.238    0.192
       179 -10.6668      4.4711     86.4721   1.2050291283e+02   5.6714179764e+01    0.3348927    0.2108446 -70.13  0.002127721    1.203    0.168
       180 -11.9043     13.7248     77.0973   1.1593672911e+02   5.8282730450e+01    0.5374961    0.2047867 -45.01  0.002573556    2.328    0.570
       181 -12.0915      5.5449     75.7961   1.1845145786e+02   5.9043867406e+01    0.7179196    0.3524548 -47.13  0.003230637    1.727    0.421
       182 -10.9184     14.8411     83.3290   1.1669696758e+02   5.6810478545e+01    0.4339967    0.1680938 -48.16  0.002104957    2.175    0.540
       183 -10.8470     21.0066     81.2594   1.1429130312e+02   5.6857233818e+01    0.3196326    0.1953952 -18.08   0.00151965    2.202    0.546
       184 -12.0261     21.2298     77.0601   1.1338454902e+02   5.7786660651e+01    0.3170752    0.2223796 -47.16 0.0002410606    1.231    0.187
       185 -11.0243    158.0368     90.2353   7.5778978072e+01   3.2301437197e+01    0.3043703    0.2278671 -35.45  0.001393253    1.319    0.242
       186  -9.2728     21.2655     91.3561   1.1605014293e+02   5.4538499429e+01     0.129749   0.07128298 -47.82 0.0003324241    1.630    0.386
       187 -12.3604     44.6236     75.2272   1.0488752844e+02   5.6141459912e+01      0.25987    0.2440575  84.02 0.0003586841    1.269    0.212
       188 -11.0853     37.5622     70.0561   1.0605644232e+02   5.7987929046e+01     0.516426     0.362201  87.23  0.002695444    2.089    0.521
       189 -11.1923     46.1952     84.6157   1.0664256440e+02   5.3861880784e+01    0.8950894     0.546423  63.41  0.004252218    2.565    0.610
       190  -9.6938     39.5236     79.5111   1.0768570971e+02   5.5695165108e+01    0.2372171    0.1194349 -44.58  0.001091113    1.762    0.433
       191 -10.2592     28.0157     68.0038   1.0898541411e+02   5.9278038754e+01     0.354882    0.1308367 -53.89            0    1.998    0.500
       192 -10.8141     31.0219     65.6107   1.0729267453e+02   5.9549289670e+01    0.3888643     0.171461 -60.71   0.00135566    1.951    0.487
       193  -9.2107    139.2784     87.6808   7.9565648303e+01   3.7209279653e+01    0.1555333    0.1242777 -73.26 0.0006985956    1.578    0.366
       194 -10.5590     23.0475     86.7065   1.1465400133e+02   5.5469960839e+01    0.2591637    0.1492627 -51.56 0.0009887686    1.430    0.301
       195 -10.7896     66.9640     85.1001   9.9955972608e+01   5.1239328448e+01    0.3445664    0.2059976 -33.71  0.001115946    1.856    0.461
       196 -10.7581    167.4439     84.3161   7.1920788935e+01   3.1139565992e+01    0.3833903    0.2910199  86.09  0.001684692    1.756    0.430
       197 -10.3654     88.0361     83.3334   9.2763119938e+01   4.8423466671e+01     0.252391    0.1912967 -52.70 0.0003583633    1.265    0.209
       198 -10.4858     29.9336     82.4818   1.1156880535e+02   5.5886356111e+01    0.3800856    0.1259818 -57.81  0.001644199    2.212    0.548
       199 -10.4140    117.9354     82.9259   8.3800084258e+01   4.2856662114e+01    0.2819464    0.2135149 -37.78   0.00135583    1.269    0.212
       200  -9.0143    130.3324     82.3251   8.0250174517e+01   4.0303858477e+01    0.1617139    0.1224172   4.57 0.0007050947    1.709    0.415
       201 -10.3876     71.1523     79.4267   9.7038984889e+01   5.1916616343e+01    0.1780879    0.1313998  50.11 0.0003826952    1.641    0.391
       202  -9.6090    150.6980     77.4264   7.3635792903e+01   3.6514808550e+01    0.2724145    0.1944097 -11.57 0.0007714008    1.755    0.430
       203 -10.0417     92.6872     77.6043   8.9604000715e+01   4.8852059556e+01    0.2291127    0.1714339 -10.31 0.0009046117    1.644    0.392
       204 -11.8422     58.6172     75.0854   1.0002232427e+02   5.4562097013e+01    0.4998956    0.3612673  68.52   0.00161161    2.087    0.521
       205 -11.1879     61.9771     72.2005   9.8048596658e+01   5.4758383242e+01    0.4191484    0.1722933 -45.48 0.0009120555    2.099    0.524
       206  -9.8261    122.0798     76.2955   8.0579993262e+01   4.3316952948e+01     0.215383    0.1958959  46.60 0.0009950984    1.154    0.133
       207  -9.9018     75.0128     76.2831   9.4859878634e+01   5.2033526199e+01    0.1921623    0.1830765   0.11   0.00115548    1.130    0.115
       208  -9.6333     32.9137     75.8727   1.0910824981e+02   5.7121786724e+01    0.1874583    0.1393726 -42.79            0    1.203    0.169
       209  -9.8865    139.0289     74.7978   7.5651017329e+01   3.9784570957e+01    0.2157345    0.2057847  35.25 0.0004465457    1.061    0.057
       210  -9.7689    145.4938     73.9421   7.3787274104e+01   3.8414570865e+01    0.2464799    0.1530178 -34.71  0.001033713    1.597    0.374
       211 -11.3988    102.6370     72.9145   8.5081928561e+01   4.7981217066e+01    0.2992663    0.2557687  -0.21 0.0003938456    1.257    0.204
       212 -10.5592    103.0787     68.1416   8.3383741075e+01   4.8847497663e+01    0.3208008    0.2492824 -35.58  0.001499692    1.210    0.174
       213 -10.1399    150.4918     72.4125   7.2114174363e+01   3.7488736337e+01    0.1535702    0.1518484  12.15 7.238374e-05    1.024    0.023
       214 -10.6379    128.9148     71.7712   7.7281569498e+01   4.2683383912e+01    0.2581005    0.2126131 -42.05 0.0002748198    1.207    0.171
       215  -9.4532     83.9544     72.3263   9.0731735235e+01   5.1459560631e+01     0.185249    0.1734657  -1.30 0.0002632604    1.104    0.094
       216 -11.1427     77.2693     71.2185   9.2576741709e+01   5.2768070088e+01    0.5045505     0.352787  60.80  0.001455914    2.069    0.517
       217 -10.8898     77.2496     64.0342   9.0276541943e+01   5.4254780560e+01    0.3957748     0.264925 -40.37   0.00143179    1.337    0.252
       218  -9.6399    161.0096     69.7248   6.8889163212e+01   3.5371656639e+01    0.2110068    0.2005669  37.73 0.0002731329    1.054    0.051
       219 -12.3101     94.2568     68.3852   8.6175780682e+01   5.0469868328e+01    0.4169732    0.2517617 -37.61 0.0004557808    1.558    0.358
       220 -11.1686     50.8323     67.8477   1.0070110084e+02   5.7075016856e+01     0.454657    0.2273959 -36.95  0.001509758    2.007    0.502
       221 -10.3857     51.1783     63.1181   9.9184054830e+01   5.8042354062e+01    0.3821858    0.1968026 -39.48  0.001794977    1.760    0.432
       222 -10.4702    140.1673     69.1203   7.3542118271e+01   4.0570059836e+01     0.234038      0.20545   9.37 0.0002940814    1.210    0.173
       223 -10.2555     68.7284     67.4517   9.4288237331e+01   5.4839781079e+01    0.3711396    0.1600387 -43.79  0.001299764    2.042    0.510
       224 -11.6534     16.5240     67.8956   1.1311225698e+02   6.0143605860e+01    0.2387021    0.1949934 -54.99 6.020486e-05    1.062    0.059
       225 -11.7097     21.4112     65.6011   1.1082147979e+02   6.0309491355e+01    0.8566954    0.4918122  85.73  0.003923935    3.183    0.686
       226  -9.7132    146.2378     68.2405   7.1785145087e+01   3.9273402946e+01    0.2489128    0.1947665  -8.85  0.001156989    1.462    0.316
       227  -9.6882    123.1586     68.1914   7.7646698716e+01   4.4645501181e+01    0.2027641    0.1751008 -57.13 0.0005460639    1.292    0.226
       228 -12.4975      4.2644     65.0685   1.1694289753e+02   6.1467460878e+01    0.3615772    0.2658763  80.84 0.0005822139    1.653    0.395
       229  -9.9026    128.9596     66.9694   7.5690229696e+01   4.3571075813e+01    0.1859081    0.1771139  22.99 0.0003518927    1.049    0.046
       230 -11.4741     56.1864     65.8873   9.8210097959e+01   5.6851937314e+01    0.6132202    0.2080489 -37.22  0.002027897    3.810    0.738
       231 -11.6498     63.7427     60.2051   9.3713972166e+01   5.7039512466e+01    0.4110988    0.2332397  28.86  0.001326685    2.018    0.504
       232 -11.1559     57.4516     59.1556   9.5648427478e+01   5.8094044472e+01    0.3428451    0.3076921  28.33  0.001113479    1.296    0.229
       233 -10.0429    116.6417     71.2651   8.0465307397e+01   4.5469074895e+01    0.2761216    0.2068324  44.67 0.0006696006    1.384    0.278
       234  -9.5205    120.3181     64.9971   7.7352139715e+01   4.5866509786e+01    0.2147191    0.1882706 -26.66 0.0003840917    1.098    0.089
       235 -10.0376    106.0139     64.4599   8.1263668784e+01   4.8977561629e+01    0.2304442    0.1875732 -34.38 0.0003530389    1.163    0.140
       236 -10.2484     99.4952     65.0482   8.3433353134e+01   5.0146504764e+01    0.2328023    0.1366884 -37.42  0.001030785    1.611    0.379
       237  -9.2366    216.5110     64.5063   5.7223261800e+01   2.2229796403e+01    0.1512637     0.136575 -56.55 -8.733885e-06    1.082    0.076
       238  -9.4694     41.4960     64.0772   1.0301997385e+02   5.8898615408e+01    0.1842116    0.1081928 -54.12 0.0003861131    1.428    0.300
       239 -11.4503     87.0769     52.2242   8.2852790812e+01   5.4868060349e+01    0.3332867    0.2544207 -51.39 0.0003840223    1.488    0.328
       240 -10.8611     11.0596     62.5861   1.1395537731e+02   6.1638955690e+01    0.2036125    0.1609258 -56.88 0.0003050335    1.051    0.048
       241 -10.0258    201.0993     61.9843   5.8938836681e+01   2.6460024353e+01    0.2181696    0.2128597 -43.63 0.0003150407    1.019    0.019
       242  -9.2713    140.6419     61.8880   7.1043574118e+01   4.1741060616e+01    0.2147027    0.1365077 -44.53  0.000336646    1.638    0.390
       243 -10.9352     45.2316     50.1684   9.7308278932e+01   6.1377058019e+01    0.4693482    0.2013123 -44.62  0.002184998    1.904    0.475
       244 -10.0617     47.4400     58.1991   9.9060393036e+01   5.9499504763e+01    0.2933102    0.1989075 -69.86  0.001290601    1.940    0.484
       245 -10.0124     43.9795     56.9985   9.9996909459e+01   6.0129183930e+01     0.235391    0.1560686 -39.41 0.0003594541    1.268    0.212
       246 -10.6264     31.0143     52.5043   1.0367020062e+02   6.2327159262e+01    0.3446846    0.2222244  11.80  0.002023785    1.868    0.465
       247 -11.3410     29.4777     60.8921   1.0663648930e+02   6.0697443304e+01    0.5903131    0.2627491  10.90  0.002623608    3.438    0.709
       248 -12.3164    226.3880    246.2461   9.5103469808e+01  -7.3620307783e+00    0.6230749    0.3881053  32.73  0.004083368    1.247    0.198
       249 -11.0057      5.4329     58.2803   1.1512995152e+02   6.2872786045e+01    0.3370073    0.1751235 -68.49   0.00169762    1.622    0.383
       250 -11.2671      5.4941     51.9558   1.1368921076e+02   6.4210266058e+01    0.3514761    0.2064247 -52.67  0.001005208    1.237    0.191
       251 -10.7078    146.9198     57.0854   6.7957282759e+01   4.1022016369e+01    0.2832273    0.2226334 -32.35  0.001377297    1.268    0.211
       252 -10.0099    129.5517     56.0323   7.1812971356e+01   4.5367744520e+01     0.270308    0.2122085 -27.24  0.000460238    1.261    0.207
       253 -10.0197    123.0276     56.2734   7.3605693952e+01   4.6822396956e+01    0.2616942    0.2014603 -54.70 0.0004914188    1.526    0.345
       254 -12.9520    128.5956     50.5934   7.0143692939e+01   4.6490228075e+01    0.4860185    0.3875875   7.69 0.0004903396    1.380    0.275
       255 -11.6697     75.3944     56.0448   8.8183729503e+01   5.6129900089e+01    0.2383969    0.2109808 -21.89 0.0002101633    1.018    0.018
       256 -10.2080     61.3061     54.2051   9.2576820925e+01   5.8575912463e+01    0.2517473    0.1983199 -10.25  0.000929057    1.303    0.232
       257 -10.8148     12.5319     51.6449   1.1081264854e+02   6.3881211662e+01    0.2698681    0.1830322 -69.57  0.001647321    1.456    0.313
       258 -10.7701     70.0623     50.5565   8.8095978037e+01   5.8008143872e+01     0.394588      0.31695  64.42  0.001999984    1.862    0.463
       259  -9.2922    186.6760     50.2752   5.7906691094e+01   3.1922462390e+01    0.1536241    0.1140166 -69.97 0.0002594999    1.581    0.368
       260 -11.4807    103.3336     48.2663   7.6267344218e+01   5.2433307718e+01    0.4478409    0.4201778 -30.63  0.002583234    1.139    0.122
       261 -10.7156     83.9603     61.6028   8.7212202018e+01   5.3635950805e+01    0.4255588    0.2714791  43.31  0.002077295    1.742    0.426
       262 -10.2849     76.6897     50.3228   8.5668367030e+01   5.7000636035e+01    0.2101798     0.140115  39.37 0.0008526164    1.637    0.389
       263 -10.4472     78.4756     47.4711   8.3982031489e+01   5.7222299621e+01    0.2628426     0.124713 -38.77 2.865086e-05    1.929    0.482
       264 -10.0658    220.7164     48.9833   5.2428999610e+01   2.3473348505e+01    0.2002185     0.174532 -42.50            0    1.087    0.080
       265  -9.7135    166.5920     49.0522   6.1159083350e+01   3.7302079442e+01    0.2330146    0.1924352  57.70 0.0001745033    1.194    0.162
       266 -11.7030    152.1867     47.8457   6.3687003078e+01   4.1162025395e+01    0.7661481    0.3322901  48.76  0.002100775    2.223    0.550
       267 -10.2931    120.1481     47.3595   7.1176254284e+01   4.8952579268e+01    0.2271622    0.1920058  -9.82 0.0004633002    1.178    0.151
       268 -10.6383     86.3758     57.3488   8.4933616156e+01   5.4039658549e+01    0.4024419    0.2570763 -25.04   0.00166426    1.657    0.396
       269  -9.1826     62.2774     47.3771   8.9779113788e+01   5.9752875882e+01    0.1416688   0.09082486 -19.58 0.0007006008    1.703    0.413
       270 -11.1555     11.6291     44.2034   1.0919574436e+02   6.5470983953e+01    0.4891441     0.176623 -41.92  0.001857102    2.207    0.547
       271 -10.1160      4.5508     47.1307   1.1290823001e+02   6.5263459324e+01    0.3239683    0.1260112 -40.13  0.001669151    2.165    0.538
       272 -10.3145      7.0137     41.2425   1.1033314102e+02   6.6337242851e+01    0.2834671    0.1086171 -53.17 0.0009668791    1.796    0.443
       273 -10.1005    142.9131     45.9907   6.5086898012e+01   4.3758883993e+01     0.225403    0.2204005   9.15 0.0005226576    1.030    0.030
       274 -10.2269     86.2494     45.6435   8.0651434137e+01   5.6183876109e+01    0.1942076    0.1604775 -28.07 0.0006578207    1.120    0.107
       275  -9.0543     54.3359     46.2483   9.2385038677e+01   6.1041376003e+01    0.1292469   0.08963501 -12.87 0.0002801649    1.558    0.358
       276 -10.8918    103.5126     57.5152   7.9591997583e+01   5.0775389496e+01    0.5247277    0.2239861 -31.04  0.001894282    2.604    0.616
       277  -8.8628    233.3147     45.3625   4.9892925132e+01   2.0926138543e+01    0.1417962     0.107785  21.46 0.0007041367    1.760    0.432
       278  -9.6283     51.2304     44.9807   9.3133476153e+01   6.1675337519e+01    0.1815241    0.1412883 -31.94 0.0003072672    1.064    0.061
       279 -10.6511     95.4673     48.3381   7.8704435948e+01   5.3989865040e+01    0.3733717    0.2266671 -22.27  0.001243682    1.787    0.440
       280  -9.7679    110.7886     41.7922   7.1654548890e+01   5.1903478375e+01    0.1857525    0.1724187 -78.05 0.0004379281    1.351    0.260
       281 -11.0336     96.9345     40.9557   7.5407205982e+01   5.4924979215e+01    0.3937888    0.2611392  25.35   0.00128209    1.646    0.392
       282 -10.8270    101.7858     36.8615   7.2325603631e+01   5.4569681453e+01    0.3011745    0.2102184  32.49 0.0007376103    1.428    0.300
       283 -10.3625    104.9789     34.0005   7.0258302766e+01   5.4316960924e+01    0.2551934    0.2148285 -65.20 0.0003305791    1.611    0.379
       284 -11.0329     89.2340     38.8307   7.6997535469e+01   5.6761398816e+01    0.4581038     0.225057 -44.23 0.0009998098    2.257    0.557
       285 -12.1047     81.6564     36.6815   7.8641288192e+01   5.8501021281e+01    0.4817492    0.4295814 -31.50  0.001533513    1.210    0.173
       286 -12.0388     74.4648    238.4829   1.2096101198e+02   1.7025725390e+01    0.4658906    0.3150645 -88.55  0.003182885    1.449    0.310
       287 -10.6819     69.8536     37.4607   8.3122587257e+01   6.0374266576e+01    0.2769227    0.1857463 -17.49 0.0007805213    1.495    0.331
       288 -10.9505     34.3408     34.0942   9.6043875570e+01   6.5610800505e+01    0.4676954     0.205701  33.73  0.002328848    2.672    0.626
       289 -10.8702     23.2449     41.1908   1.0334723895e+02   6.5260473660e+01    0.2842847    0.2048264  30.55 0.0008246307    1.744    0.427
       290 -11.0969     19.9629     38.0206   1.0373088939e+02   6.6136336629e+01    0.3039652     0.176764 -35.26  0.001539078    1.435    0.303
       291 -11.9528     27.6753     38.2681   1.0045831350e+02   6.5457804002e+01    0.3064256    0.2609301 -61.08  0.001430316    1.415    0.293
       292 -12.4607     24.1498     35.1885   1.0091994733e+02   6.6348314912e+01    0.3452148    0.2224383   2.26 0.0003251026    1.772    0.436
       293  -9.6965    172.7514     41.5646   5.7622774510e+01   3.6781100412e+01    0.1941534    0.1444486  78.09 0.0002595342    1.468    0.319
       294  -9.2656    115.4911     48.5030   7.2860379660e+01   4.9807365027e+01     0.149957    0.1357508   5.43 0.0008100566    1.053    0.050
       295 -10.5796     51.8961     40.6637   9.1258665828e+01   6.2395657647e+01    0.2607991    0.2167938 -84.50  0.001382688    2.031    0.508
       296  -9.4552    226.4489     40.4498   4.9440182502e+01   2.3237122626e+01    0.1410573    0.1281328 -60.69 0.0001204554    1.014    0.013
       297  -9.4461    215.5275     40.5130   5.0818812350e+01   2.5919718674e+01    0.1436403    0.1331472 -64.34  9.65457e-05    1.012    0.012
       298 -10.4758     66.5180     40.9787   8.5758563546e+01   6.0290643776e+01    0.2872152    0.1902145   1.48  0.001454056    1.838    0.456
       299 -10.7626    100.0269     55.5453   7.9945607187e+01   5.1826576573e+01    0.3797465    0.2314027  46.19  0.001364244    1.742    0.426
       300 -10.0855     43.1169     37.7590   9.3716129581e+01   6.3991549251e+01    0.3174006     0.218377 -73.30  0.001549101    2.893    0.654
       301  -9.9247     61.8844     37.8260   8.6249147102e+01   6.1532001666e+01    0.1907177    0.1493993 -15.27 0.0002972239    1.142    0.124
       302  -9.4172    199.6649     37.7040   5.2180313824e+01   3.0315058776e+01    0.1496542    0.1086109  33.17 0.0007029324    1.647    0.393
       303 -11.6588     98.0399     31.6854   7.1351838040e+01   5.6101646456e+01    0.6803325    0.3859302  -5.04  0.002242083    2.486    0.598
       304 -11.0987    101.0815     28.6427   6.9207258146e+01   5.5892395216e+01    0.2555091    0.2460521 -15.79 0.0004152129    1.182    0.154
       305  -9.8183      2.7886     36.9727   1.1098181079e+02   6.7412778681e+01    0.2153042    0.1209173 -17.56  0.001315176    1.976    0.494
       306 -10.2821    166.9261     36.5418   5.7046417572e+01   3.8975995606e+01    0.3489356    0.1195025  55.08  0.001196242    2.610    0.617
       307 -10.0939    155.3272     36.0711   5.9059576849e+01   4.2033240028e+01     0.271407    0.1890253  34.71 0.0008181561    1.538    0.350
       308  -9.9916    129.6268     32.4977   6.3284180357e+01   4.8912023420e+01    0.2478527    0.1435557 -21.26 0.0005401265    1.839    0.456
       309 -10.3399    127.3699     36.2446   6.5219512509e+01   4.8941092629e+01    0.3001535    0.1635758 -42.32 0.0009354133    2.017    0.504
       310  -9.4636     60.2737     33.4157   8.5065437108e+01   6.2517484104e+01    0.1525195    0.1234571  39.38 0.0002681737    1.494    0.331
       311  -9.7936     57.3441     34.7278   8.6751383480e+01   6.2715999430e+01     0.184405    0.1050047 -31.56 0.0009410972    1.563    0.360
       312 -10.2492     56.0224     31.0386   8.5738902588e+01   6.3522340522e+01    0.2463798    0.1565968 -28.68 0.0009725371    1.373    0.272
       313 -10.3712    109.5540    242.9993   1.1525749454e+02   1.1308431691e+01    0.2506778    0.1549863  69.67 0.0009847978    1.720    0.419
       314  -9.2082     24.7951     26.8378   9.7502889387e+01   6.7833135578e+01    0.3939843    0.1308876 -50.56  0.001348215    2.638    0.621
       315 -10.9536     10.3444     34.5704   1.0689098905e+02   6.7467371332e+01    0.3959878    0.2124059  12.16  0.002362045    2.247    0.555
       316 -11.2367      7.0214     30.0242   1.0695374492e+02   6.8543173646e+01    0.3764052    0.1821058 -39.13  0.000990858    1.598    0.374
       317 -10.6770     10.2802     25.3576   1.0380500973e+02   6.9220568847e+01    0.2916077    0.2054895 -26.49  0.001113165    1.212    0.175
       318 -10.6840     17.4221     31.0043   1.0247115681e+02   6.7670033206e+01    0.3561342     0.195433  37.28  0.002028162    2.525    0.604
       319  -9.9689     14.5424     28.0290   1.0274356567e+02   6.8435415621e+01    0.3455814    0.1514977 -18.46  0.001564085    3.279    0.695
       320 -11.3051     20.9635     18.7586   9.5992829413e+01   6.9579193298e+01    0.3584765    0.2119344  21.65  0.001731429    1.889    0.471
       321  -9.3607     63.1809    243.6283   1.2325725604e+02   1.7624426952e+01    0.1379923   0.08925622  38.64 0.0003908635    1.668    0.400
       322  -9.9210    206.1365     33.8455   5.0199423658e+01   2.9159935730e+01    0.1866928    0.1651632  30.81 -0.0006383859    1.287    0.223
       323  -9.6586    150.7344     34.4120   5.9399554611e+01   4.3425459579e+01    0.2117532    0.1288784  49.01 0.0007171583    1.561    0.359
       324  -9.7571    110.3741     33.8834   6.8701183495e+01   5.3164214032e+01    0.3323988    0.1322514 -32.74  0.001271889    2.445    0.591
       325 -10.1131    111.9935     24.9874   6.4721598200e+01   5.3988497869e+01    0.2131369    0.1886268  12.14 0.0004119831    1.042    0.040
       326 -10.6220    109.3467     28.8762   6.6988936520e+01   5.4077126702e+01    0.2693297    0.2358391 -31.81 0.0003215099    1.224    0.183
       327 -10.4183    108.0854     24.8377   6.5693392535e+01   5.4878734956e+01    0.2925687    0.1807424 -40.32  0.001052312    1.805    0.446
       328 -10.8426     48.9675     30.8125   8.8509297939e+01   6.4509689182e+01    0.4423354    0.2255686 -26.54  0.001424505    2.001    0.500
       329 -10.2489     42.9261     31.8911   9.1486421673e+01   6.5066874111e+01    0.1870994    0.1491154 -21.26 0.0004544148    1.031    0.030
       330 -11.1996    177.2382     30.1287   5.3261117437e+01   3.7108692186e+01    0.3993745    0.2402668 -37.04   0.00181731    1.668    0.401
       331  -9.5326    168.4817     30.2505   5.4732765555e+01   3.9378280827e+01    0.1936888    0.1354086 -40.98 0.0004150179    1.476    0.323
       332  -9.8557    139.5729     30.2236   6.0225273687e+01   4.6774644684e+01    0.2016171    0.1394906  -5.68 0.0009404487    1.663    0.399
       333 -11.0214     37.3448    242.6926   1.2739286911e+02   2.0887934108e+01    0.2312232    0.1225614  50.50  0.001592401    1.468    0.319
       334 -11.0401     35.4231    239.7626   1.2753297674e+02   2.1605283621e+01     0.286763    0.1759204 -56.91  0.001948835    2.358    0.576
       335 -10.8000    156.5077    241.0870   1.0665252067e+02   4.2749018282e+00    0.1508667    0.1205139 -48.54  0.001030007    1.582    0.368
       336  -9.8633     88.6449    241.1756   1.1874036829e+02   1.4630030370e+01    0.1383695   0.09804845 -59.30 0.0009406215    1.765    0.433
       337  -9.3276     50.3217    240.3156   1.2515272229e+02   1.9778175111e+01   0.08621651   0.08336034 -74.48 0.0006628506    1.661    0.398
       338 -10.3511    195.6809    238.3772   9.9255392537e+01  -1.6883458015e+00    0.2391472    0.1696037  25.20  0.001536788    1.231    0.188
       339  -9.1965    243.3249    237.6544   9.0911946105e+01  -8.9260209277e+00   0.09790073   0.08944184  47.24 0.0007050235    1.742    0.426
       340 -11.0370    214.5218     26.8468   4.7232989409e+01   2.7912470447e+01    0.3690619    0.2424933 -32.69 0.0009777511    1.496    0.332
       341 -10.0183    153.0022     28.5027   5.6919420443e+01   4.3597115519e+01    0.2159574    0.1275789 -86.81 0.0008101777    2.736    0.635
       342 -11.5585     70.5418     25.5544   7.7813277924e+01   6.2135618227e+01    0.3114716    0.2440726  22.36  0.001869485    1.228    0.186
       343 -11.2885    237.4540     25.4687   4.4423864161e+01   2.2500503708e+01    0.2596911    0.2245664 -66.66  0.000614196    1.040    0.038
       344 -10.5810    135.0941     22.8398   5.8470424301e+01   4.8780033171e+01    0.3181834    0.2098447  31.70 0.0009155991    1.592    0.372
       345  -9.9128    135.5237    236.9916   1.0994922740e+02   8.2518120810e+00    0.1421207    0.1022572 -20.07 0.0006404794    2.409    0.585
       346 -11.0986     29.5634    233.7492   1.2813725755e+02   2.3298243273e+01    0.3952013    0.1627892  76.09  0.002201105    2.376    0.579
       347 -10.6635    197.2288     24.8006   4.8789430160e+01   3.2554705715e+01    0.2325349     0.222553 -49.96 0.0002859912    1.075    0.070
       348  -9.7665    173.2659     24.5576   5.2128343994e+01   3.8815131325e+01    0.2134215    0.1230888  53.55 0.0009488678    1.632    0.387
       349 -10.1429     94.5150     23.8822   6.9144388888e+01   5.7888225291e+01    0.3234669    0.2371196  54.83  0.001741682    1.533    0.348
       350  -9.8063     54.0255     23.9244   8.3441408050e+01   6.4943669792e+01    0.1956733    0.1551244 -12.27 0.0006237666    1.039    0.038
       351  -9.3025     35.2687     22.8125   9.1017551058e+01   6.7486155022e+01    0.2556102    0.1262148   6.37  0.001106566    3.336    0.700
       352 -10.8538    120.3017     21.3536   6.1209191489e+01   5.2515547850e+01    0.2645664    0.2210936  13.76 0.0002932027    1.166    0.143
       353 -10.4958    190.9197     21.1159   4.8540984567e+01   3.4611772270e+01     0.222935    0.1803608 -68.44 0.0003810147    1.263    0.208
       354  -9.8864    185.4852     21.4936   4.9386581946e+01   3.5980224946e+01    0.1420273    0.1339774  81.94 5.518276e-05    1.003    0.003
       355 -10.2287     65.4421     20.4915   7.7408244896e+01   6.3706977857e+01    0.2609802    0.2188455  66.78 0.0006700633    1.933    0.483
       356 -10.2894     45.5108     20.6966   8.5539070517e+01   6.6598990167e+01      0.23475    0.1741853  31.25  0.001178307    1.521    0.343
       357  -9.7673     24.1198    232.1896   1.2892915940e+02   2.4155750339e+01    0.1565484    0.1192046  57.32 0.0005562603    1.287    0.223
       358 -10.0757    161.9495     19.9983   5.2460020801e+01   4.2277683969e+01    0.2134542    0.1993225  50.55  0.001222726    1.030    0.029
       359  -9.5787    226.7815     19.3506   4.3942067566e+01   2.5774807007e+01    0.1851343    0.1156343  62.93 0.0005625355    1.597    0.374
       360  -9.1857    151.4360     18.5408   5.3760973284e+01   4.5146554286e+01    0.1444279    0.1302144  41.53 0.0001122962    1.060    0.056
       361 -10.2956    216.1428     16.8264   4.4372926026e+01   2.8674636418e+01    0.5409231   0.09989494  61.69   0.00167297    4.084    0.755
       362  -9.8938    108.3515     17.1865   6.2469853857e+01   5.5731612799e+01    0.2142169     0.162337   3.26  0.001160668    1.325    0.245
       363 -10.1910    159.9061    235.8837   1.0536127907e+02   4.4756485735e+00    0.1865049    0.1446297  28.46 0.0007300495    1.257    0.204
       364 -10.8192     10.1683     15.5091   1.0002943095e+02   7.0988163213e+01    0.2120573    0.1357934 -26.51 0.0005909252    1.262    0.207
       365  -9.4570    115.5348    244.5257   1.1435925125e+02   1.0172501336e+01    0.1159101   0.09054344  53.21 0.0001994434    1.028    0.027
       366  -9.5436    231.3183    235.3327   9.2565340016e+01  -6.8945799514e+00    0.1230865   0.07390926  12.88 0.0006004113    1.693    0.409
       367 -10.2459    177.5948    234.8365   1.0199451007e+02   1.7207110379e+00    0.2285228    0.1629251  22.16 0.0008514199    1.426    0.299
       368 -11.2070    153.5915    233.9134   1.0625861219e+02   5.8013476552e+00    0.2292581    0.1987282 -24.08 0.0008935983    1.472    0.321
       369  -9.9903    167.1761    233.8132   1.0375196641e+02   3.5810484191e+00    0.1612509    0.1295807  19.93 0.0009326685    1.307    0.235
       370 -10.4149     30.8628     12.9677   8.8546508254e+01   6.9539183768e+01    0.1830035    0.1411718  -7.68 0.0004028642    1.110    0.099
       371 -10.7013    169.1549     13.2313   4.9134321594e+01   4.1121725725e+01    0.2508817    0.1657299  56.81 0.0005515176    1.391    0.281
       372  -9.9326     85.9749    232.9624   1.1847374468e+02   1.6397656018e+01    0.1875835    0.1083309  65.78 0.0006771116    1.614    0.380
       373  -9.7736     90.0856     13.1297   6.5750966562e+01   6.0092331194e+01    0.1939411    0.1515644  18.36  0.000276126    1.150    0.131
       374  -9.7676    142.0529    232.2247   1.0816910524e+02   7.9445684914e+00    0.1658756   0.08341159  41.84 0.0004083841    1.628    0.386
       375  -9.9129     80.0053    231.7497   1.1942568908e+02   1.7438631000e+01    0.1844163    0.1179671  63.13 0.0006512959    1.295    0.228
       376  -9.0597     58.2880    230.2867   1.2311020862e+02   2.0553892021e+01   0.08874395   0.08543206 -87.30  0.000213006    1.533    0.348
       377 -10.6237      5.2933    227.0392   1.3166774074e+02   2.6947909284e+01     0.398256    0.1328402  71.25  0.002100359    2.748    0.636
       378  -9.8572    248.7422    227.6113   8.8347344131e+01  -8.6315935486e+00     0.189969    0.1086944  12.64  0.000892978    1.741    0.426
       379  -9.9365    129.9409    226.8029   1.0975042419e+02   1.0781055221e+01     0.256179    0.1406789  56.06  0.001358574    1.760    0.432
       380 -11.0280    120.1698    226.7786   1.1157819250e+02   1.2345957014e+01    0.1870469    0.1385465  61.87 0.0005996263    1.219    0.180
       381 -10.1906     66.4625    226.4195   1.2137540855e+02   2.0203243226e+01    0.2437263    0.1417841  48.27 0.0008550258    1.436    0.304
       382 -10.6227    181.2625    247.0148   1.0302008600e+02  -4.9149535729e-01    0.1269422    0.1030143 -33.87 0.0008916588    1.548    0.354
       383  -9.9604     25.7823    225.3822   1.2828747816e+02   2.5198456234e+01    0.1927746      0.14363 -46.96  0.001365844    2.340    0.573
       384  -9.1895     37.6813    224.6978   1.2625263324e+02   2.4021417459e+01   0.08957035   0.08128162 -66.80 0.0005191885    1.624    0.384
       385 -10.5742    122.8029    221.6938   1.1047253517e+02   1.2794104748e+01       0.3373    0.2153589  70.85  0.001862387    1.849    0.459
       386 -10.3207     13.5687    221.8422   1.3010362183e+02   2.7088145898e+01    0.1533089    0.1205695  62.42 0.0008575862    1.277    0.217
       387  -9.9078    190.5139    226.4862   9.8401298087e+01   7.3254164027e-01    0.1985261    0.1205583 -33.00  0.000653142    1.964    0.491
       388 -10.1356    141.4335    221.0900   1.0683839166e+02   9.8383568946e+00    0.2422521    0.1571974  31.07  0.001347292    1.619    0.382
       389 -10.4886     22.0285    220.7782   1.2865289282e+02   2.6431868513e+01    0.1689202     0.101736  69.21 0.0005243582    1.239    0.193
       390  -9.3391    250.5042    219.4428   8.6647157090e+01  -7.9796012110e+00    0.1215244    0.0909922  12.62 9.889375e-05    1.032    0.031
       391 -11.4602    236.0992    214.8905   8.8304843890e+01  -5.2263819169e+00    0.5592816    0.3199684  12.62  0.002761197    1.966    0.491
       392 -10.8433      9.6917    216.9541   1.3049579663e+02   2.8360197569e+01    0.2649935    0.1379139  65.68  0.001106859    1.454    0.312
       393  -9.7452     37.9830    217.4791   1.2572525375e+02   2.5324082283e+01    0.1527779    0.0931524  44.71 0.0007622289    1.554    0.357
       394 -10.1900     24.3070    216.8190   1.2804259979e+02   2.6930351511e+01    0.2477276   0.06850334  49.66  0.001245463    2.681    0.627
       395  -9.5764    201.2477    215.9532   9.4738977006e+01   3.8339074072e-01    0.2060818    0.1325502   4.02  0.001068233    2.033    0.508
       396  -9.2939    136.9632    216.2117   1.0704118570e+02   1.1408364936e+01    0.1760311   0.08779597  43.20   0.00086481    1.696    0.410
