#   1 NUMBER                 Running object number                                     
#   2 MAG_AUTO               Kron-like elliptical aperture magnitude                    [mag]
#   3 X_IMAGE                Object position along x                                    [pixel]
#   4 Y_IMAGE                Object position along y                                    [pixel]
#   5 X_WORLD                Barycenter position along world x axis                     [deg]
#   6 Y_WORLD                Barycenter position along world y axis                     [deg]
#   7 A_WORLD                Profile RMS along major axis (world units)                 [deg]
#   8 B_WORLD                Profile RMS along minor axis (world units)                 [deg]
#   9 THETA_WORLD            Position angle (CCW/world-x)                               [deg]
#  10 FWHM_WORLD             FWHM assuming a gaussian core                              [deg]
#  11 ELONGATION             A_IMAGE/B_IMAGE                                           
#  12 ELLIPTICITY            1 - B_IMAGE/A_IMAGE                                       
         1  -9.8091    141.1719      2.1640   6.7497969702e+01   4.9604831447e+01    0.1901451    0.1552632 -77.38  0.001080833    1.341    0.254
         2  -8.2084    211.6062    239.0933   1.1330865378e+02  -4.1099984475e+00    0.1835097   0.08955584 -12.43 0.0007007786    4.644    0.785
         3 -12.6307    240.3642    246.4501   1.0950327230e+02  -9.2158684467e+00     1.495625    0.6035761  38.95  0.008036555    2.068    0.516
         4  -7.7474    175.3267    242.3237   1.2031245563e+02   1.2620474845e+00    0.1210666   0.08318444  16.60 0.0006513086    1.691    0.409
         5  -9.0339     28.8039    250.3960   1.4714536526e+02   2.1111524154e+01     0.131807   0.08576328  39.90 0.0007485399    1.661    0.398
         6 -12.4754    188.7052    202.2026   1.1157821446e+02   4.9196960454e+00     1.402258    0.8056036  13.92  0.005819487    2.940    0.660
         7 -12.0466    214.8777    176.9008   1.0181189623e+02   4.1019839216e+00     1.940621    0.9557958  23.13  0.007196312    3.234    0.691
         8 -11.7678    199.5553    194.5491   1.0810943828e+02   4.1528624746e+00    0.5989223     0.444225 -64.77  0.002920571    2.097    0.523
         9 -11.6010    202.6969    190.9454   1.0683948848e+02   4.1442710037e+00     0.481475    0.3863795  81.56  0.002592799    1.989    0.497
        10  -8.1079    174.6660    204.2892   1.1470177202e+02   7.1326759337e+00    0.1304631    0.0996002  65.81 0.0003572475    1.630    0.386
        11  -8.9438    166.5253    200.9654   1.1578616136e+02   9.1814418716e+00    0.1799057    0.1155753 -17.13 0.0008097789    2.532    0.605
        12  -7.7075    170.5033    196.4706   1.1421743760e+02   9.2204547369e+00     0.137392    0.1202242  34.28 0.0001332079    1.030    0.029
        13  -8.9726    180.5179    188.0123   1.1067663213e+02   8.7940049587e+00    0.1998741     0.137683 -39.89   0.00103469    1.599    0.375
        14  -9.7486    178.2754    184.0164   1.1039505977e+02   9.9220419498e+00    0.2409187    0.1828273 -53.21  0.001268413    1.549    0.355
        15  -7.8006    158.4876    186.0193   1.1489396793e+02   1.3368954357e+01    0.1900362    0.1213061 -20.44  0.000810341    2.550    0.608
        16  -9.1128    184.0355    183.9525   1.0920873427e+02   8.8215881655e+00    0.2236767    0.1640408   6.01  0.001021857    1.710    0.415
        17  -9.2929    173.2025    183.1435   1.1127993394e+02   1.1059833159e+01    0.2841215     0.167061 -20.86  0.001153062    2.789    0.641
        18 -10.7039    182.9823    173.8349   1.0747178285e+02   1.0811771699e+01     0.390887    0.2378691 -20.51  0.001672562    2.355    0.575
        19 -13.1266    202.0559    159.8319   1.0074839570e+02   9.4489591615e+00     1.201465    0.7115034 -26.47  0.005380746    1.934    0.483
        20 -10.2867    178.0748    160.9885   1.0588331981e+02   1.4174677293e+01    0.6070278    0.2149953 -31.52  0.001567027    5.740    0.826
        21  -8.4603    171.0000    152.0199   1.0549057961e+02   1.7387574024e+01    0.2395408   0.08578063 -43.39 0.0007175317    2.912    0.657
        22  -9.0909    172.3017    162.5137   1.0743029362e+02   1.5078513349e+01    0.2489285    0.1340332 -42.45  0.000794709    1.969    0.492
        23  -9.7092    167.2109    169.8056   1.0999546964e+02   1.4721179106e+01    0.4409758    0.2113643 -27.47  0.001424878    4.013    0.751
        24 -10.4658    188.0166    169.8060   1.0563441080e+02   1.0526918829e+01    0.2499562    0.1903632 -58.05  0.001273507    1.626    0.385
        25  -9.9661    178.9939    169.0314   1.0734090638e+02   1.2485820550e+01    0.2299061    0.1737377   2.70  0.001074307    1.688    0.407
        26  -9.1244    186.3995    146.8055   1.0105853705e+02   1.5091876678e+01    0.2113442     0.141056 -27.80 0.0009101602    1.683    0.406
        27  -8.6629    175.2877    157.3563   1.0571062256e+02   1.5446554241e+01    0.1502401    0.1153217   1.27 0.0004005906    1.677    0.404
        28  -8.1193    195.4674    143.4781   9.8454230058e+01   1.3756661692e+01    0.1484342    0.1396095  10.28 0.0008090922    1.037    0.036
        29  -8.7093    184.6054    141.2461   1.0016992248e+02   1.6535195570e+01    0.2055863    0.1432242 -29.02 0.0009395044    1.566    0.361
        30  -8.6618    182.5184    154.9627   1.0366574357e+02   1.4382013809e+01    0.2020062    0.1290473 -14.03 0.0008079726    2.398    0.583
        31  -9.4006     92.0266     99.7281   1.1325689892e+02   4.4885638471e+01    0.2682332    0.1525588 -22.51 0.0009004055    3.584    0.721
        32  -8.9293    106.5118     88.5042   1.0584165267e+02   4.4654178373e+01    0.1490533     0.143409 -27.21   0.00081031    1.035    0.034
        33  -8.5212    110.3052     84.6644   1.0359954581e+02   4.4698680353e+01    0.1520694    0.1202118 -83.54 0.0003776939    1.669    0.401
        34  -9.0548    113.0214     77.0000   1.0046032426e+02   4.5694832645e+01     0.248014   0.08551565  46.43 0.0008029025    2.946    0.661
        35  -9.0079    243.1532     58.8434   6.9958643990e+01   1.7083255596e+01    0.2118927    0.1698969 -60.40 0.0005232587    1.171    0.146
        36  -9.8473    119.2109     52.7884   9.0612093894e+01   4.8756066673e+01    0.2146976    0.1726753  16.95  0.001081918    1.373    0.272
        37 -10.5147    122.4156     42.2791   8.5997387101e+01   4.9654569990e+01     0.441654    0.2572954 -66.38  0.001560144    3.469    0.712
        38 -10.1992    139.3373     34.6188   7.9299344196e+01   4.6596988689e+01    0.2957394    0.2394928  31.21 9.857817e-05    1.283    0.221
        39 -10.9814    133.9216     30.9628   7.9170040407e+01   4.8420524879e+01    0.3802468    0.2330215 -38.09  0.001771931    1.725    0.420
        40  -8.8924    140.3257     25.6664   7.5945301485e+01   4.7464170813e+01    0.1481911    0.1077078 -67.54 0.0004563483    1.713    0.416
        41 -10.8720    130.0369     18.0946   7.5292867151e+01   5.0887616713e+01    0.5073144    0.1902182  36.03  0.001606829    3.923    0.745
