#   1 NUMBER                 Running object number                                     
#   2 MAG_AUTO               Kron-like elliptical aperture magnitude                    [mag]
#   3 X_IMAGE                Object position along x                                    [pixel]
#   4 Y_IMAGE                Object position along y                                    [pixel]
#   5 X_WORLD                Barycenter position along world x axis                     [deg]
#   6 Y_WORLD                Barycenter position along world y axis                     [deg]
#   7 A_WORLD                Profile RMS along major axis (world units)                 [deg]
#   8 B_WORLD                Profile RMS along minor axis (world units)                 [deg]
#   9 THETA_WORLD            Position angle (CCW/world-x)                               [deg]
#  10 FWHM_WORLD             FWHM assuming a gaussian core                              [deg]
#  11 ELONGATION             A_IMAGE/B_IMAGE                                           
#  12 ELLIPTICITY            1 - B_IMAGE/A_IMAGE                                       
         1 -13.7568     12.3933     22.1341   7.1573317311e+01   7.6320600971e+01    0.8992982    0.4191266 -35.17  0.003831977    2.448    0.592
         2 -12.2077      1.8958     23.8172   8.3044745670e+01   7.6733028850e+01    0.6998823    0.1985362 -71.89  0.002380644    3.603    0.722
         3 -13.4987      6.5144      8.3657   6.9943048134e+01   7.9790489857e+01      1.14431    0.6607284 -38.99  0.006052109    1.691    0.409
         4 -12.1318     13.9916     11.2782   6.3289665275e+01   7.8379912268e+01    0.3727072    0.2217899 -41.40  0.001463401    1.681    0.405
         5 -12.2474     16.4312      5.3404   5.5969072586e+01   7.9122018938e+01    0.4229677    0.3216659 -21.17  0.002354134    1.376    0.273
         6 -14.6419    245.7961     11.4873   8.9491250364e+00   2.5679056733e+01     1.798331    0.4722248 -37.86  0.009036147    2.277    0.561
         7 -12.9212      2.7691     36.5822   8.5995098869e+01   7.3612323855e+01     1.064292    0.1621052 -70.35  0.003081736    4.856    0.794
         8 -11.8737     26.9778     14.3056   5.3251170660e+01   7.5892692556e+01    0.3023359     0.180511 -33.58  0.001492608    1.843    0.457
         9 -12.7049     20.2694     12.5351   5.7868852024e+01   7.7278174242e+01    0.4380508    0.2689177 -29.01  0.002199586    1.874    0.466
        10 -12.9006     25.3406      3.3473   4.5754663769e+01   7.7929113624e+01    0.6176721    0.3475975  36.43  0.003103892    1.712    0.416
        11 -11.9299     19.2093     29.1736   6.8831687368e+01   7.4033152042e+01      0.40695    0.2072484 -31.56   0.00169583    2.472    0.596
        12 -12.0236    247.4389    238.3229   4.9844901057e+01  -2.7003488773e+00     0.382149    0.1544764 -23.90  0.002085829    2.120    0.528
        13 -11.6923    250.0640    231.7931   4.8585710749e+01  -2.2207385728e+00    0.2747769    0.1303679 -26.81  0.001860637    1.644    0.392
        14 -11.3134    240.9725    250.0033   5.2315122650e+01  -3.4017433648e+00    0.3133516    0.1412224  17.22  0.001842717    1.943    0.485
        15 -12.0474    243.3913    244.4533   5.1239268933e+01  -3.0187216788e+00     0.360998    0.1624109 -20.36  0.001946406    1.899    0.473
        16 -11.5081    249.2159    249.1515   5.1035156856e+01  -3.9519132103e+00    0.3197766    0.1923108   4.05  0.001958576    1.257    0.204
        17 -10.8709    249.4777    243.9845   5.0318716204e+01  -3.4484138478e+00    0.1922157    0.1189067 -11.88 0.0009347271    1.121    0.108
        18 -11.4459    233.3734    249.6676   5.3381878794e+01  -2.7606063966e+00     0.261781    0.1539106   5.07  0.001602948    1.316    0.240
        19 -12.6596    234.6522    242.8511   5.2294701830e+01  -2.1386893296e+00    0.4308621    0.2009548 -11.56   0.00245874    2.180    0.541
        20 -11.7014    240.7146    237.6650   5.0711946030e+01  -2.0822805742e+00    0.2336021    0.1209488 -22.29  0.001359953    1.527    0.345
        21 -12.0521    244.0040    233.9764   4.9736993948e+01  -1.9567614545e+00    0.2512091     0.115871 -21.43  0.001569255    1.822    0.451
        22 -12.0421    225.9675    247.1611   5.4168021137e+01  -1.8787941890e+00    0.2992004    0.1619932 -20.43  0.002165403    1.520    0.342
        23 -11.7616    157.1311    250.2440   6.6403234598e+01   4.2636490258e+00    0.2833912    0.1214875  23.93  0.001563941    1.891    0.471
        24 -11.6988    104.5575    250.3907   7.7147369450e+01   9.8798668463e+00    0.3457437   0.08934003  26.99  0.001389895    2.976    0.664
        25 -11.8172     87.2114    250.1457   8.0907461317e+01   1.1797143781e+01    0.4242284     0.139922  25.48   0.00189102    2.402    0.584
        26 -11.8409     76.3511    249.6227   8.3277154622e+01   1.3043965474e+01    0.4185183    0.1591008  32.90  0.002089765    1.871    0.466
        27 -11.6282     51.4155    249.1264   8.8855098665e+01   1.5696470633e+01    0.4806036    0.1597286  36.93  0.002323675    2.027    0.507
        28 -11.2821     45.7411    243.6445   8.9854153673e+01   1.7256497620e+01    0.3878747    0.1766172  44.95  0.001937396    1.723    0.420
        29 -11.9766     37.6946    247.7244   9.1892196592e+01   1.7283758137e+01    0.5382553    0.2089498  47.69  0.002532996    2.028    0.507
        30 -11.8347     20.8336    248.0530   9.5706819733e+01   1.8763950352e+01    0.4333975    0.1990713  47.37  0.001920146    1.620    0.383
        31 -10.4048      1.3947    233.6243   9.9783004997e+01   2.3148172472e+01    0.2086471    0.1332208  75.41  0.001242567    1.531    0.347
        32 -12.3015     16.6266    239.1746   9.6395126078e+01   2.0806720980e+01    0.7619866    0.1948593  40.11  0.003468187    2.315    0.568
        33 -11.5436      6.9013    234.8587   9.8532990269e+01   2.2464653014e+01    0.4486604    0.2177941  57.73  0.002289998    1.692    0.409
        34 -11.8073      5.2114    226.8090   9.8756461209e+01   2.4216063552e+01     0.494177    0.2194366  57.32  0.001876747    1.828    0.453
        35 -11.9851      2.8030    218.9720   9.9174335828e+01   2.6034678863e+01    0.4369065    0.2841027  86.52  0.001770116    1.591    0.372
        36 -11.4146     14.4817    230.7906   9.6651196554e+01   2.2641735870e+01    0.4470227    0.2066636  53.17   0.00240711    1.728    0.421
        37 -11.0765     11.4674    224.4114   9.7192499551e+01   2.4196604530e+01    0.4374399    0.1799933  41.78  0.002236979    1.718    0.418
        38 -11.8048      2.8298    211.1974   9.9003583011e+01   2.7702259525e+01    0.5275482    0.2451081  52.94  0.002470241    1.678    0.404
        39 -11.6164      1.7485    204.4903   9.9134516316e+01   2.9268865151e+01    0.3553525    0.2775525 -65.76  0.002240557    1.556    0.357
        40 -11.7041     12.7073    247.8654   9.7515507041e+01   1.9497594095e+01    0.4499162    0.1805441  44.60  0.001777916    1.714    0.416
        41 -11.9114      4.1958    249.4482   9.9425809597e+01   1.9905354063e+01    0.3983644    0.2435227  25.57  0.002154592    1.378    0.274
        42 -12.3192      3.6075    241.7578   9.9420812249e+01   2.1392930859e+01    0.5428351    0.2351897  52.85  0.002109365    1.738    0.425
        43 -11.7621     73.3668    239.2620   8.3174782055e+01   1.5191506179e+01    0.3176527    0.1575784  43.82  0.001689615    1.727    0.421
        44 -10.5034     38.7251    239.2737   9.1261599756e+01   1.8763217567e+01    0.2778984    0.1366264  49.08  0.001422316    1.676    0.403
        45 -12.6676    143.8006    245.1947   6.8426874070e+01   6.3883823174e+00    0.3822964    0.1390755  23.10  0.001802456    2.433    0.589
        46 -12.0147    108.4152    239.1052   7.5216761011e+01   1.1295718509e+01    0.2864553     0.127699  31.14  0.001471374    1.739    0.425
        47 -12.3279    168.4830    248.7567   6.4087423883e+01   3.2986792663e+00    0.3826391    0.1732153  18.82  0.002157749    1.936    0.484
        48 -11.9624     66.1617    247.8858   8.5444010195e+01   1.4415390412e+01    0.4334596     0.182706  41.85  0.002241415    1.871    0.465
        49 -10.9126     45.5600    236.0962   8.9487999514e+01   1.8699445742e+01    0.2665698    0.1418267  46.11  0.001482868    1.524    0.344
        50 -12.2195    231.4029    233.2144   5.1469353352e+01  -7.9668436925e-01    0.2916938    0.1420865 -26.22  0.001973168    1.705    0.414
        51 -10.4365     65.2174    238.4098   8.5006981701e+01   1.6225730742e+01    0.1921431   0.08191351  35.56 0.0009552342    1.728    0.421
        52 -11.1083     82.4933    234.9950   8.0708394013e+01   1.4958538755e+01    0.2667335   0.09152196  48.89  0.001031566    3.428    0.708
        53 -11.3453     60.9022    230.1171   8.5439657310e+01   1.8261365989e+01    0.2967039    0.1267736  51.22  0.001373885    2.297    0.565
        54 -11.1831     40.0279    229.9989   9.0481444388e+01   2.0443896534e+01    0.3066849     0.180928  58.70   0.00174522    1.599    0.375
        55 -12.3695     26.4260    227.0484   9.3645855400e+01   2.2338667329e+01    0.4873398    0.2436943  76.52  0.002535387    2.173    0.540
        56 -10.4546     49.0327    229.0199   8.8240472756e+01   1.9729301466e+01    0.2198644    0.1115449  50.48  0.001140703    1.744    0.427
        57 -12.0115    236.6178    226.4464   4.9751726983e+01  -4.8821935632e-01     0.286099    0.1385935 -23.66  0.001903685    1.716    0.417
        58 -10.7077     32.9792    227.9696   9.2091063599e+01   2.1536463946e+01    0.2189328    0.1051979  50.24   0.00113418    1.723    0.420
        59 -11.4531     19.3076    220.4517   9.5139616286e+01   2.4348423241e+01    0.3496558    0.1699221  55.60  0.001739481    1.742    0.426
        60 -11.4302    239.0470    217.5234   4.8117744715e+01   3.2138424970e-01    0.2658267    0.1188947 -30.31   0.00169832    1.819    0.450
        61 -11.0416     35.7025    216.5777   9.0834166780e+01   2.3637427780e+01    0.3226827    0.1599218  68.74  0.001563169    2.177    0.541
        62 -12.1349     12.9602    215.7300   9.6566911454e+01   2.5901250433e+01    0.4971714    0.2306833  53.05  0.002553617    1.734    0.423
        63 -12.2494    248.5504    213.6844   4.6215929754e+01  -9.2042541030e-02    0.3754564    0.1512183 -30.60  0.002328913    1.973    0.493
        64 -10.5832     28.8376    210.7903   9.2300343908e+01   2.5552741094e+01    0.1973226    0.1201713  51.02  0.001082118    1.370    0.270
        65 -11.1603     21.2825    210.0952   9.4232904324e+01   2.6403245837e+01    0.2560879    0.1450784  63.50  0.001366284    1.622    0.384
        66 -12.9051     13.0167    203.5131   9.6149062757e+01   2.8591736739e+01    0.5411425    0.2800456  50.28  0.002419756    1.547    0.353
        67 -12.1470    248.6611    223.7345   4.7651240575e+01  -1.2293221148e+00    0.3722986    0.1567255 -29.55  0.002303423    1.887    0.470
        68 -10.0905    250.4889    199.9589   4.3895865412e+01   1.3248669006e+00    0.1567482   0.07696996 -32.05 0.0009982146    1.603    0.376
        69 -12.6487      3.7967    186.5546   9.8133781559e+01   3.3282289582e+01      0.70187    0.2258631  57.42  0.002811416    2.597    0.615
        70 -12.5693      2.1718    176.6099   9.8320185024e+01   3.5829352878e+01    0.4985251    0.2205206  83.53  0.002218892    2.171    0.539
        71 -11.8863     17.4883    194.7379   9.4598424604e+01   3.0233636907e+01    0.3534537    0.1301482  34.02  0.001541147    2.037    0.509
        72 -12.3511      3.9862    195.3849   9.8321795306e+01   3.1179590385e+01    0.5273234    0.2490962  56.87  0.002604874    1.747    0.427
        73 -11.0963     17.9869    189.2047   9.4213396527e+01   3.1503102271e+01    0.2570887     0.144794  68.15   0.00128217    1.668    0.400
        74 -11.0359     11.5543    189.5617   9.6045763136e+01   3.1958467696e+01     0.242457    0.1014634  75.98    0.0010315    2.408    0.585
        75 -12.1479     12.0111    182.0279   9.5621392808e+01   3.3746359847e+01    0.3255717    0.1736049  77.62  0.001569672    1.811    0.448
        76 -11.8765      9.5532    176.3038   9.6117751027e+01   3.5359367126e+01    0.2534288    0.1205474  85.84  0.001133538    2.070    0.517
        77 -13.5870      1.5921    163.3018   9.8096455740e+01   3.9239358671e+01    0.6690652    0.5007194  76.90  0.003796454    1.205    0.170
        78 -12.5650      9.8049    154.6546   9.5084771907e+01   4.0933115425e+01    0.3562728    0.2004336  73.44  0.001667086    1.666    0.400
        79 -11.8385      2.7707    141.8666   9.6917383971e+01   4.4849283440e+01    0.3694781    0.1613137  58.43   0.00119093    2.084    0.520
        80 -11.6899      4.5798    135.2608   9.5959051574e+01   4.6545126182e+01    0.2856905    0.1258963  87.87   0.00114819    2.164    0.538
        81 -10.4506      2.0000     93.9825   9.4517853131e+01   5.8238798824e+01    0.2416609   0.07541096 -82.09 0.0008037946    2.952    0.661
        82 -12.6661      3.6769     48.6571   8.7929906604e+01   7.0511319771e+01    0.5727174    0.3231003 -71.04  0.002758836    1.649    0.394
        83 -11.5716      8.7752     42.4688   8.2529792153e+01   7.1810092486e+01    0.2679732     0.185349 -67.56  0.001409462    1.395    0.283
        84 -12.8690    211.8059    246.4883   5.6297322248e+01  -5.7192610068e-01    0.4684265    0.2349776 -11.01  0.002942362    2.026    0.506
        85 -10.7080     27.4300    248.1197   9.4227558061e+01   1.8163139790e+01    0.3568471   0.08969992  42.42  0.001609771    2.450    0.592
        86 -12.2350    127.4151    246.5800   7.1926235679e+01   7.9718548549e+00    0.3098734    0.1045716  33.00  0.001467614    2.298    0.565
        87 -11.2826    110.5985    247.2288   7.5548696660e+01   9.7232289436e+00    0.1447345    0.1050829 -35.65 0.0009522995    1.632    0.387
        88 -12.1000    193.5140    243.9806   5.9012056788e+01   1.4274457870e+00    0.3419364    0.1596966 -17.66  0.001882192    2.525    0.604
        89 -12.3724     13.5282     36.8119   7.6857953042e+01   7.2841033169e+01    0.4137346    0.2272588 -58.75   0.00196914    1.707    0.414
        90 -12.2064     98.8527    243.4658   7.7753335351e+01   1.1641900308e+01    0.3553818    0.1508021  40.55  0.001776269    2.052    0.513
        91 -12.1949     85.3001    243.1795   8.0760284848e+01   1.3190657901e+01     0.342983    0.1480826  41.03  0.001733748    1.937    0.484
        92 -11.8759     58.0088    240.6958   8.6841290648e+01   1.6561052655e+01    0.4360215    0.1867904  45.02  0.002205433    1.923    0.480
        93 -11.9762     30.3400    239.2558   9.3218176946e+01   1.9561415691e+01    0.4515437    0.2859547  46.46  0.002604119    1.235    0.191
        94 -12.4664    226.3813    239.3538   5.3066534090e+01  -1.0495137959e+00    0.3049738    0.1352834 -22.93  0.001902035    2.064    0.515
