#   1 NUMBER                 Running object number                                     
#   2 MAG_AUTO               Kron-like elliptical aperture magnitude                    [mag]
#   3 X_IMAGE                Object position along x                                    [pixel]
#   4 Y_IMAGE                Object position along y                                    [pixel]
#   5 X_WORLD                Barycenter position along world x axis                     [deg]
#   6 Y_WORLD                Barycenter position along world y axis                     [deg]
#   7 A_WORLD                Profile RMS along major axis (world units)                 [deg]
#   8 B_WORLD                Profile RMS along minor axis (world units)                 [deg]
#   9 THETA_WORLD            Position angle (CCW/world-x)                               [deg]
#  10 FWHM_WORLD             FWHM assuming a gaussian core                              [deg]
#  11 ELONGATION             A_IMAGE/B_IMAGE                                           
#  12 ELLIPTICITY            1 - B_IMAGE/A_IMAGE                                       
         1 -13.3014    172.3628     53.9389   5.9975609515e+01   3.5078417366e+01     1.991307     1.220632  28.61   0.00576056    2.269    0.559
         2 -13.4382    187.0557     39.9319   5.3249694475e+01   3.3321230916e+01    0.9940345    0.9749708  86.68  0.003305914    1.049    0.047
         3 -12.7782    191.8866     33.5308   5.0669249135e+01   3.2925423896e+01    0.6260807    0.5568148  86.48  0.001272831    1.077    0.072
         4 -12.7549    193.3273     15.6176   4.5368103742e+01   3.4683577001e+01    0.9192492    0.5721573  72.23  0.004570311    1.505    0.335
         5 -13.8794    210.3523      8.6190   4.1625973117e+01   3.1157479469e+01     1.118903     1.083756  45.05  0.004295946    1.222    0.182
         6 -10.3325    244.7681      1.7474   3.7097448731e+01   2.3757859277e+01    0.3445376    0.1341596  89.29  0.001410671    3.004    0.667
         7 -11.1894     57.7932    214.2405   1.2057178750e+02   2.3348437265e+01    0.2343004    0.1466245  60.62 0.0008969204    1.317    0.241
         8 -12.4858    248.0649    246.8681   8.9551068196e+01  -1.0888184971e+01    0.8921884    0.5266061  34.22   0.00587347    1.441    0.306
         9 -11.4445    150.6172    196.3614   9.9496731498e+01   1.2241628266e+01    0.3064769    0.2835085  52.01  0.001897492    1.050    0.048
        10 -11.4408     63.3448    195.8475   1.1777033318e+02   2.6346744371e+01    0.3432332    0.2244044 -45.70  0.001431757    2.183    0.542
        11  -9.4231     82.4032    195.1727   1.1373838066e+02   2.3844252315e+01    0.2883949     0.182244  72.85  0.001557371    1.633    0.388
        12  -9.5449     78.9742    193.7704   1.1429554674e+02   2.4632815918e+01    0.1947942    0.1382079  65.53 0.0004877356    1.266    0.210
        13 -19.1198     21.1756    102.9666   1.1664395541e+02   5.2096925765e+01     16.40673    0.8197429 -68.00   0.02799908   15.112    0.934
        14 -11.7489     99.3410    180.8583   1.0819043577e+02   2.4276893390e+01    0.5058591    0.3523472  81.79 0.0006161467    1.594    0.373
        15 -10.9537     99.5256    187.5355   1.0909406019e+02   2.2826922039e+01     0.289046    0.2578416  51.07  0.001070588    1.151    0.132
        16  -9.7697    156.6956    190.0947   9.7171035166e+01   1.2286018784e+01    0.1824569    0.1763259  10.60 0.0003608007    1.106    0.096
        17 -11.5131    150.4422    188.2988   9.8183028518e+01   1.3785595034e+01    0.3362963    0.2750655 -81.97  0.001862413    1.490    0.329
        18  -9.9254     38.7660    212.5491   1.2399275282e+02   2.5975936483e+01    0.1607349   0.08399987  51.14 0.0009646044    1.589    0.370
        19 -11.5975    145.4082    181.4290   9.8072269274e+01   1.6057518023e+01    0.3464161    0.3071543  68.40  0.001227175    1.157    0.136
        20 -12.0219    142.0835    176.0204   9.7839763714e+01   1.7765791632e+01    0.5020301    0.3592274 -64.36  0.001996171    1.607    0.378
        21 -10.0179    189.0889    178.4502   8.8312347745e+01   8.2277744877e+00    0.3658278    0.2920344  75.75  0.001106587    1.780    0.438
        22  -9.7825    187.9681    173.6558   8.7587560157e+01   9.2929494134e+00    0.4126398    0.2677629 -67.97  0.001715693    2.782    0.641
        23 -11.7604     52.5042    209.0606   1.2114094014e+02   2.5032868025e+01    0.1911977    0.1551861  63.42 0.0003775169    1.139    0.122
        24 -10.9641     96.9277    191.5886   1.1020443249e+02   2.2390373743e+01     0.324477    0.2838937 -32.33 0.0007608688    1.557    0.358
        25  -9.7497     75.2866    248.5908   1.2021419281e+02   1.4820011255e+01    0.2837219   0.08380961 -58.37   0.00130992    3.986    0.749
        26  -9.4147    240.3332    169.3042   7.6786675552e+01   1.5205505514e-01    0.1396967   0.09383676   6.93 0.0002330505    1.661    0.398
        27 -10.0272    231.2389    169.2520   7.8379645533e+01   1.7892745925e+00    0.2119142    0.1006811 -44.22  0.000891727    2.429    0.588
        28 -12.3854     48.3134    206.0562   1.2169469576e+02   2.6145377399e+01    0.3415543    0.1680979  56.40  0.001354464    1.752    0.429
        29  -9.1707    187.0518    165.6531   8.6138837100e+01   1.0921974805e+01    0.2473949    0.2030723 -50.60  0.001313907    1.365    0.268
        30 -11.0461     92.6692    157.9121   1.0619819419e+02   3.0459611769e+01    0.2716933    0.2416685 -65.32 0.0004572905    1.137    0.121
        31  -8.7716    149.4341    156.2442   9.2361203301e+01   2.0413283405e+01    0.2109035    0.1423867 -61.20 0.0009508085    1.724    0.420
        32 -11.7968     98.1104    151.2584   1.0371601764e+02   3.1104266303e+01     0.592852    0.4346333 -37.51  0.002988399    1.673    0.402
        33 -10.9849    133.9783    145.9577   9.3841116892e+01   2.5726878032e+01     1.244686    0.3129111 -54.90  0.002935272    6.037    0.834
        34 -10.2038    113.9811    151.8668   9.9907418413e+01   2.8204880942e+01    0.4564171    0.2549053  72.22  0.001587349    3.350    0.701
        35  -9.2167    174.8434    149.0903   8.5148359451e+01   1.6598137919e+01    0.2309404    0.2072319 -87.88 0.0005755994    1.320    0.242
        36  -9.0003     92.5396    147.0302   1.0435713117e+02   3.3001670007e+01    0.2205064    0.1323789 -59.65  0.001030168    1.592    0.372
        37 -10.0454    143.4972    145.4734   9.1460392619e+01   2.3912461098e+01    0.2865373     0.143315 -58.93   0.00104092    2.538    0.606
        38 -11.3856     70.4834    206.9499   1.1744427734e+02   2.3120425858e+01    0.4924231    0.2867528  24.57  0.001519903    2.687    0.628
        39 -11.5113    108.7168    138.1658   9.8510760023e+01   3.2299822727e+01    0.6607805    0.3553441 -37.60  0.002596494    2.422    0.587
        40 -11.8096     97.4425    137.2995   1.0126017304e+02   3.4472344657e+01    0.3180945    0.2788943 -71.20 0.0004514739    1.078    0.072
        41 -10.9215    106.0196    130.8518   9.7672823426e+01   3.4486911651e+01    0.4031807    0.3313589 -70.05  0.001137457    1.219    0.180
        42 -10.4135    135.7482    128.4681   8.9481235170e+01   2.9241454649e+01    0.6080564    0.1651483 -47.31  0.001739007    3.662    0.727
        43  -9.7222    161.3781    128.5109   8.3351648365e+01   2.3705539563e+01    0.4836085    0.3165128  72.02  0.001899111    2.310    0.567
        44 -10.5605    103.5078    124.5586   9.6963769730e+01   3.6407359899e+01    0.2798099    0.2423823 -20.09  0.001468208    1.378    0.274
        45 -10.3814    120.9410    122.6413   9.1876542425e+01   3.3561287777e+01    0.4646405    0.2848458 -19.70  0.001636425    3.114    0.679
        46 -10.3038    115.6451    128.7658   9.4683749712e+01   3.3187797432e+01    0.3136066    0.2825536  -9.97 0.0006870974    1.310    0.237
        47  -9.4152    152.4829    119.4883   8.3185761038e+01   2.7580919457e+01    0.3392794    0.2480352 -68.64  0.001484419    1.729    0.422
        48 -11.0383     60.8824    203.6267   1.1902607820e+02   2.5066186545e+01    0.2054756    0.1790585  85.63 0.0004984444    1.182    0.154
        49  -9.4760    110.8981    118.0734   9.3459794274e+01   3.6552937732e+01    0.2188237    0.2117559 -52.31 0.0003909115    1.040    0.039
        50  -9.8693    231.2032    113.6460   6.5831281760e+01   1.0914759097e+01    0.2683008    0.2416769 -20.71 0.0008075762    1.039    0.038
        51  -9.4587    167.7352    112.5679   7.7864964667e+01   2.5540863303e+01    0.3755405    0.2652007 -82.47  0.001504858    2.226    0.551
        52 -11.3081    119.3636    110.1570   8.9197383698e+01   3.6702129607e+01    0.5254695    0.4027883  64.23  0.002264876    1.511    0.338
        53  -9.7002    205.5723    110.1395   6.9467544377e+01   1.7205325226e+01     0.282837    0.2199614  40.45 0.0006006751    1.347    0.258
        54  -9.7087    134.5150    104.9959   8.3830908458e+01   3.4659011848e+01    0.3684294     0.147128 -49.71  0.001212531    2.659    0.624
        55  -8.9302    166.6793     94.2870   7.3122287944e+01   2.9419428297e+01    0.1581282    0.1252905 -79.62 0.0002497454    1.597    0.374
        56  -9.6070    185.6543     85.6375   6.6733898819e+01   2.6397477151e+01    0.2996784    0.2751387 -70.26  0.001047073    1.143    0.125
        57 -11.0103     71.9269    245.1669   1.2052568518e+02   1.5845877331e+01    0.2180249    0.1645336 -73.30   0.00116323    1.501    0.334
        58  -9.3658    167.7348    230.9933   1.0138745934e+02   3.4736934108e+00    0.2196921    0.1658257   8.01 0.0009335608    1.630    0.386
        59 -18.0571     34.3682    240.5004   1.2654558264e+02   2.1279808610e+01     6.422948     5.436659  49.71   0.05025043    1.474    0.322
        60  -9.2716     87.6689    202.7423   1.1352762908e+02   2.1520107666e+01    0.1950365    0.1637251  38.34  0.001020323    1.348    0.258
        61 -12.0689    198.2419     23.3496   4.6935026461e+01   3.2555969544e+01    0.4544378    0.3922133  20.81  0.001607506    1.407    0.289
        62 -10.8609    193.2064    195.3634   9.0694067721e+01   4.6046390034e+00    0.9315877    0.4776628 -62.04  0.002813946    6.278    0.841
        63 -10.3282     62.3188    220.4771   1.2025051854e+02   2.1564234440e+01    0.2469717    0.1441582  68.98  0.001478001    1.540    0.351
