#   1 NUMBER                 Running object number                                     
#   2 MAG_AUTO               Kron-like elliptical aperture magnitude                    [mag]
#   3 X_IMAGE                Object position along x                                    [pixel]
#   4 Y_IMAGE                Object position along y                                    [pixel]
#   5 X_WORLD                Barycenter position along world x axis                     [deg]
#   6 Y_WORLD                Barycenter position along world y axis                     [deg]
#   7 A_WORLD                Profile RMS along major axis (world units)                 [deg]
#   8 B_WORLD                Profile RMS along minor axis (world units)                 [deg]
#   9 THETA_WORLD            Position angle (CCW/world-x)                               [deg]
#  10 FWHM_WORLD             FWHM assuming a gaussian core                              [deg]
#  11 ELONGATION             A_IMAGE/B_IMAGE                                           
#  12 ELLIPTICITY            1 - B_IMAGE/A_IMAGE                                       
         1  -8.2983     17.1589     14.1931   8.8779259363e+01   7.4792751071e+01    0.1539424    0.1492063 -76.15 0.0004906423    1.330    0.248
         2  -8.6280     55.7608      9.9958   6.2880410826e+01   6.9455916917e+01    0.2304532    0.1723655 -45.15 0.0007614471    1.536    0.349
         3  -7.9225     47.5226     10.0268   6.6831947848e+01   7.1038256715e+01    0.1824566    0.1066455 -53.02  0.000810063    2.550    0.608
         4  -8.1796     90.7130      9.1364   5.0391989469e+01   6.1708614066e+01    0.2167892     0.161196 -44.37 0.0005126214    1.460    0.315
         5  -7.7834    101.4902      8.0206   4.7269654893e+01   5.9148377687e+01    0.1976259    0.1369635 -23.42 0.0004256803    1.497    0.332
         6  -8.0717     83.6466     11.3157   5.3476474415e+01   6.3165840640e+01    0.2144763    0.1573152 -61.07  0.000974545    1.716    0.417
         7  -8.6187     33.4939      5.0118   7.1377957654e+01   7.4206292237e+01    0.3166493    0.1898536 -54.32  0.001501976    2.592    0.614
         8  -8.4526     79.0423      4.0694   5.0890434893e+01   6.5032650672e+01    0.3244973    0.1486235 -37.51 0.0009315889    2.302    0.566
         9  -7.6468     44.6967      3.3532   6.3811595037e+01   7.2474732634e+01    0.1236829     0.101375 -59.82 0.0007039964    1.707    0.414
        10  -8.0074    114.8006      2.0281   4.1969042226e+01   5.6296087871e+01    0.1774548     0.109358 -20.48 0.0005303223    1.715    0.417
        11  -8.3275     62.4702      1.4718   5.4762730927e+01   6.9067653959e+01    0.2091087    0.1302779  72.30 0.0006270659    2.057    0.514
        12  -7.6051     39.4712      1.5139   6.5299851395e+01   7.3673697524e+01     0.126897    0.1129759   1.78 0.0001412887    1.047    0.045
        13  -9.0323    147.1224    245.8208   9.6202707863e+01   6.7933425751e+00    0.2717831    0.2217235  86.29  0.001488884    1.997    0.499
        14 -10.1569    248.7456    243.4973   7.8779951398e+01  -4.8687861979e+00    0.5378003    0.1655995 -33.89    0.0026402    3.347    0.701
        15  -9.1690    247.9882    234.9721   7.7675100706e+01  -3.9691237570e+00    0.2042011    0.1412063 -17.73 0.0008652142    1.358    0.264
        16  -8.1222    213.2778    250.4199   8.5229090491e+01  -1.7353513685e+00    0.1405077   0.07814688  33.94 0.0009518981    1.634    0.388
        17  -8.3451    191.5217    249.6927   8.8749717013e+01   8.5229464121e-01    0.1672279    0.1060237  40.56 0.0006936766    1.731    0.422
        18  -8.3439    184.3053    250.3775   9.0072211346e+01   1.6322586383e+00    0.2087062   0.07972939  29.67  0.001119973    2.109    0.526
        19  -8.4821     93.9994    249.7370   1.0665599385e+02   1.2822582705e+01    0.2364612    0.1145919  56.18  0.001307625    2.289    0.563
        20  -7.4965     72.2936    250.6851   1.1087809801e+02   1.5206712074e+01    0.1124655   0.06177512  54.33  0.000240809    1.599    0.374
        21  -8.3132    146.2565    239.9581   9.5699482879e+01   7.7059406949e+00    0.1912114    0.1505927  57.50  0.000870073    1.625    0.385
        22  -9.4124    120.3435    245.4624   1.0122083336e+02   1.0225296306e+01    0.3217685    0.1841204  57.09  0.001611236    2.197    0.545
        23  -8.6818     67.6301    245.0870   1.1140674135e+02   1.6632100784e+01    0.2236966    0.1193375  85.84  0.001311796    2.459    0.593
        24  -8.4632     50.2566    244.5114   1.1473373877e+02   1.8636054804e+01    0.2096088   0.07677521  86.10 0.0009022643    4.503    0.778
        25  -8.9692      9.9974    244.2861   1.2232125156e+02   2.2608895081e+01    0.2730035   0.07985341  73.40   0.00129429    3.573    0.720
        26  -8.9101    201.9809    243.4487   8.6171862380e+01   3.1856331987e-01    0.1609667     0.144448 -27.09  0.000799586    1.610    0.379
        27  -8.9361    168.9852    243.4372   9.1920356634e+01   4.3493151257e+00    0.1606867    0.1529391  52.35 0.0006037769    1.521    0.342
        28  -8.5079    139.4210    244.2538   9.7469925232e+01   7.9839780038e+00    0.1275709    0.1094148 -82.91 0.0009449001    1.706    0.414
        29  -9.4968     77.9468    243.4395   1.0928108402e+02   1.5712910920e+01    0.2934802    0.1440892  57.14  0.001492503    2.061    0.515
        30  -8.9259    214.0899    242.2721   8.4007760451e+01  -9.6505096616e-01    0.2332778    0.1374105 -25.90  0.001231863    1.733    0.423
        31  -8.2153    195.6619    242.7036   8.7143253574e+01   1.1564997265e+00     0.138962   0.09182649  -8.41 0.0005028194    1.516    0.340
        32  -8.3747    193.9862    239.5391   8.7011245253e+01   1.7279687401e+00    0.1572156    0.1272327  25.42  0.000448147    1.272    0.214
        33  -9.5099    160.3639    240.8852   9.3179713540e+01   5.7696378714e+00    0.2991707    0.2359186  85.11  0.001826598    2.425    0.588
        34  -8.4563    153.6370    242.4882   9.4612887459e+01   6.4142485624e+00    0.1588334    0.1356904  75.07  0.001158253    1.798    0.444
        35  -9.2136    183.2910    240.3048   8.8975162293e+01   2.9529287376e+00    0.3240038    0.2100239  52.95  0.001941569    2.547    0.607
        36  -8.3036     88.0809    242.2933   1.0720540944e+02   1.4694401913e+01    0.1585797    0.1182554  45.97 0.0006651777    1.078    0.073
        37  -8.2973    242.5435    236.4661   7.8709845609e+01  -3.5355271759e+00    0.1836892   0.07302792  22.97  0.001027141    2.351    0.575
        38  -8.3133      2.9837    240.3274   1.2351371557e+02   2.3895222952e+01    0.1873179          nan  43.64 0.0007050867    4.405    0.773
        39  -8.8640    135.8204    239.2032   9.7599386309e+01   9.1607893541e+00    0.2403746    0.1202163  42.69  0.001365427    1.752    0.429
        40  -8.3563    129.0874    238.9984   9.8873713411e+01   1.0060284879e+01    0.1773087     0.117445  54.08  0.000998697    1.707    0.414
        41  -8.1496     41.0000    238.9979   1.1624223775e+02   2.0542662308e+01    0.1525142   0.05831941 -77.54 0.0008032807    2.948    0.661
        42  -9.4425    230.8211    237.0425   8.0599917773e+01  -2.3096877476e+00    0.2046939    0.2005997 -10.17  0.001304263    2.011    0.503
        43  -8.5080    208.9785    238.3213   8.4308463081e+01   6.5384940752e-02     0.148068    0.1092148  16.51  0.000618128    1.080    0.074
        44  -8.4950    170.4251    236.4453   9.0784072146e+01   5.0644514175e+00    0.2327808    0.1760179  76.19  0.001386155    2.906    0.656
        45  -8.4947     25.4281    236.9727   1.1917440747e+02   2.2446692257e+01    0.3425059   0.06615396  57.79  0.001254124    4.943    0.798
        46  -8.1308    240.5109    240.0987   7.9537056787e+01  -3.6775753936e+00    0.1801934   0.08227413 -24.77  0.001014037    2.091    0.522
        47  -7.6752    221.2821    236.2958   8.2010852359e+01  -1.1490261446e+00    0.1063787   0.06343444   3.92 0.0002036988    1.539    0.350
        48 -10.1303    214.8139    233.1473   8.2618285730e+01  -4.6494584840e-02    0.3728378    0.3155637 -85.94  0.002355642    3.415    0.707
        49  -8.9451    203.1000    234.7062   8.4795519246e+01   1.1832531858e+00     0.199675    0.1531981 -46.77  0.001283841    2.033    0.508
        50  -8.0103     57.9746    237.0000   1.1278615002e+02   1.9068337636e+01    0.1866217   0.05111106  31.56 0.0007747756    2.955    0.662
        51  -8.4185    123.0593    234.3027   9.9548193371e+01   1.1548343886e+01    0.2269266    0.1405213  52.69  0.001093725    1.736    0.424
        52  -9.3813    108.9229    234.5216   1.0237748329e+02   1.3343262816e+01    0.4148737    0.1801541  46.76  0.001237149    2.100    0.524
        53  -8.3280     99.8325    234.6705   1.0421163684e+02   1.4474891503e+01    0.2158528    0.1285969  66.54  0.001226861    2.193    0.544
        54  -9.0171     78.6092    234.3962   1.0846409515e+02   1.7131404140e+01    0.2422626     0.133615  62.09 0.0009462172    1.954    0.488
        55  -8.9397      8.0164    235.0138   1.2244089282e+02   2.4388243805e+01    0.1309172   0.09329856  58.96  0.001002002    1.044    0.042
        56  -9.4642     68.3688    232.6368   1.1040462572e+02   1.8640572787e+01    0.4298955     0.152681  56.33  0.001885152    3.216    0.689
        57  -8.6891     67.3742    227.3099   1.1021935255e+02   1.9691861139e+01    0.2832288    0.1840187   3.08   0.00105825    2.610    0.617
        58  -9.4781    235.6798    231.1780   7.8995162584e+01  -2.2424580704e+00    0.3161023    0.1879558  -3.60  0.001048747    1.501    0.334
        59  -8.5984    194.4779    233.0249   8.6042987141e+01   2.4454269597e+00    0.1650943    0.1311044  30.63 0.0007765552    1.335    0.251
        60  -8.5083    144.8220    233.2391   9.5185083738e+01   8.8454046944e+00     0.230966    0.1241958  49.10  0.001263628    2.117    0.528
        61  -8.7251    140.1648    230.1446   9.5718405912e+01   9.9175339967e+00    0.2466836      0.15703  54.15 0.0009374653    1.928    0.481
        62  -8.6358    132.8457    233.0515   9.7487005385e+01   1.0454223838e+01    0.1785383    0.1327979  47.37 0.0007350827    1.337    0.252
        63  -8.6223     92.2508    231.8220   1.0548374171e+02   1.5895727080e+01    0.2689228    0.1509521  72.91  0.001137908    2.615    0.618
        64  -9.4871    186.4701    230.8494   8.7151291002e+01   3.7259267603e+00     0.250259    0.2116541  84.30  0.001209453    2.436    0.589
        65  -8.4888    158.0163    232.0414   9.2525309062e+01   7.2726608965e+00    0.1696809    0.1279416  53.93 0.0009480373    1.714    0.417
        66  -7.7156     43.6879    232.3624   1.1536826056e+02   2.1424149285e+01    0.1232892   0.05956527  57.07 0.0007040895    1.753    0.429
        67  -9.5967    246.4658    228.9947   7.7025317315e+01  -3.2090597392e+00    0.2977961    0.1460992 -27.14  0.001469194    1.888    0.470
        68  -8.5908      1.8139    231.1082   1.2351925477e+02   2.5614439908e+01    0.1738888   0.09624764  57.43 0.0007305309    1.299    0.230
        69  -9.9953    149.7629    226.4117   9.3391921954e+01   9.1800059272e+00    0.4873792    0.3297581  87.00  0.002413504    3.705    0.730
        70  -8.0494    229.7956    228.9874   7.9596054831e+01  -1.3411940398e+00    0.1369537    0.1213349 -39.32 0.0008740002    1.960    0.490
        71  -8.8598    162.2980    227.9651   9.1194204910e+01   7.2726274287e+00    0.2824501    0.1793066  50.26  0.001330928    1.967    0.492
        72  -8.9491    127.8336    227.3008   9.7823499003e+01   1.2002593960e+01    0.2767864    0.1750537  57.26   0.00118679    1.952    0.488
        73  -8.0106    120.1616    228.1264   9.9456972113e+01   1.2895648881e+01    0.1592226    0.1224766  55.16 0.0006404964    1.373    0.272
        74  -8.0964    223.4533    227.0437   8.0323888408e+01  -3.8768831088e-01    0.1497455   0.09239517 -25.60 0.0004783025    1.580    0.367
        75  -8.9378    205.9080    225.7715   8.3048100474e+01   1.8931565052e+00    0.2685639    0.1467143 -42.89  0.001118452    2.376    0.579
        76  -8.2689     49.2782    227.0967   1.1393447899e+02   2.1772120217e+01    0.2471311   0.09128709  50.58  0.001245546    2.180    0.541
        77  -8.0981    200.2043    226.2355   8.4093630468e+01   2.5532116052e+00    0.1356351    0.1219563  15.20   0.00061093    1.368    0.269
        78  -8.9609     94.1121    224.3395   1.0441025534e+02   1.6932250613e+01    0.3710312    0.1599901  53.93  0.001730152    2.623    0.619
        79  -8.8079    180.4853    224.1881   8.7305470782e+01   5.3678646907e+00    0.1972054    0.1816685  86.86 0.0005140214    1.802    0.445
        80  -9.0415    104.7360    223.7648   1.0214589430e+02   1.5652053726e+01    0.3171659    0.1946775  64.39  0.001743828    2.058    0.514
        81  -7.6929     78.2853    225.6646   1.0782571541e+02   1.8680179835e+01    0.1210357   0.07205953  58.18 0.0003511663    1.625    0.385
        82  -8.0653     38.7565    225.1809   1.1598327859e+02   2.3237585478e+01    0.2086721   0.06695087  55.80 0.0009513072    2.781    0.640
        83  -9.0962    216.3813    223.3809   8.0937372771e+01   8.8078403657e-01    0.2044976    0.1749727 -31.33  0.001064458    1.615    0.381
        84  -8.6512    172.9894    222.8562   8.8501174587e+01   6.5485132561e+00    0.2087977    0.1612068 -65.60  0.000785281    2.208    0.547
        85  -8.2764    113.7823    223.9451   1.0029831106e+02   1.4423944786e+01    0.1778342    0.1226145  68.41 0.0008294833    1.881    0.468
        86  -7.9450     59.9961    223.8524   1.1150337261e+02   2.1168327714e+01    0.2106708   0.08678988  50.96  0.001070148    2.062    0.515
        87  -9.8794    175.8580    233.6815   8.9437639121e+01   4.7252629108e+00    0.3928065    0.2367764 -55.03  0.002309846    2.728    0.633
        88  -9.1820    239.3774    221.4244   7.6964616097e+01  -1.6270902518e+00    0.2997722    0.2149724 -21.53   0.00151934    1.380    0.275
        89  -7.9466    233.6475    223.6899   7.8199767734e+01  -1.2119876240e+00    0.1143346   0.06443664   4.40 0.0007044279    1.722    0.419
        90  -9.2733    192.4075    221.4543   8.4767670655e+01   4.1562114392e+00    0.2339182    0.2179902  86.66 0.0009702541    1.875    0.467
        91  -9.1600    160.3422    221.1983   9.0666562674e+01   8.5012279092e+00    0.4697157    0.2123342  51.62  0.001930628    3.868    0.741
        92  -8.4352    140.5361    222.7199   9.4739350081e+01   1.0992048864e+01     0.199959    0.1172576  47.01 0.0005715191    1.730    0.422
        93  -9.1418    225.2981    221.7783   7.9239464579e+01  -1.5479680247e-02    0.2140512    0.1543534  41.98  0.001247793    1.922    0.480
        94  -9.8626    226.1691    217.4131   7.8432486639e+01   3.7782019118e-01    0.2137632    0.1520502  -6.08 0.0001515945    1.164    0.141
        95  -9.3201    120.2709    219.0957   9.8414587902e+01   1.4352702658e+01    0.4025708    0.2184278  60.24  0.001721145    2.757    0.637
        96  -8.6809     82.5849    220.2758   1.0645689265e+02   1.9109970246e+01    0.2454568    0.1560012  74.54 0.0009422275    1.873    0.466
        97  -8.2337     73.0101    220.5376   1.0851036984e+02   2.0241741092e+01    0.2395518    0.1019068  63.81  0.001016001    3.346    0.701
        98  -8.2024     27.8213    220.7734   1.1801145822e+02   2.5158125650e+01    0.2182373   0.06223393 -70.02  0.001000575    3.532    0.717
        99  -8.2478    202.6383    220.2446   8.2795960616e+01   2.9826999604e+00    0.1413367   0.09293375 -19.56 0.0004560213    1.499    0.333
       100  -9.4151    247.8913    217.2041   7.5019042987e+01  -2.1442641450e+00     0.283447    0.2449952 -58.18  0.001998155    2.781    0.640
       101  -8.2262    209.9585    219.1625   8.1380658459e+01   2.1823553231e+00    0.1545581    0.1335684  12.80 0.0005090894    1.287    0.223
       102  -8.1439    179.5174    217.7481   8.6565858423e+01   6.3692562152e+00    0.1325285    0.1137127 -47.02 0.0005428575    1.585    0.369
       103  -9.2868    132.7543    216.1094   9.5480808072e+01   1.3117559758e+01     0.385528    0.2376853  69.17  0.001851716    3.056    0.673
       104  -8.5505    111.9810    217.4795   9.9957726541e+01   1.5755769673e+01    0.2361251    0.1278728  67.58  0.001030166    3.399    0.706
       105  -8.8196     51.4907    217.4538   1.1286019587e+02   2.3316524681e+01    0.2517844    0.1601666  71.42  0.000969829    1.521    0.343
       106  -8.7974    169.2614    216.0735   8.8248658251e+01   8.0128746990e+00    0.2355342    0.2045764 -86.57  0.001031645    1.887    0.470
       107  -8.7452    143.0347    216.6125   9.3458396418e+01   1.1597081328e+01    0.2256102    0.1755885  68.14  0.001073985    1.803    0.445
       108  -8.3212     61.8460    217.0899   1.1062001738e+02   2.2207194284e+01    0.1946602    0.1235072  59.70 0.0007860582    1.422    0.297
       109  -8.6661     18.4916    215.9891   1.1973347018e+02   2.6954164547e+01    0.2377636   0.09282304  87.10  0.001206205    2.630    0.620
       110  -8.9704    232.3319    214.9156   7.7060035291e+01  -8.1280884737e-02    0.2000907    0.1867857 -14.38  0.001123438    1.665    0.399
       111  -8.2920    154.6127    215.4587   9.0999008995e+01   1.0149996519e+01    0.1755599    0.1488834 -89.38 0.0008536389    1.809    0.447
       112  -8.4759    185.5305    214.3093   8.4954586524e+01   6.0224592920e+00    0.1711107    0.1634347 -24.07 0.0006779088    1.418    0.295
       113  -9.1823     93.2807    214.2653   1.0359404541e+02   1.8825205222e+01     0.367214    0.1636717  53.09  0.001610816    2.418    0.586
       114  -9.5047    213.8072    212.2271   7.9665095227e+01   2.5410872341e+00    0.2771592    0.2149782  48.75  0.001641052    1.983    0.496
       115  -8.8331    196.0919    213.9724   8.3000083503e+01   4.6423079427e+00    0.1970895    0.1391652  23.62 0.0005845316    1.187    0.157
       116  -9.4540     73.4714    212.2741   1.0770940270e+02   2.1722059570e+01    0.6558836    0.1865118  51.93  0.002313799    4.179    0.761
       117  -8.0408    224.8043    212.7346   7.7925214708e+01   1.0903876922e+00    0.1354594    0.1181069  -0.20 0.0005420351    1.337    0.252
       118  -8.7272    161.6467    212.5315   8.9210176958e+01   9.6009736433e+00    0.1961077    0.1828058  88.08 0.0006929006    1.525    0.344
       119  -8.1109    106.2007    212.8688   1.0066638724e+02   1.7347093627e+01    0.1876028    0.1392566  53.74 0.0006676733    1.303    0.233
       120  -9.0647    204.1970    210.7767   8.1083491167e+01   3.9791461268e+00    0.2140029    0.1745479 -34.35 0.0007349089    1.508    0.337
       121  -9.3475    175.4953    210.1741   8.6203845887e+01   7.9933181765e+00    0.3317131    0.2352113  61.05  0.001431327    2.420    0.587
       122  -8.3232      7.9832    211.5101   1.2175067172e+02   2.8755508450e+01     0.203358   0.08193999  53.15  0.001131264    1.827    0.453
       123  -9.1125      5.8114    208.2133   1.2209835317e+02   2.9585819759e+01    0.2395594   0.09372932  61.34  0.001041732    2.035    0.509
       124  -8.2066    192.4782    210.9653   8.3187171674e+01   5.5298052128e+00    0.1589994    0.1096879 -34.98  0.001018557    1.582    0.368
       125  -8.8932    147.9138    210.6544   9.1672928064e+01   1.1848668765e+01    0.2464496    0.1928832  58.45  0.001266274    1.604    0.377
       126  -9.1340    116.2840    210.4804   9.8231275665e+01   1.6376508086e+01    0.3099243    0.1892267  60.80   0.00100387    2.091    0.522
       127  -8.6476     85.4856    209.3536   1.0479858710e+02   2.0752701194e+01    0.2932196     0.164096  68.90  0.001292501    2.319    0.569
       128  -8.1912     46.3664    209.6349   1.1344774428e+02   2.5389539497e+01    0.2654946     0.110426  62.98  0.001242082    2.553    0.608
       129  -8.0838     32.1568    210.2015   1.1657293177e+02   2.6765594802e+01    0.1713511    0.1027312  60.95 0.0007085142    1.386    0.278
       130  -9.2004    236.4640    208.3234   7.5365098139e+01   1.7225929584e-01    0.2081971    0.1743746 -21.61 0.0007576467    1.456    0.313
       131  -9.3862    246.3613    207.3223   7.3683656985e+01  -8.9661502788e-01    0.2205927    0.1538938 -18.44 0.0007567462    1.254    0.203
       132  -8.2874    156.4740    207.9900   8.9578344652e+01   1.1037214895e+01    0.1598472    0.1216408 -46.43 0.0007386871    1.557    0.358
       133  -8.5169    139.1004    207.7648   9.3078567030e+01   1.3587694965e+01    0.1856106    0.1707696 -86.81  0.000606136    1.386    0.278
       134  -9.7904    124.2615    206.2494   9.5998874190e+01   1.5986473867e+01    0.2769621    0.1877095  61.50            0    1.844    0.458
       135  -9.2233     99.3626    206.0847   1.0139128234e+02   1.9515247541e+01    0.3452078    0.2095695  69.60  0.001577782    2.223    0.550
       136  -8.3390    109.0195    205.4645   9.9197087322e+01   1.8292054638e+01    0.2127201    0.1669172  79.34 0.0005888548    1.540    0.351
       137  -8.8150     56.3253    205.3046   1.1092952210e+02   2.5129023823e+01    0.3406961    0.1729632  65.42  0.001637954    2.086    0.521
       138  -9.0072    183.6169    203.7477   8.3691514833e+01   7.7701654302e+00    0.2608703    0.2118482  59.66  0.001081765    1.876    0.467
       139  -8.7302    131.1845    203.9081   9.4214366117e+01   1.5391693896e+01    0.2736249    0.1871535  71.20  0.000986881    2.263    0.558
       140  -8.1752     24.8363    205.0398   1.1789766220e+02   2.8511584206e+01      0.20642     0.090542  63.02  0.001072741    2.031    0.508
       141  -9.5949    250.1086    202.1875   7.2285823591e+01  -7.6678594811e-01    0.3665655    0.1339605 -31.71  0.001502167    2.463    0.594
       142  -9.6644    245.2680    193.3552   7.1534579484e+01   8.2901708828e-01     0.203162     0.166838 -26.24 0.0005631589    1.462    0.316
       143  -9.5113    194.8613    203.3784   8.1568766984e+01   6.2362780319e+00    0.3980263    0.2335414 -25.77  0.001482197    1.767    0.434
       144  -9.2802    192.3649    197.3577   8.1046600518e+01   7.4344422336e+00    0.2632512    0.2118503 -43.06 0.0008818773    1.556    0.357
       145  -9.8052    163.7525    203.1367   8.7415470934e+01   1.0735473339e+01    0.3532507    0.2460371  50.29  0.001169732    1.711    0.416
       146  -8.5368    211.0001    202.2242   7.8544101176e+01   4.1773237245e+00    0.1792366    0.1603376 -44.82 0.0007239435    1.675    0.403
       147  -9.1900    243.0410    200.8143   7.3123985917e+01   2.3592530531e-01    0.2613196    0.1367951 -32.01  0.001009624    1.810    0.447
       148  -9.1617    140.3050    200.8638   9.1862978546e+01   1.4572125199e+01    0.3348195    0.2467722  87.34  0.001526958    2.251    0.556
       149  -8.7447     79.8547    201.1191   1.0523419422e+02   2.3072777963e+01     0.314561    0.1662174  64.32  0.001458878    2.299    0.565
       150  -7.8404     73.2999    202.5901   1.0686697242e+02   2.3619496112e+01    0.1359554    0.0775138  62.58 0.0006981525    1.852    0.460
       151  -8.4648     47.8987    201.5833   1.1254988749e+02   2.6831990076e+01    0.2507172    0.1314062  75.70   0.00130433    2.064    0.516
       152  -8.3210     10.0580    202.5373   1.2100255251e+02   3.0358710943e+01    0.1655018   0.09665063  32.80 0.0008235057    1.588    0.370
       153  -9.4019    237.0383    198.4995   7.3665604151e+01   1.2489960066e+00    0.2842997    0.1396781 -35.55  0.001483008    2.046    0.511
       154  -9.4997    149.4861    198.5866   8.9614981669e+01   1.3585722091e+01    0.3507665    0.2607715 -87.43   0.00120158    2.358    0.576
       155  -8.9621    123.9145    199.3199   9.5157285009e+01   1.7267757519e+01     0.301788    0.2050075  65.32  0.001616939    1.960    0.490
       156  -9.4182    112.9284    198.6631   9.7489416296e+01   1.8990903109e+01    0.4153844     0.242179  62.22  0.001773357    2.334    0.572
       157  -9.1674     88.6804    198.5253   1.0294677510e+02   2.2415667343e+01    0.3600021    0.2175054  82.17  0.001640525    2.279    0.561
       158  -8.8865    177.0555    198.9061   8.4166594056e+01   9.4317496631e+00    0.1947079    0.1682277 -24.97  0.000607016    1.245    0.197
       159  -8.2506    202.1401    197.6553   7.9335658164e+01   6.0048585115e+00    0.1850524    0.1523369 -32.70 0.0006818646    1.404    0.288
       160  -9.2682     61.4037    196.8444   1.0907335870e+02   2.6243408996e+01    0.4243294    0.2299575  75.24  0.002053408    2.170    0.539
       161  -8.3542     12.6993    197.6877   1.2023789355e+02   3.1120674723e+01    0.2458601   0.09173679  68.55  0.001166842    2.495    0.599
       162  -7.8574     36.4556    196.9574   1.1484257687e+02   2.9010459673e+01    0.1750377   0.07629319  69.67 0.0008079837    2.458    0.593
       163  -8.1343     29.3818    197.2873   1.1647547066e+02   2.9656004863e+01    0.1632199   0.09422586  79.79  0.000781014    1.630    0.387
       164  -8.7810    215.8261    195.7435   7.6648385514e+01   4.3687862475e+00    0.2076879    0.1500515 -39.24 0.0008184196    1.661    0.398
       165  -8.9558    185.1602    194.9091   8.1979723698e+01   8.8380867119e+00    0.2254396    0.1961678 -57.03 0.0007154525    1.643    0.391
       166  -8.4099    132.9851    195.9721   9.2721068247e+01   1.6518749091e+01     0.196488    0.1454993  62.14  0.000679368    1.671    0.402
       167  -8.7210    224.5420    194.0427   7.4911381062e+01   3.4137859654e+00    0.2474199    0.1645056 -40.86  0.001376599    1.846    0.458
       168  -9.0779    160.9038    194.3771   8.6629269078e+01   1.2555733307e+01     0.280636    0.2189462  67.66  0.001038795    1.928    0.481
       169  -8.8547     43.9942    193.6518   1.1287287701e+02   2.8902824408e+01    0.4195407    0.1769658  64.13  0.001881694    2.588    0.614
       170  -8.1693    230.8139    194.3377   7.3947483062e+01   2.5500536413e+00    0.1549577    0.1204857 -15.07 0.0005511392    1.167    0.143
       171  -8.6581     77.0173    194.0779   1.0516701547e+02   2.4855972014e+01    0.2265499    0.1552737  50.98  0.000537184    1.285    0.221
       172  -8.6455    172.3768    191.9723   8.3952658533e+01   1.1198368644e+01    0.2256368    0.1975875 -72.91 0.0009738702    1.688    0.408
       173  -9.3169    241.0729    192.0523   7.1951052551e+01   1.5094892151e+00     0.205419    0.1314787  12.49  0.001181222    1.422    0.297
       174  -7.9803    205.3609    192.0958   7.7833442992e+01   6.3151955202e+00    0.1566185    0.1056022 -42.36 0.0005752173    1.768    0.434
       175  -7.9418    198.8531    191.8302   7.8945381788e+01   7.2858959935e+00    0.1479041    0.1395665  -9.53 0.0004875218    1.325    0.245
       176  -8.4137    179.2616    191.9286   8.2607476962e+01   1.0165028087e+01    0.1674081    0.1468987  -7.54 0.0004708774    1.112    0.101
       177  -9.1730    139.5795    190.6716   9.0511932602e+01   1.6459016139e+01    0.3439898    0.2532555  83.61  0.001038273    2.199    0.545
       178 -10.4911     92.0069    188.7251   1.0103663845e+02   2.3920443202e+01    0.9236089    0.2394297  45.65  0.003104689    3.748    0.733
       179  -8.3931     90.6279    181.7027   1.0049112814e+02   2.5568207315e+01    0.2413729    0.1683113 -11.40 0.0009000902    2.327    0.570
       180  -9.0578     20.8767    190.6408   1.1806463847e+02   3.1865138760e+01    0.3666445    0.1345417  66.64  0.001627124    2.731    0.634
       181  -8.6115      6.3876    191.1909   1.2139679757e+02   3.3007565192e+01    0.1679604   0.08473343  76.70 0.0007000858    1.715    0.417
       182  -8.5294    148.4696    189.4644   8.8425358090e+01   1.5294866771e+01    0.2147355    0.1728268  70.69 0.0007904423    1.715    0.417
       183  -8.4286    237.1875    188.6573   7.1966796627e+01   2.4206233837e+00    0.1856465    0.1313671 -28.22 0.0006628631    1.378    0.274
       184  -7.5790    210.2967    189.6679   7.6556880890e+01   5.9484172558e+00    0.1013862   0.09835822 -68.59 0.0004470444    1.642    0.391
       185  -8.9341    185.8597    188.7969   8.0823748089e+01   9.6494367348e+00    0.2351223    0.1758873  31.68 0.0006891472    1.252    0.201
       186  -8.7004    183.0161    185.0420   8.0719400605e+01   1.0657144502e+01    0.2510235    0.2084555 -67.36  0.000949393    1.871    0.466
       187  -9.2417    155.9014    187.5082   8.6552802052e+01   1.4472577255e+01    0.3098436    0.2185996 -62.08 0.0009490828    1.969    0.492
       188  -9.0132    129.2352    188.5093   9.2450914411e+01   1.8447376177e+01    0.2670925    0.2130379  81.07 0.0008992183    1.660    0.398
       189  -9.7407    120.9259    186.6703   9.4047126217e+01   2.0070370453e+01    0.4863293    0.2966313 -81.48  0.002167901    2.883    0.653
       190  -8.6725     34.2404    188.0291   1.1477849115e+02   3.1129224669e+01    0.3323698    0.1412206  66.16  0.001216014    2.450    0.592
       191  -8.8540    216.5464    188.1078   7.5218949496e+01   5.2798143894e+00    0.2466374    0.1826785 -36.58 0.0007328255    1.524    0.344
       192  -8.8337    191.4369    187.4229   7.9545177393e+01   9.0181016517e+00     0.224226    0.2051426  80.34 0.0009918853    1.719    0.418
       193  -9.1299     54.7281    187.0915   1.0979526531e+02   2.9087526244e+01    0.3763594    0.1723302  60.55   0.00168141    2.330    0.571
       194  -8.1536    230.4325    187.2594   7.2789119682e+01   3.4878746785e+00    0.1522239   0.09918745 -36.51 0.0008338813    1.656    0.396
       195  -8.7586    164.8020    186.9254   8.4629168366e+01   1.3179232316e+01    0.2076645    0.1814941 -73.43 0.0007663137    1.610    0.379
       196  -9.1785    109.6121    186.1963   9.6580302741e+01   2.1874894783e+01    0.3462014     0.224153  64.77   0.00120971    1.945    0.486
       197  -8.6544    249.1798    185.6159   6.9616534397e+01   1.2531399786e+00    0.2049279    0.1519467 -38.71 0.0008549158    1.745    0.427
       198  -8.6861    210.2176    184.4840   7.5665104034e+01   6.6746791158e+00    0.2044785    0.1486816 -27.29 0.0005699612    1.317    0.240
       199  -8.6379    202.6646    184.6776   7.7025736027e+01   7.7501677986e+00    0.2145184    0.1818015 -46.42 0.0007286956    1.576    0.365
       200  -9.0945     66.5708    184.4563   1.0666964545e+02   2.8214865395e+01    0.3553233    0.1979707  61.92  0.001183561    1.883    0.469
       201  -8.4534    224.0921    183.6727   7.3183928675e+01   4.8174331214e+00    0.1900413    0.1435546 -30.83 0.0005246263    1.377    0.274
       202  -8.9241    174.2280    183.6196   8.2182033455e+01   1.2245592772e+01     0.228632       0.2047  78.71 0.0007656154    1.626    0.385
       203  -8.1464      1.8003    183.7857   1.2218048128e+02   3.4947485192e+01    0.1735735   0.09932271  55.46  0.001055854    1.376    0.273
       204  -7.5981    242.6532    183.3222   7.0192587862e+01   2.3645259669e+00   0.09828237   0.09048099 -42.72 0.0007049601    1.738    0.425
       205  -7.9851    196.8175    183.5816   7.7886078794e+01   8.7799018717e+00    0.1627828    0.1103289  43.84 0.0006241014    1.664    0.399
       206  -9.0046     44.4680    182.3379   1.1189037661e+02   3.1286919054e+01    0.3669862    0.1994602  67.20  0.001122805    1.832    0.454
       207  -9.1822    147.5543    180.7806   8.7214062570e+01   1.6976442691e+01    0.3028118    0.2410533  77.87  0.001191441    1.818    0.450
       208  -9.6037     25.7514    179.1467   1.1625467587e+02   3.3910176120e+01    0.6783066    0.2169209  68.91  0.002386685    4.168    0.760
       209  -8.0993    240.3841    180.7453   7.0081327602e+01   2.9810132739e+00     0.164234     0.090221 -20.72  0.000945333    1.643    0.391
       210  -8.7434    137.6482    179.3724   8.9153921821e+01   1.8828494323e+01    0.2654527    0.1993874  66.44 0.0008932704    1.746    0.427
       211  -9.2930    191.4823    178.3986   7.7945100231e+01   1.0374283685e+01    0.2385222    0.2284859  55.76 0.0005156071    1.425    0.298
       212  -8.0073    169.3294    178.6298   8.2291425200e+01   1.3842998817e+01    0.1776628    0.1533415  71.99  0.000748683    1.640    0.390
       213  -9.1584     35.9434    176.8441   1.1357358702e+02   3.3416581051e+01    0.4781133    0.1793954  73.04  0.001767338    3.676    0.728
       214  -9.5801    248.4279    176.3767   6.8089882539e+01   2.4629269109e+00    0.3652014    0.2229398 -38.25  0.001729981    1.793    0.442
       215  -8.6008    250.5207    172.9107   6.7156172532e+01   2.6139683884e+00    0.2151575    0.1142091 -31.73 0.0005952145    1.651    0.394
       216  -8.6374    231.1323    177.0524   7.0858909722e+01   4.7089094956e+00    0.2303908    0.1465809 -33.36 0.0008397487    1.518    0.341
       217  -8.4161    217.7778    177.6553   7.3150376310e+01   6.5259137127e+00    0.1966692    0.1521057 -52.91 0.0008266363    1.972    0.493
       218  -8.7327    205.0268    177.7556   7.5367376941e+01   8.3978859849e+00    0.2127462    0.1603143 -25.94 0.0005457629    1.258    0.205
       219  -8.6876    129.1372    177.4092   9.0756779958e+01   2.0569880996e+01    0.2714682    0.1960537  74.66  0.001085769    1.987    0.497
       220  -7.7326    113.3328    177.8357   9.4503621487e+01   2.2982525466e+01    0.1813025     0.119147 -45.23 0.0005722306    1.703    0.413
       221  -8.5338     97.3769    177.6702   9.8315947579e+01   2.5437024768e+01    0.2583323    0.1613959  10.35  0.001152616    2.475    0.596
       222  -8.9091    183.1236    176.2277   7.9137730819e+01   1.2028335943e+01    0.2420715    0.2000291 -43.77 0.0006065554    1.405    0.288
       223  -9.5274    104.5474    174.9377   9.6182382633e+01   2.4932538240e+01    0.5648318    0.2885265  58.72   0.00207848    2.672    0.626
       224  -8.7865     89.0651    176.8455   1.0024580785e+02   2.6822380753e+01    0.2729681    0.1961063  70.11 0.0009313998    1.526    0.345
       225  -9.9583     57.3419    173.3227   1.0783775638e+02   3.1813383820e+01       0.8259    0.3410992  72.74  0.002712389    4.522    0.779
       226  -8.7020     12.4641    176.5823   1.1935734522e+02   3.5667451034e+01    0.2544935    0.1275163  70.89 0.0008980888    1.761    0.432
       227  -9.2192    158.7796    175.1537   8.3855064766e+01   1.6154937907e+01    0.3104405    0.2397262  78.84  0.001069507    2.101    0.524
       228 -10.7238     75.8097    169.8439   1.0269203326e+02   3.0217767222e+01      1.24826    0.4734869 -77.60  0.004032865    4.518    0.779
       229  -7.7734     79.4868    158.4856   1.0020381314e+02   3.2294546777e+01    0.1989332    0.1350809  20.65 0.0009767244    1.750    0.429
       230  -8.3167    224.2495    174.3261   7.1468706392e+01   6.0461202580e+00    0.1997047    0.1487871 -23.16 0.0005780289    1.207    0.171
       231  -9.2328    175.8809    172.3370   7.9845842243e+01   1.3831774539e+01    0.3109173    0.2446126 -48.58  0.001055355    1.491    0.329
       232  -8.1947    142.9984    172.9635   8.6887744055e+01   1.9158682036e+01    0.2031818     0.162243  71.37 0.0005998231    1.660    0.398
       233  -8.6356    134.5345    171.8381   8.8602665452e+01   2.0772708307e+01    0.2523838     0.199987  61.19 0.0007828709    1.463    0.316
       234  -9.6789    121.4434    170.5440   9.1436882568e+01   2.3173995891e+01    0.3822217    0.2782553 -89.20  0.001102557    1.931    0.482
       235  -9.2754     45.0642    170.8609   1.1076050075e+02   3.3798967137e+01    0.4065852    0.2128195  84.69  0.001553463    2.089    0.521
       236  -8.4815    205.8166    170.3267   7.3853942693e+01   9.3678984823e+00     0.206136    0.1559823 -38.03 0.0006880623    1.421    0.296
       237  -8.5257    237.1204    169.7258   6.8575499443e+01   4.8317290763e+00    0.1974883    0.1404157 -31.58 0.0007086202    1.369    0.270
       238  -9.0515    230.0655    169.2247   6.9584705108e+01   5.8986581490e+00    0.3556203    0.1529301 -37.97  0.001748257    2.246    0.555
       239  -8.3000    198.6031    170.1794   7.5118559738e+01   1.0517781042e+01    0.1841248     0.150625 -40.66  0.000603278    1.399    0.285
       240  -9.2674    167.1995    168.8253   8.0955039118e+01   1.5867430978e+01    0.3075067    0.2475362  72.52  0.001116163    1.846    0.458
       241  -8.6794    149.8912    169.5448   8.4765245117e+01   1.8647353775e+01    0.2381084    0.1897849 -68.76 0.0006863951    1.644    0.392
       242  -8.0429    244.4068    169.2425   6.7382893219e+01   3.8884274616e+00    0.1553988   0.09468228 -35.26 0.0004658535    1.598    0.374
       243  -8.3630    218.9587    168.4969   7.1254546723e+01   7.6298736370e+00    0.1814803    0.1459353 -15.68 0.0004945167    1.088    0.081
       244  -8.7871    111.8410    167.7796   9.3304781354e+01   2.5293840275e+01      0.36697    0.2342423  69.60  0.001659488    2.241    0.554
       245  -8.2853     88.7860    168.7267   9.9217090619e+01   2.8630023255e+01    0.2532155    0.1625195  77.76 0.0007813584    2.013    0.503
       246  -8.0900    211.3951    168.2241   7.2484392711e+01   8.8166007887e+00    0.1700763    0.1086801 -41.94 0.0007323671    1.718    0.418
       247  -8.9568    191.9361    166.5377   7.5658197363e+01   1.2153295590e+01    0.2629235    0.1733608 -40.05 0.0005337141    1.562    0.360
       248  -8.8223    185.0835    166.6802   7.6986141819e+01   1.3252795398e+01    0.2154208    0.1717632 -45.77 0.0006556969    1.442    0.306
       249  -9.0548     20.6529    166.3830   1.1673607249e+02   3.7275284825e+01    0.3877725    0.1300272  54.26  0.001369352    2.697    0.629
       250  -8.8469    205.0459    163.7446   7.2734550827e+01   1.0474922404e+01    0.3692271    0.1669995 -46.37 0.0009876469    2.738    0.635
       251  -8.4358    140.6463    166.3152   8.6246837946e+01   2.0821334738e+01    0.2170547     0.165262  53.67 0.0006489906    1.436    0.304
       252  -9.6046    135.6775    164.0325   8.6976809756e+01   2.2112799073e+01    0.4083854    0.2462891  53.50   0.00124201    1.925    0.481
       253  -9.9480     95.0158    162.4108   9.6694547447e+01   2.9097462185e+01    0.8614545    0.5311193  85.25  0.003380835    2.411    0.585
       254  -8.4576    233.9906    164.8527   6.8144427715e+01   5.9203731686e+00    0.2103319    0.1446174 -27.01 0.0006282372    1.277    0.217
       255  -8.8065    159.6209    164.5680   8.1748329876e+01   1.7909009151e+01    0.2397456    0.2276835  69.12 0.0007021687    1.265    0.210
       256  -9.4681     33.2964    163.3333   1.1319866934e+02   3.6790276573e+01    0.5387887    0.1791254  53.77  0.002100202    2.977    0.664
       257  -8.7825    246.0114    163.1224   6.6002318940e+01   4.4488570538e+00    0.2004608    0.1406766 -22.44 0.0004891382    1.180    0.153
       258  -8.1817    240.0095    164.0575   6.7072019890e+01   5.1668786104e+00    0.1642397    0.1423985 -48.80 0.0006914152    1.689    0.408
       259  -8.4056    212.9839    163.5852   7.1324249259e+01   9.2486748295e+00    0.2148414    0.1599219 -41.74 0.0007479466    1.517    0.341
       260  -8.3560     57.2792    163.8765   1.0684778214e+02   3.3990240352e+01    0.3241489    0.1871717   9.42  0.001405348    2.790    0.642
       261  -9.6456      3.4218    162.3711   1.2095869256e+02   3.9598501140e+01    0.4402517    0.1525177  50.37  0.001873334    2.337    0.572
       262  -9.2160    177.5612    160.8705   7.7338391616e+01   1.5486008278e+01    0.2871551    0.2309593 -52.80 0.0007725568    1.501    0.334
       263  -8.9271    151.5524    161.0647   8.2836293955e+01   1.9951641119e+01    0.3001359    0.2339854 -81.80 0.0008739772    1.907    0.476
       264  -8.6173     60.4579    160.1166   1.0556016109e+02   3.4476496208e+01    0.3179015    0.1852645  74.30  0.001016009    1.981    0.495
       265  -7.5734    242.2850    160.2843   6.6013824258e+01   5.3388631218e+00    0.1525583    0.1248656 -20.07 0.0004248996    1.161    0.139
       266 -10.0490    249.7596    157.5429   6.4400713486e+01   4.6434602018e+00    0.3471615    0.2618411 -40.70   0.00110053    1.585    0.369
       267  -8.4267    245.2889    158.6740   6.5263045337e+01   5.1238300829e+00    0.1680525      0.11624  -4.81  0.000489686    1.329    0.247
       268  -8.5762    227.3506    159.0432   6.8072424491e+01   7.6943958729e+00    0.2393008    0.1669106 -44.52 0.0008728599    1.721    0.419
       269  -8.4625    237.1527    159.1042   6.6558856416e+01   6.2329024111e+00    0.1890732    0.1371323  -9.94 0.0006309521    1.195    0.163
       270  -9.2460    167.6704    157.5107   7.8691482142e+01   1.7787218233e+01    0.3102555    0.2550457 -76.31  0.001069373    1.754    0.430
       271  -8.6891    128.1021    158.7948   8.7816257341e+01   2.4467553927e+01    0.2844631    0.2340937  86.25   0.00135072    1.518    0.341
       272  -9.6682    105.6944    157.6255   9.3176877765e+01   2.8472055838e+01    0.4889671    0.3484105 -76.43  0.001706381    1.670    0.401
       273  -8.4566    196.6190    158.0356   7.3132559166e+01   1.2733407614e+01    0.1998117    0.1798617  40.94 0.0006699121    1.305    0.234
       274  -8.1798    188.2534    158.0157   7.4692201705e+01   1.4143173179e+01    0.1848959    0.1600432 -21.70 0.0004432899    1.104    0.094
       275  -8.4607    218.0296    156.5939   6.9106940528e+01   9.4811693453e+00    0.2331851    0.1570781 -44.30 0.0008633012    1.702    0.412
       276  -9.1119    157.7048    156.1460   8.0539053475e+01   1.9795451094e+01    0.3316396    0.2186295 -59.25  0.001391338    1.972    0.493
       277  -9.4348    119.5627    155.4813   8.9299541824e+01   2.6625526245e+01    0.3922761    0.2740463  88.06  0.001467158    2.139    0.532
       278  -9.4490     81.7071    154.9891   9.9094116011e+01   3.2785277364e+01    0.4990351    0.2731284  65.00  0.001515566    2.435    0.589
       279  -8.7655    144.8143    155.1487   8.3212755260e+01   2.2277570220e+01    0.3494187    0.2440969  68.50  0.001237786    2.121    0.529
       280  -9.3399     49.3356    155.1746   1.0805060157e+02   3.6998804072e+01    0.3901863    0.1979478  62.97  0.001587371    2.164    0.538
       281  -8.5553    242.8098    155.1667   6.4950654747e+01   5.9373247315e+00    0.1889367    0.1584552   7.20  0.000418638    1.162    0.139
       282  -8.6078    239.7401    153.3322   6.5047205046e+01   6.6292736064e+00    0.1791717    0.1498818 -24.49 0.0002445589    1.203    0.169
       283  -8.1000    204.8690    155.2374   7.1088966052e+01   1.1805440491e+01    0.1829006    0.1689897 -35.24 0.0006409303    1.281    0.219
       284  -9.7163    132.7459    152.8331   8.5587089008e+01   2.4886739758e+01     0.428413    0.3495602 -89.75  0.001289821    1.573    0.364
       285  -9.1131    133.5141    148.0360   8.4464402194e+01   2.5742050146e+01    0.2606768    0.2390621 -13.68  0.001229201    1.149    0.129
       286  -9.3623     67.9908    153.9093   1.0270555063e+02   3.4966074488e+01    0.4647669     0.252064  68.54  0.001349717    2.371    0.578
       287  -8.1401    232.7795    153.9738   6.6228083172e+01   7.5789302018e+00    0.1817229    0.1282143 -48.20 0.0005724377    1.856    0.461
       288  -9.2826     20.0528    152.5150   1.1596194006e+02   4.0601268662e+01    0.2488968    0.1449329  75.08 0.0007482648    1.571    0.364
       289  -8.7869      8.1806    153.4541   1.1927132263e+02   4.1332752436e+01    0.2865188    0.1067319  26.43  0.001310778    2.644    0.622
       290  -8.1078    182.4992    151.4937   7.4484812297e+01   1.6232958004e+01    0.2203735    0.1242517 -49.13 0.0006345687    2.065    0.516
       291  -8.8468     98.4838    150.9580   9.3928806036e+01   3.1133621030e+01    0.3326513    0.2284969  81.62  0.001024077    1.923    0.480
       292  -9.6286     29.3017    150.8238   1.1324280773e+02   4.0170625481e+01    0.4722454    0.1875512  60.49  0.001911362    2.722    0.633
       293  -9.6016    248.7457    149.4585   6.2980776446e+01   5.8323989077e+00    0.3174332    0.1595761 -32.08 0.0008699995    1.669    0.401
       294  -8.7927    247.0190    143.9748   6.2140365001e+01   6.8066230345e+00    0.2272525    0.1389437 -28.86 0.0005323611    1.355    0.262
       295  -8.7577    243.1117    150.1311   6.3921518040e+01   6.5623666659e+00    0.2650469    0.1406108 -34.21 0.0007355418    1.646    0.392
       296  -8.7722    189.3866    150.4310   7.2940898782e+01   1.5204798587e+01    0.2501154    0.2123349 -54.02 0.0006156572    1.450    0.310
       297  -8.3660    162.5038    150.5481   7.8381273702e+01   1.9979034306e+01    0.2345601    0.1315723 -53.94 0.0007559698    2.198    0.545
       298  -8.1101    212.8855    149.8398   6.8611046502e+01   1.1311656117e+01    0.1615225    0.1446833 -32.86 0.0003812353    1.250    0.200
       299  -9.8422     39.6347    147.7517   1.1000216031e+02   3.9880292162e+01    0.5765808    0.2407595  62.51   0.00190866    2.902    0.655
       300  -8.9124      2.9660    150.0214   1.2051055833e+02   4.2524200710e+01    0.2649287    0.1116715  66.96  0.001226553    2.152    0.535
       301  -8.4953    198.8554    149.0433   7.0901528728e+01   1.3792798263e+01    0.1884241     0.172516 -45.29 0.0004815176    1.306    0.234
       302 -10.0932     89.3229    146.4011   9.5639434839e+01   3.3643328191e+01     0.662213    0.3707753  83.92  0.002386116    3.308    0.698
       303  -9.3625    233.4722    147.7048   6.4873453574e+01   8.3431417394e+00    0.2437474    0.1883418 -17.96 0.0008635377    1.075    0.070
       304 -10.2840    148.9498    144.9415   8.0213450907e+01   2.3540769888e+01    0.5552182    0.3889599 -85.48  0.001581074    2.581    0.613
       305  -8.9403     78.2940    147.1175   9.8834961540e+01   3.5142019719e+01    0.3580448    0.2109835  79.34  0.001002323    2.393    0.582
       306 -10.4575     54.8242    144.7950   1.0524495820e+02   3.8869652673e+01    0.8988278    0.4360327  73.37  0.003059281    2.981    0.665
       307  -9.2723     57.2472    135.3853   1.0322807006e+02   4.0904600422e+01    0.3047462    0.2011064  24.82  0.001504621    1.707    0.414
       308  -8.4537    223.3113    146.9785   6.6311720235e+01   1.0043522509e+01    0.1909847    0.1772966 -57.72 0.0005956151    1.485    0.326
       309  -8.0448    206.7867    146.7255   6.9015060713e+01   1.2807241245e+01    0.1651689    0.1477163 -44.10 0.0004749901    1.325    0.245
       310 -10.1132    139.0581    144.8947   8.2503157603e+01   2.5379257638e+01    0.5055658    0.3242441 -69.53  0.001478452    2.337    0.572
       311  -9.5075     13.2127    146.5052   1.1746316855e+02   4.2616625805e+01     0.350908    0.1541414  49.07  0.001320198    2.028    0.507
       312 -10.2413    241.2406    143.8384   6.2939952556e+01   7.6891706280e+00    0.4895716    0.2619118  -7.22  0.002254215    2.656    0.623
       313  -8.3851    175.3798    146.0737   7.4772936177e+01   1.8453740241e+01     0.232063    0.1959143  73.28 0.0007836323    1.619    0.382
       314  -9.9685    124.9731    142.6707   8.5490503951e+01   2.8424863191e+01    0.5130443    0.3487011 -86.92  0.001433787    2.392    0.582
       315  -7.8865    194.1982    144.1325   7.0724962568e+01   1.5404098315e+01     0.172636    0.1546784 -50.33   0.00047342    1.327    0.246
       316  -8.8916    165.3893    144.0660   7.6415645578e+01   2.0655337151e+01    0.2435544    0.2013822  47.67 0.0005708631    1.291    0.225
       317 -10.8487     69.0702    139.1472   1.0024782299e+02   3.8393590141e+01     1.042753    0.5432678 -72.95  0.003421943    2.064    0.516
       318  -9.7505     73.2230    129.0797   9.7314240095e+01   4.0289645115e+01    0.5101058     0.281106 -72.29  0.001451086    1.981    0.495
       319  -9.8220     71.1933    120.0490   9.6278703871e+01   4.2848441683e+01    0.5906848    0.3448323 -86.09  0.001813004    2.326    0.570
       320  -9.6688      2.6504    141.6404   1.2017505087e+02   4.4559458534e+01    0.4752182    0.1829612  70.49  0.002061592    2.497    0.599
       321  -8.1664    235.5012    142.5153   6.3516583503e+01   8.7525886082e+00     0.126259    0.1024471 -13.65 0.0003476282    1.016    0.016
       322  -8.5144    182.0459    141.6524   7.2504634743e+01   1.8014914357e+01    0.2510754    0.1835426 -52.19 0.0006278997    1.597    0.374
       323 -10.3485    106.6505    144.1746   9.0532536617e+01   3.1322216687e+01     0.747984    0.4751441  83.54  0.002151821    2.611    0.617
       324  -9.9561     23.4570    138.1853   1.1383639666e+02   4.3818726135e+01    0.5704523    0.2494681  65.71  0.002159675    2.485    0.598
       325  -8.6109    172.4077    138.2873   7.3704220332e+01   2.0406836896e+01    0.2786198    0.2160202 -73.33 0.0007243816    1.895    0.472
       326  -7.3231    218.7074    138.6929   6.5331322233e+01   1.2024758164e+01    0.1308964   0.09141034  -0.85 0.0002488375    1.581    0.367
       327  -8.2623    207.6158    138.1400   6.7059416519e+01   1.4010417752e+01    0.2012143    0.1485886 -44.23 0.0006011815    1.448    0.309
       328  -8.5901    197.5832    137.5826   6.8702330521e+01   1.5879065880e+01    0.2503707    0.1873918 -49.39 0.0007793739    1.527    0.345
       329  -8.4334    162.5354    136.3570   7.5353395255e+01   2.2642792663e+01    0.2492578    0.1364076 -46.58 0.0005459524    1.877    0.467
       330  -9.0408    150.5414    136.2655   7.7991185751e+01   2.4962928367e+01    0.4167717    0.2502583  19.74  0.001676788    2.469    0.595
       331  -9.2163    140.0387    136.9992   8.0603233264e+01   2.6822050848e+01    0.2358943    0.1799725  -3.06  0.001132432    1.698    0.411
       332  -7.9093    109.9761    137.4863   8.8342420239e+01   3.2264295163e+01    0.2246517    0.1415625  38.82  0.001023378    1.562    0.360
       333  -9.2906     39.3174    136.1347   1.0881292300e+02   4.2802815947e+01    0.3250683    0.1997745  68.29 0.0007891851    1.662    0.398
       334  -9.3108    250.6866    129.9088   5.8784886916e+01   8.1299457382e+00    0.4888243    0.1026281 -31.80  0.001463481    4.146    0.759
       335  -9.3845    248.2899    134.9957   6.0151415717e+01   7.8144936831e+00    0.3056487    0.1527072 -35.42 0.0007939474    1.703    0.413
       336  -8.6253    246.9730    130.2757   5.9361171035e+01   8.6519031219e+00    0.2230536    0.1437802 -29.60  0.000614623    1.275    0.216
       337  -7.9493    192.3966    136.1953   6.9346884674e+01   1.7051666580e+01    0.1980133    0.1202185 -45.68 0.0009487318    1.736    0.424
       338  -7.9848    187.8615    135.9771   7.0147942473e+01   1.7924413003e+01    0.2182109    0.1509457 -57.78 0.0007593628    1.933    0.483
       339  -8.6378    179.5776    134.1943   7.1354729361e+01   1.9788323705e+01    0.2477835    0.2195943 -75.46 0.0007930884    1.454    0.312
       340 -10.1963    132.6768    131.9879   8.1298220125e+01   2.9281286272e+01    0.6164663    0.4128495 -79.10  0.001922226    2.443    0.591
       341 -10.4095     83.4534    132.9337   9.4938471071e+01   3.7784397496e+01    0.6011314    0.3611006 -76.14  0.001398269    1.982    0.495
       342  -8.6889     84.8160    122.7269   9.2551827777e+01   4.0060708368e+01    0.4827392    0.2882285  10.54  0.001784135    3.057    0.673
       343  -8.1384    237.5166    133.5634   6.1372930341e+01   9.6862588517e+00    0.2163669    0.0974484 -40.84 0.0008273033    2.138    0.532
       344  -8.0242    231.4884    134.0627   6.2364689156e+01   1.0587539285e+01    0.1908175    0.1081157 -31.70 0.0004350231    1.513    0.339
       345  -9.0834    112.8910    133.3011   8.6700503446e+01   3.2693061232e+01    0.3435372    0.2550968  73.92 0.0009792831    1.705    0.414
       346 -10.2790     98.0226    130.4615   9.0231065754e+01   3.5981257537e+01      0.75624    0.3354474 -53.41  0.001440756    2.221    0.550
       347  -8.6357     99.3794    120.4332   8.7708069138e+01   3.8121816106e+01    0.4563369    0.2868502   8.19  0.001676092    3.027    0.670
       348  -9.2445    142.9630    131.6221   7.8719339504e+01   2.7368736828e+01    0.3182768    0.2364728 -64.82 0.0009168921    1.633    0.388
       349 -10.1011     12.9869    129.2648   1.1628863256e+02   4.6898290992e+01    0.5364724    0.2407885  67.86  0.001962256    2.281    0.562
       350  -8.3267    220.6067    130.2424   6.3218692028e+01   1.2972394011e+01    0.1805389    0.1105758 -24.47 0.0006516302    1.517    0.341
       351  -7.9444    204.7616    130.5799   6.5900620588e+01   1.5720374274e+01    0.1669744    0.1321613  57.57 0.0004898153    1.587    0.370
       352  -8.3280    192.8484    130.1555   6.7921350920e+01   1.7985693346e+01    0.2036212    0.1799554 -49.56 0.0004834631    1.269    0.212
       353  -9.1028    168.2856    129.6410   7.2618712827e+01   2.2794692779e+01    0.2762588    0.2267471 -74.61 0.0008019023    1.621    0.383
       354  -9.3476    152.9531    129.0007   7.5807559601e+01   2.5937954460e+01     0.386391    0.2596539 -63.25  0.000882917    1.974    0.493
       355  -8.5459     25.6971    129.7567   1.1234781523e+02   4.5742282708e+01    0.2485892     0.172605 -12.82  0.001290665    2.064    0.515
       356  -8.4046      1.9707    130.4991   1.1975925553e+02   4.7334362176e+01    0.1732113    0.1203002  28.58   0.00102752    1.581    0.367
       357  -8.0550    211.4488    129.2557   6.4480405018e+01   1.4728420454e+01    0.1825662    0.1143825 -42.54 0.0004681568    1.586    0.370
       358  -7.9984    186.5052    129.5057   6.8957400702e+01   1.9295080218e+01    0.1391525    0.1286142 -18.63 3.665334e-05    1.034    0.033
       359 -10.6959     45.0491    123.7198   1.0538439339e+02   4.5333832888e+01     1.162135    0.5092912  70.51  0.003771949    3.970    0.748
       360 -10.4084     60.0397    125.2260   1.0077367439e+02   4.3105047179e+01    0.7647175    0.4046145  70.39  0.002405015    2.749    0.636
       361 -10.0973    117.9689    125.1172   8.3553940330e+01   3.3599862134e+01    0.5948616    0.4271798 -75.10  0.001696906    1.777    0.437
       362  -7.8369    228.3852    125.2457   6.0941968715e+01   1.2381868901e+01    0.1885346    0.1031643 -40.26  0.000943796    1.706    0.414
       363  -8.9839    179.2589    124.5919   6.9224220329e+01   2.1563745281e+01    0.2754925    0.2294487 -64.35 0.0007819686    1.477    0.323
       364  -9.2875    134.0011    124.9004   7.9358441742e+01   3.0535870213e+01    0.3999249    0.1921254  30.90  0.001419114    2.772    0.639
       365 -10.2409     28.4415    122.3917   1.1066648607e+02   4.7375614962e+01    0.7826658    0.3185157  65.67  0.002826714    3.307    0.698
       366  -7.5130    244.2600    124.6355   5.8551250599e+01   9.8482317658e+00    0.1224409    0.0845539 -46.97 0.0003796525    1.637    0.389
       367  -7.9786    188.4031    124.2104   6.7385491979e+01   1.9846474997e+01    0.1941847    0.1241338 -45.07  0.000574185    1.583    0.368
       368  -9.1894    158.8069    121.6171   7.2766643247e+01   2.6216313420e+01    0.4033864    0.2665669 -55.65  0.001575726    1.751    0.429
       369  -8.4589    153.8730    123.1578   7.4232190867e+01   2.6913573749e+01    0.2062443    0.1738329   4.41 0.0005553053    1.336    0.252
       370  -7.8495    203.1276    122.1400   6.4278886701e+01   1.7384822334e+01    0.1843413    0.1500215 -46.94 0.0004556885    1.312    0.238
       371  -8.0442    195.1465    122.1991   6.5687590579e+01   1.8889451619e+01    0.1846771    0.1601838 -56.17 0.0004596512    1.336    0.251
       372  -8.4549    172.0780    121.7081   6.9980702634e+01   2.3515537473e+01    0.2349103    0.1887026 -49.87  0.000491804    1.308    0.235
       373 -10.0121    141.5455    118.2830   7.5928930016e+01   3.0412042533e+01    0.5661642    0.3305972 -57.97  0.001821929    2.085    0.520
       374  -9.7634    130.9080    118.8619   7.8704857066e+01   3.2447667977e+01    0.4168123    0.3025138 -89.47  0.001195704    2.065    0.516
       375  -9.8585      3.2728    117.5701   1.1852188315e+02   5.0493203917e+01     0.616644    0.2232474  67.31  0.002384397    3.008    0.668
       376  -9.1476     17.4588    118.6973   1.1391443832e+02   4.9247319181e+01    0.2873061    0.1624695  -5.09  0.001320241    2.696    0.629
       377  -8.1080    231.4914    117.5121   5.8794484517e+01   1.2975681817e+01    0.1303203    0.1094058 -26.13  0.000158813    1.046    0.044
       378 -10.3363    109.4112    112.7813   8.3021865940e+01   3.8050617686e+01    0.9770787    0.4358396 -50.95  0.002493739    2.216    0.549
       379  -9.9775    119.3458    105.6670   7.8439214128e+01   3.7688240865e+01    0.3250868    0.2978669 -19.25 0.0008446148    1.181    0.153
       380 -10.7751    108.8043     98.7977   7.9591130212e+01   4.1376918294e+01     1.050021    0.5894146  69.54   0.00114249    3.644    0.726
       381  -9.0928    108.2503     92.3327   7.7949382947e+01   4.2949611742e+01    0.5907882    0.2850271  30.75  0.001976887    3.046    0.672
       382  -8.8600     59.2668    115.6129   9.9350494134e+01   4.5658582685e+01    0.4794249    0.2950181 -18.38  0.001901221    2.894    0.654
       383  -7.9044    219.2946    116.6566   6.0409331485e+01   1.5261353041e+01    0.1316973    0.0973675 -55.42 0.0003606293    1.663    0.399
       384  -8.0722    185.7951    116.0148   6.5936718179e+01   2.1781383183e+01    0.2245833    0.1505511 -57.80 0.0005795673    1.902    0.474
       385  -8.3166    192.9260    115.2072   6.4439763468e+01   2.0500344185e+01    0.2085522    0.1802213 -52.53 0.0005092535    1.266    0.210
       386 -10.0457     78.8739    112.5028   9.2263756997e+01   4.3550189152e+01     0.607693    0.3843597  81.75  0.001869141    2.344    0.573
       387  -8.8032     78.8009    105.2228   9.0646657422e+01   4.5370820007e+01    0.3700876    0.2691408  -3.32  0.001316822    2.056    0.514
       388  -8.2820    167.2261    114.6025   6.9255573032e+01   2.5828638226e+01    0.1950116    0.1380869  36.37 0.0005146586    1.506    0.336
       389 -10.4618    133.5915    109.5535   7.5700895091e+01   3.3892181881e+01    0.7271961    0.3656331 -51.20  0.002589728    2.090    0.521
       390 -10.1564    121.8547    112.3092   7.9459361005e+01   3.5703921064e+01    0.4535167     0.327662 -57.96  0.001394644    1.455    0.313
       391 -10.0548     92.7031    112.5185   8.7909610901e+01   4.1206211707e+01    0.5280387    0.3355589 -73.41  0.001203881    1.959    0.490
       392  -8.8913     93.0210    104.9422   8.5988865978e+01   4.2972997350e+01    0.3437207    0.2423048  -7.12  0.001314191    2.310    0.567
       393  -8.6016     26.8048    113.6705   1.1017446308e+02   4.9773360222e+01    0.1913044    0.1695767 -26.73 0.0007051444    1.359    0.264
       394  -9.8644     14.2070    111.1609   1.1427461813e+02   5.1424482920e+01    0.5031975    0.2193434  81.45  0.001738151    2.509    0.601
       395  -8.4872    174.8664    112.0831   6.7078732633e+01   2.4709873372e+01     0.221501     0.190557 -58.69 0.0005116416    1.287    0.223
       396  -8.5390    159.0750    111.7930   7.0288903781e+01   2.8068001125e+01    0.2664481    0.2041345 -44.44 0.0006671589    1.277    0.217
       397 -10.2183     66.3047    110.0248   9.5895624192e+01   4.6101175244e+01    0.5968448    0.3586642 -69.75  0.001960548    1.693    0.409
       398 -11.3585    248.4179    107.9509   5.4433582797e+01   1.1453917869e+01    0.8116693    0.2891745 -30.29  0.003490889    2.371    0.578
       399  -8.1946    189.1800    108.1753   6.3404732465e+01   2.2450115343e+01    0.1948027     0.160163 -54.01 0.0004452188    1.321    0.243
       400  -9.5538    139.9049    104.1581   7.2721430125e+01   3.3683566892e+01    0.6071985    0.2765483 -50.24  0.001650892    2.354    0.575
       401 -10.6002     45.5732    102.3119   1.0170062384e+02   5.0810297371e+01    0.8300204    0.4164295  69.51  0.002996124    3.175    0.685
       402  -9.5198     46.1759     92.5837   9.9551540246e+01   5.3256173218e+01    0.5305437    0.2785576  13.89  0.002137056    2.722    0.633
       403 -10.7177     22.8889    102.6789   1.1016364565e+02   5.2962794542e+01    0.8005187     0.363194  68.11   0.00266443    2.866    0.651
       404  -8.6077    166.6903    104.2939   6.6751870861e+01   2.7870514340e+01    0.2485846    0.2181776 -64.82 0.0005544921    1.263    0.208
       405  -9.5387    150.6188    103.0883   6.9914323266e+01   3.1582092721e+01    0.4747751    0.2808356 -60.68  0.001283086    2.313    0.568
       406  -9.8417    128.4576    102.1721   7.5072378813e+01   3.6549369557e+01     0.369267    0.2799728 -77.03 0.0008780519    1.706    0.414
       407  -9.6317      6.4599    103.0336   1.1624774377e+02   5.4017096269e+01    0.2550093    0.1919661  64.00 0.0009729129    1.286    0.223
       408  -7.8225    175.5336    102.4816   6.4515443546e+01   2.6303849208e+01    0.1465126    0.1368483 -39.26 0.0002333023    1.044    0.042
       409  -8.4369    159.8220    101.0955   6.7351974158e+01   2.9961879691e+01    0.2346535    0.1958001 -60.16 0.0005290298    1.301    0.232
       410  -9.4135     82.1144    100.0699   8.8298960145e+01   4.6084488381e+01    0.4112305    0.2913468  88.49  0.000921787    1.869    0.465
       411 -10.4668     63.9535     95.3897   9.3491065804e+01   5.0156863607e+01    0.9666933    0.4404208 -67.26  0.002305969    2.461    0.594
       412  -7.7470    182.5955    109.5131   6.4947773173e+01   2.3570511195e+01     0.143894    0.1312994 -31.16 0.0001516731    1.030    0.029
       413  -9.4757     94.9769     97.1019   8.3344551550e+01   4.4476447863e+01    0.3485956    0.2589537 -68.32 0.0007306322    1.477    0.323
       414  -8.7024    151.5233     95.3379   6.7605112892e+01   3.2901434540e+01    0.3351218     0.218369  15.98  0.001298203    2.547    0.607
       415 -10.5572    123.7153     91.6593   7.3390011038e+01   3.9814485238e+01    0.6151459    0.5116295  16.13   0.00161955    1.441    0.306
       416  -8.1682    164.8565     94.1114   6.4416411447e+01   3.0157110813e+01    0.2261474    0.1936212 -59.45  0.000439122    1.238    0.192
       417  -9.3413    138.9961     91.9859   6.9581162056e+01   3.6366740648e+01    0.4871629    0.2847517 -55.63  0.000783313    1.986    0.496
       418  -7.5450    188.3365     93.6692   5.9876638771e+01   2.5088090044e+01    0.1492704    0.1087575 -65.55 0.0007052098    1.734    0.423
       419  -8.1426    176.2446     93.1935   6.1936180137e+01   2.7798517165e+01    0.2044517    0.1644224 -59.03 0.0004536308    1.357    0.263
       420  -9.5110      5.3609     92.1830   1.1560057589e+02   5.6872249425e+01    0.4006667    0.1722557  51.87  0.001240993    2.525    0.604
       421  -9.7214     34.8494     90.1053   1.0352389343e+02   5.5149039014e+01    0.4790096     0.267023  85.25  0.001673489    2.284    0.562
       422  -9.1204     22.6889     90.3611   1.0846227798e+02   5.6186380492e+01    0.3222632    0.2458904 -34.87  0.001112623    1.470    0.320
       423  -7.8441    157.5773     91.5277   6.5221371346e+01   3.2269514596e+01    0.1513585    0.1415691 -51.02 9.690633e-05    1.056    0.053
       424  -9.4618     98.5154     87.2693   7.9455836927e+01   4.6070562431e+01    0.3228334    0.2586721 -39.24 6.231352e-05    1.265    0.209
       425  -9.1348     42.8997    109.3866   1.0390404812e+02   4.9278737143e+01     0.310367    0.1457843  12.19  0.001136309    3.389    0.705
       426  -9.3655     86.7344     81.0187   8.1460129050e+01   4.9802048924e+01    0.7769728    0.3635362  23.68  0.002122392    5.040    0.802
       427  -7.7697    188.3575     87.2393   5.8183198272e+01   2.6154429568e+01    0.2065668    0.1206719 -42.69 0.0004054939    1.596    0.373
       428  -7.5167    164.2577     87.6073   6.2738219456e+01   3.1478132531e+01    0.1572079    0.1105672 -61.50 0.0006965836    1.695    0.410
       429  -9.9101     48.6348     84.0862   9.6667951074e+01   5.5128878575e+01    0.6712338    0.4164747 -85.97  0.002565982    2.039    0.510
       430  -9.9735     86.3986     86.7054   8.3261467981e+01   4.8537406583e+01    0.5126224    0.3636211  85.59  0.001247733    2.040    0.510
       431  -7.3870    179.2972     85.6349   5.9330764233e+01   2.8427217814e+01    0.1547129    0.1083894 -62.23 0.0007032016    1.721    0.419
       432  -9.8901    104.9012     83.3567   7.6297788379e+01   4.5641171636e+01    0.4942866    0.3128629 -64.36 0.0009810049    1.992    0.498
       433  -8.5738    157.8949     84.0017   6.3015824878e+01   3.3592139687e+01    0.2678248    0.1970591 -44.58  0.000478649    1.308    0.235
       434  -9.1106    140.7709     82.5938   6.6401648670e+01   3.7819708821e+01    0.4134769     0.222255 -49.49  0.001074629    1.947    0.487
       435  -9.7200      9.7806     80.8919   1.1243608792e+02   5.9536044875e+01    0.4214245    0.2136612  65.76  0.001573102    2.324    0.570
       436  -8.8843     74.8566     80.8644   8.5632908772e+01   5.1991196610e+01    0.3321218    0.2114405 -68.67 0.0009252424    1.857    0.462
       437  -8.3057     63.8606     82.2011   9.0156802124e+01   5.3462946097e+01    0.2297944    0.1927776  88.48 0.0007810111    1.323    0.244
       438  -9.6935     24.5867     80.4895   1.0598475051e+02   5.8588482714e+01    0.4954466    0.2620172  81.17  0.001400007    2.488    0.598
       439  -8.4246    150.1601     80.6490   6.3685166057e+01   3.6006548334e+01    0.2776032    0.1957541 -50.12 0.0007968455    1.432    0.302
       440  -8.8033    119.3279     80.4312   7.1208018644e+01   4.3141638546e+01    0.3210522     0.248584 -68.19 0.0007345324    1.506    0.336
       441  -8.3009    166.8197     79.6943   5.9984377909e+01   3.2295111302e+01    0.2616013    0.1883551 -27.17 0.0005221053    1.424    0.298
       442  -8.3533    184.3166     78.1859   5.6415100702e+01   2.8538135842e+01    0.2188187    0.1174105 -41.47 0.0007416327    1.713    0.416
       443  -9.6025    128.2454     74.7444   6.7041402025e+01   4.2254325061e+01    0.6304953    0.3101649 -38.09   0.00222245    2.017    0.504
       444  -8.5773    140.4754     75.4814   6.4294676450e+01   3.9246527397e+01    0.2620018    0.1996334 -73.10 0.0005605633    1.615    0.381
       445 -10.0158     63.1280     73.7166   8.7997481865e+01   5.5640430620e+01    0.4972214    0.3042789 -69.33  0.001039547    1.937    0.484
       446  -9.7602     82.5001     72.9016   8.0383776528e+01   5.2462579410e+01     0.472016    0.3171428 -75.67  0.001174234    2.140    0.533
       447  -8.2002    163.4096     73.2117   5.8745182157e+01   3.4215197660e+01    0.2205293    0.1292356 -46.16 0.0009377082    1.674    0.403
       448  -8.1957    151.5181     73.0856   6.1105033310e+01   3.7064555507e+01    0.2350461      0.14443 -38.66 0.0006819654    1.553    0.356
       449  -9.4285    105.8782     71.9760   7.2358019999e+01   4.7875769499e+01    0.3577874    0.2045675 -54.39  0.000787709    1.936    0.484
       450  -8.3265     42.5290     72.9381   9.6443792298e+01   5.8691385829e+01    0.2172668    0.1300231 -63.46 0.0004791727    1.543    0.352
       451  -7.9336    175.4927     72.5481   5.6336940093e+01   3.1485608318e+01    0.1466347    0.1381105 -40.18 0.0001819591    1.018    0.018
       452  -9.4812     51.3574     69.6075   9.1665198932e+01   5.8375430241e+01    0.4994992    0.2977451 -82.18  0.001491804    2.546    0.607
       453  -9.3221     30.1543     69.7890   1.0123755288e+02   6.0820087793e+01     0.522982    0.2628639 -15.11  0.001910179    3.669    0.727
       454  -9.2945     16.6462     69.7206   1.0753527832e+02   6.1961239980e+01    0.4492253    0.2072482 -79.97  0.001550046    2.200    0.545
       455  -8.6686    115.6804     72.9511   6.9823741663e+01   4.5495058519e+01     0.284443    0.2004208 -55.22 0.0007067739    1.509    0.337
       456  -8.8338    147.0909     68.3325   6.0566782731e+01   3.8971338119e+01    0.2978342    0.2078525 -46.82 0.0006296441    1.408    0.290
       457  -8.4316    138.6605     66.3859   6.1811092867e+01   4.1354023121e+01    0.3322118    0.2020435 -59.22   0.00090162    2.054    0.513
       458  -8.9668    121.6978     66.1981   6.5922088646e+01   4.5436359194e+01    0.3728244    0.2564329 -69.20  0.001062543    1.954    0.488
       459  -7.6209    203.2945     66.7078   5.0420554102e+01   2.6071606933e+01     0.141705   0.09777345 -58.63 0.0003135348    1.556    0.357
       460  -8.6474     83.2343     65.7423   7.7699876236e+01   5.3912686087e+01    0.3258156    0.2192146  -5.50  0.001280344    2.564    0.610
       461  -9.0236     37.3595     64.3757   9.6468978001e+01   6.1415565927e+01    0.3186061     0.228766 -85.54  0.001022436    1.630    0.387
       462  -9.0163    110.2156     63.7642   6.8253166731e+01   4.8567452735e+01    0.3021728    0.2463681 -70.83 0.0006054583    1.418    0.295
       463  -8.1785     95.7564     64.4222   7.2935992666e+01   5.1631245205e+01    0.2128741    0.1442238  33.87 0.0009397491    1.668    0.400
       464  -8.8431     64.7031     63.1260   8.3935182057e+01   5.7867091929e+01    0.4320915    0.2816766   6.79  0.001794517    2.441    0.590
       465  -9.1465     95.2035     71.2176   7.5467572244e+01   5.0311610828e+01    0.3610439    0.2433748 -60.87 0.0008626769    1.700    0.412
       466  -8.0360    158.1530     62.0923   5.6357573060e+01   3.7347989420e+01    0.2043769    0.1683301 -63.49 0.0003193806    1.270    0.213
       467  -9.2924     97.6253     60.6846   7.0982932029e+01   5.1989891073e+01    0.3416594    0.2806309  67.88 0.0008383561    1.378    0.274
       468  -9.7094     73.2859     59.4492   7.9175174553e+01   5.7174908893e+01     0.449199     0.252096 -56.53  0.001090134    1.959    0.489
       469  -7.5878    164.4743     60.4354   5.4676391861e+01   3.6075120269e+01    0.1495406    0.1381767 -58.17  6.72407e-05    1.045    0.043
       470  -8.3546     88.7122     59.9396   7.3676750244e+01   5.4038873479e+01    0.2179246    0.1906483 -42.49 0.0007836425    1.108    0.098
       471  -8.0286    146.9651     59.0096   5.7584604571e+01   4.0604866241e+01    0.1917589    0.1621176 -38.06 0.0005446932    1.147    0.128
       472  -9.9218     23.3935     56.4702   1.0120111054e+02   6.4753526780e+01    0.4846159    0.2840605  79.91   0.00212435    2.548    0.608
       473  -9.6142      7.4038     57.4244   1.0976440600e+02   6.5628112903e+01    0.3451515    0.2206796  79.28  0.001012996    1.758    0.431
       474  -8.4115    130.8305     57.7752   6.0734330364e+01   4.4783608224e+01    0.2855003    0.1807015 -59.06 0.0006830866    1.917    0.478
       475  -9.1156    119.0585     55.7636   6.2950391581e+01   4.7993070698e+01    0.3790714    0.2302423 -52.59 0.0009066427    1.829    0.453
       476  -7.9478    139.6696     56.2006   5.8188720251e+01   4.2877163250e+01    0.2101202     0.140898 -25.21 0.0003966563    1.622    0.383
       477  -9.2587     54.1670     55.1857   8.5679526258e+01   6.1358182042e+01    0.3316514    0.2293876 -69.51 0.0009348031    1.745    0.427
       478  -8.6864     44.1806     55.8775   9.0589964793e+01   6.2622290650e+01    0.2553117    0.2167254 -73.56 0.0008539826    1.267    0.211
       479  -8.3184    105.7986     53.1356   6.5648362740e+01   5.1600839999e+01    0.2360642    0.2002526 -67.23 0.0007024258    1.312    0.238
       480  -9.4877     92.3579     50.6238   6.8863894350e+01   5.5103411284e+01    0.4305196    0.2426064 -49.89  0.001148728    1.909    0.476
       481  -8.3189     74.9554     51.8247   7.5607471596e+01   5.8468249839e+01    0.2373039    0.1671927  10.73 0.0006021861    1.997    0.499
       482  -9.0043    144.8310     49.1246   5.4700431848e+01   4.2731471636e+01    0.2345033    0.1943818 -56.47 0.0005489279    1.215    0.177
       483  -8.2941    129.5348     49.0882   5.7954687868e+01   4.6569797479e+01    0.2269322    0.1463473 -34.90 0.0005302426    1.527    0.345
       484  -8.7756    120.8620     47.6068   5.9477687404e+01   4.8959763021e+01     0.248261    0.2027172 -22.25 0.0005496572    1.302    0.232
       485  -8.4072    112.1471     46.7531   6.1404112146e+01   5.1225644541e+01    0.2704805    0.1930637 -47.61 0.0006772214    1.435    0.303
       486  -9.0308     82.1098     46.6593   7.0807492489e+01   5.8049400593e+01    0.2945891    0.2440664 -68.57  0.000711534    1.439    0.305
       487  -8.5410     45.0402     44.7848   8.6080783382e+01   6.5017518098e+01    0.2480578    0.1854995 -50.82 0.0006348735    1.253    0.202
       488  -9.1776     16.3915     44.7062   1.0175895949e+02   6.8165063963e+01    0.2512724    0.1936053  72.62 0.0005530786    1.601    0.375
       489  -9.0278    132.8268     43.5060   5.5191531102e+01   4.6627096387e+01    0.2924562    0.2166832 -62.47 0.0008555237    1.508    0.337
       490  -9.0021     58.1366     42.5102   7.8829436343e+01   6.3443221557e+01     0.404815    0.2285987 -62.05  0.001486824    2.531    0.605
       491  -9.7259      5.3201     42.0985   1.0763260644e+02   6.9487258561e+01    0.4441873    0.2288137  88.47  0.001715642    2.477    0.596
       492  -8.6936     92.8688     42.8691   6.5523808980e+01   5.6404037894e+01    0.2408033    0.1995355  13.99  0.001225174    1.378    0.274
       493  -9.2844     69.5504     41.5129   7.3449035235e+01   6.1557753363e+01    0.4158849    0.2486263 -55.96  0.001342053    2.042    0.510
       494  -8.5981    106.0142     41.4620   6.0982406323e+01   5.3581646913e+01    0.2803174     0.197978 -51.99 0.0006311051    1.539    0.350
       495  -7.7705    140.2965     41.6548   5.2987217779e+01   4.5010829031e+01     0.158841    0.1087644 -62.20 0.0006085018    1.671    0.402
       496  -8.4882     36.6223     40.7802   8.8889390135e+01   6.7025755558e+01    0.2324921    0.1644292 -59.56 0.0007288957    1.426    0.299
       497  -8.6805     95.5093     38.0464   6.2635828784e+01   5.6620142855e+01    0.2230655    0.1417761 -37.44 0.0006056378    1.555    0.357
       498  -8.1248     80.5982     36.7717   6.7056911125e+01   6.0168015212e+01    0.2003985    0.1320608 -46.67 0.0003013342    1.588    0.370
       499  -9.6068     26.1976     35.4176   9.2712017059e+01   6.9418391785e+01    0.3686855    0.2339934 -66.79 0.0009084509    1.733    0.423
       500  -7.5515    133.6305     36.2857   5.2359163140e+01   4.7487954762e+01     0.157044    0.1102673 -70.27 0.0007019369    1.704    0.413
       501  -8.1756    125.9795     35.7029   5.3742346545e+01   4.9521686503e+01    0.2027029    0.1852693  69.74 0.0003709713    1.089    0.082
       502  -8.7028    111.8189     34.7399   5.6679115156e+01   5.3218462522e+01    0.2993779    0.1915502 -45.21 0.0007506774    1.616    0.381
       503  -8.4208    119.2650     33.4082   5.4342627853e+01   5.1550757171e+01    0.2576473    0.1610549 -49.68 0.0005218729    1.727    0.421
       504  -7.6704     88.9936     34.7360   6.3246659324e+01   5.8656391630e+01    0.1839612    0.1254007  51.80 0.0004262568    1.472    0.321
       505  -9.0432     48.4351     33.3345   7.9343833251e+01   6.6885050931e+01    0.2771627    0.2293423 -59.32 0.0007041462    1.381    0.276
       506  -8.9822     72.1912     31.3028   6.7660609263e+01   6.2873376656e+01    0.3435291    0.2281603 -55.97  0.001050189    1.900    0.474
       507  -7.8350    139.4514     31.5181   4.9478533950e+01   4.6645855149e+01      0.14384    0.1408538 -82.66 -2.553902e-06    1.027    0.027
       508  -9.0252     12.9862     30.3657   9.9177449268e+01   7.1743875185e+01    0.3399542    0.2002673 -76.49  0.001448987    2.025    0.506
       509  -8.7032     60.4233     32.6483   7.3264703158e+01   6.4943394609e+01    0.2675506    0.2227895 -78.70 0.0006704089    1.645    0.392
       510  -8.6983    127.0292     29.2759   5.1021014979e+01   5.0142357201e+01    0.2021699     0.187021  69.15 0.0003790842    1.063    0.060
       511  -8.4105    101.4879     29.1520   5.7006720695e+01   5.6570633083e+01    0.2164491    0.1411488 -32.84   0.00100929    1.533    0.348
       512  -8.9680     81.4783     27.3709   6.2328169201e+01   6.1509958469e+01    0.3270136    0.2108328 -52.36 0.0008704003    1.870    0.465
       513  -9.0427      3.6394     27.4378   1.0462624388e+02   7.3004145679e+01     0.272835    0.1952957 -89.90  0.001062877    1.652    0.395
       514  -8.9141     91.7146     26.2810   5.8504439147e+01   5.9322331575e+01    0.3218795    0.2182811 -54.91 0.0009747616    1.776    0.437
       515  -7.6124    145.5465     25.5222   4.6254147810e+01   4.5831087666e+01    0.1462256    0.1334827 -67.28 6.403968e-05    1.060    0.057
       516  -7.8572     34.4130     23.1616   8.2007622752e+01   7.0955472104e+01    0.1802576    0.1202213 -56.66 0.0005218155    1.719    0.418
       517  -8.9403     63.5771     21.0485   6.5903978413e+01   6.6290254139e+01    0.3168053    0.2144281 -55.29  0.001012057    1.938    0.484
       518  -8.8706     48.4910     21.6860   7.3310009541e+01   6.9022124646e+01    0.2369197    0.2127667 -51.86 0.0006608184    1.294    0.227
       519  -8.6318    232.7760     20.7700   3.5598590831e+01   2.5529799840e+01    0.1726584    0.1612146 -34.03 0.0007484108    1.204    0.170
       520  -8.1457     19.6461     21.3880   9.0742136375e+01   7.3092912611e+01    0.1738999    0.1504079  73.86 0.0007792452    1.602    0.376
       521  -8.9869     74.0129     19.5144   6.0988426946e+01   6.4316296626e+01    0.2581368    0.1842674 -46.67 0.0006397413    1.564    0.360
       522  -8.4846     87.9274     17.5337   5.5402278824e+01   6.1400572685e+01    0.2650346    0.1847395 -44.50 0.0005599479    1.553    0.356
       523  -8.1916     38.6608     18.4085   7.6838947291e+01   7.1205177588e+01    0.1782743    0.1596979 -83.13 0.0007246364    1.574    0.364
       524  -7.6722    112.7742     16.9525   4.8898639404e+01   5.5324271501e+01    0.1772015    0.1188088 -23.08 0.0002994181    1.559    0.359
       525  -8.0352     30.2098     16.1776   8.0744221533e+01   7.2840602818e+01    0.1652885    0.1516366 -59.30 0.0005454278    1.359    0.264
       526  -8.4862     96.9785     15.2558   5.1798827759e+01   5.9488768578e+01     0.194355    0.1891988  40.62 0.0006255822    1.016    0.016
       527  -8.0690      7.7694     15.6111   9.6849571431e+01   7.5339378472e+01    0.1577415    0.1092368  29.94 0.0007886584    1.664    0.399
       528  -8.6724    232.7238    247.5718   8.1770041825e+01  -3.5797366052e+00    0.1726119     0.148783 -33.36 0.0009604128    1.989    0.497
       529  -8.8960    218.6224    247.5815   8.3991741383e+01  -2.0390907392e+00    0.2502908    0.1124421 -36.81  0.001459924    2.581    0.613
       530  -9.0828    175.6792    247.7878   9.1259288612e+01   2.9821641404e+00    0.2332996    0.2007286  67.23  0.001245998    1.988    0.497
       531  -9.0522    132.4196    248.2783   9.9213696033e+01   8.3080801690e+00    0.2581531    0.1635416  54.29 0.0007172199    1.875    0.467
       532  -8.5353    113.0071    248.5045   1.0291320313e+02   1.0693989417e+01    0.1857097    0.1429095  73.49  0.001000438    1.667    0.400
       533  -9.3110    103.8943    246.9751   1.0452262593e+02   1.2043176388e+01    0.3465741    0.2062716 -89.99  0.002000918    2.822    0.646
       534  -9.2226    243.1264    246.6383   8.0056240404e+01  -4.5857338965e+00    0.2953945    0.1292623 -22.16  0.001797294    2.234    0.552
       535  -9.0821    156.2769    247.4040   9.4696743853e+01   5.4331735886e+00    0.2918795    0.1759758 -25.76  0.001216118    2.137    0.532
       536  -7.9948    142.4857    248.4465   9.7351788070e+01   7.0231111373e+00    0.1117341   0.08480544  27.91 0.0001404981    1.011    0.011
       537 -10.0651    223.8750    244.1808   8.2692965775e+01  -2.2735095798e+00     0.342255    0.1961496 -40.63  0.002283688    2.454    0.592
       538  -9.0949    210.8779    246.6320   8.5119714417e+01  -1.0643683541e+00    0.1684376     0.137004 -18.42 0.0007107157    1.442    0.307
