#   1 NUMBER                 Running object number                                     
#   2 MAG_AUTO               Kron-like elliptical aperture magnitude                    [mag]
#   3 X_IMAGE                Object position along x                                    [pixel]
#   4 Y_IMAGE                Object position along y                                    [pixel]
#   5 X_WORLD                Barycenter position along world x axis                     [deg]
#   6 Y_WORLD                Barycenter position along world y axis                     [deg]
#   7 A_WORLD                Profile RMS along major axis (world units)                 [deg]
#   8 B_WORLD                Profile RMS along minor axis (world units)                 [deg]
#   9 THETA_WORLD            Position angle (CCW/world-x)                               [deg]
#  10 FWHM_WORLD             FWHM assuming a gaussian core                              [deg]
#  11 ELONGATION             A_IMAGE/B_IMAGE                                           
#  12 ELLIPTICITY            1 - B_IMAGE/A_IMAGE                                       
         1 -12.4301    119.8040     37.6246   3.8504088076e+01   5.0563970005e+01    0.8769528    0.5306394 -55.00  0.002833768    2.190    0.543
         2 -12.0791    105.9399     20.8663   3.6013884387e+01   5.5917696801e+01    0.4039609     0.346921 -81.98  0.001761981    1.500    0.333
         3 -11.8758     48.4652     12.9479   5.2159755492e+01   6.7166970435e+01     0.543469    0.2621153  38.53   0.00293037    2.137    0.532
         4 -11.8367     26.6470     27.9206   6.7729867089e+01   6.7292081086e+01    0.4857234    0.2694929 -47.95  0.002483709    1.563    0.360
         5 -12.2302     20.1233     21.9762   6.8550957145e+01   6.8865493143e+01     0.490037    0.2371532 -41.08  0.001518157    1.661    0.398
         6 -11.8767     35.6829     18.0054   5.9867795275e+01   6.8005194919e+01    0.5625311    0.2081805 -34.56  0.001726863    2.631    0.620
         7 -10.9771    121.3378     11.7265   2.8784567505e+01   5.3499865510e+01    0.8016514    0.1853556  57.64  0.002641844    3.460    0.711
         8 -12.1234    135.2546     22.3517   2.9539181028e+01   4.8955417889e+01    0.9690237    0.3209244  50.67  0.003442665    2.636    0.621
         9 -12.4964    134.5210     14.8182   2.7083748339e+01   5.0009036266e+01    0.8573338    0.4235787  68.51  0.003667083    2.083    0.520
        10 -10.8496    127.3298     16.1896   2.9081719306e+01   5.1593636140e+01    0.2836019    0.2389215  19.12 0.0009840052    1.270    0.212
        11 -10.6415     90.6974     22.2145   4.0920883848e+01   5.8888835219e+01    0.3573336    0.2546438 -19.40  0.001552803    1.447    0.309
        12 -11.1832     85.8594     14.0176   3.9071619979e+01   6.0857887055e+01    0.3881629    0.2723199 -19.91  0.001533227    1.449    0.310
        13 -11.6800     68.0988     18.3527   4.6869670567e+01   6.3481310013e+01    0.4116764    0.3458379 -15.83  0.001629733    1.117    0.105
        14 -11.3102    179.6708     20.3133   2.1039338232e+01   3.7833068303e+01    0.5912832    0.2599834  44.20  0.002029069    2.798    0.643
        15 -12.4928    164.6126     18.3051   2.2759793316e+01   4.1997681220e+01    0.6175032    0.3036052  42.66  0.002114647    2.346    0.574
        16 -11.2788      5.8055     10.9137   7.1414088544e+01   7.1735219098e+01    0.4702705     0.356393  26.37  0.003642863    1.656    0.396
        17 -10.5848     12.6880      8.8843   6.7075567385e+01   7.1572857672e+01    0.3122464     0.225143 -67.83  0.002055794    2.313    0.568
        18 -12.1976     16.0663     14.2891   6.7567547905e+01   7.0455574214e+01    0.6436356    0.2873169 -26.92   0.00341639    2.415    0.586
        19 -11.8222     22.7121     11.2462   6.3070823843e+01   7.0359464910e+01    0.4067777    0.2428633  -9.40  0.001612976    1.799    0.444
        20 -11.9459    227.5034     15.3048   1.3964984200e+01   2.6201395644e+01    0.5269589    0.3041762 -82.15  0.001760712    1.753    0.429
        21 -12.2012    104.8905     12.8574   3.3184912879e+01   5.7088702020e+01    0.5213223    0.3332863 -27.86  0.002218885    1.659    0.397
        22 -10.4670    204.4772      1.5305   1.2876493668e+01   3.3517012814e+01    0.3043399    0.1372195  65.18  0.001288751    1.927    0.481
        23 -11.6139    211.9917      9.5569   1.4131685445e+01   3.0738563507e+01    0.5978402    0.3731361  -3.80  0.002720402    2.747    0.636
        24 -10.1265    211.9688      3.4548   1.2612256836e+01   3.1420592118e+01    0.2039609    0.1167947  77.70  0.000284515    1.542    0.351
        25 -12.0041    192.5332      8.2017   1.5945759987e+01   3.5867327081e+01    0.6146573    0.3918495  11.79  0.002770897    2.689    0.628
        26 -11.6438    206.8723      3.6776   1.3178145130e+01   3.2682563024e+01    0.5951879    0.2047338  60.18   0.00236556    2.563    0.610
        27 -11.5315    163.5478      6.9018   1.9428028430e+01   4.3515665042e+01     0.573945    0.2936845  -9.15  0.002355104    2.999    0.667
        28 -11.5486    169.3118      9.2865   1.9304703700e+01   4.1778035894e+01    0.5286785     0.202035  53.78  0.001807722    2.347    0.574
        29 -10.9157    145.3009      9.6860   2.3286324886e+01   4.7883108588e+01    0.2648397    0.2040594  39.83 0.0002854892    1.324    0.244
        30  -9.9174      1.2194      8.4494   7.2862205176e+01   7.2412588444e+01    0.2614377   0.04776674 -50.30  0.001144516    3.419    0.708
        31 -11.8784    184.0525      5.9216   1.6350664177e+01   3.8305739471e+01     0.459805    0.4437479   6.63  0.002791923    1.278    0.218
        32 -11.7618    177.1207      5.9157   1.7236390270e+01   4.0103745406e+01    0.4910011    0.2652437  87.16 0.0006055691    1.981    0.495
        33 -11.6215    157.4892      3.5138   1.9287458317e+01   4.5406828865e+01    0.3936333    0.2703096  35.45  0.002049568    1.661    0.398
        34 -10.0951     87.7046      7.4516   3.5750920937e+01   6.1243215792e+01    0.4415587      0.21936  45.49  0.001651533    1.789    0.441
        35  -9.8425    232.9071      7.4991   1.1633997390e+01   2.5810271210e+01    0.1993349    0.1152226  76.24  0.001023396    1.564    0.361
        36 -10.9428    121.9913      5.7413   2.6435946707e+01   5.3957314027e+01    0.3078485    0.1677486 -33.91   0.00102736    2.005    0.501
        37  -9.4644     78.0176      7.5139   3.8776523371e+01   6.3087734667e+01    0.1806214    0.1136465  48.99 0.0005714332    1.553    0.356
        38  -9.8959     62.6437      6.9700   4.3862995216e+01   6.5818372217e+01    0.1957888    0.1306225  -5.59  0.001163127    1.532    0.347
        39 -11.4007    233.9955      3.0960   1.0533202007e+01   2.6049353726e+01    0.4725491    0.2202691 -69.27  0.001555205    2.278    0.561
        40 -11.9216    133.1898      2.6637   2.3096663925e+01   5.1568259406e+01    0.5813298    0.3060296  68.91  0.002720139    1.799    0.444
        41 -11.8627    141.7284      3.4400   2.1824209125e+01   4.9393345272e+01    0.5880049    0.2767581  74.76  0.002464411    2.263    0.558
        42 -10.3695     41.4234      4.1091   5.1109360176e+01   6.9274980395e+01    0.2579367    0.1579575  -6.21  0.001052943    1.741    0.426
        43 -10.8361    218.6556      3.7789   1.2050491939e+01   2.9715267717e+01     0.282271    0.2207218  80.20 0.0006265309    1.143    0.125
        44 -10.8375    223.8693      2.7621   1.1330368675e+01   2.8540492940e+01    0.2341441    0.2003767 -63.38 0.0003823088    1.135    0.119
        45 -10.9976    105.8767      2.9106   2.9006000302e+01   5.7898442579e+01     0.321757    0.2697296 -50.91  0.001018456    1.459    0.315
        46 -10.0755     76.5115      3.4885   3.7482711341e+01   6.3801731080e+01    0.2553718    0.1598693  18.59  0.001144605    1.700    0.412
        47 -10.4076     73.3258      3.2941   3.8437407422e+01   6.4402433578e+01    0.2437667    0.1655654  21.39 0.0009683152    1.417    0.294
        48  -9.9518     21.7134      3.2077   5.9987116726e+01   7.1631949948e+01    0.1766011    0.1115318 -37.44 0.0005766635    1.415    0.293
        49 -10.7670    113.4893      2.5267   2.7081809278e+01   5.6230155122e+01    0.2277536     0.206638  70.87  0.001449917    1.174    0.148
        50 -11.0419      2.6216      1.9324   6.9490544145e+01   7.3351905493e+01    0.2580857    0.1474682  -8.20  0.001507857    1.773    0.436
        51  -9.9479     13.5255      1.6458   6.3485224192e+01   7.2591755844e+01    0.1835741    0.1175322  19.82 0.0007222926    1.625    0.385
        52 -10.5475    152.4342      1.4331   1.9403648481e+01   4.6890727910e+01    0.2649794     0.118789  68.11 0.0004309414    1.949    0.487
        53  -8.7457     33.3332      1.3226   5.3436769225e+01   7.0636565231e+01      0.11689   0.07163388  -3.73 0.0007050235    1.704    0.413
        54  -9.1463     82.0260      1.0000   3.4657118481e+01   6.3015252339e+01     0.187446   0.06359328  53.69 0.0004377284    2.742    0.635
        55  -9.8338      2.1340    125.8917   9.5073424986e+01   4.8623302127e+01    0.1825569    0.1231669  81.14  0.001222565    1.292    0.226
        56 -11.2997     50.0931    249.1720   9.4753845154e+01   1.8451401825e+01    0.3222953    0.1261219  62.12    0.0017541    2.108    0.526
        57 -12.4256    103.8258    122.4732   6.7329955622e+01   3.6966773289e+01    0.3511837    0.3221087  67.53 0.0006075773    1.067    0.063
        58 -10.2795     49.7786    122.9892   8.2200699830e+01   4.4980407727e+01    0.2113858    0.1766145   2.07  0.001281248    1.665    0.399
        59 -10.4684     44.9972    120.0382   8.3051845902e+01   4.6207253394e+01    0.2360434    0.1633072 -71.12 0.0007479867    1.241    0.194
        60 -10.2495     43.5561    116.4896   8.2893748325e+01   4.7184904041e+01    0.2680278    0.2277465  33.51  0.001610116    1.394    0.283
        61 -12.6668      2.5427    111.6225   9.3550986169e+01   5.1734362550e+01    0.4783246     0.274408  78.08 0.0005837219    1.753    0.430
        62 -11.3694      4.9542    104.8778   9.2135096138e+01   5.3068061093e+01    0.3093431     0.298695   0.36  0.002479634    1.367    0.269
        63  -9.9935     79.0063    114.8435   7.2549753456e+01   4.2938559740e+01     0.245609    0.1926368 -66.57 0.0008964968    1.184    0.155
        64 -10.4145     34.2832    103.9811   8.3539127748e+01   5.0989837097e+01    0.6650435    0.3219292  13.25  0.002973285    3.454    0.710
        65 -12.4399     17.5045    100.6187   8.7977080624e+01   5.3158890645e+01    0.4077155    0.3160478  50.60 0.0006722793    1.467    0.318
        66 -10.4679     23.6893    109.1251   8.7401001316e+01   5.0764334477e+01    0.2950101    0.2317586  64.44  0.001665687    1.350    0.259
        67 -10.8850     26.9442    106.5066   8.6086339831e+01   5.1080558670e+01    0.3745637    0.2672145  88.71  0.001790911    1.365    0.268
        68 -11.1123     21.6719    114.3711   8.8679955408e+01   4.9746026188e+01    0.4943951    0.2842767   3.76   0.00257904    2.947    0.661
        69 -11.1140     28.0366    113.3314   8.6770973432e+01   4.9436758756e+01    0.3579286    0.2344464  13.32  0.001507726    2.149    0.535
        70 -10.1794     48.7526    112.4181   8.0742499830e+01   4.7548695903e+01    0.2303961    0.1881198 -80.08 0.0008582766    1.099    0.090
        71  -9.9545     66.8470    110.8640   7.5227107496e+01   4.5634467955e+01    0.2608167    0.1803277  34.00  0.001386215    1.629    0.386
        72 -11.2979     80.0043    108.1916   7.0858758890e+01   4.4322490823e+01    0.4417723    0.3007657  29.88   0.00091787    1.733    0.423
        73  -9.4011    102.0164    109.0000   6.4788300200e+01   4.0385426886e+01    0.2324344   0.08329742  41.71 0.0005181278    2.862    0.651
        74  -9.7462     14.5406    108.8775   8.9946412118e+01   5.1533987679e+01    0.2527803    0.0990333  43.65  0.001239011    2.824    0.646
        75 -10.8352     51.9452     99.5378   7.7408927615e+01   5.0135707170e+01    0.5960115    0.1953106 -49.88  0.002018986    2.807    0.644
        76  -9.5730     64.7108    101.6924   7.3978473760e+01   4.8036414497e+01    0.2357893   0.08866698 -50.98 0.0001935018    2.414    0.586
        77 -11.8180     68.9163     95.6929   7.1378493706e+01   4.8818236031e+01    0.3673471    0.2999221  -1.14 0.0004450241    1.587    0.370
        78 -11.8124     10.1015     97.0517   8.9661264839e+01   5.4463699137e+01    0.4818089    0.4193474 -29.46  0.001049174    1.396    0.284
        79 -11.7391     27.6377     85.1372   8.2286873142e+01   5.5793593087e+01     0.564551    0.4839765 -17.82  0.003910178    1.378    0.274
        80 -10.8432     35.2186     92.0906   8.1162484351e+01   5.3580807869e+01    0.5585545    0.2637386 -79.78  0.002400684    2.785    0.641
        81 -11.6887     44.0969     85.1500   7.6911137174e+01   5.4235311227e+01    0.3966236    0.3139805   3.34  0.001732909    1.579    0.367
        82 -10.4815     37.2894     85.9495   7.9301991289e+01   5.4747073375e+01    0.2769724    0.1790176  33.03 0.0009040085    1.779    0.438
        83 -11.2792     22.5821     94.4871   8.5515367188e+01   5.4136324963e+01    0.2764024    0.2517753 -16.47  0.001280098    1.345    0.257
        84 -11.8101     18.3885     90.5845   8.6183062650e+01   5.5317453954e+01    0.5416604    0.2558846 -72.29  0.002138297    1.844    0.458
        85 -10.9201     30.3244     97.3980   8.3627579997e+01   5.2838905026e+01    0.5531923    0.2993772 -54.08  0.003032737    1.587    0.370
        86 -12.4155    248.4379     96.1440   3.0466842476e+01   9.4119093934e+00    0.5839057    0.3103996 -24.25  0.002427355    2.368    0.578
        87 -10.6807     80.9029     98.1463   6.8313773398e+01   4.6471323656e+01    0.4428527    0.2335546  54.32  0.001870802    2.352    0.575
        88 -10.4873     83.0754     93.1734   6.6453406998e+01   4.7236772682e+01    0.2670849    0.1975212  33.93 0.0003298914    1.487    0.327
        89 -10.8205     78.6022     92.6273   6.7680275685e+01   4.8068412476e+01    0.4472732    0.3656535 -52.70   0.00252367    1.141    0.124
        90 -11.9463    125.3004     94.7983   5.4833473474e+01   3.8834788388e+01     0.427952    0.2723687  56.11  0.001869562    1.649    0.394
        91 -10.6274     43.3428     94.4532   7.9063932407e+01   5.2242060228e+01    0.2854131    0.2290471  36.31  0.001350764    1.426    0.299
        92 -11.1004     89.6751     89.9043   6.3628584665e+01   4.6854869229e+01    0.4935092    0.2939375 -43.13  0.002277614    1.686    0.407
        93 -10.4123     49.4374     91.6632   7.6578388629e+01   5.2202620520e+01    0.2594333    0.2301361  47.64  0.001614675    1.264    0.209
        94 -10.7743     98.4651     90.9822   6.1302517277e+01   4.5052982312e+01    0.2644503    0.2102238  44.90 0.0005025143    1.297    0.229
        95 -11.7447      6.8323     88.7764   8.9491839199e+01   5.6476421501e+01    0.4474704    0.3391961   6.38   0.00244272    1.736    0.424
        96  -9.7829     65.5163     89.3720   7.0967044466e+01   5.0704785372e+01    0.3225512    0.1942186  -8.40  0.001241723    3.667    0.727
        97  -9.3577    104.0201     87.0219   5.8615668016e+01   4.4857320597e+01    0.1742386    0.1710208 -81.86 0.0007293486    1.017    0.016
        98 -10.8041    143.1490     84.7122   4.7476648348e+01   3.6854547063e+01    0.2477045    0.2332717 -46.37 0.0002806893    1.095    0.087
        99  -9.9520    133.0858     84.7520   5.0014356334e+01   3.9186099504e+01    0.2212737    0.1947916  84.93 0.0004035947    1.212    0.175
       100 -10.6623     80.2405     83.9703   6.4967245049e+01   4.9709298566e+01    0.3213028    0.3148434 -10.44  0.001510489    1.083    0.077
       101 -11.1782     75.0958     78.4979   6.5136324282e+01   5.1684796293e+01    0.4982005    0.4617536  67.40  0.002952057    1.190    0.160
       102 -10.4045    113.0591     82.4214   5.4741442329e+01   4.4017340036e+01    0.2536057    0.2418844 -30.97 0.0006313591    1.085    0.079
       103 -10.1011     66.7962     81.7266   6.8675398598e+01   5.2205035061e+01    0.4003196    0.2714313  25.28  0.002110858    1.738    0.425
       104 -11.3206     53.4675     76.4251   7.1757881411e+01   5.5076716478e+01    0.4602411    0.3005817 -60.80   0.00216823    1.439    0.305
       105 -10.1068     60.6704     81.8383   7.0703234995e+01   5.3007167099e+01    0.2642124    0.2206699 -11.54  0.001575172    1.407    0.289
       106 -11.1554     58.3818     77.7442   7.0435993434e+01   5.4186246873e+01    0.2829234    0.2258924 -42.33 0.0009752489    1.171    0.146
       107 -12.6973    247.2066     76.3695   2.6095787405e+01   1.2845975686e+01    0.5739527    0.4177936 -67.83  0.003015349    1.444    0.307
       108 -11.7483     13.5404     74.7743   8.5060099353e+01   5.9077542180e+01    0.5319981    0.3121209 -64.86  0.002790838    1.362    0.266
       109 -10.3710     14.3815     67.5773   8.3401362468e+01   6.0543388180e+01    0.3463277     0.188214   8.56  0.001982193    2.442    0.591
       110 -10.4309     94.6164     76.5533   5.8452965784e+01   4.8816243693e+01    0.3629576    0.2386854  43.67  0.001316421    1.572    0.364
       111 -11.0528     79.1864     68.0573   6.0827544319e+01   5.3203432732e+01    0.6707188    0.3994758  66.84  0.002659726    3.265    0.694
       112 -10.2613     92.0635     71.9263   5.7876440967e+01   5.0222210981e+01    0.2335003    0.2077759  16.15 0.0003884243    1.213    0.176
       113 -10.8136     83.4016     74.0068   6.1212482599e+01   5.1299395900e+01     0.467554    0.2411092  38.53  0.002084489    2.057    0.514
       114 -10.8174     88.1707     73.1625   5.9457551595e+01   5.0660630330e+01     0.465461     0.235947 -45.63  0.001813467    1.887    0.470
       115 -11.0565      1.9986     71.7685   8.8458690586e+01   6.0375795867e+01    0.3422708    0.1392338 -63.82  0.001644527    1.794    0.443
       116  -9.5916    104.0158     74.5527   5.5046892234e+01   4.7441027061e+01    0.2206353    0.1414198  45.51 0.0009438659    1.586    0.370
       117 -10.0845     24.6645     73.8328   8.1062778331e+01   5.8482872536e+01    0.2533931    0.1782332 -34.23 0.0007321622    1.474    0.321
       118 -10.2378     28.6511     71.8655   7.9257795611e+01   5.8577297726e+01    0.3017001     0.225788  60.13  0.001904499    1.692    0.409
       119 -10.8239     34.5176     71.5157   7.7120894091e+01   5.8133986200e+01    0.4049241    0.2227406  26.47  0.002222199    2.120    0.528
       120 -10.4031     41.2050     72.6109   7.5038093380e+01   5.7251541446e+01    0.2449228    0.2030676 -33.69 0.0009962711    1.198    0.165
       121 -10.9115     39.5165     69.4899   7.4876208834e+01   5.8081639411e+01    0.2458823    0.2042594   5.32 0.0006597302    1.392    0.282
       122 -10.8615    187.2294     70.9973   3.4138811216e+01   2.8365529135e+01    0.4793477    0.2796516 -41.86  0.001622753    1.712    0.416
       123  -9.0882     19.3168     72.2475   8.2595671951e+01   5.9222152392e+01    0.1139009    0.0743186 -37.94 0.0002631726    1.521    0.343
       124 -11.1799    122.9742     68.8694   4.7973823806e+01   4.4571657292e+01    0.4185156    0.2606451  47.68  0.001197398    1.581    0.368
       125 -10.5372    219.9358     66.9480   2.7643968703e+01   2.0768482056e+01    0.4890591     0.220171  72.24  0.001747094    2.836    0.647
       126 -12.0686     10.0278     62.6981   8.3993602958e+01   6.1827067739e+01    0.5533192     0.240478 -57.04 0.0006332188    1.707    0.414
       127 -12.2671      4.7944     61.9290   8.5746987183e+01   6.2277053190e+01    0.4186904    0.2910382 -60.33  0.001584811    1.114    0.103
       128 -10.9800     91.8907     62.7183   5.5095010274e+01   5.2063799404e+01    0.3764022    0.2454707  54.18  0.001408205    1.766    0.434
       129 -10.3796     59.0444     63.2963   6.6281763051e+01   5.7110908225e+01    0.3014967    0.2354693 -89.75  0.001151844    1.805    0.446
       130  -9.4365    156.7539     63.5285   3.8125198254e+01   3.7460647932e+01    0.2106119    0.1375425  44.38  0.000530165    1.582    0.368
       131 -10.0681     51.2402     56.4845   6.7090056063e+01   5.9446664726e+01     0.270277    0.1712851 -44.12 0.0007312106    1.388    0.280
       132 -11.2791     40.9260     57.0371   7.1094987571e+01   6.0492153680e+01    0.3882151    0.2014373  40.96  0.001916629    2.327    0.570
       133 -10.5100     50.2367     61.3799   6.8883941899e+01   5.8591445900e+01    0.2982231    0.2102852  38.20  0.001756365    1.610    0.379
       134 -11.1685     43.2641     62.4827   7.1727784397e+01   5.9147886160e+01    0.2796846    0.1952825 -49.51 0.0007186949    1.228    0.186
       135 -11.0642     46.1555     59.1466   6.9743327932e+01   5.9507584072e+01    0.2973652    0.2167193 -62.63 0.0009827805    1.426    0.299
       136 -11.4315    235.8968     60.7243   2.3898052729e+01   1.7886698866e+01    0.4244129    0.2680365  73.17    0.0020533    1.654    0.395
       137 -12.7494     74.4664     51.7989   5.7265828794e+01   5.7090990062e+01    0.8696324    0.4762393 -55.35  0.003991948    2.212    0.548
       138  -9.9293     82.8610     46.9119   5.2741935640e+01   5.6561552666e+01    0.2905669    0.1936893 -13.15 0.0007667418    1.935    0.483
       139 -11.7969     34.9668     51.6662   7.1849298174e+01   6.2146982691e+01     1.172232    0.5650754  16.86  0.005812906    2.720    0.632
       140 -10.9684     25.1960     59.4048   7.7639975643e+01   6.1454475773e+01    0.7524484    0.3849852  49.69  0.003768963    2.963    0.663
       141 -11.0622     25.1861     56.2004   7.6849609393e+01   6.2104363946e+01    0.4595232    0.2270416 -29.06  0.002164989    2.482    0.597
       142  -9.9340    106.3579     58.6339   4.9383535417e+01   5.0019561586e+01    0.2134176    0.1721022 -81.61   0.00108328    1.639    0.390
       143 -10.2396     87.6152     56.8891   5.4571999717e+01   5.3932876242e+01    0.3843172     0.124674 -40.71  0.001304373    3.086    0.676
       144 -10.6199    117.6106     55.5103   4.5174983095e+01   4.8181776306e+01    0.4858482     0.302456 -62.36  0.002032785    2.331    0.571
       145  -9.9973     91.7034     57.1887   5.3366008903e+01   5.3136590347e+01    0.2314202    0.1864518  56.81 0.0006917451    1.405    0.288
       146  -9.9265    157.9321     55.1148   3.5338835837e+01   3.8576365118e+01      0.42481     0.292014 -68.01  0.001876083    1.814    0.449
       147  -9.3177    124.6844     56.6725   4.3661936794e+01   4.6395361093e+01    0.1508922    0.1148165  14.90 0.0007044638    1.674    0.403
       148 -11.5120     60.6748     48.0537   6.0927043678e+01   5.9831323079e+01    0.7742002     0.279116 -43.76  0.003237653    2.526    0.604
       149  -9.5355      7.4495     54.0070   8.3147852697e+01   6.3743968553e+01    0.1748004    0.0891827 -63.23  0.001024422    1.584    0.369
       150 -11.0941     46.4141     48.8048   6.6550722031e+01   6.1495190409e+01    0.5786524    0.2393743 -37.87  0.002576949    2.467    0.595
       151 -11.9900     42.6130     44.1621   6.6550148803e+01   6.2792213493e+01    0.5372854    0.3707592  29.45  0.003325689    1.601    0.375
       152 -10.5170    109.8245     41.4776   4.2544202061e+01   5.2189052439e+01    0.7621286    0.4461813 -28.09  0.003520387    1.867    0.464
       153 -11.5346    117.6534     44.0430   4.1299935753e+01   5.0071357708e+01    0.5022668    0.4159013  66.06   0.00184825    1.301    0.231
       154  -9.9651    174.8020    246.5879   7.2512109329e+01  -4.5479584476e-01    0.1789836   0.09111225  48.60 0.0008838571    1.638    0.389
       155 -10.1312    240.5098     50.4888   2.0894303594e+01   1.8330923577e+01    0.1386411    0.1242979 -70.06 0.0001801519    1.044    0.042
       156 -10.2663     51.7459     48.3564   6.4368155613e+01   6.0944450012e+01    0.2318034      0.18907 -19.84 0.0007743823    1.176    0.150
       157  -9.7830      1.7512     48.9893   8.4282456116e+01   6.5038641020e+01    0.1558315    0.1168186 -55.66 0.0008256415    1.038    0.036
       158  -9.8811    146.3126     47.2290   3.5390128027e+01   4.2764682767e+01    0.2541043    0.1860734 -29.95  0.001020298    1.485    0.326
       159 -10.0860     12.9562     47.4004   7.9440723194e+01   6.4727667812e+01    0.2577598    0.0977177 -46.53  0.001334934    2.042    0.510
       160 -11.1338     20.5802     45.8738   7.5951356871e+01   6.4498099473e+01    0.3260776     0.176852 -36.96 0.0004811434    1.673    0.402
       161 -10.9881     26.6434     42.9100   7.2620557308e+01   6.4581132147e+01     0.224425    0.1948099 -10.70  0.001036328    1.189    0.159
       162 -10.2284     22.7559     37.3325   7.2555209458e+01   6.5943227189e+01     0.377326    0.2694067  57.50  0.002198162    2.245    0.555
       163 -10.2297    200.2675     45.0922   2.4897816832e+01   2.9129040906e+01    0.2946803    0.1773042 -81.18 0.0009205567    2.099    0.524
       164 -10.1011    138.8599     44.1317   3.6069240475e+01   4.5082722439e+01    0.3379306    0.1935192  29.66  0.001315889    2.509    0.601
       165  -9.8708    134.0100     46.0000   3.7822173652e+01   4.5969162314e+01    0.3516442    0.1034419  55.39 0.0007627599    3.234    0.691
       166 -11.0954    113.7781     49.5524   4.4238983304e+01   5.0033230318e+01    0.6958763    0.3342696  33.33   0.00252353    2.887    0.654
       167 -10.1935    155.9442     42.2569   3.1786355866e+01   4.1082225944e+01    0.2731262    0.2260558 -18.38 0.0009519979    1.397    0.284
       168 -11.2806      4.6769     36.1932   8.0015815169e+01   6.7359313910e+01    0.3874037    0.2444804 -47.24  0.002687469    1.202    0.168
       169 -10.4597     11.4694     30.4541   7.5378549211e+01   6.8018025687e+01    0.2927836    0.1817175 -24.80  0.001872463    1.545    0.353
       170 -10.1447      7.1600     30.5919   7.7358708100e+01   6.8257937060e+01    0.2503622    0.1314329 -17.77  0.001482716    2.183    0.542
       171 -10.2357     92.7060     41.7979   4.7736671001e+01   5.5618581198e+01    0.3101209    0.1969524  45.50    0.0015701    1.570    0.363
       172  -9.8555     17.0549     42.0099   7.6336278368e+01   6.5495036292e+01    0.1926585    0.1035248 -34.38  0.001127061    1.736    0.424
       173 -10.2985     80.4093     39.4484   5.0884216695e+01   5.8245970447e+01    0.4118846    0.2779793  72.81   0.00186547    2.869    0.651
       174 -11.0465     79.6072     33.3321   4.8861785521e+01   5.9358135529e+01    0.5422013     0.293646  29.16  0.002538932    2.147    0.534
       175 -10.0273    231.5061     38.5520   1.9108826940e+01   2.2192999986e+01    0.2881574    0.1303918 -34.45  0.001215801    2.182    0.542
       176  -9.8598     67.5623     32.1414   5.2645314560e+01   6.1541519254e+01    0.3773696    0.3570426  37.62  0.002278608    1.260    0.206
       177 -11.2648     60.8265     36.2507   5.6704881879e+01   6.1883072298e+01    0.4002878    0.2681287 -34.36   0.00164121    1.375    0.272
       178 -11.7906     57.5824     30.9466   5.5939754530e+01   6.3215411841e+01    0.4489399    0.2982517 -35.17  0.001151543    1.381    0.276
       179 -11.5380     48.7147     30.3819   5.9238477559e+01   6.4490577901e+01    0.5916182    0.2643209  27.04  0.002823094    2.609    0.617
       180 -10.7026     43.0386     28.0473   6.0686126901e+01   6.5566880013e+01    0.1826262    0.1446162 -28.93  0.001231826    1.087    0.080
       181  -9.8333    194.8290     37.8631   2.3744700543e+01   3.1579134236e+01    0.2052193    0.1863944  59.41 0.0002654727    1.165    0.142
       182 -10.2245    176.5840     35.6917   2.6001263732e+01   3.6657918385e+01    0.3683916    0.2074937 -55.28  0.001151273    2.026    0.506
       183 -10.6364    176.8317     30.7025   2.4499417175e+01   3.7266780122e+01    0.2824889    0.1939446  42.72  0.001069081    1.621    0.383
       184  -9.4612     94.3890     36.1082   4.5130785754e+01   5.6188894109e+01    0.1812157    0.1213177 -46.26  0.000766999    1.671    0.401
       185 -11.6368    126.2631    242.0212   8.0795184029e+01   8.3714104989e+00    0.3534023    0.1980294  60.63  0.001606823    1.685    0.406
       186 -11.3169    106.9342     31.8282   3.9866418101e+01   5.4245142654e+01    0.5769315    0.3372341   6.29  0.002257169    3.110    0.678
       187 -11.9258    114.2083     25.0528   3.5419173239e+01   5.3566373424e+01    0.7051128    0.2833708  48.05  0.001962591    2.253    0.556
       188  -9.9598    239.9149     33.0133   1.6869204144e+01   2.0932060962e+01    0.2091821    0.1639589  35.56  0.001137617    1.788    0.441
       189 -12.3057    160.0553     29.7415   2.7085780236e+01   4.1766030971e+01    0.4283131    0.3829338 -40.51 0.0003933294    1.206    0.171
       190 -12.3800    164.4648     27.7529   2.5685570732e+01   4.0880878609e+01    0.3349558    0.2711021  74.20 0.0005011655    1.146    0.128
       191 -10.5815     32.5161     31.3332   6.6373256114e+01   6.6147949644e+01    0.1985803    0.1569656 -33.87 0.0001558002    1.059    0.056
       192 -11.4592     67.4928    240.9916   9.1244823711e+01   1.7555973894e+01    0.3846178    0.1417922  47.90  0.002001137    2.015    0.504
       193 -11.1439    146.7233    238.0322   7.6556734349e+01   5.5693225776e+00    0.3701851    0.2460594  69.93  0.002131825    1.752    0.429
       194  -9.4316    167.5346    238.4974   7.2768271762e+01   1.9292572455e+00    0.1254917   0.09878514  45.03 7.828829e-05    1.008    0.008
       195 -10.3361     38.8365     22.2517   6.0208738035e+01   6.6988205863e+01    0.2082611    0.1648546 -17.51  0.001446623    1.065    0.061
       196  -9.3253    199.6605    234.6970   6.6371912376e+01  -3.0124463377e+00    0.1244912    0.0828205  19.12 0.0003135747    1.673    0.402
       197 -12.0324    126.3537     28.6608   3.3733101237e+01   5.0296444276e+01    0.5156723    0.3950617  72.37  0.002723582    1.415    0.293
       198 -10.0626     88.6966     29.5457   4.4422940069e+01   5.8263161319e+01    0.4552761    0.2044255  40.85  0.001456082    2.198    0.545
       199 -10.7139    198.1054     28.8467   2.0824083190e+01   3.1947331273e+01    0.4538355    0.1724258  54.29  0.001701381    2.542    0.607
       200 -11.3057    183.2563     25.3948   2.1971254545e+01   3.6268442348e+01    0.3859859    0.2842992  59.21  0.001209846    1.282    0.220
       201  -9.5740    187.4436     22.7867   2.0629510636e+01   3.5498611381e+01    0.1910286    0.1844442 -57.18 0.0004850833    1.164    0.141
       202 -11.9666    145.2060     24.1910   2.8121346509e+01   4.6261323254e+01    0.7249824    0.2519502  49.82  0.002622798    2.632    0.620
       203  -9.3011     15.3993    233.8038   9.9572730992e+01   2.5269880786e+01     0.136694   0.07839225 -75.91 0.0009510402    1.704    0.413
       204  -9.6709     75.4889    224.5079   8.8444146841e+01   1.9428723639e+01    0.1236994    0.0913967  66.71 0.0001780202    1.015    0.015
       205  -9.2981    120.5505    223.5070   7.9754643424e+01   1.2481942538e+01     0.129004    0.1028121  58.24 0.0002188036    1.016    0.016
       206  -9.6179     49.6575    222.6799   9.3037045393e+01   2.3313004101e+01   0.09597571     0.090069 -59.00 0.0007049849    1.721    0.419
       207 -10.9597    154.3485     24.3192   2.6418772392e+01   4.3924860305e+01      0.37246    0.2009143  75.77  0.001549228    2.080    0.519
       208 -10.8253    156.4475     20.5116   2.4828401776e+01   4.3847673459e+01    0.3807406    0.1441285  57.33  0.001461791    2.242    0.554
       209  -9.8249    164.6304    212.0649   6.9568507175e+01   6.6150395746e+00    0.2224099     0.157544  52.78  0.000585345    1.258    0.205
       210  -9.9638     89.5506     16.7947   3.9085289220e+01   5.9803361956e+01    0.2310293    0.1609406  37.99 0.0008590687    1.325    0.245
       211 -10.0563    152.7425    207.1669   7.1190762296e+01   9.6673001637e+00    0.2937424    0.1787773 -71.50  0.001388678    2.398    0.583
       212  -9.9827     59.6734     23.6058   5.2212501005e+01   6.4051326446e+01    0.2124592    0.1355007 -38.19 0.0005769509    1.528    0.346
       213  -9.9141    223.4440     22.0526   1.6009077992e+01   2.6369051320e+01    0.2607775    0.1663188 -85.97 0.0005942311    1.536    0.349
       214  -9.6241      5.7088     22.0252   7.5383544708e+01   6.9870862528e+01    0.1510902    0.1078165 -43.80 0.0005665571    1.098    0.089
       215  -9.0367     61.5053    206.5194   8.9489648321e+01   2.4914566704e+01    0.1241475   0.09442016  71.85 0.0001645117    1.004    0.004
       216  -8.9695     78.6547    203.7164   8.5810752041e+01   2.3028614713e+01    0.1069186    0.1021634   3.04 0.0006064129    1.643    0.391
       217 -10.1828    139.6089    198.8297   7.2618736953e+01   1.3648792473e+01    0.1817136     0.127615 -73.23 0.0009512944    1.696    0.411
       218  -9.9205     74.7750     19.6002   4.5033563737e+01   6.2183610844e+01    0.1965672    0.1516997  -7.56  0.000442447    1.263    0.208
       219 -10.2323     47.0038     19.2928   5.5509652886e+01   6.6450269195e+01    0.2226252    0.1861695 -24.08  0.001555669    1.129    0.114
       220 -11.8230      5.1383    185.8389   9.8832176664e+01   3.5558649586e+01    0.3805729    0.2666935 -84.65  0.002126995    1.208    0.172
       221  -9.4870     86.2150    185.5867   8.2144549166e+01   2.5652993753e+01    0.1748332    0.1219345  35.98 0.0009481945    1.642    0.391
       222  -9.2181    113.4860    175.9764   7.4762136420e+01   2.3110477900e+01    0.1798158    0.1188744 -34.89 0.0008072017    2.401    0.584
       223  -9.3182     28.3686    175.8071   9.3499654174e+01   3.5396744677e+01    0.1631159   0.08851839 -68.77 0.0005299976    1.661    0.398
       224  -9.2832      1.5290     20.4701   7.6890670909e+01   7.0374892655e+01    0.1079074   0.07834106 -38.15 6.089423e-05    1.038    0.037
       225  -9.7080     80.4484     19.4815   4.3070663149e+01   6.1187882890e+01    0.2728223    0.1167881  46.77  0.001232003    2.248    0.555
       226 -11.6480      9.3364    166.9108   9.6773527320e+01   3.9141936875e+01    0.2528492    0.2134711  43.66   0.00124436    1.476    0.322
       227 -10.5997    186.8824     15.0979   1.8553218420e+01   3.6562978165e+01    0.2345901    0.2028255  85.08 0.0003594705    1.007    0.007
       228 -10.8310    148.6879     15.6935   2.4660917238e+01   4.6382782587e+01    0.3912209    0.1970096  41.64  0.001164843    2.177    0.541
       229  -9.1606    198.3158    167.7039   5.5033726509e+01   7.7451234417e+00    0.1385743     0.112499  82.79 0.0002671777    1.605    0.377
       230  -9.9516     18.6788    164.8972   9.4648835354e+01   3.8725887770e+01    0.1726314    0.1629569  53.73  0.001324238    1.427    0.299
       231  -9.9925    205.0208    163.3732   5.2848177624e+01   7.1295420861e+00    0.2520057    0.2088572 -46.08 0.0006653664    1.299    0.230
       232  -9.8489     28.5323    160.5213   9.2110090241e+01   3.8717014851e+01    0.1218521   0.09415648  86.03 0.0001558148    1.001    0.001
       233 -10.3773     13.9169    159.1659   9.5211835815e+01   4.0407365523e+01    0.1824756    0.1229694  75.79 0.0006103069    1.222    0.182
       234 -10.6646      9.4201    155.6718   9.5913815886e+01   4.1554251329e+01    0.2182813   0.08951878 -81.69  0.001121778    2.006    0.502
       235 -10.1663    104.0137    154.7930   7.3509379277e+01   2.9498283771e+01    0.2608357    0.2058179 -68.19  0.001405034    1.246    0.198
       236 -12.1316     23.1221    148.9502   9.2232467472e+01   4.1820046590e+01    0.3879091    0.2546532 -44.74  0.001673974    2.024    0.506
       237 -11.0697    188.9747     27.8970   2.1842405528e+01   3.4451613014e+01    0.3681087    0.3271568  -1.43  0.001493108    1.420    0.296
       238 -10.1499      3.9363    153.3486   9.6932186975e+01   4.2501536020e+01     0.180505    0.1089023  60.37   0.00117092    1.517    0.341
       239  -9.7304     65.7304     10.4598   4.4303165366e+01   6.4891578288e+01    0.2079736    0.1131205  47.37  0.000815085    1.922    0.480
       240  -9.4341    142.2534    152.4444   6.3991940019e+01   2.2594118009e+01     0.224553    0.1336571  55.71 0.0009602669    1.682    0.405
       241 -11.1355     46.5327    147.6429   8.6504574263e+01   3.9654553563e+01    0.5429474    0.2678336 -53.22  0.002544677    2.153    0.536
       242 -10.1308     30.4271    151.8989   9.0828318862e+01   4.0446282844e+01    0.2036837    0.1681208  -7.09  0.001317515    1.938    0.484
       243 -11.0940     16.1238    147.9520   9.3757747950e+01   4.2674537356e+01    0.2448113    0.1868819  63.72 0.0007259183    1.251    0.201
       244 -10.3171      3.1747    147.6550   9.6668361287e+01   4.3792089353e+01      0.15065    0.1225341  88.34  0.001126413    1.119    0.106
       245  -9.6235     74.0255    146.0181   7.9463659838e+01   3.6405556370e+01    0.1953529    0.1589988 -39.88 0.0004919298    1.583    0.368
       246 -11.1803     33.1890    144.4834   8.9372024348e+01   4.1838961931e+01    0.2564282     0.199006  82.09 0.0006768581    1.100    0.091
       247 -10.9944      5.9387    142.0495   9.5588831396e+01   4.4804519617e+01    0.2549999    0.1400036 -89.22 0.0002987373    1.491    0.329
       248 -11.1367      2.0955    140.4233   9.6340766847e+01   4.5444421594e+01    0.3447366    0.1713643 -82.74  0.001059615    1.579    0.367
       249 -10.2383     15.7751    141.0233   9.3191478048e+01   4.4242656814e+01    0.1843418    0.1298588  79.33 0.0005488019    1.221    0.181
       250 -11.2740     12.5256    136.2026   9.3505863951e+01   4.5582199137e+01    0.4459126     0.236691 -59.20     0.002598    1.742    0.426
       251 -10.3348     40.4743    138.2060   8.6815892845e+01   4.2505010966e+01     0.271051    0.1588311  78.27  0.001037963    1.818    0.450
       252  -9.1661    217.4565    138.5530   4.5204176704e+01   8.8944876522e+00    0.1414583    0.1381771   9.57 9.848476e-05    1.006    0.006
       253  -9.8873     79.1321    138.0726   7.6866967760e+01   3.7491603294e+01    0.2068837    0.1837339 -57.30  0.001217641    1.227    0.185
       254  -9.7870     32.0558    137.5170   8.8844879628e+01   4.3538513305e+01    0.3511029    0.1684442  48.57  0.001557639    2.123    0.529
       255 -11.1658     22.4055    136.2402   9.1096893319e+01   4.4738708683e+01    0.4911938    0.2597507  46.19   0.00278758    1.941    0.485
       256 -11.2117     29.7157    133.1701   8.8915369906e+01   4.4758077844e+01    0.3390641    0.2274168 -47.37 0.0008108911    1.727    0.421
       257  -9.7108     73.3938    133.2276   7.7538243482e+01   3.9483376162e+01    0.1981175    0.1208077 -75.14 0.0008636462    1.658    0.397
       258  -9.7162     39.5227    133.4964   8.6446978242e+01   4.3690898732e+01    0.1697306    0.1278023  11.61 0.0005848376    1.936    0.483
       259  -9.7374     93.2725    129.8273   7.1649878906e+01   3.7132231494e+01    0.2375363    0.1753016 -84.47  0.001193525    1.445    0.308
       260 -11.0057     10.1333    127.7959   9.3264625335e+01   4.7636822081e+01    0.4225073    0.1953117 -55.14  0.001670124    2.062    0.515
       261  -9.1300     26.5546    127.4714   8.9035789953e+01   4.6351305357e+01    0.1227082   0.09812686 -82.40  8.56239e-05    1.004    0.004
       262  -9.5852     22.8550    126.8538   8.9920721552e+01   4.6820842443e+01    0.1586269    0.1157212  80.77            0    1.254    0.203
       263  -9.5074     47.2485    134.9835   8.4655766248e+01   4.2489784251e+01    0.1717612   0.09537853 -69.97 0.0006209714    1.564    0.361
