#   1 NUMBER                 Running object number                                     
#   2 MAG_AUTO               Kron-like elliptical aperture magnitude                    [mag]
#   3 X_IMAGE                Object position along x                                    [pixel]
#   4 Y_IMAGE                Object position along y                                    [pixel]
#   5 X_WORLD                Barycenter position along world x axis                     [deg]
#   6 Y_WORLD                Barycenter position along world y axis                     [deg]
#   7 A_WORLD                Profile RMS along major axis (world units)                 [deg]
#   8 B_WORLD                Profile RMS along minor axis (world units)                 [deg]
#   9 THETA_WORLD            Position angle (CCW/world-x)                               [deg]
#  10 FWHM_WORLD             FWHM assuming a gaussian core                              [deg]
#  11 ELONGATION             A_IMAGE/B_IMAGE                                           
#  12 ELLIPTICITY            1 - B_IMAGE/A_IMAGE                                       
         1 -13.9109     68.6127    144.4065   9.6605267079e+01   3.7497181404e+01     4.389596     2.189657  70.08  0.003715294    5.433    0.816
         2 -13.5654    205.6140     41.9239   3.9247296574e+01   2.8816844274e+01     1.720743     1.317649  36.10  0.008416396    1.867    0.464
         3 -13.4106    218.1891     30.5615   3.5435933292e+01   2.7540542674e+01    0.9681138     0.794974  46.43  0.006276119    1.639    0.390
         4 -10.5392      2.0000     17.5745   8.9368610728e+01   7.1872845337e+01    0.3554929   0.05428202 -50.23  0.001166019    6.032    0.834
         5 -12.7100    244.4448      5.7892   2.8508758837e+01   2.5063779272e+01    0.7492293    0.5250184 -83.06  0.005359806    1.168    0.144
         6  -9.9379      2.0000      3.0020   8.2653044864e+01   7.3996621808e+01    0.2006707    0.1192533 -32.97  0.001357254    1.490    0.329
         7  -9.9220     51.7762      4.1913   5.8630477696e+01   6.7131231964e+01    0.2476609     0.162081  60.41  0.001009166    2.010    0.502
         8  -9.6954     47.2361      2.3574   5.9489421624e+01   6.8085024688e+01    0.2220414    0.1302712  50.28 0.0008378841    1.721    0.419
         9 -10.3653    192.4665    193.5255   7.5106248068e+01   4.5557403181e+00    0.5036018    0.3076163 -71.07  0.001739192    4.542    0.780
        10 -14.6742      6.4022    141.6249   1.1463051141e+02   4.4823201733e+01     6.002967     1.382791 -76.35   0.01865544    4.426    0.774
        11  -9.9483    186.8474    175.0320   7.2641490436e+01   9.0642303282e+00    0.3346592    0.3016709 -65.45  0.001326374    1.323    0.244
        12  -9.9723     86.4635    175.5330   9.7000181183e+01   2.7013088645e+01    0.2841775    0.2166181   1.87 0.0006068844    1.788    0.441
        13 -11.3980     63.5382    172.7572   1.0269977602e+02   3.1072997824e+01    0.4786172    0.3026133 -34.87  0.002160954    2.130    0.531
        14 -11.1915     68.3548    168.0386   1.0068555539e+02   3.1580435529e+01    0.3384431     0.276806 -25.02 0.0006991364    1.519    0.342
        15  -9.5882    115.4789    174.4963   8.9228336401e+01   2.2379110649e+01     0.228648    0.1472962 -66.88 0.0009014698    1.803    0.445
        16 -12.1671     77.7624    159.0966   9.6599140552e+01   3.2438618103e+01     1.013106    0.5575137  54.61 0.0004376079    2.139    0.533
        17 -12.7233     65.1469    154.8738   9.9462894094e+01   3.5343069490e+01    0.5194483    0.4262963 -29.93  0.001042846    1.424    0.298
        18  -9.3872     46.2565    167.0054   1.0657346603e+02   3.4715665626e+01    0.2393089    0.1850189  53.32  0.000383213    1.294    0.227
        19 -14.3613     10.1765    206.5703   1.1922126198e+02   2.9027487089e+01     1.023543    0.9045405  36.69  0.003645225    1.357    0.263
        20  -9.4208     32.4155    155.8101   1.0893580777e+02   3.9053238488e+01    0.2618757    0.1634725 -53.05 0.0009943933    1.553    0.356
        21  -9.8532     29.0082    155.5115   1.0985250851e+02   3.9469307314e+01    0.2141402    0.1616109 -76.53 0.0003835324    1.171    0.146
        22 -11.6383     85.2277    152.6871   9.3316910080e+01   3.2872225758e+01    0.6656674    0.4739085 -19.75   0.00212194    1.967    0.492
        23 -10.0395    133.0000    141.5063   7.7862040511e+01   2.6785158202e+01     0.693671    0.2021571 -52.47  0.001910511    3.929    0.745
        24  -8.3299    174.7088    149.3148   6.9777887126e+01   1.6589297618e+01    0.1465286     0.119562 -82.68 0.0002125832    1.593    0.372
        25  -9.7232     22.0873    146.0326   1.1063778110e+02   4.2487659443e+01    0.2442442     0.162606  56.69 0.0006840277    1.617    0.382
        26 -16.5505     16.0136    242.7478   1.2026511078e+02   2.0727024978e+01     7.017243     2.869096  23.83   0.03199981    3.510    0.715
        27  -9.9716    134.2614    147.4301   7.8872979278e+01   2.5169122894e+01    0.6206346    0.2040454 -52.49  0.001862866    3.332    0.700
        28  -8.6603     34.6170    145.1737   1.0686264903e+02   4.1504949179e+01    0.2234773    0.1242957 -68.73  0.001055899    1.610    0.379
        29  -9.2706     31.8208    143.1808   1.0740665999e+02   4.2289752006e+01    0.2902486    0.1920017 -70.72  0.001286681    1.349    0.258
        30 -11.6994     87.1496    138.3127   8.9883074219e+01   3.6134895167e+01    0.3662081    0.2971028 -63.83 0.0004212823    1.230    0.187
        31 -10.1574    100.0250    138.8477   8.6245582673e+01   3.3765985692e+01    0.5392556    0.3539036 -16.08  0.002089721    2.502    0.600
        32  -9.6406    105.9849    130.7395   8.2704240337e+01   3.4621838719e+01    0.3366629    0.3290111  88.30  0.001279217    1.040    0.038
        33  -9.6248    109.9695    129.5233   8.1285531255e+01   3.4150321796e+01    0.3438138    0.2568068   9.16  0.000895075    1.775    0.437
        34  -9.6487    135.6757    129.7217   7.4412331573e+01   2.8916084300e+01    0.3429089    0.1965842 -54.21  0.001182534    1.863    0.463
        35  -9.9082     67.5119    128.5203   9.3829518250e+01   4.1641287731e+01    0.2893409    0.1433828 -62.94 0.0009814221    2.066    0.516
        36  -9.4951     66.8574    125.3758   9.3377838111e+01   4.2515972445e+01    0.2944618    0.2118949  -0.15  0.001374454    1.842    0.457
        37  -9.7779     97.1523    125.3355   8.4010374063e+01   3.7551614625e+01    0.3043922     0.239458  -8.42 0.0008509285    1.612    0.380
        38 -13.5133     47.1351    187.7697   1.0890212784e+02   2.9492472913e+01     1.427582     1.062287  60.99  0.008057666    1.277    0.217
        39  -9.2203    106.8481    118.5895   7.9521891917e+01   3.7313467283e+01    0.2393131    0.2024262 -35.91 0.0004219364    1.209    0.173
        40 -13.7181     14.5664    214.2556   1.1879926628e+02   2.6893519785e+01     1.040767    0.4860751  30.97  0.003753786    2.218    0.549
        41 -10.1366    231.1909    113.8933   5.1732024320e+01   1.2233771180e+01    0.2886875    0.2364071 -42.60 0.0007509978    1.073    0.068
        42 -11.6065    244.9076    112.6552   4.9552122514e+01   9.9502778558e+00     0.399911    0.1994151 -32.54  0.001860038    2.052    0.513
        43  -9.8562    240.4016    169.2309   6.1560496929e+01   1.1232136400e+00    0.1796624    0.1077557 -45.04 0.0003301937    1.595    0.373
        44 -14.5625     37.0169    196.5951   1.1230567847e+02   2.8567007749e+01     3.408409     1.726458  73.55  0.007199903    2.311    0.567
        45  -8.5024    110.8022    167.8236   8.9191948115e+01   2.4796301799e+01    0.2109295    0.1776565  78.30 0.0005710976    1.328    0.247
        46 -10.8752    244.5072     94.2038   4.5841441036e+01   1.3034419879e+01     0.292089    0.1735324  85.51  0.001399831    2.564    0.610
        47  -9.3882    205.4305    110.1734   5.4958981681e+01   1.7962919737e+01    0.2888234    0.2052485  43.48  0.001036753    1.590    0.371
        48 -10.7103     52.7584    109.7599   9.4650866715e+01   4.8253978076e+01    0.4260112    0.2580656 -53.15  0.002032757    1.495    0.331
        49  -9.2716     18.0073     90.0363   1.0302507371e+02   5.6451302394e+01    0.1892896    0.1485576  69.31 0.0004856707    1.637    0.389
        50  -8.7862    160.4467     83.4918   5.6727600456e+01   3.2807766857e+01    0.1469965    0.1397345 -82.88  0.000146204    1.016    0.016
        51  -8.7450     71.8825     83.1292   8.1043729473e+01   5.1520804450e+01    0.2053916    0.1900923  61.44 0.0004636461    1.273    0.215
        52  -8.1615    129.6730     65.2451   5.8346126807e+01   4.3136783312e+01    0.1411814    0.1114968  87.56 0.0002425286    1.537    0.349
        53  -8.6741     48.3300     62.4785   8.3528437973e+01   5.9202744878e+01    0.1638789    0.1230068  38.02 0.0009179841    1.479    0.324
        54 -12.3332    195.9254     48.5418   4.1965175785e+01   3.0089594970e+01    0.6389712    0.5568412  45.39   0.00182207    1.402    0.287
        55  -9.7485    119.5885    245.8064   9.9163003947e+01   6.5302213940e+00    0.2315575    0.1214948 -50.48  0.001152045    2.203    0.546
        56 -10.2529    198.1042    204.1083   7.5942660662e+01   1.7231583015e+00    0.2130902    0.1690529  -3.96 0.0005629826    1.225    0.183
        57  -9.2943     99.3703    180.7970   9.4493827356e+01   2.3653065607e+01      0.26135    0.2341617  36.24 0.0005985843    1.123    0.110
        58 -10.5863     13.4383     60.0174   9.7835269763e+01   6.3332303388e+01    0.2691726     0.204367 -51.44 0.0004454823    1.216    0.177
        59  -8.8597    198.1270     23.5962   3.5899170133e+01   3.2767128602e+01     0.214153    0.1683276  -6.99 0.0007960167    1.917    0.478
        60 -11.2803     95.3962    241.7785   1.0386665034e+02   1.0889236156e+01    0.3979408    0.2571781 -75.84  0.002031743    1.863    0.463
        61  -8.8049    189.6487     15.0189   3.4796526766e+01   3.5635923247e+01    0.1693116     0.147867 -70.88  0.001064335    1.123    0.110
        62  -9.8893    111.0937    203.2048   9.5174025345e+01   1.6542191878e+01      0.25266    0.2043425  29.40 0.0004499417    1.239    0.193
        63  -9.6161    122.3165    199.1758   9.1838032964e+01   1.5554405480e+01    0.2793536    0.2482228 -83.38  0.001145553    1.245    0.196
        64  -8.7661    169.0205    235.7587   8.7277009168e+01   7.5369285150e-01    0.1745908    0.1493336  17.19 0.0003678835    1.007    0.007
