#   1 NUMBER                 Running object number                                     
#   2 MAG_AUTO               Kron-like elliptical aperture magnitude                    [mag]
#   3 X_IMAGE                Object position along x                                    [pixel]
#   4 Y_IMAGE                Object position along y                                    [pixel]
#   5 X_WORLD                Barycenter position along world x axis                     [deg]
#   6 Y_WORLD                Barycenter position along world y axis                     [deg]
#   7 A_WORLD                Profile RMS along major axis (world units)                 [deg]
#   8 B_WORLD                Profile RMS along minor axis (world units)                 [deg]
#   9 THETA_WORLD            Position angle (CCW/world-x)                               [deg]
#  10 FWHM_WORLD             FWHM assuming a gaussian core                              [deg]
#  11 ELONGATION             A_IMAGE/B_IMAGE                                           
#  12 ELLIPTICITY            1 - B_IMAGE/A_IMAGE                                       
         1 -14.5114     68.5588    144.3092   1.0019258580e+02   3.7408594387e+01     4.950169     2.630627  66.67   0.01083763    3.243    0.692
         2 -13.3951    200.5248     41.4291   4.1871700369e+01   3.0250813053e+01     1.178737      1.04416 -32.56  0.003558603    1.265    0.210
         3 -13.6688    210.9028     31.4256   3.8282278328e+01   2.9171156178e+01    0.9956785    0.8916454   9.73  0.001746439    1.536    0.349
         4 -12.3190    239.0176      6.6580   3.0546810088e+01   2.6001853540e+01    0.6181669    0.4715737 -30.53  0.004233052    1.568    0.362
         5 -12.1703    232.8549      5.1754   3.0665412268e+01   2.7420411844e+01    0.5784785    0.3710638 -36.22  0.003663462    1.594    0.373
         6 -11.1720     17.7295      4.3027   7.7247302201e+01   7.2534777490e+01     0.270212    0.2248692 -32.27  0.001979948    1.607    0.378
         7  -8.8343     38.5404    211.4824   1.1631967737e+02   2.4917753785e+01    0.2690298    0.1277903  63.38  0.001165612    2.175    0.540
         8 -10.1798    140.3246    249.9768   9.9010669802e+01   3.1046052092e+00    0.2804755    0.1643881  54.31  0.001445141    2.010    0.502
         9 -13.1165     54.0983    186.9509   1.1031198932e+02   2.8721830428e+01     1.711834     0.999591  67.89  0.008250075    1.897    0.473
        10 -16.9515     15.9900    243.2617   1.2292125422e+02   2.0732610840e+01     6.216206     2.118677  26.08   0.02630525    4.372    0.771
        11 -13.1821     21.0593    221.9447   1.2070773091e+02   2.4535288220e+01    0.6653911    0.5302027 -52.63  0.001379717    1.647    0.393
        12 -10.1927    193.3221    205.6624   8.1049295639e+01   2.3994234504e+00    0.1851711    0.1428725 -52.99  0.001012124    1.637    0.389
        13 -10.7383    111.5783    204.2470   9.8882604466e+01   1.6403939412e+01    0.3700396    0.2770814  85.25 0.0008103306    1.639    0.390
        14 -10.7399    107.4167    203.2380   9.9705046629e+01   1.7292004797e+01    0.4008928    0.2410676  59.84  0.001821395    1.971    0.493
        15 -10.9433    192.8851    194.7611   7.9091224664e+01   4.4155300449e+00     1.070903    0.5889372 -65.56  0.003045751    6.602    0.849
        16  -9.9429    121.4747    199.5100   9.5830138462e+01   1.5803384161e+01    0.2835304    0.2148356 -24.85 0.0007899058    1.661    0.398
        17  -9.8281    121.0869    195.8757   9.5330891726e+01   1.6660197872e+01    0.2389408    0.2065935  89.43 0.0004525661    1.294    0.227
        18 -10.0954     59.6426    197.3096   1.1018277706e+02   2.5585956053e+01    0.2619096     0.200576  56.00   0.00038266    1.210    0.174
        19  -8.3644     91.3041    250.2742   1.0897733033e+02   1.0200768251e+01     0.108727   0.09285232   6.70 0.0001754398    1.541    0.351
        20  -8.4929     82.1973    194.7988   1.0450244371e+02   2.3069290594e+01    0.1783155    0.1649478 -29.51  0.001054593    1.298    0.230
        21 -14.2344     41.2201    196.1723   1.1433662715e+02   2.8078356864e+01     4.487926     1.733273  68.40    0.0135565    4.597    0.782
        22  -9.3635    147.9414    186.8514   8.7416663838e+01   1.3908771174e+01    0.2671987    0.2122568 -44.15  0.001387298    1.294    0.227
        23  -9.0796     79.7628    182.6185   1.0338818115e+02   2.6296355520e+01    0.3273883    0.1838056 -68.35  0.001066135    1.823    0.451
        24  -9.7069     99.3700    180.7584   9.8155616275e+01   2.3715841881e+01    0.2563442    0.2290636  33.47 0.0006325849    1.157    0.136
        25  -9.6926    187.4162    176.0220   7.6501609191e+01   8.9019908025e+00    0.3822334    0.2631761 -50.86  0.001857262    1.613    0.380
        26 -13.0388     69.6889    154.3409   1.0162521692e+02   3.4716896580e+01    0.6751509    0.5797897 -43.74  0.001212629    1.230    0.187
        27 -11.4055    119.9813    244.9012   1.0253639337e+02   7.0291969683e+00    0.2693398    0.2496106 -58.45 0.0007847624    1.263    0.208
        28 -10.2861    240.6726    169.0754   6.4985601299e+01   1.0320327597e+00    0.1951163    0.1491367 -25.69 0.0006739143    1.106    0.096
        29 -12.2544     81.2769    159.4244   9.9294223590e+01   3.1756471959e+01     1.094008     0.628657  64.22 0.0004866777    2.414    0.586
        30 -11.4636     72.6889    167.9237   1.0300599049e+02   3.0899216103e+01    0.4222004     0.312412 -62.28 0.0009908495    1.283    0.220
        31 -11.6866     88.5077    152.6128   9.6060265938e+01   3.2330725370e+01    0.7213368    0.4887489 -22.56  0.001349989    2.135    0.532
        32 -10.0643    132.6150    139.7876   8.1330260878e+01   2.7418320107e+01    0.5490787    0.2310806 -51.69  0.001884468    2.460    0.593
        33  -9.8527    134.3376    148.6673   8.2915497853e+01   2.5017411752e+01    0.4105354    0.2851805 -62.15   0.00151429    1.637    0.389
        34  -9.6517    134.0000    145.0093   8.2176930040e+01   2.5931566236e+01    0.3811029    0.2142938 -53.26  0.001148127    1.838    0.456
        35  -8.6297    112.0159    150.1730   8.9112338177e+01   2.8901809022e+01    0.2635506    0.1752141  65.91  0.001084366    2.042    0.510
        36  -9.0791    174.9847    148.9950   7.3322256594e+01   1.6753799480e+01    0.2356656    0.1920234 -86.14 0.0007168024    1.685    0.407
        37  -9.6072     38.1794    146.0096   1.0923083950e+02   4.0657226187e+01    0.3200379    0.1496062  47.33  0.001386794    2.376    0.579
        38 -10.7634     28.7375    143.4971   1.1156886642e+02   4.2211805001e+01    0.3923375    0.3158978  -1.63  0.002194572    1.602    0.376
        39  -9.6970    111.3042    129.4294   8.4643326775e+01   3.4036168269e+01    0.3611269    0.2778836   8.64 0.0009782292    1.648    0.393
        40 -10.3051    102.0447    138.6916   8.9393813337e+01   3.3494417035e+01    0.5882779    0.3666662 -22.00  0.002226205    2.563    0.610
        41 -10.1383    105.9908    131.0394   8.6532018993e+01   3.4643439245e+01    0.4401005    0.3200365 -56.51  0.001730086    1.369    0.270
        42 -11.6152     89.6248    138.1910   9.2851721262e+01   3.5745055089e+01    0.3006267    0.2586748 -40.86  0.000368734    1.171    0.146
        43  -8.6175    148.1644    174.4172   8.4957050179e+01   1.6543488105e+01    0.2067763    0.1375531  49.81  0.000424746    1.615    0.381
        44 -10.9488     28.6881    129.3354   1.0959547628e+02   4.5769757099e+01    0.3848042    0.1775412 -51.05  0.001741577    1.941    0.485
        45 -10.1566    135.6546    128.2694   7.7768850654e+01   2.9443658799e+01     0.433901    0.2338969 -47.75  0.001701255    1.826    0.452
        46 -11.4706     68.4825    172.4384   1.0479034894e+02   3.0370190387e+01    0.4610195    0.3008481 -32.84  0.002130663    2.118    0.528
        47  -9.0907     34.5219    171.4847   1.1339200531e+02   3.4694686975e+01    0.2301241    0.1649148  48.96 0.0007840206    1.403    0.287
        48 -10.1987     98.7407    125.3175   8.7282947574e+01   3.7344852598e+01    0.3235045    0.2612243  -1.23  0.001362251    1.516    0.340
        49  -9.9644    117.6313    123.6928   8.1466201143e+01   3.4165335633e+01     0.308238    0.2107935  -2.42 0.0009704349    2.371    0.578
        50  -9.0301     87.4927    120.9594   8.9626878631e+01   4.0351148111e+01    0.4488893    0.2774476  77.89   0.00155661    3.320    0.699
        51 -11.4023     33.0618    118.4461   1.0646984613e+02   4.8092704992e+01    0.4403716    0.2335234 -48.15  0.002097468    1.712    0.416
        52  -9.2207    107.8481    118.5830   8.2958651860e+01   3.7268020846e+01     0.247278    0.2007742 -36.35 0.0003646171    1.234    0.190
        53  -8.6396    193.5996    170.8007   7.4133257722e+01   8.7827780260e+00     0.198358    0.1325323 -48.53  0.000760409    1.594    0.373
        54 -10.1257    231.1803    113.7250   5.4680376217e+01   1.2237902265e+01    0.2778656    0.2570492 -64.83 0.0007168388    1.153    0.133
        55  -9.1592    205.4107    110.1157   5.8057945812e+01   1.8090111416e+01    0.2588163    0.2165739  63.46 0.0007026804    1.332    0.249
        56 -10.7375     33.3608    108.7837   1.0461520934e+02   5.0454800056e+01    0.3456145    0.2194317 -71.48  0.001681089    1.518    0.341
        57 -10.0972    115.3017    108.4822   7.8160689735e+01   3.8125630297e+01    0.3353282    0.2399852 -21.44  0.001462696    1.720    0.419
        58 -16.0008      7.5507    201.9563   1.2216409061e+02   3.0151357027e+01     13.89372     1.177009 -76.16  0.006732632    9.942    0.899
        59  -8.0622    138.2876    105.3020   7.1089948258e+01   3.3939050417e+01    0.1551753    0.1240868  -1.08 0.0001850642    1.561    0.359
        60 -11.1265     41.8092    103.8829   1.0072073315e+02   5.0810321004e+01     0.417807    0.2990507  47.50  0.001725515    1.665    0.399
        61 -11.2707    242.5277    101.7110   5.0389161915e+01   1.2105514975e+01    0.3439973    0.1968133 -54.53  0.001668992    1.813    0.448
        62 -10.5865     32.2777     99.4698   1.0314052965e+02   5.2819093029e+01    0.3697405    0.2043477  38.52   0.00180023    2.107    0.525
        63  -8.9897    125.6574     92.9633   7.0909886981e+01   3.9289876267e+01    0.2259797    0.1970075 -47.42  0.001142485    1.157    0.135
        64  -9.4191     53.3574     90.8259   9.3505098055e+01   5.2573916827e+01    0.2182835    0.1093345 -45.69 0.0006893562    1.775    0.437
        65  -9.0521    156.0929     88.2410   6.2086675022e+01   3.3303135350e+01    0.4118223    0.2214651 -63.77   0.00134303    3.365    0.703
        66 -10.9077    183.9197    212.4752   8.4203782742e+01   2.7343359917e+00    0.3038119    0.2611399 -59.17  0.001788995    1.532    0.347
        67  -9.2909    234.0000     86.0075   4.8059009182e+01   1.6327186700e+01    0.2242205   0.06811026 -37.33  0.000456541    2.889    0.654
        68  -8.5537     75.1300     85.1906   8.4164692937e+01   5.0704058203e+01    0.1842148    0.1726072  75.95  0.000392127    1.300    0.231
        69  -9.1713    158.9487     83.0019   5.9990531422e+01   3.3603895154e+01    0.2374096    0.1871577  13.74 0.0008918426    1.631    0.387
        70  -9.2066    113.1005     82.7107   7.1330515464e+01   4.4063403433e+01    0.3313434    0.2269084  86.47  0.001266206    2.800    0.643
        71  -8.5077     70.0603     81.7760   8.4925699812e+01   5.2248384604e+01     0.174885    0.1172041  33.75 0.0004222813    1.567    0.362
        72  -8.2529    184.3390     77.3101   5.3505847691e+01   2.8628366374e+01    0.1461889    0.1150355  19.63 0.0007044633    1.688    0.408
        73  -8.8878     54.8381     65.7951   8.5601202258e+01   5.7812584931e+01    0.1715813     0.162886  57.44 0.0005635877    1.363    0.266
        74 -10.7158     13.0169     59.5563   1.0136544615e+02   6.3381735642e+01    0.3248099    0.2537135  78.52 0.0008342397    1.930    0.482
        75  -9.0878     57.3273    220.9853   1.1314900069e+02   2.0600878141e+01     0.188643     0.186156 -46.72 0.0001977215    1.321    0.243
        76 -10.9514     14.2730     32.0409   9.1871204560e+01   6.8637964476e+01    0.2688874    0.1594543   9.40 0.0009151588    1.711    0.416
        77 -10.9152     95.0425    241.3276   1.0728243029e+02   1.1346131102e+01    0.5283529    0.2139767 -61.41  0.002418363    2.775    0.640
        78  -9.4655    198.1193     23.6009   3.7780244499e+01   3.3008609796e+01    0.2260789    0.1812675 -31.69 0.0005950461    1.396    0.284
        79  -9.0530    189.6727     14.9721   3.6561788029e+01   3.5913604406e+01    0.1760794    0.1520736 -63.03  0.000680844    1.119    0.106
        80  -9.0817     89.5088    211.4898   1.0498115714e+02   1.8243604010e+01    0.2240009     0.175303 -83.27 0.0005092615    1.337    0.252
        81 -11.0215    125.8060    244.7731   1.0131788962e+02   6.1796262229e+00    0.2708234    0.2109872  81.45  0.001629979    1.647    0.393
        82 -13.0402    190.2261     48.9433   4.5137254243e+01   3.1626913892e+01     1.114931    0.8913881  26.95  0.002064178    1.654    0.395
