#   1 NUMBER                 Running object number                                     
#   2 MAG_AUTO               Kron-like elliptical aperture magnitude                    [mag]
#   3 X_IMAGE                Object position along x                                    [pixel]
#   4 Y_IMAGE                Object position along y                                    [pixel]
#   5 X_WORLD                Barycenter position along world x axis                     [deg]
#   6 Y_WORLD                Barycenter position along world y axis                     [deg]
#   7 A_WORLD                Profile RMS along major axis (world units)                 [deg]
#   8 B_WORLD                Profile RMS along minor axis (world units)                 [deg]
#   9 THETA_WORLD            Position angle (CCW/world-x)                               [deg]
#  10 FWHM_WORLD             FWHM assuming a gaussian core                              [deg]
#  11 ELONGATION             A_IMAGE/B_IMAGE                                           
#  12 ELLIPTICITY            1 - B_IMAGE/A_IMAGE                                       
         1 -13.9299     48.6614    108.0959   9.9191566352e+01   4.9027419431e+01     1.690382     1.267992 -74.37  0.007684312    1.408    0.290
         2 -13.9518    198.4507     42.7380   4.1953908846e+01   3.0554738771e+01     1.091724    0.9180222 -55.88  0.003020521    1.119    0.107
         3 -14.7163    207.5879     33.7176   3.8684628938e+01   2.9639597314e+01     1.725645     1.321432   7.36  0.001326062    2.088    0.521
         4 -13.9473    232.5864      7.4526   3.0686204079e+01   2.7272614169e+01    0.8525738    0.6746452 -76.05   0.00428023    1.039    0.037
         5 -11.4920     61.0167      7.8098   5.9420541050e+01   6.5817667190e+01    0.2020193    0.1630587   0.85 0.0004150992    1.170    0.145
         6 -12.2356     44.0151      5.8477   6.5211269233e+01   6.8920882782e+01     0.289407    0.1550058  39.67  0.001637839    1.680    0.405
         7 -11.4034    184.2146    211.9299   8.3490647598e+01   2.4251186090e+00    0.2677847    0.1927496 -53.43  0.001419687    1.746    0.427
         8 -15.0126     55.9103    184.0249   1.0935305442e+02   2.8990600444e+01     6.005943     2.282758  57.83   0.02010135    3.842    0.740
         9 -18.1633     14.9470    241.2307   1.2289724873e+02   2.0907596847e+01     7.533671     5.994268  57.31   0.02997835    1.177    0.151
        10 -16.9985      6.4050    206.7969   1.2263794739e+02   2.8933304995e+01     8.082597    0.8269052 -73.33   0.02158046    5.911    0.831
        11  -9.3168     24.5746    193.7989   1.1780839923e+02   3.0172627536e+01    0.1707788    0.1313858  80.99 0.0001104087    1.084    0.078
        12 -11.0286    163.4738    210.5892   8.7693010646e+01   6.1015442116e+00    0.3546334    0.1274022  32.46  0.001263068    2.889    0.654
        13 -10.0592    151.2432    193.0016   8.7318504286e+01   1.1728975906e+01    0.2320408    0.1970496  -0.27  0.001240546    1.262    0.207
        14 -11.7488    147.2757    187.5137   8.7228179488e+01   1.3602724094e+01    0.6215502    0.3947705 -71.38  0.002563566    2.453    0.592
        15 -14.7288     43.5785    195.7147   1.1361101438e+02   2.7680775642e+01     3.189549     1.155983  59.82   0.01012969    3.826    0.739
        16 -10.4165     31.1376    202.5969   1.1706513117e+02   2.7466150017e+01     0.336465    0.1826849  59.04  0.001773879    1.717    0.418
        17  -9.9362     82.6327    194.9905   1.0416670591e+02   2.2709153399e+01    0.3034841    0.1974425  25.83  0.001190222    1.751    0.429
        18 -13.7490     28.7789    216.4209   1.1864760548e+02   2.4629531943e+01     0.988984    0.3897706  75.79  0.002891607    3.322    0.699
        19 -10.1483     79.7334    183.0804   1.0321752497e+02   2.5974438246e+01    0.3098652    0.2102802 -83.82 0.0009093691    1.624    0.384
        20 -11.1049     99.3263    180.9095   9.7879014617e+01   2.3462917594e+01    0.2894869    0.2786998 -16.96 0.0006546816    1.158    0.137
        21  -9.7287     37.9784    181.4286   1.1349728476e+02   3.1722833170e+01      0.19212    0.1536025 -83.66 0.0003215192    1.096    0.087
        22  -9.9473     90.2865    179.2444   9.9930649729e+01   2.5306359101e+01    0.4202107    0.2692076 -20.68  0.001521688    2.727    0.633
        23 -12.4180    241.3181    176.4723   6.5705514864e+01  -5.4603432430e-01    0.4812056    0.2527568  31.28  0.002356973    2.145    0.534
        24 -11.4780    186.8602    174.8975   7.5814928091e+01   8.9494612007e+00    0.4091104     0.333867 -49.79  0.001107913    1.337    0.252
        25 -12.7722     54.7470    147.0056   1.0450562105e+02   3.8433706298e+01     3.265451     1.170433 -49.78   0.01186665    2.730    0.634
        26 -12.3101     70.6306    171.1404   1.0382749582e+02   3.0218424760e+01    0.4591449    0.3164259 -35.15  0.001857207    1.849    0.459
        27 -12.2768     74.9200    166.6616   1.0199032756e+02   3.0730231364e+01    0.4397657    0.3814321 -57.60   0.00131189    1.150    0.130
        28 -10.3056    147.7227    174.0061   8.4506798936e+01   1.6466867659e+01    0.2087616    0.1936432 -42.24 0.0003002228    1.095    0.087
        29 -11.1381    126.1901    172.9958   8.9618174361e+01   2.0693255191e+01    0.2866994    0.2229807  37.31  0.001411527    1.268    0.211
        30  -9.2151     84.4186    173.5231   1.0054892907e+02   2.7611941714e+01    0.1445385    0.1347664  88.74 8.609135e-05    1.014    0.014
        31 -12.0935    240.8518    169.8084   6.4450411945e+01   6.3649469790e-01    0.2737348    0.2290414  54.27  0.001116023    1.639    0.390
        32 -11.7172    230.8804    168.1339   6.5836197095e+01   2.5170814787e+00    0.4041413    0.1768616 -49.04  0.001594984    2.765    0.638
        33  -9.8564    192.9876    169.7631   7.3456490418e+01   8.8336278205e+00    0.2010281    0.1856514  12.73 0.0004628752    1.079    0.073
        34 -11.2222     33.8350    165.8385   1.1284712209e+02   3.5996744099e+01    0.4495943    0.2660163  52.08  0.002191689    1.728    0.421
        35 -10.5860     35.5683    158.4567   1.1151481159e+02   3.7669331383e+01     0.241603    0.1899314  77.31 0.0006463157    1.226    0.184
        36 -10.7162     32.2340    156.5982   1.1219155590e+02   3.8471593572e+01    0.2569033     0.225116   6.13 0.0008629538    1.437    0.304
        37  -9.1385    120.4654    165.4969   8.9625735037e+01   2.3504583303e+01    0.1533276     0.145574  75.73 0.0004633518    1.084    0.078
        38  -9.1387    130.4116    159.2545   8.5783572808e+01   2.3127974435e+01    0.2091171    0.1490112 -63.37 0.0007372744    1.572    0.364
        39  -9.3884     93.6165    248.7310   1.0806204389e+02   9.7698155099e+00    0.1174476   0.09341436   7.60 0.0006990609    1.698    0.411
        40 -12.2970     89.9617    151.4838   9.5161338489e+01   3.2251500982e+01     0.739539    0.4931756 -26.40  0.003153658    2.072    0.517
        41 -11.0498    133.0000    140.0163   8.0847728850e+01   2.7151476775e+01    0.4869969    0.2256385 -49.80  0.001760071    2.149    0.535
        42 -10.3486    174.6386    148.9643   7.2843925091e+01   1.6627735260e+01    0.2771224    0.2424875 -72.82 0.0008749818    1.361    0.265
        43 -11.9768    122.1682    198.4720   9.5113700247e+01   1.5617199411e+01    0.4232844    0.3023048 -74.74  0.001254058    1.729    0.422
        44 -11.1647     38.6724    146.2336   1.0904124052e+02   4.0449175761e+01    0.3359014    0.2497377  52.92 0.0007739903    1.429    0.300
        45 -11.4744    134.1288    146.7946   8.2110123168e+01   2.5334934643e+01    0.9158721    0.2673056 -52.62  0.002519208    3.863    0.741
        46 -10.9089    103.3947    137.8400   8.8492275110e+01   3.3364933674e+01    0.5910383    0.3537318 -26.37  0.002190809    2.536    0.606
        47 -11.0538    105.9943    130.8951   8.6155783863e+01   3.4598289615e+01    0.3740928     0.333808 -63.78  0.001231364    1.134    0.118
        48 -12.4117     90.8265    137.4749   9.2069666942e+01   3.5639188296e+01    0.2941853    0.2622369 -41.13 0.0003374914    1.126    0.112
        49 -12.5212     44.0147    130.8468   1.0506795541e+02   4.3813421600e+01     0.621376    0.3490498 -78.24  0.002081165    1.925    0.480
        50 -11.1273    135.7794    128.0352   7.7231481612e+01   2.9364284281e+01    0.5966038    0.1929324 -50.11  0.001747583    3.264    0.694
        51 -10.5312    112.2689    128.8882   8.3876160265e+01   3.3901180784e+01    0.3298546    0.2741594  -0.57 0.0007739165    1.436    0.304
        52  -9.8800    160.8717    128.0974   7.1030521964e+01   2.3989270310e+01    0.2491242    0.2202906 -72.32  0.001240698    1.268    0.211
        53 -11.1452     99.4006    124.7876   8.6646276697e+01   3.7299134410e+01    0.3034398    0.2489997 -19.53 0.0005848817    1.393    0.282
        54 -11.1682     32.4548    130.9645   1.0865732241e+02   4.4950654150e+01    0.2771184    0.2500318 -56.38  0.000758388    1.101    0.092
        55 -11.2826    118.7804    122.9589   8.0572443635e+01   3.4036835739e+01    0.5951254    0.3809367  -0.57  0.002046016    3.075    0.675
        56  -9.7762     91.4462    124.2150   8.8912274453e+01   3.8841549149e+01    0.2751684    0.1884302  55.98 0.0009671866    1.739    0.425
        57  -9.9581    108.1652    118.1903   8.2415638306e+01   3.7253279044e+01    0.2208959     0.203642 -15.59 0.0003195332    1.130    0.115
        58 -10.7160    231.3315    113.8321   5.4074997933e+01   1.2054166003e+01    0.2913709    0.2257204 -44.24 0.0007937219    1.131    0.116
        59  -9.9415    135.0000    113.0237   7.3575182004e+01   3.2924209749e+01    0.2687405   0.08914927 -44.84 0.0008049414    2.960    0.662
        60 -12.2748    203.4627    200.2650   7.7409014562e+01   1.3626151613e+00    0.4606681    0.2505784  24.44  0.002115869    2.008    0.502
        61 -10.0256    205.4806    110.2100   5.7485995768e+01   1.7931221234e+01    0.2492639    0.2071081  52.37 0.0006516898    1.310    0.237
        62 -11.4699    115.6440    108.5141   7.7691230884e+01   3.8018971143e+01    0.5446017    0.4568302  69.14  0.002636074    1.408    0.290
        63 -12.5111     82.8115    158.5131   9.8462904478e+01   3.1607076488e+01    0.7893139    0.5550904 -72.84 0.0004438177    1.475    0.322
        64  -9.1890    139.2448    106.2044   7.0635506454e+01   3.3481333305e+01    0.2058481    0.1835021 -88.05 0.0004292943    1.281    0.219
        65 -11.1481     32.8293    100.0373   1.0306532429e+02   5.2639965182e+01    0.3192951    0.2851308  42.97  0.001797192    1.310    0.237
        66  -9.9662    128.4132     95.5741   7.0502472587e+01   3.8132570279e+01    0.4520731    0.2955408  79.96  0.001636972    2.844    0.648
        67 -11.3135     51.9839     92.4464   9.4338919405e+01   5.2408746885e+01    0.3955493    0.1967965 -41.47  0.001699398    1.915    0.478
        68 -13.8343     71.6420    153.1826   1.0067316841e+02   3.4612700862e+01    0.7706125    0.6582196 -57.97  0.001765822    1.123    0.109
        69 -10.3461    155.7823     87.8220   6.1543287851e+01   3.3417092986e+01    0.4127762     0.275143 -75.93  0.001446982    2.324    0.570
        70  -9.1442    116.5152     85.4918   7.0824380473e+01   4.2802512142e+01    0.1513549    0.1489318  -6.11 2.447554e-05    1.026    0.025
        71  -9.5260     74.7890     84.7613   8.3956486848e+01   5.0910042920e+01     0.184253    0.1724401  81.26 0.0003769239    1.306    0.234
        72  -9.4057    158.1782     82.8845   5.9625738836e+01   3.3775926899e+01    0.2036195    0.1816323   7.68  0.000461416    1.290    0.225
        73 -15.3206     68.8387    144.1718   9.9893064514e+01   3.7310915875e+01     5.733946     2.453891  60.49   0.01480915    5.983    0.833
        74  -8.9469    184.3968     77.2733   5.2954433340e+01   2.8573129459e+01    0.1484823    0.1124269  26.89 0.0006986849    1.741    0.426
        75 -11.4594     13.3582     59.8903   1.0150058703e+02   6.3342273641e+01    0.2473761    0.2181969 -44.26 0.0004600794    1.152    0.132
        76 -11.2022     59.9881    197.6222   1.0995044570e+02   2.5223650405e+01     0.234187    0.2110221  74.38 0.0003315607    1.049    0.046
        77 -10.1412    168.5272    233.2137   9.0324435232e+01   1.2125920605e+00    0.2222718    0.1838143  49.68 0.0006738931    1.400    0.286
        78  -9.1939     70.4345     53.1782   7.5052835520e+01   5.7902360240e+01    0.1742226    0.1283618 -47.79 0.0003099579    1.548    0.354
        79 -10.0008     31.9666     36.4601   8.4962709039e+01   6.6255666909e+01    0.1755844    0.1126912  23.23  0.001016799    1.560    0.359
        80 -11.2318     25.1344     34.8882   8.7687133260e+01   6.7252946115e+01    0.2455396    0.1824178  26.23 0.0008808667    1.505    0.336
        81 -11.5686     14.6813     32.6255   9.2161476614e+01   6.8598843303e+01    0.3600675    0.1503385  28.04  0.001820907    2.563    0.610
        82 -13.5031    187.2237     51.3924   4.5703069020e+01   3.1982560809e+01    0.8671792    0.8514035 -31.29 0.0009066755    1.176    0.150
        83 -10.1345    198.1558     23.3617   3.7242659640e+01   3.3054697242e+01    0.2002807    0.1728635 -29.32 0.0006045258    1.372    0.271
        84 -12.1893    193.8876    197.1116   7.8753129514e+01   3.4977086615e+00     1.318552    0.6710764 -58.04  0.004817461    3.672    0.728
        85 -10.3461    189.7553     15.0096   3.6102638103e+01   3.5933536826e+01    0.2200177    0.1666624  81.85  0.000638163    1.161    0.138
        86 -10.3357     89.0409    210.4902   1.0468182929e+02   1.8231154627e+01     0.233174    0.1903945 -77.19 -0.0001166252    1.260    0.206
        87 -10.8095    163.3777    217.8259   8.8938464443e+01   4.7616324401e+00    0.1947569    0.1212797 -33.14 0.0009544906    1.794    0.443
