#   1 NUMBER                 Running object number                                     
#   2 MAG_AUTO               Kron-like elliptical aperture magnitude                    [mag]
#   3 X_IMAGE                Object position along x                                    [pixel]
#   4 Y_IMAGE                Object position along y                                    [pixel]
#   5 X_WORLD                Barycenter position along world x axis                     [deg]
#   6 Y_WORLD                Barycenter position along world y axis                     [deg]
#   7 A_WORLD                Profile RMS along major axis (world units)                 [deg]
#   8 B_WORLD                Profile RMS along minor axis (world units)                 [deg]
#   9 THETA_WORLD            Position angle (CCW/world-x)                               [deg]
#  10 FWHM_WORLD             FWHM assuming a gaussian core                              [deg]
#  11 ELONGATION             A_IMAGE/B_IMAGE                                           
#  12 ELLIPTICITY            1 - B_IMAGE/A_IMAGE                                       
         1 -12.9088    248.5907    130.2635   8.1054280999e+01   4.6539450904e+00     5.340609    0.3138789 -40.08  0.008278479   14.854    0.933
         2  -8.7676    229.1344     23.2888   6.0385911384e+01   2.5916513182e+01    0.2001473    0.1664113 -37.55 0.0007080599    1.437    0.304
         3  -9.7000    243.8035    200.4010   9.6319890161e+01  -6.7024400833e+00    0.4189514    0.2576575 -27.02  0.002211629    1.567    0.362
         4 -10.7500    247.9113    189.8446   9.3525153129e+01  -5.6468977725e+00      1.07877    0.3386752 -31.36  0.003484961    4.160    0.760
         5 -10.4581    218.1572    247.1902   1.0951117493e+02  -9.7758988876e+00    0.6305567    0.3421245 -17.92  0.003068384    2.516    0.602
         6 -10.6952    212.6223    240.5443   1.0945114106e+02  -7.9462761906e+00    0.5626402    0.3179027  11.03  0.002579736    2.567    0.610
         7 -10.3153    248.8324    202.8039   9.5884622488e+01  -7.8796994631e+00     1.170036    0.4051822 -26.68  0.003482759    5.420    0.815
         8  -9.2156    223.9352    247.9858   1.0856571878e+02  -1.0765333813e+01    0.5011575    0.2760642   1.29  0.002270847    2.920    0.658
         9 -10.3356    225.6609    241.0961   1.0708853280e+02  -1.0059276424e+01    0.5204097    0.3092681  21.42   0.00284594    1.664    0.399
        10 -10.5752    210.5808    247.3451   1.1096384880e+02  -8.6212031616e+00    0.8190552    0.4203103 -23.94  0.003897419    2.609    0.617
        11  -9.9275    203.3648    248.9400   1.1259325856e+02  -7.7118553707e+00    0.5353146    0.3213592 -11.78  0.002663323    2.415    0.586
        12  -9.0376    245.6513    229.4780   1.0139842979e+02  -1.1393051889e+01     0.310088    0.2263241   2.35  0.001939432    1.260    0.207
        13  -9.2010    248.3627    224.2356   9.9969032769e+01  -1.1039835567e+01    0.3439132    0.2392627  -6.34   0.00145826    1.395    0.283
        14 -11.0119    245.6600    246.8819   1.0442789331e+02  -1.3762057058e+01    0.8545015     0.561224  17.93  0.005375763    1.343    0.255
        15 -10.0471    235.9174    247.9275   1.0635697008e+02  -1.2521563019e+01     0.837382    0.4361395   0.75  0.003610057    3.343    0.701
        16 -10.3849    232.5874    244.6769   1.0641677591e+02  -1.1597355719e+01    0.9824621    0.4987834   4.24  0.003802579    4.050    0.753
        17  -9.0209    201.2010    240.0313   1.1156088794e+02  -6.0201649257e+00    0.2666663    0.1751294  -1.77 0.0009765771    2.014    0.503
        18  -8.4852    197.2150    250.3967   1.1400021794e+02  -6.9415917367e+00    0.2036903    0.1618205  49.53  0.001027601    1.399    0.285
        19  -9.8961    197.5286    245.7469   1.1320187358e+02  -6.2944858579e+00    0.4157538    0.2476705   5.68  0.001377303    2.659    0.624
        20  -8.9855    184.6792    250.5567   1.1644153239e+02  -4.9223365496e+00    0.3431794    0.1079091  39.92  0.001358495    2.699    0.630
        21  -9.2466    186.9749    246.3219   1.1534090204e+02  -4.6452268822e+00    0.3478763    0.2026278 -28.20  0.001414267    2.211    0.548
        22  -9.7689    167.6442    249.9638   1.1967417730e+02  -1.9867007026e+00    0.3076228    0.1641245  39.22   0.00110281    1.587    0.370
        23 -10.1959    129.9290    249.5539   1.2702524799e+02   4.4465475493e+00    0.4051261    0.1680615  51.61  0.001755358    2.316    0.568
        24 -10.6913     65.4352    247.9128   1.3911987671e+02   1.4775246176e+01     0.949327    0.3537255  50.44  0.004551326    2.206    0.547
        25  -9.7879     51.3910    249.8715   1.4180074427e+02   1.6300582428e+01    0.4300513    0.1601339  44.92  0.002166543    2.211    0.548
        26 -10.9355     35.2699    248.9984   1.4452827697e+02   1.8507944871e+01    0.9922717    0.4673507 -82.11  0.005645344    1.967    0.492
        27 -10.0074      2.6165    213.1331   1.4781327887e+02   2.9290336342e+01    0.6952078    0.2576957  70.98  0.003238228    2.889    0.654
        28 -11.4595     11.3808    228.5817   1.4726197496e+02   2.5246826128e+01      1.12677    0.3992143 -89.04  0.005202559    2.889    0.654
        29  -9.6400     26.1502    249.3403   1.4608680654e+02   1.9525567311e+01    0.3575978    0.1584443  52.99  0.001294048    1.793    0.442
        30 -10.4773      5.8619    230.1247   1.4829934065e+02   2.5497085760e+01    0.6040561    0.2137734  58.27  0.003137816    2.424    0.588
        31 -10.3235      3.5827    222.4291   1.4822523736e+02   2.7278458274e+01     0.779821    0.2770739  84.96  0.003546151    3.004    0.667
        32 -11.5243     21.4504    242.9062   1.4646028908e+02   2.1307618090e+01    0.9044896    0.7809357  83.57  0.007112918    1.349    0.259
        33 -11.4099     26.9148    241.3817   1.4543144244e+02   2.0984056386e+01     1.169805    0.4438065  69.45  0.005402287    2.891    0.654
        34  -9.9629     19.2365    249.2031   1.4721910635e+02   2.0339444779e+01    0.3911485    0.1814461  58.77  0.002365203    1.701    0.412
        35 -10.4943     15.1172    240.9504   1.4739848099e+02   2.2388091816e+01    0.6358284    0.2299882  63.03  0.003192223    2.524    0.604
        36 -11.0432     10.7415    247.5000   1.4849849402e+02   2.1591835733e+01    0.7537441    0.3481201  89.15    0.0045193    1.832    0.454
        37 -11.6534      3.8686    244.8819   1.4945629083e+02   2.2808207425e+01     1.124798     0.331721 -77.78  0.005593797    2.852    0.649
        38  -9.6555    152.0582    249.1932   1.2262743883e+02   7.7822869899e-01    0.2400435    0.1545626  34.43 0.0007326104    1.436    0.304
        39  -9.7621    144.9528    249.3630   1.2404983546e+02   1.9529603372e+00     0.342856    0.1373275  40.67  0.001503223    2.118    0.528
        40  -9.6029     54.3429    240.1125   1.4046472139e+02   1.7825552828e+01    0.4239573    0.2072576  69.08  0.002168097    2.068    0.516
        41 -10.6315    177.8285    243.5543   1.1670501312e+02  -2.6671537769e+00     0.502273    0.2878073  16.41  0.002201406    2.714    0.632
        42  -9.4784     45.5571    244.8777   1.4243772198e+02   1.8027355682e+01    0.3732043    0.1874236  52.88  0.001463215    1.631    0.387
        43  -9.6704    163.1477    244.7515   1.1979538866e+02  -3.6071481452e-01    0.2536999     0.167643  26.53  0.001036522    1.595    0.373
        44  -9.2731    141.2172    245.6104   1.2427838300e+02   3.2435994430e+00    0.1867404    0.1101325  34.72 0.0007276041    1.635    0.388
        45  -9.2967     58.3290    247.6903   1.4038731448e+02   1.5796530481e+01    0.2627045    0.1420845  54.40  0.001238213    1.509    0.337
        46  -9.3501    192.6197    242.5569   1.1364227438e+02  -4.9943907155e+00    0.3979162    0.2197511  17.87  0.001769429    2.565    0.610
        47  -9.8777    152.3221    244.1160   1.2185825514e+02   1.6056990283e+00    0.2366877    0.1593782  33.74 0.0009803303    1.398    0.285
        48  -8.4324    148.2950    244.6461   1.2273641989e+02   2.2041470749e+00    0.1309822   0.09428982  70.34 0.0007032564    1.688    0.408
        49  -9.0326    121.0000    242.9429   1.2794596973e+02   7.1448623203e+00    0.1936899   0.07405184 -57.17            0    2.982    0.665
        50  -9.0972     37.9893    240.8808   1.4346885120e+02   1.9764034642e+01    0.2788368     0.153088  63.74  0.001083962    1.511    0.338
        51  -9.2162     84.6461    244.6360   1.3522597043e+02   1.2619503025e+01    0.2699825    0.1404599  67.13  0.001142069    2.092    0.522
        52 -11.5385    247.5371    235.9834   1.0221300371e+02  -1.2570838903e+01    0.9795822    0.5791748  30.88  0.001322629    1.556    0.357
        53  -8.2157    169.9524    240.4879   1.1779631086e+02  -8.1051229387e-01    0.2045335    0.1140538  39.25 0.0008541241    1.553    0.356
        54  -9.8807     73.5360    239.3027   1.3680153363e+02   1.5315952487e+01    0.4199734    0.1643877  55.07   0.00187508    2.403    0.584
        55 -10.5637     65.3638    233.4573   1.3778932155e+02   1.7666130037e+01    0.8044876    0.3660809  73.80  0.003385458    3.028    0.670
        56  -9.9916    220.4542    238.1636   1.0756370069e+02  -8.8306635653e+00     0.253978    0.1730914   6.53  0.001100695    1.569    0.363
        57  -9.2375    195.8054    236.3630   1.1200557935e+02  -4.5466516653e+00    0.3065138    0.2014901  18.44  0.001620707    1.666    0.400
        58  -9.5711    230.8051    235.0955   1.0509954105e+02  -9.9821604025e+00    0.3186314    0.2120367  -3.77  0.001805498    1.636    0.389
        59  -9.3882    206.6782    235.4213   1.0972763592e+02  -6.2058654148e+00    0.2818845    0.1718562  -3.94  0.001315817    2.457    0.593
        60  -8.4939     82.2219    236.4006   1.3482925626e+02   1.4613781831e+01    0.1863515   0.09575441  51.87 0.0009454551    1.674    0.403
        61 -10.6169    248.5724    215.0053   9.8235585312e+01  -9.7137371688e+00     1.759923    0.6336219 -24.03  0.004913023    6.683    0.850
        62  -9.1292    215.5087    230.5954   1.0719527916e+02  -6.9006151805e+00    0.4030488    0.2229703  -9.93  0.001676306    3.125    0.680
        63  -8.1128     39.2284    235.3794   1.4282519388e+02   2.0715383650e+01    0.1698908   0.08305354  52.43 0.0009445323    1.720    0.419
        64  -9.2313     44.9990    237.1413   1.4192121151e+02   1.9637933030e+01    0.3310466    0.1718604  63.22  0.001395241    1.686    0.407
        65  -8.9026    229.7195    227.2661   1.0391858939e+02  -8.6601836589e+00    0.3194554    0.1645068 -18.79  0.001409963    2.688    0.628
        66  -9.1334     27.6524    232.2789   1.4466390632e+02   2.2721461303e+01    0.2610241    0.1326034  70.25  0.001029688    1.745    0.427
        67 -10.0025     22.2218    228.0698   1.4532773068e+02   2.4192654767e+01    0.3762349    0.1601527  47.16  0.002082494    2.038    0.509
        68  -7.9781    177.3193    232.3130   1.1502123816e+02  -6.9684853568e-01     0.133961   0.09927765   7.61 0.0004017579    1.649    0.394
        69  -8.3107    207.8149    230.2687   1.0862305896e+02  -5.5845755505e+00    0.2494743    0.1575008 -10.66   0.00122484    2.116    0.527
        70  -9.6242    133.0363    245.9595   1.2594811816e+02   4.5689634192e+00     0.196728    0.1562619  11.31  0.001009817    1.731    0.422
        71  -8.9171     48.5199    229.9974   1.4066723852e+02   2.0647930685e+01    0.3102528    0.1604969  75.07  0.001559254    1.961    0.490
        72  -9.3836    235.2905    227.6949   1.0296296040e+02  -9.5861095584e+00    0.4245819    0.2177119 -18.85  0.001928739    2.585    0.613
        73  -7.9098    187.7979    230.3919   1.1259577443e+02  -2.1979769127e+00    0.1920894    0.1129794  30.24 0.0007660511    1.660    0.398
        74  -8.8120     32.0340    229.5342   1.4367310178e+02   2.2773834287e+01    0.2486778    0.1377441  64.53 0.0009292514    1.533    0.348
        75  -8.1350     40.2710    229.3895   1.4215317124e+02   2.1813091145e+01    0.1677301   0.08735135  52.76 0.0009420756    1.647    0.393
        76  -9.2550     73.3262    225.3022   1.3539476870e+02   1.8221180876e+01    0.3914962    0.2191058 -39.85  0.001687932    3.506    0.715
        77  -8.5334    223.7952    225.0742   1.0463888492e+02  -7.3860196293e+00    0.2476539    0.1643096 -13.27  0.001334436    1.681    0.405
        78  -8.1827    202.2889    231.3453   1.0988686401e+02  -4.8325655732e+00    0.1330609   0.09433334   1.89 0.0007024115    1.654    0.396
        79  -7.9986    199.4531    225.4811   1.0943086664e+02  -3.3915401804e+00    0.1340957    0.1163598  15.99 6.177084e-05    1.047    0.045
        80  -9.4408     27.0872    224.9583   1.4422406937e+02   2.4290738801e+01    0.2420996    0.1352862  69.32  0.001436548    1.535    0.348
        81  -9.7935    240.4042    219.2166   1.0048675635e+02  -9.1048852004e+00    0.5012607    0.2369704 -21.58  0.002121939    2.865    0.651
        82  -8.3574    206.0081    223.4311   1.0777608304e+02  -4.1751592811e+00    0.2310801    0.1648523 -10.69  0.001243091    1.616    0.381
        83 -10.7090     13.5146    216.6408   1.4608699239e+02   2.7490526506e+01    0.8003694    0.1749926  54.87  0.002915989    4.702    0.787
        84 -10.1924     19.4987    223.5437   1.4549358996e+02   2.5422852284e+01    0.3714509    0.1906193  44.55  0.002221973    1.844    0.458
        85  -8.4455    216.8090    221.1289   1.0526163647e+02  -5.6204250616e+00    0.3379979    0.1478966 -38.66  0.001500059    2.368    0.578
        86  -8.7237    236.0021    217.2189   1.0092515870e+02  -8.1152180498e+00    0.2631038    0.1374987  19.88  0.001172114    2.466    0.594
        87  -8.6662     54.9331    221.7695   1.3867727024e+02   2.1537529297e+01    0.2456077    0.1417151  60.07  0.001358286    1.544    0.352
        88 -10.2059     25.2723    217.5267   1.4398833999e+02   2.6054137513e+01    0.4095565    0.1370393  57.14   0.00180452    2.952    0.661
        89  -8.4398     44.9979    220.9539   1.4053328404e+02   2.2995760609e+01     0.214997    0.1154428  69.27  0.001139842    1.781    0.438
        90  -8.8523     63.5701    220.6792   1.3685650573e+02   2.0595362882e+01     0.222079    0.1043059  41.55  0.001084153    2.012    0.503
        91  -9.1447    227.3020    217.6951   1.0263477517e+02  -6.7983608608e+00    0.4608228    0.2185306 -19.35  0.001691268    3.743    0.733
        92  -9.1225     33.9616    217.1302   1.4231640366e+02   2.5150349953e+01    0.2915899    0.1322612  87.50  0.001384341    2.358    0.576
        93  -9.0068    232.2477    220.5410   1.0223132693e+02  -8.0346926755e+00    0.3090517    0.1303424 -32.03  0.001343516    2.530    0.605
        94  -9.3011    161.9961    214.0688   1.1515106048e+02   5.4113962253e+00    0.2077508    0.2009081 -64.80 0.0003717013    1.132    0.117
        95  -8.2923     19.7801    215.5936   1.4486168424e+02   2.7059263024e+01    0.1590274   0.08566736  53.79 0.0009385631    1.647    0.393
        96  -9.5280    232.8891    212.9399   1.0070560640e+02  -6.9498627509e+00    0.3343345    0.1903541 -21.86  0.001625418    1.990    0.498
        97  -7.4943     36.9854    213.6821   1.4143510297e+02   2.5536144182e+01    0.2014033   0.05108233  53.25 0.0007025785    4.142    0.759
        98  -8.3443     65.6870    212.6826   1.3556648922e+02   2.2034718771e+01    0.1171174    0.1003408 -40.96 0.0007035889    1.645    0.392
        99  -8.9761      9.2010    210.2049   1.4642380861e+02   2.9278654494e+01    0.2128158     0.115118  60.96 0.0008652936    1.615    0.381
       100  -9.6422     22.3132    210.8414   1.4401959821e+02   2.7804144731e+01    0.2059406    0.1292446  58.87 0.0009173245    1.409    0.290
       101  -9.6948    240.4646    207.2818   9.8243390666e+01  -7.2676933984e+00    0.4131248    0.1806268 -39.92  0.001869579    2.237    0.553
       102  -8.4713     80.0316    208.5087   1.3205295665e+02   2.0861282466e+01    0.2095468    0.1692126 -79.66  0.001244018    1.166    0.143
       103  -8.3819    216.5031    207.5299   1.0280216719e+02  -3.3158942523e+00    0.1352988    0.1210503   6.23 0.0004921038    1.002    0.002
       104  -8.7336    228.8563    205.4045   1.0003441487e+02  -5.0664652111e+00    0.2318821    0.1711684 -41.23  0.001302965    1.428    0.300
       105  -8.9283      6.6924    205.3242   1.4654455020e+02   3.0558362459e+01    0.2553015    0.1331694  71.91  0.001248199    1.693    0.409
       106  -8.5043      1.6267    205.3647   1.4748333352e+02   3.1017268906e+01    0.2170842    0.1060988 -77.91  0.001076093    1.604    0.376
       107  -9.2597     13.0728    204.3940   1.4527593058e+02   3.0144254140e+01    0.2947053    0.1523579  65.88  0.001681231    1.762    0.433
       108  -7.8024     35.6854    208.3027   1.4120756133e+02   2.6861363564e+01    0.1294953   0.07437798  70.58 0.0003211967    1.617    0.381
       109  -9.0333    235.4715    202.5098   9.8245387544e+01  -5.6896175567e+00    0.2705016    0.1911621 -21.89 0.0008895517    1.377    0.274
       110  -9.2493    236.5799    197.6730   9.7103165797e+01  -5.0755493351e+00    0.3402999    0.1205308 -37.25  0.001324569    2.738    0.635
       111 -10.2451     19.8028    194.2223   1.4313144243e+02   3.1706689182e+01    0.2770423    0.1687155  71.26  0.001474104    1.481    0.325
       112  -7.5143     14.6710    196.3629   1.4433523460e+02   3.1740678360e+01    0.1308431   0.06860424  71.58 0.0007039293    1.802    0.445
       113  -9.1953      3.9373    197.1196   1.4647637416e+02   3.2577853261e+01    0.2726326    0.1412629  82.75  0.001570394    1.665    0.399
       114  -7.7273     11.4654    191.4511   1.4457056610e+02   3.3131460189e+01    0.1197779   0.08993199  88.00 0.0008076092    1.007    0.007
       115 -10.1337    242.9740    188.1566   9.4067134181e+01  -4.5522236975e+00    0.5162383    0.1921854 -32.07  0.001934312    2.966    0.663
       116 -10.0999    242.7647    181.1247   9.2694673663e+01  -3.3233456789e+00    0.3707166     0.268927  -8.05  0.001993091    1.525    0.344
       117 -10.8779    240.7408    177.0041   9.2218679403e+01  -2.2619215315e+00    0.7914836    0.1853375 -35.02  0.002098421    5.550    0.820
       118  -9.4634    237.7943    186.9365   9.4758239692e+01  -3.4693864759e+00    0.3614318    0.1653702 -30.13  0.001493943    2.386    0.581
       119  -7.8226      3.5042    188.4857   1.4591580051e+02   3.4501210670e+01    0.1201049   0.08566076  84.15 4.235994e-05    1.090    0.082
       120  -8.2699    224.3903    190.8163   9.8030391531e+01  -1.8032162987e+00      0.20593     0.120619 -27.95 0.0009520014    1.817    0.450
       121  -9.1814    231.4762    192.5268   9.7035650898e+01  -3.3417186571e+00    0.2794314    0.1253609 -38.33  0.001199368    2.140    0.533
       122 -10.5579     18.4835    183.3562   1.4242794799e+02   3.4279667532e+01    0.4472063    0.1411358 -80.95  0.001683022    3.472    0.712
       123  -9.2443    235.2685    180.3751   9.3893956483e+01  -1.8924733145e+00    0.2534515     0.154495 -28.05 0.0008430867    1.659    0.397
       124 -10.8155    232.3571    131.9621   8.4078891727e+01   7.5456652031e+00    0.7148675     0.297495 -39.20  0.002766962    2.232    0.552
       125 -10.9133    248.0887    175.1637   9.0551898007e+01  -3.2083848756e+00    0.5088167     0.406972 -23.82  0.002990876    1.131    0.116
       126 -12.0040    242.6813     98.0860   7.4957286817e+01   1.1564824660e+01    0.9160965    0.7324958  15.99  0.004857571    1.858    0.462
       127 -11.1646    238.7280    123.1184   8.1068760027e+01   7.8918589633e+00     0.774424    0.4482132 -39.64  0.003189744    1.573    0.364
       128 -10.3217    242.0478    132.6999   8.2625734032e+01   5.4783739668e+00    0.4660849    0.2879011 -33.77  0.001644795    1.567    0.362
       129 -11.6051    240.6933    109.8975   7.7847551993e+01   9.8879634598e+00     1.067239     0.422997 -32.10  0.003711754    3.165    0.684
       130 -11.6751    243.5600    140.0489   8.3965305262e+01   3.8465113836e+00    0.7655052    0.2737232 -38.98  0.002844353    2.548    0.607
       131  -8.8617    191.6379    248.9412   1.1484533922e+02  -5.8178604272e+00    0.2340067     0.158112  17.09 0.0009198347    1.597    0.374
       132  -9.8141     22.4943    178.4968   1.4110398000e+02   3.4997521878e+01    0.2309276    0.1341971  71.82  0.001112257    1.710    0.415
       133  -7.9872      1.8421    177.0148   1.4534074089e+02   3.7182344290e+01    0.2024628   0.09881617  78.37 0.0009130763    2.018    0.505
       134 -10.0295    101.0072    175.9832   1.2245004488e+02   2.4989167031e+01    0.2073911    0.1893764  85.40  0.001160293    1.004    0.004
       135  -8.5212     21.0089    173.5008   1.4092468802e+02   3.6291189131e+01    0.1767649   0.07549114  56.00 0.0008105851    2.580    0.612
       136  -8.1260    237.3783    169.1914   9.1210183452e+01  -2.8459415748e-01    0.2000532    0.1202405 -47.19 0.0009454148    1.694    0.410
       137  -9.9867     19.4920    168.5112   1.4074699972e+02   3.7586574048e+01    0.3112766   0.09989963  34.68  0.001383458    3.217    0.689
       138  -9.7083    240.8784    163.7216   8.9449204232e+01   6.1849793680e-02    0.2529176    0.1725183 -28.89 0.0007548161    1.414    0.293
       139  -8.3303     14.6666    163.3387   1.4129799693e+02   3.9214922729e+01    0.1296785   0.07618479  73.05 0.0004510171    1.746    0.427
       140  -9.7804    237.9138    158.0341   8.8771933915e+01   1.6330921515e+00    0.3033187    0.1792026 -38.77  0.001443246    1.546    0.353
       141  -8.1643    226.6358    156.7942   9.0533457539e+01   4.0097357927e+00    0.2111696    0.1251574 -48.08 0.0009494522    1.694    0.410
       142  -8.1251    110.1075    157.1165   1.1668757604e+02   2.7889006507e+01    0.2013116     0.168882  82.04  0.001018246    1.260    0.206
       143  -9.2130    232.9931    153.1904   8.8607590592e+01   3.4542564412e+00    0.2679977    0.1893608 -40.31 0.0009209877    1.302    0.232
       144 -10.8591     17.5146    150.0153   1.3915034523e+02   4.2063527936e+01      0.40794    0.1926018  77.62  0.001758279    2.966    0.663
       145 -10.0558    234.5163    145.3049   8.6634661456e+01   4.6249100259e+00    0.4042835    0.2374116 -26.44  0.001771371    1.980    0.495
       146  -9.6366    222.3249    145.8250   8.8930024126e+01   6.9538983822e+00    0.2869953    0.2403957 -41.84 0.0004766045    1.118    0.106
       147  -9.8001    239.0155    140.4152   8.4802509446e+01   4.6541450278e+00    0.3675252    0.1756873 -48.18  0.001523748    2.063    0.515
       148  -8.9353    229.7145    140.3406   8.6388889057e+01   6.5051374662e+00    0.3780772    0.1565585 -42.31  0.001453447    2.213    0.548
       149 -11.0332     16.1886    137.0247   1.3786840379e+02   4.5197947588e+01     0.298044    0.2463559 -52.06  0.002018323    1.243    0.195
       150  -8.7435    216.9519    137.1831   8.7988373539e+01   9.7374346464e+00    0.2352978    0.2008678 -70.72  0.001232835    1.300    0.231
       151  -8.4457    225.4944    133.0126   8.5503367689e+01   8.7552716193e+00    0.2320612    0.1355327 -39.90  0.001032783    1.594    0.373
       152  -9.1716    219.7465    127.9144   8.5372379429e+01   1.0939690969e+01    0.3174408    0.1990176 -43.51  0.001456425    1.486    0.327
       153  -9.6298    227.4846    124.1004   8.3152742777e+01   1.0027487400e+01    0.4897251    0.2641735 -34.89  0.002089058    1.870    0.465
       154  -8.3451    211.8564    121.8661   8.5407086744e+01   1.3821168624e+01    0.2154061    0.1726903 -64.87  0.001075879    1.325    0.245
       155  -9.1366    218.7191    116.6575   8.2966702660e+01   1.3314658714e+01    0.3463957    0.2560366 -46.20  0.001729963    1.261    0.207
       156 -10.3423    231.0745    114.3188   8.0347848581e+01   1.1093075414e+01    0.5424978    0.2784626 -42.95  0.002143032    1.769    0.435
       157  -7.9089     30.3164    114.6477   1.3054632347e+02   4.9196916231e+01    0.1281341   0.09121419  79.46 0.0007046722    1.737    0.424
       158 -11.5184    243.9872    147.6988   8.5531284720e+01   2.3775534894e+00    0.4996315    0.3377196 -28.89  0.002538485    1.471    0.320
       159  -9.4501    221.8394    104.4019   7.9596358951e+01   1.4919535172e+01    0.2999392    0.2068427 -35.29  0.001394564    1.468    0.319
       160  -9.9827    230.2965    102.5661   7.7814847571e+01   1.3402726077e+01    0.4003269    0.2375073 -35.14  0.001719991    1.706    0.414
       161  -9.5774    235.8419     94.5371   7.5165869777e+01   1.3632172229e+01    0.2790968    0.1851088 -24.12  0.001018755    1.950    0.487
       162  -9.6659    237.5031    101.8966   7.6559097971e+01   1.1981583393e+01    0.3735991    0.1708862 -44.60  0.001249883    1.955    0.488
       163 -11.3966    246.2508    168.2671   8.9458349126e+01  -1.6979622067e+00    0.5617024    0.2467805 -33.84  0.002338712    2.227    0.551
       164  -8.1221    180.2789     82.0092   8.1497354795e+01   2.8737332093e+01     0.200496    0.1851675 -58.48  0.000235807    1.073    0.068
       165 -10.4406    247.0372    117.6981   7.8586788733e+01   7.2092849214e+00    0.6084046    0.3939292 -48.57  0.002658398    1.395    0.283
       166  -8.0625    243.3255     76.3103   7.0124311795e+01   1.5108446083e+01    0.1248173    0.1091012  15.54  0.000703926    1.657    0.396
       167  -8.4173    238.6715     71.6860   6.9718694437e+01   1.6861483451e+01    0.1261239    0.1092969  20.08  0.000469214    1.673    0.402
