#   1 NUMBER                 Running object number                                     
#   2 MAG_AUTO               Kron-like elliptical aperture magnitude                    [mag]
#   3 X_IMAGE                Object position along x                                    [pixel]
#   4 Y_IMAGE                Object position along y                                    [pixel]
#   5 X_WORLD                Barycenter position along world x axis                     [deg]
#   6 Y_WORLD                Barycenter position along world y axis                     [deg]
#   7 A_WORLD                Profile RMS along major axis (world units)                 [deg]
#   8 B_WORLD                Profile RMS along minor axis (world units)                 [deg]
#   9 THETA_WORLD            Position angle (CCW/world-x)                               [deg]
#  10 FWHM_WORLD             FWHM assuming a gaussian core                              [deg]
#  11 ELONGATION             A_IMAGE/B_IMAGE                                           
#  12 ELLIPTICITY            1 - B_IMAGE/A_IMAGE                                       
         1 -14.8564     68.4789    144.4358   9.2564406858e+01   3.7650219678e+01     4.799536     2.610566  74.48  0.005670179    3.559    0.719
         2 -14.2362    220.9481     32.1223   2.9876137318e+01   2.7131383524e+01     1.041123    0.8354488  31.08  0.006570414    1.745    0.427
         3 -14.3461    207.4411     43.6157   3.3897612705e+01   2.8608159613e+01     1.802636     1.332063  29.43  0.007444049    1.911    0.477
         4 -12.7975    247.3527     11.0180   2.3521174667e+01   2.4215816156e+01    0.6627141    0.3759086 -74.28  0.004162078    1.650    0.394
         5 -12.6015    246.7314      2.9892   2.1976437312e+01   2.5132000944e+01     0.527463    0.3868365 -77.91  0.003887919    1.198    0.165
         6 -10.2191     44.5182      1.3657   5.3568913774e+01   7.0675815176e+01    0.2300596     0.113794  62.17 0.0009507179    3.459    0.711
         7 -10.7467    109.5174    199.0624   9.0052224631e+01   1.8805664888e+01    0.2957875    0.1764427 -24.99  0.001261993    2.541    0.606
         8 -12.0452    139.6426    248.5854   8.9983959695e+01   5.3837960506e+00    0.4064529    0.3515462 -45.17  0.002831847    1.439    0.305
         9 -11.7543    125.5831    249.4040   9.3013282547e+01   7.1235286211e+00      0.50364    0.1579132  41.44  0.002072413    2.857    0.650
        10 -11.5255    124.6450    245.1628   9.2710585605e+01   7.9487171926e+00     0.289125     0.164804 -36.18  0.001546559    2.220    0.550
        11 -10.7264    102.0000    249.0209   9.7936384338e+01   1.0277150087e+01    0.2442506     0.179668 -65.59  0.001239079    1.695    0.410
        12 -12.8222    101.3801    243.0591   9.7446592399e+01   1.1398839287e+01     0.823934    0.5492834 -76.40  0.001827755    2.031    0.508
        13 -15.4074      6.3817    185.7900   1.1450176407e+02   3.3904472599e+01     5.873053      1.00521 -79.51   0.01773187    5.589    0.821
        14 -15.3363     35.4760    195.3067   1.0806983141e+02   2.9139786504e+01     3.929502      1.20949  51.25  0.006070151    3.374    0.704
        15 -14.9312     44.4242    186.1648   1.0498838927e+02   3.0314247814e+01     3.915762       1.5134  58.17   0.01434414    3.396    0.706
        16 -17.0654      8.1507    245.1912   1.1689269324e+02   2.1387798370e+01     8.639733     2.759257  17.41  0.009270904    7.464    0.866
        17 -16.3914      9.3132    207.8102   1.1501022655e+02   2.8781056075e+01     8.384026     1.507747 -79.86   0.01425546    5.579    0.821
        18  -9.6557    157.9787    192.9799   7.7607241492e+01   1.2387065457e+01    0.2006068     0.172819  75.30 0.0005109674    1.688    0.408
        19 -13.7593     15.9400    248.8260   1.1554387538e+02   2.0010511959e+01    0.2962664    0.2165622  62.92 0.0009760309    1.100    0.091
        20 -10.5883    116.2300    186.7398   8.6467480842e+01   2.0396195916e+01    0.2344667    0.1964197 -73.17  0.001253012    1.414    0.293
        21 -10.0041    145.6545    183.9264   7.8803441280e+01   1.6171921127e+01     0.194714    0.1809219 -30.16 0.0007439699    1.139    0.122
        22 -10.1047     99.4572    180.9576   8.9834054444e+01   2.4290828012e+01    0.2750746    0.2037198  32.43 0.0006297149    1.282    0.220
        23 -10.5610    123.9978    202.1082   8.7015313369e+01   1.5979569027e+01    0.2868902    0.2052502 -63.95 0.0007672932    1.721    0.419
        24 -12.5865    240.1086    169.1904   5.7133047147e+01   3.6577969249e+00    0.4444179     0.368235  54.54   0.00237884    1.846    0.458
        25 -11.3319     85.1758    171.8263   9.2225086693e+01   2.8547121190e+01     1.823701     1.170288   3.41  0.006600537    2.288    0.563
        26 -13.5833     63.5578    153.7817   9.5598432901e+01   3.5953184229e+01    0.5143169    0.4038234 -28.88  0.001223101    1.480    0.324
        27 -11.4474    120.0276    245.0179   9.3673620181e+01   8.5914167707e+00    0.2269689    0.1841706 -63.63 0.0007905358    1.575    0.365
        28 -11.2249     47.6980    169.4660   1.0231101332e+02   3.3961075339e+01    0.4069186     0.300427 -70.11 0.0009932445    1.306    0.235
        29 -12.2530    230.5004    168.9597   5.8660152492e+01   5.0814812928e+00    0.5004914    0.2898431 -32.06  0.002713703    1.487    0.327
        30  -9.3219    110.7881    167.7610   8.4587645298e+01   2.5499356548e+01    0.2007813    0.1713176  68.07  0.000506277    1.351    0.260
        31  -9.9135    192.0410    168.5307   6.5630315042e+01   1.1239838682e+01    0.2219478    0.1725336 -28.97 0.0006396482    1.195    0.163
        32  -9.6527    186.8520    165.1300   6.5983845900e+01   1.2733484762e+01    0.2034297    0.1534822  -8.32 0.0008903643    1.360    0.265
        33  -9.4507     42.9652    164.5439   1.0306499785e+02   3.5688897478e+01    0.2372219    0.1363598  20.35  0.001118887    1.960    0.490
        34 -11.9083     32.4435    156.5821   1.0518362050e+02   3.8731183050e+01     0.627245    0.3826423  71.53  0.001188302    1.797    0.444
        35 -12.9684     76.2893    157.8992   9.2503055674e+01   3.3199945117e+01      1.04864      0.63144  50.20 0.0006222492    1.785    0.440
        36 -12.1482     84.0160    151.7781   8.9182130379e+01   3.3574520283e+01    0.6558493    0.4549544 -25.25  0.002987189    1.840    0.456
        37  -9.6568    126.9687    151.7023   7.7119591524e+01   2.6328099016e+01    0.2710845    0.2437659  51.35  0.001430764    1.193    0.162
        38 -11.2661    133.7417    144.7813   7.3846856645e+01   2.6608253196e+01     1.156605    0.2974463 -53.13  0.002760899    5.739    0.826
        39 -10.1263    174.8439    149.1546   6.5094262544e+01   1.7885151401e+01    0.2154817    0.2045582 -65.33 0.0007800085    1.276    0.216
        40 -11.4593     55.1633    147.1622   9.7122349266e+01   3.8674583281e+01    0.5849442    0.2629379 -47.56   0.00233023    2.318    0.569
        41 -10.9234     29.4191    143.2043   1.0454934755e+02   4.2390522988e+01    0.3997129    0.3467241   9.08  0.001607824    1.325    0.245
        42 -10.4266     98.3117    139.3351   8.2500651430e+01   3.4311886002e+01    0.3380323    0.3074398   6.77 0.0008536528    1.145    0.126
        43  -9.9047    101.0177    136.6538   8.1122020047e+01   3.4490895339e+01    0.4764105    0.2850669   9.32  0.001068291    2.759    0.638
        44 -12.4831     86.1369    137.5021   8.5793712077e+01   3.6768948808e+01      0.30708    0.2763827 -44.11 0.0003775442    1.102    0.093
        45 -10.7851    135.6306    129.3369   6.9764584407e+01   2.9632315312e+01    0.5864931    0.1464055 -46.75  0.001595922    4.046    0.753
        46 -12.2361     61.5747    171.5075   9.8705690643e+01   3.1823352833e+01    0.4516674    0.3043289 -30.10  0.001475071    1.944    0.486
        47  -9.7550     82.6189    129.1069   8.5132285469e+01   3.9406204570e+01    0.2425261    0.2041232  47.70  0.000436131    1.244    0.196
        48  -9.6688    160.8306    128.0201   6.3309683565e+01   2.4794420369e+01    0.2512494    0.1774394 -67.59  0.001085113    2.048    0.512
        49 -10.1497     96.9884    124.6135   7.9608897135e+01   3.8090681650e+01    0.2875451    0.2295837  -5.73  0.001269244    1.483    0.326
        50 -10.5874    135.0000    121.3433   6.7949953483e+01   3.1493790430e+01    0.5119628   0.08720027 -45.07  0.001145046    5.823    0.828
        51  -9.3641    116.1583    123.5935   7.3663028545e+01   3.4766194103e+01    0.2206035    0.1468538  24.92 0.0009352608    1.710    0.415
        52 -10.7313    161.3453    118.3748   6.0815201983e+01   2.6608704076e+01    0.6836469    0.3818921 -66.12   0.00214758    4.018    0.751
        53  -9.8151    106.3683    118.1647   7.5179045340e+01   3.7896011444e+01    0.2287737    0.2029857  16.93 0.0004336426    1.159    0.138
        54  -9.0918     27.6781    118.6958   1.0182095810e+02   4.8825296005e+01    0.1445304   0.09232578 -38.88 0.0002979499    1.636    0.389
        55 -10.7330    231.3283    113.7981   4.7058168209e+01   1.3649118437e+01    0.2749645    0.2100296 -37.21 0.0007935335    1.124    0.110
        56 -12.0644     66.6399    166.7762   9.6637037645e+01   3.2331008027e+01    0.3528371    0.2692812 -28.10  0.000886275    1.590    0.371
        57  -9.1129     77.7248    112.7599   8.3020747998e+01   4.4216807772e+01    0.1975784    0.1735376  73.93 0.0005250853    1.326    0.246
        58 -10.2479    205.2400    110.4799   5.0345165198e+01   1.9049507864e+01    0.3007727    0.2283478  31.76  0.001138733    1.504    0.335
        59  -9.3642    115.1562    109.0268   7.0197562899e+01   3.8250158078e+01     0.267834    0.1805016 -17.02  0.001084415    2.048    0.512
        60 -11.1220    107.2718    130.2747   7.7839822419e+01   3.4890958451e+01    0.5821665     0.382136  15.90  0.002422044    1.974    0.493
        61 -11.7924    248.9437     92.5785   4.0234420071e+01   1.3760394578e+01    0.3590049    0.1864666 -46.65   0.00188175    1.721    0.419
        62 -10.7316     53.0054     90.5232   8.6525518647e+01   5.3226152481e+01    0.3035716    0.1768646 -41.76  0.001026572    1.650    0.394
        63  -9.9425    118.3337    173.3248   8.3617754628e+01   2.2992929304e+01    0.1524276    0.1121183 -10.96  0.000705103    1.711    0.416
        64 -11.8551    116.1646    244.4337   9.4428937847e+01   9.2063657581e+00    0.2742363    0.1817179  55.51  0.001570804    1.765    0.433
        65 -12.2976    198.2647     49.8972   3.6518657366e+01   2.9813058863e+01    0.5256182    0.4520696  61.93 0.0009365781    1.236    0.191
        66 -10.0998     87.2274    206.5179   9.6508786762e+01   2.0424504883e+01    0.2137124    0.1810001 -69.71 0.0003433664    1.292    0.226
        67 -11.1444     13.5806     60.0801   9.6234742113e+01   6.4287338872e+01    0.2595777    0.2117861 -56.85 0.0004658104    1.163    0.140
        68 -15.0460     55.7806    234.0721   1.0650193367e+02   1.8711042455e+01     2.137321     1.069516  84.63  0.007635002    2.681    0.627
        69  -9.9474    187.8051     31.1951   3.2971686243e+01   3.4512404741e+01     0.171006    0.1521867  40.62 0.0005172516    1.331    0.249
        70  -9.8245    198.1177     23.6488   2.9972764693e+01   3.3017028994e+01    0.2228315    0.1771097 -26.24 0.0006033298    1.400    0.286
        71  -9.7922    189.6744     15.0009   2.8608497710e+01   3.5834727041e+01    0.1744798    0.1497056 -55.81 0.0006114452    1.111    0.100
        72 -11.8191    192.6116    194.2738   7.0497563974e+01   6.7052756009e+00     1.014657    0.5357056 -60.29  0.003149393    6.298    0.841
        73  -8.6485    224.2490    206.6789   6.6775132826e+01   2.9676873098e-01    0.1035412   0.09263305 -32.44  0.000228273    1.531    0.347
