#   1 NUMBER                 Running object number                                     
#   2 MAG_AUTO               Kron-like elliptical aperture magnitude                    [mag]
#   3 X_IMAGE                Object position along x                                    [pixel]
#   4 Y_IMAGE                Object position along y                                    [pixel]
#   5 X_WORLD                Barycenter position along world x axis                     [deg]
#   6 Y_WORLD                Barycenter position along world y axis                     [deg]
#   7 A_WORLD                Profile RMS along major axis (world units)                 [deg]
#   8 B_WORLD                Profile RMS along minor axis (world units)                 [deg]
#   9 THETA_WORLD            Position angle (CCW/world-x)                               [deg]
#  10 FWHM_WORLD             FWHM assuming a gaussian core                              [deg]
#  11 ELONGATION             A_IMAGE/B_IMAGE                                           
#  12 ELLIPTICITY            1 - B_IMAGE/A_IMAGE                                       
         1 -15.0221    150.2698     52.3131   8.8934378714e+01   4.0723700166e+01     1.301374     1.117122 -22.84  0.003744618    1.159    0.137
         2 -15.2049    158.2274     24.6063   7.7711980551e+01   4.2670427456e+01     1.113673     1.051355  -5.41  0.003461739    1.041    0.040
         3 -13.6715    183.8143     10.1269   6.8733585843e+01   3.7514506157e+01     1.789719    0.7405896 -66.59  0.004647152    5.734    0.826
         4 -10.6110    171.2310    229.5958   1.2107021027e+02   9.1552976494e+00     0.151733   0.09517627  43.24  0.001074655    1.178    0.151
         5 -15.4867    248.0702    240.7374   1.1120439185e+02  -2.9894266549e+00     2.508775    0.9733695 -31.44   0.01561128    3.284    0.695
         6 -13.8461    248.5841    213.5167   1.0731718952e+02  -9.4063342400e-01    0.7299127    0.3902618 -28.42  0.004841229    2.196    0.545
         7 -20.7974     92.8909    186.7455   1.2950948008e+02   2.6749550371e+01     10.65281     5.712242 -65.93   0.06496349    2.032    0.508
         8 -14.2370    189.9727    161.0122   1.0797311946e+02   1.4578003048e+01    0.8210405    0.4253066 -38.46  0.002377137    2.178    0.541
         9 -11.5904    207.4164    170.9366   1.0676571624e+02   1.0105611680e+01    0.2670805    0.2010849 -52.39  0.001274368    1.856    0.461
        10 -10.8451      6.1118    218.3276   1.4614605697e+02   3.1441449573e+01    0.1302638   0.09022887  79.04 0.0004383397    1.194    0.162
        11 -11.3168    176.7831    154.8763   1.0921960565e+02   1.7926986904e+01    0.2148205    0.1795619  57.85 0.0004355125    1.222    0.182
        12 -12.9417    173.5751    148.6113   1.0864728510e+02   1.9483945017e+01    0.3998861    0.3336903  57.27  0.001592862    1.204    0.169
        13 -12.7593     28.3569    145.1424   1.3825357192e+02   4.2154497144e+01    0.3231391    0.2810681 -76.48  0.001594302    1.338    0.253
        14 -12.5395    173.9645    139.9370   1.0689041175e+02   2.0755656043e+01     0.334292    0.1956676 -49.78  0.001155312    2.017    0.504
        15 -13.8089    160.5555    128.1867   1.0709313583e+02   2.5349592711e+01    0.4793938     0.452172 -89.44  0.001759831    1.137    0.120
        16 -11.1312     13.2799    126.1976   1.4000743195e+02   4.7284079734e+01    0.1975555    0.1756114  49.70  0.001373397    1.400    0.286
        17 -12.4590    153.7463    125.6091   1.0792926690e+02   2.7158006184e+01    0.2639325    0.1896839  57.06 0.0007261974    1.395    0.283
        18 -12.0369      9.5635    214.5746   1.4549369191e+02   3.1707364526e+01     0.159068    0.1121311  70.63 0.0005227412    1.106    0.096
        19 -10.8882      6.1297    222.9593   1.4629514056e+02   3.0740431487e+01    0.1426298   0.08860182  77.12 0.0005694327    1.194    0.163
        20 -13.7937     11.5179    206.0926   1.4486892110e+02   3.2862683826e+01    0.4517865    0.2880498  35.88  0.002920561    1.873    0.466
        21 -11.4193    167.6458    112.7113   1.0223821699e+02   2.6506372142e+01    0.3440156    0.2270132 -74.71  0.001445114    2.621    0.618
        22 -11.1515    183.0933    204.6669   1.1604849385e+02   1.0165995070e+01    0.1706245    0.1536408   4.88 0.0003353599    1.276    0.216
        23 -11.4633     13.1572    193.5976   1.4407764638e+02   3.4754521730e+01    0.1937597    0.1323721 -65.83  0.001569286    1.840    0.457
        24 -11.0974    205.4842    110.2541   9.4608157018e+01   1.8696336069e+01    0.2946951    0.2084301  40.38 0.0009148473    1.363    0.266
        25 -11.8338    179.1256    220.9361   1.1880856037e+02   8.9202569760e+00    0.2675109    0.1560246 -41.74  0.001693025    2.262    0.558
        26 -10.9322     18.0482    189.7470   1.4307263516e+02   3.4951995215e+01    0.1509602    0.1044739  83.14 0.0004171636    1.157    0.136
        27 -10.5462    188.6703    214.7109   1.1651194792e+02   8.1293706632e+00    0.1421351     0.101343 -15.92  0.000514475    1.871    0.466
        28 -12.1463    187.9393    209.8430   1.1597645250e+02   8.7891544444e+00    0.2763671    0.1908465 -39.59 0.0009062173    1.854    0.461
        29 -13.6086    139.1896     83.7072   1.0097019893e+02   3.7813272827e+01      1.06269    0.5156745 -24.56   0.00348147    3.683    0.728
        30 -14.9514    141.4827     67.0124   9.5575160707e+01   4.0322895946e+01     1.276815     1.152431 -50.84  0.003796185    1.118    0.105
        31 -11.3442    156.2955    246.8981   1.2517161352e+02   9.4379360221e+00    0.1446823    0.1261684 -16.18 0.0007500281    1.668    0.400
        32 -10.9549    210.5761    177.3219   1.0734884847e+02   8.7799404988e+00    0.2067561    0.1002437 -48.37 0.0009527777    3.314    0.698
        33 -14.0914    153.4715     43.6854   8.5361133217e+01   4.1267743199e+01    0.7044635    0.5828956 -23.04 0.0008013797    1.196    0.164
        34 -11.6286    113.8445     84.0804   1.0719398674e+02   4.2925804272e+01    0.2266388     0.222506  -1.16  0.000400232    1.116    0.104
        35 -12.5970    203.5748    174.3196   1.0798892677e+02   1.0372697775e+01     0.509859    0.2917514 -55.99  0.002429036    3.259    0.693
        36 -12.8691    195.2527    172.7626   1.0912153187e+02   1.2049787957e+01     1.776154    0.3419431 -42.40  0.005473153    6.729    0.851
        37 -12.0657     73.6970     60.6426   1.1193743736e+02   5.4648335275e+01    0.2965408    0.2423019  29.30 0.0009814873    1.444    0.308
        38 -11.8722     13.3654     59.7142   1.3194910656e+02   6.1438328979e+01    0.2220661    0.1708871 -80.80 0.0004855149    1.130    0.115
        39 -13.0492    192.5213    164.4918   1.0815186029e+02   1.3633649506e+01    0.3237192    0.2501196  23.52 0.0006256714    1.280    0.219
        40 -10.5116    198.5995    236.3175   1.1772074049e+02   4.4078515245e+00    0.1313803    0.1003221 -40.37 0.0009296916    1.839    0.456
        41 -12.8121     19.0467     20.9319   1.1973515431e+02   6.9138742254e+01    0.3324844    0.2211643   0.75 0.0008413512    2.004    0.501
