#   1 NUMBER                 Running object number                                     
#   2 MAG_AUTO               Kron-like elliptical aperture magnitude                    [mag]
#   3 X_IMAGE                Object position along x                                    [pixel]
#   4 Y_IMAGE                Object position along y                                    [pixel]
#   5 X_WORLD                Barycenter position along world x axis                     [deg]
#   6 Y_WORLD                Barycenter position along world y axis                     [deg]
#   7 A_WORLD                Profile RMS along major axis (world units)                 [deg]
#   8 B_WORLD                Profile RMS along minor axis (world units)                 [deg]
#   9 THETA_WORLD            Position angle (CCW/world-x)                               [deg]
#  10 FWHM_WORLD             FWHM assuming a gaussian core                              [deg]
#  11 ELONGATION             A_IMAGE/B_IMAGE                                           
#  12 ELLIPTICITY            1 - B_IMAGE/A_IMAGE                                       
         1 -14.5509    171.4714      3.7414   5.8929164703e+01   4.1498053142e+01     0.467026    0.2756037 -87.88  0.002573571    1.689    0.408
         2 -14.8993    150.8343      3.5150   6.1517590041e+01   4.6247919819e+01    0.8240187     0.208084  57.20  0.003308924    2.855    0.650
         3 -12.9419    106.4907      5.4962   6.9728712834e+01   5.5914809057e+01    0.2411706   0.07343892  50.98   0.00104082    2.424    0.587
         4 -12.1479     23.5469      2.0105   9.4599153676e+01   7.0335620240e+01    0.1689583    0.1136802  18.18 0.0007878108    1.198    0.165
         5 -13.2853    163.0303    218.7200   1.1129602625e+02   4.0479150367e+00    0.3814024    0.2912035  14.30  0.001970834    1.510    0.338
         6 -16.5559    244.9177    228.6500   9.6718852296e+01  -1.1015805547e+01     3.695465     0.961418 -37.89   0.01383562    3.635    0.725
         7 -20.6548     97.0686    197.6513   1.2290315445e+02   2.0481892556e+01     9.414264     6.806998  47.56   0.04219545    1.330    0.248
         8 -13.6283     11.9565    164.7466   1.3913984915e+02   3.9396617883e+01    0.3757778     0.258132  46.29  0.002107989    1.593    0.372
         9 -12.8616    179.2181    163.1436   9.6800917614e+01   1.2658832204e+01    0.3225476    0.3074777  62.33 0.0007595075    1.093    0.085
        10 -12.4390     27.3367    219.6332   1.4094147556e+02   2.5088778969e+01    0.4515396    0.3203459 -58.55  0.002805332    1.616    0.381
        11 -11.5600     12.6111    221.0091   1.4391928155e+02   2.6369396989e+01    0.1948903    0.1701589   6.87  0.001361036    1.845    0.458
        12 -11.6123    180.9237    156.7032   9.5012398706e+01   1.3702485612e+01    0.2613622    0.2108343  31.56 0.0003755629    1.347    0.258
        13 -12.8930    176.2786    155.9324   9.5857293108e+01   1.4847629853e+01    0.3840657    0.2493818  68.01  0.001541334    2.180    0.541
        14 -11.7268    192.2627    217.8521   1.0493778652e+02  -9.6291087074e-01     0.292461    0.1706567  34.48 0.0006772598    1.652    0.395
        15 -12.9468    166.6992    155.0260   9.7805670817e+01   1.7076699623e+01    0.2860041    0.2280511  32.46 0.0006409331    1.358    0.263
        16 -11.2743     13.4379    216.5270   1.4343239567e+02   2.7268287028e+01    0.1670208    0.1405749  62.10 0.0004923207    1.255    0.203
        17 -11.7974    165.3619    240.1805   1.1435049698e+02  -4.3844639881e-01    0.1994297    0.1294948 -57.05  0.001015756    1.892    0.472
        18 -13.7552     18.2854    153.3790   1.3626413459e+02   4.1586842613e+01    0.2990864    0.2511162  -0.74 0.0004638229    1.593    0.372
        19 -12.7874    175.6119    150.8080   9.4853136501e+01   1.6113341768e+01    0.3786519    0.2502294 -71.47  0.001199198    2.162    0.537
        20 -13.5259    150.3127    149.7814   1.0047125697e+02   2.1756247884e+01    0.4645286    0.3926573 -58.25  0.001751895    1.187    0.157
        21 -11.2325    181.9610    148.4964   9.2946271509e+01   1.5260093165e+01    0.2202888    0.1534226  49.54 0.0004148399    1.493    0.330
        22 -12.5552    183.6224    214.8652   1.0619728567e+02   1.1124369385e+00    0.2751697    0.2060317 -11.36 0.0009181394    1.586    0.370
        23 -12.6291    153.4200    143.6879   9.8319902244e+01   2.2490635922e+01    0.2855206      0.26866  89.76 0.0003457381    1.087    0.080
        24 -11.8047    177.1204    215.6400   1.0771675261e+02   2.1222346623e+00    0.3705816    0.2568764  41.08  0.001888251    1.381    0.276
        25 -11.6464     17.6534    221.1652   1.4296284866e+02   2.5809989484e+01    0.2277207    0.1233052  57.29  0.001303325    1.630    0.387
        26 -11.5137    205.6095    212.3685   1.0120629287e+02  -2.2454471299e+00    0.1809139    0.1616757  87.79 0.0006223994    1.556    0.357
        27 -13.6753    104.0015    137.5372   1.0971294063e+02   3.3998932676e+01    0.4222247    0.3004711 -66.80  0.001923628    1.523    0.343
        28 -14.3514     52.2890    135.9624   1.2423591201e+02   4.2343013440e+01    0.4457021    0.3473729   7.68  0.001861697    1.613    0.380
        29 -11.5625    188.0245    210.6725   1.0449993887e+02   1.1328550877e+00    0.1909187    0.1593276  27.01 0.0002390966    1.149    0.129
        30 -11.9526     10.8529    209.8316   1.4343625583e+02   2.9014092931e+01    0.1676508    0.1398327 -77.48 0.0006011923    1.258    0.205
        31 -13.3725    122.8846    131.3151   1.0310259650e+02   3.1811436681e+01     0.539888    0.3927298  64.75  0.001378445    1.641    0.391
        32 -14.5689    107.5813    130.8799   1.0717301905e+02   3.4927542786e+01    0.7139072    0.5409992  70.26  0.002603172    1.629    0.386
        33 -13.5278    115.4624    129.7659   1.0473207533e+02   3.3664820190e+01    0.4652044    0.3502165  51.00  0.001073372    1.388    0.280
        34 -13.8309     63.5149    132.7209   1.2032015840e+02   4.1691753384e+01    0.3114021    0.2918608 -32.33   0.00183245    1.131    0.116
        35 -11.0913     18.5198    206.5271   1.4162740064e+02   2.8988947778e+01    0.1242008   0.09703909  86.82 0.0002192484    1.020    0.020
        36 -11.0720    204.9827    201.0773   9.9182017456e+01  -4.6781952418e-02    0.1589636    0.1467859   0.75            0    1.017    0.017
        37 -12.4363     28.0188    227.0728   1.4141447625e+02   2.3375014931e+01    0.2978822    0.1870229  80.33  0.001786718    1.355    0.262
        38 -11.7471    195.7102    193.9404   9.9681363699e+01   3.0032715293e+00    0.1880754    0.1760782 -31.52 0.0002486493    1.073    0.068
        39 -11.4901    221.1174    231.2967   1.0161337568e+02  -7.9734023080e+00    0.1677361    0.1477132  12.82  0.000347411    1.105    0.095
        40 -13.0981     74.8290    125.1791   1.1534931107e+02   4.1895332924e+01    0.3264067     0.263207 -60.25 0.0005153414    1.180    0.153
        41 -12.5085      8.8536    186.4377   1.4194274965e+02   3.4545789360e+01    0.3924802     0.190208  63.94  0.001978531    2.155    0.536
        42 -11.9499    176.1733    223.5411   1.0931566721e+02   7.7656342890e-01      0.42481    0.2704564  61.25  0.001913745    2.272    0.560
        43 -13.6493     48.1540    122.3674   1.2285841567e+02   4.6122032685e+01    0.3403169     0.295338 -27.66 0.0007968909    1.221    0.181
        44 -12.9170     22.5921    121.2451   1.3043079336e+02   4.8913028491e+01    0.2432901    0.1924239 -33.81  0.001390961    1.330    0.248
        45 -12.0641    102.7749    118.7970   1.0558982811e+02   3.8663658906e+01    0.2424287    0.2099679  34.19 0.0004130313    1.203    0.169
        46 -11.7535    196.4288    185.0588   9.7750231560e+01   4.6435330832e+00    0.2003203    0.1892058  26.57 0.0003037762    1.077    0.071
        47 -11.9100     43.4252    119.0611   1.2365619695e+02   4.7437082310e+01    0.2369621    0.1829641 -12.13 0.0006914983    1.548    0.354
        48 -12.9472    178.4096    176.3467   9.9795992302e+01   9.9670163152e+00    0.5859187    0.3722013  16.07 0.0007494386    2.450    0.592
        49 -12.0410     91.7573    115.1766   1.0790485998e+02   4.1489783186e+01    0.4722407    0.1730661 -44.85  0.001425512    2.684    0.627
        50 -11.2580    144.8636    115.8005   9.3573401114e+01   3.0604406361e+01    0.2184945    0.1830734  79.77  0.001048299    1.352    0.261
        51 -13.2068    175.7335    183.5619   1.0187175408e+02   8.9507896959e+00    0.3150985    0.2852298 -57.98 0.0006719946    1.160    0.138
        52 -12.1496    181.0584    182.1613   1.0042040935e+02   8.2033839332e+00    0.4915517     0.343207  -4.20  0.002108029    2.134    0.531
        53 -12.7948    185.6435    177.2848   9.8422769981e+01   8.3305903325e+00    0.3913369    0.2952464 -41.61  0.001393303    1.301    0.231
        54  99.0000     30.0706    238.5497   1.4191607016e+02   2.0680599621e+01    0.3380957    0.1761678 -77.29  0.001907396    1.714    0.416
        55 -14.2044    167.0392    212.7355   1.0936936627e+02   4.5201095521e+00    0.6911826      0.42599 -56.37  0.003197167    1.883    0.469
        56 -12.5245      1.9584    105.1805   1.3412695268e+02   5.4024481164e+01    0.2261291    0.1396457 -61.30  0.001367997    1.248    0.198
        57 -12.9114     10.2693    175.7437   1.4064662795e+02   3.6929137419e+01    0.3628238    0.1720624 -67.63  0.001882922    1.684    0.406
        58 -12.1306      4.7301    177.9302   1.4209450490e+02   3.6883059130e+01    0.1979491    0.1623392  63.26 0.0005062053    1.260    0.206
        59 -11.1872    118.6403     89.2741   9.3159533942e+01   4.1815993195e+01    0.1864591    0.1395332 -34.37 0.0005459572    1.386    0.279
        60 -10.6351    111.2557     89.3406   9.5219469968e+01   4.3335003983e+01    0.1468221    0.1142256  -7.71 0.0002384287    1.580    0.367
        61 -11.8673    186.8367    169.0871   9.6437349184e+01   9.8265887730e+00    0.3721207    0.2396561 -30.22  0.001617741    1.768    0.435
        62 -11.9223     73.2506     87.8524   1.0642525782e+02   5.0494698989e+01    0.2887345    0.1891056  27.26 0.0007687596    1.627    0.385
        63 -13.0283     42.8685     81.8223   1.1521755431e+02   5.5764669229e+01    0.3096829    0.2255041  55.16  0.001707569    1.987    0.497
        64 -14.1883    249.8145     59.8158   6.2345496230e+01   1.7136908024e+01    0.7786772    0.1550812 -38.58  0.002437294    4.916    0.797
        65 -13.3100      2.7964     58.6383   1.2438994232e+02   6.3639129399e+01    0.3456733    0.1421395 -58.91  0.001790113    2.167    0.539
        66 -11.4185     59.6687     57.9799   1.0194757054e+02   5.8107326219e+01    0.1796909    0.1512692 -20.17 0.0005163515    1.081    0.075
        67 -11.7058     46.5697     42.6362   1.0154286364e+02   6.2353203940e+01    0.2206608    0.1398749  31.42   0.00110678    1.568    0.362
        68 -12.7800    165.1243    220.8674   1.1121343686e+02   3.2476284383e+00    0.3783333    0.2684877   6.23  0.001814851    1.897    0.473
        69 -12.1305    177.6999    169.0542   9.8410491039e+01   1.1686098132e+01    0.2101801    0.1902853 -39.39 0.0003451504    1.088    0.081
        70 -11.9865     40.3815    245.7866   1.4055036123e+02   1.7919432735e+01    0.3263797    0.1531845  72.46   0.00159999    2.243    0.554
        71 -11.2840     29.1715    244.8555   1.4254809253e+02   1.9475572912e+01    0.3018825     0.158101  69.03  0.001702419    1.685    0.407
