#   1 NUMBER                 Running object number                                     
#   2 MAG_AUTO               Kron-like elliptical aperture magnitude                    [mag]
#   3 X_IMAGE                Object position along x                                    [pixel]
#   4 Y_IMAGE                Object position along y                                    [pixel]
#   5 X_WORLD                Barycenter position along world x axis                     [deg]
#   6 Y_WORLD                Barycenter position along world y axis                     [deg]
#   7 A_WORLD                Profile RMS along major axis (world units)                 [deg]
#   8 B_WORLD                Profile RMS along minor axis (world units)                 [deg]
#   9 THETA_WORLD            Position angle (CCW/world-x)                               [deg]
#  10 FWHM_WORLD             FWHM assuming a gaussian core                              [deg]
#  11 ELONGATION             A_IMAGE/B_IMAGE                                           
#  12 ELLIPTICITY            1 - B_IMAGE/A_IMAGE                                       
         1 -14.6085     68.6517    144.0854   1.0128416501e+02   3.7418743377e+01     4.731123     2.144904  62.20  0.007249951    4.800    0.792
         2 -13.1923    196.5436     42.2183   4.3566412359e+01   3.1029140389e+01     1.063682    0.9178455 -64.23  0.003245021    1.075    0.070
         3 -13.8211    205.1382     33.5505   4.0345640694e+01   3.0148159927e+01     1.241094    0.9172372  25.11  0.001343713    2.037    0.509
         4 -11.7857     32.5028     12.0306   7.5166664953e+01   6.9742831684e+01    0.5332873     0.160333 -29.90  0.002121875    3.623    0.724
         5 -12.1748     40.2071     10.6863   7.0865343516e+01   6.8847071185e+01    0.6411242     0.247027 -31.49  0.003081285    2.511    0.602
         6 -12.6925    231.7259      6.2267   3.1719098329e+01   2.7404505054e+01    0.7988329    0.6005501 -54.21  0.005050239    1.177    0.150
         7 -12.0357    226.2450      7.6425   3.2422190848e+01   2.8422786062e+01    0.7282462    0.2446814 -41.44  0.003023757    2.456    0.593
         8 -10.4504     63.8929      8.8659   6.0461040642e+01   6.5140152767e+01    0.2168716    0.1556794  45.35 0.0008424612    1.352    0.260
         9 -11.6318     60.4116      3.0249   5.8904879676e+01   6.6335489833e+01    0.4688492     0.212777  43.19  0.002415708    1.849    0.459
        10 -11.7829    111.4624    204.0481   1.0001601670e+02   1.6557003039e+01    0.8395101    0.3838029 -70.54  0.002250847    3.463    0.711
        11 -13.3326     58.9616    184.8429   1.0986483149e+02   2.8668810091e+01     1.413328     1.158842  87.83  0.008436803    1.107    0.097
        12 -18.1629     16.2248    217.6097   1.2213962470e+02   2.6096084175e+01     11.84085     4.920277 -82.17   0.06101612    2.176    0.540
        13  -8.7122     80.8850    184.7453   1.0449925587e+02   2.5678174661e+01    0.2419127     0.139413  59.79  0.001079676    1.958    0.489
        14 -10.5285     99.4120    180.8736   9.9322737594e+01   2.3726036441e+01    0.2824118    0.2544527  40.60 0.0006214999    1.122    0.109
        15  -8.5648     90.8536    182.1692   1.0165515206e+02   2.4779832967e+01    0.1818381    0.1664911 -32.25 0.0003197022    1.272    0.214
        16  -9.1120     93.7777    179.7999   1.0055710060e+02   2.4880705026e+01    0.2010618    0.1576104  68.13 0.0005076654    1.334    0.250
        17 -10.2179    187.2423    175.6534   7.7750115539e+01   8.9387147217e+00    0.3564364    0.3290896 -68.07  0.001150364    1.334    0.250
        18  -8.8363    148.3094    175.0414   8.6323589346e+01   1.6383659188e+01    0.2250696    0.2021815  85.09 0.0006714383    1.302    0.232
        19  -9.4853    146.4428    171.5169   8.6063448714e+01   1.7503352657e+01    0.2419912      0.19956 -61.59 0.0006563575    1.334    0.251
        20 -11.9911     53.3156    109.5973   9.9246886640e+01   4.8021594676e+01    0.7606025     0.379514 -60.78  0.002776342    1.836    0.455
        21 -12.8574     54.8161    146.8205   1.0568569082e+02   3.8534729514e+01     2.907749     1.302742 -40.18   0.01080428    3.074    0.675
        22 -13.8970     51.0300    201.5937   1.1355563549e+02   2.5778833359e+01     2.667248     1.071212  63.66  0.008093975    3.502    0.714
        23 -11.5156     76.0425    166.9952   1.0308473543e+02   3.0661810963e+01    0.3740823    0.3384859 -49.48 0.0007101132    1.188    0.158
        24 -10.7438     47.5489    172.2494   1.1115313030e+02   3.3092286299e+01    0.4521779    0.3010134 -44.69    0.0023678    1.769    0.435
        25 -12.7181    107.3791    203.2797   1.0084571988e+02   1.7380749181e+01     1.022922    0.5557339 -52.51  0.003879274    1.951    0.488
        26 -10.0113    119.0206    173.0307   9.3060692918e+01   2.2220399383e+01    0.2459028    0.1804097  71.49   0.00106177    1.702    0.412
        27  -9.8911    228.8031    171.6082   6.8806191207e+01   2.3273082370e+00    0.1776704    0.1291666  48.46 0.0009545936    1.691    0.409
        28  -8.7695    193.4786    170.9484   7.5475050935e+01   8.6893442381e+00     0.220641    0.1367612 -40.97  0.001024198    1.572    0.364
        29 -10.2909    240.2742    168.9837   6.6263126094e+01   8.9108415360e-01    0.1915187    0.1518842 -23.68 0.0003709089    1.072    0.068
        30  -9.7364    185.2007    168.3029   7.6648938662e+01   1.0756964016e+01    0.2967307    0.1978408 -49.54 0.0009613814    1.610    0.379
        31 -11.1652    192.8183    194.8603   8.0399964473e+01   4.3575666093e+00     1.036822    0.5485007 -62.78  0.003217972    5.403    0.815
        32  -9.4161     94.4008    204.3111   1.0398573486e+02   1.9187713903e+01    0.4075266     0.266758 -15.46  0.001713669    3.078    0.675
        33  -8.9002    135.6287    165.3772   8.7444153894e+01   2.0924286537e+01    0.3306166    0.1692095  50.22  0.001267735    2.179    0.541
        34  -8.7476    132.6735    162.0338   8.7495471124e+01   2.2247939550e+01    0.2111624     0.202631 -61.52 0.0006780874    1.059    0.056
        35 -13.6885     44.0503    111.7646   1.0276549124e+02   4.8547652449e+01     2.384188     1.314342  71.22  0.009021876    3.421    0.708
        36 -13.1222     72.8752    153.4523   1.0172727668e+02   3.4474984253e+01    0.7522495    0.5530158 -55.66  0.001190783    1.295    0.228
        37 -11.5418     91.4584    151.5434   9.6251051491e+01   3.2111139556e+01     0.741666    0.5687075 -13.16   0.00353438    1.774    0.436
        38 -10.8968    133.8523    145.4336   8.3622223612e+01   2.5850450641e+01     1.248355    0.3459648 -54.84  0.003000732    5.287    0.811
        39  -9.3626    174.8589    149.1516   7.4687197263e+01   1.6683930751e+01    0.2712295    0.2241623 -29.25 0.0007710991    1.199    0.166
        40  -8.7627    111.2837    149.7024   9.0483337962e+01   2.9143579184e+01    0.3729979    0.2162999  75.60  0.001145259    3.999    0.750
        41 -10.3800    104.1229    138.1121   8.9964652768e+01   3.3248418491e+01    0.5500809    0.3330505 -30.19  0.002165295    2.244    0.554
        42 -10.2396    105.9144    130.8411   8.7815694700e+01   3.4687095680e+01    0.3860871    0.3314639 -63.57  0.001065707    1.179    0.152
        43 -11.5729     91.7452    137.6034   9.3370356381e+01   3.5514883274e+01    0.2919466    0.2703665 -40.12  0.000439262    1.100    0.091
        44 -11.3424     45.5260    137.5617   1.0688860726e+02   4.1946891529e+01     0.580981     0.248978 -50.31  0.002408589    2.197    0.545
        45 -12.6262     42.5225    127.3636   1.0611381629e+02   4.4832820638e+01    0.9199027    0.6381257  78.03  0.003951134    1.709    0.415
        46  -8.9338    160.6147    127.7997   7.2846663070e+01   2.4205859313e+01    0.2359871    0.1435889 -52.74 0.0009587436    1.764    0.433
        47 -11.1087    119.4408    122.9443   8.2114060761e+01   3.3968075171e+01    0.6454909    0.3993347 -20.91  0.002372034    2.577    0.612
        48 -10.3238    100.0390    124.9062   8.8115556746e+01   3.7187878930e+01    0.3260145    0.2625749 -11.89  0.000807405    1.516    0.340
        49 -10.2304    112.8103    128.9764   8.5432688772e+01   3.3841870920e+01    0.3683005    0.3063839  -0.66 0.0009078826    1.448    0.309
        50 -10.4825    135.6778    129.4512   7.9386824916e+01   2.9154988614e+01    0.5652389    0.1444775 -49.66  0.001465758    4.205    0.762
        51  -9.3709    108.6716    118.1870   8.3958565388e+01   3.7187922479e+01    0.2337673    0.2098644  53.06 0.0004072544    1.179    0.152
        52  -9.9694    134.6383    105.6387   7.3463888996e+01   3.4669444278e+01    0.4516175    0.1525767 -47.38  0.001377271    3.054    0.673
        53  -9.9704    231.3496    113.6645   5.5784271756e+01   1.1999408095e+01    0.2631847    0.2388443 -45.58 0.0007642869    1.057    0.054
        54  -8.6705    167.9592    112.7677   6.7365022401e+01   2.5727158542e+01    0.2557145    0.1859325  88.07  0.001072773    2.042    0.510
        55 -10.7120    120.2492    104.7775   7.7110724376e+01   3.7932813788e+01     0.326923    0.2325146 -39.37  0.001484104    1.393    0.282
        56 -10.5773    115.0000    110.0020   8.0011979468e+01   3.7837756772e+01    0.4533365    0.2212154 -40.93  0.001403413    2.083    0.520
        57 -11.2794    118.4874    109.4801   7.8885730512e+01   3.7248301383e+01    0.5136428    0.3446477 -74.30  0.002024042    2.297    0.565
        58  -9.4122    205.4957    110.2667   5.9278881415e+01   1.7910505858e+01    0.2922167    0.2362826  40.49  0.000768129    1.362    0.266
        59 -11.7272     72.2893    171.5716   1.0475612188e+02   3.0076978426e+01    0.4437705    0.3905969 -19.32  0.002464519    1.429    0.300
        60  -8.7823    129.0081     96.5179   7.2391632544e+01   3.7836727437e+01    0.2311045    0.1540337  47.06 0.0004586068    1.527    0.345
        61 -11.6195     54.7643     93.8646   9.5075579564e+01   5.1610568609e+01    0.6449923    0.4189678 -84.10  0.002123398    2.425    0.588
        62 -12.3078     84.0491    159.0970   9.9648880524e+01   3.1414727607e+01     1.186791    0.8662979 -76.63  0.002680239    1.433    0.302
        63 -11.0106    121.3350    196.7422   9.6595395576e+01   1.6496942530e+01    0.4585444    0.2665512 -71.45 0.0007256164    2.367    0.577
        64  -8.5068    157.2748     89.4496   6.3444648764e+01   3.2801759264e+01    0.2080573    0.1492031  67.77 0.0007929839    1.621    0.383
        65  -9.0799    234.4919     86.4927   4.9157197391e+01   1.5937974090e+01     0.138006    0.1180526 -52.34 0.0001876962    1.032    0.031
        66  -8.8493    157.6667     82.9141   6.1506479203e+01   3.3932702670e+01    0.2171261    0.1933583 -46.39 0.0005739971    1.115    0.103
        67  -8.7305    184.6222     77.1544   5.4581831143e+01   2.8547372415e+01    0.2062828    0.1394043 -24.48 0.0007067567    1.713    0.416
        68  -9.5945     60.7702     68.4357   8.5580749188e+01   5.6399939536e+01     0.241302    0.1778963 -43.45 0.0005478634    1.267    0.211
        69 -12.9421    185.0199     51.2284   4.7563795910e+01   3.2523976555e+01    0.9519434    0.8607711  -8.62 0.0008822566    1.317    0.241
        70  -9.2131    168.4086    233.6271   9.2124359474e+01   1.6407389011e+00    0.2617306    0.1353947  46.09  0.001191169    2.004    0.501
        71  -9.1669     81.8134    195.2277   1.0571182033e+02   2.3106738104e+01      0.27438    0.2148373 -39.10  0.001504331    1.581    0.367
        72  -9.1441    126.3142    190.6551   9.4414289550e+01   1.6966705372e+01    0.1490421    0.1103845  73.31 0.0007047414    1.713    0.416
        73  -9.3160    198.4487     23.8838   3.8724776794e+01   3.2871741281e+01    0.1870037    0.1241836 -33.64    0.0010226    1.579    0.367
        74 -11.7005    109.7682    187.8419   9.7909431554e+01   2.0415061558e+01     0.490853    0.3465139 -50.41  0.002473009    1.481    0.325
        75 -10.4931    147.8873    187.4823   8.8801534563e+01   1.3808073395e+01    0.3835501    0.2992512 -57.61  0.001542088    1.417    0.294
        76 -10.3830    119.9248    186.1680   9.5174984946e+01   1.9067315769e+01    0.2221449    0.1901698  65.82 0.0002913359    1.221    0.181
        77  -9.3225    189.6954     14.9845   3.7458274273e+01   3.5914506393e+01     0.178386    0.1562515 -66.95 0.0007014343    1.096    0.088
        78 -10.8260    184.5189    211.8352   8.5222912327e+01   2.7492621596e+00    0.3504926     0.216456 -28.82  0.001760982    1.763    0.433
        79  -9.6099     89.6457    211.7039   1.0602305312e+02   1.8297828666e+01    0.2445836    0.2020647  83.81 0.0008504078    1.205    0.170
        80 -10.4140    163.7855    211.9854   8.9602518552e+01   6.1828330584e+00    0.2575766    0.1719979  20.78  0.001231296    1.589    0.371
        81 -12.3367    115.1477    199.8951   9.8536665557e+01   1.6849219040e+01    0.8366861    0.4010736 -64.61  0.003382098    2.588    0.614
