#   1 NUMBER                 Running object number                                     
#   2 MAG_AUTO               Kron-like elliptical aperture magnitude                    [mag]
#   3 X_IMAGE                Object position along x                                    [pixel]
#   4 Y_IMAGE                Object position along y                                    [pixel]
#   5 X_WORLD                Barycenter position along world x axis                     [deg]
#   6 Y_WORLD                Barycenter position along world y axis                     [deg]
#   7 A_WORLD                Profile RMS along major axis (world units)                 [deg]
#   8 B_WORLD                Profile RMS along minor axis (world units)                 [deg]
#   9 THETA_WORLD            Position angle (CCW/world-x)                               [deg]
#  10 FWHM_WORLD             FWHM assuming a gaussian core                              [deg]
#  11 ELONGATION             A_IMAGE/B_IMAGE                                           
#  12 ELLIPTICITY            1 - B_IMAGE/A_IMAGE                                       
         1 -10.6955     87.7108     24.3536   3.0652264361e+01   5.8979024052e+01    0.4721496    0.2691017 -59.00  0.002005138    2.815    0.645
         2 -12.1624     96.5947     22.1507   2.7417589649e+01   5.7167000822e+01    0.4074875    0.2874199  65.13 0.0004311175    1.335    0.251
         3 -11.1748     21.0283     16.8912   5.6416272906e+01   7.2570212000e+01    0.4060515    0.2470508  27.89  0.001747474    1.523    0.343
         4 -10.4124     66.1205     16.1200   3.3786871750e+01   6.4715511459e+01    0.2173386    0.1925462  18.76 0.0003433009    1.097    0.089
         5 -10.0246      6.5440     14.7667   6.5552899619e+01   7.4543535942e+01    0.2547147    0.1992603 -65.78  0.001105061    1.891    0.471
         6 -10.8952     49.5426     13.8504   3.9195213341e+01   6.8340656999e+01    0.3249719    0.2467887  43.15 0.0008411309    1.211    0.174
         7 -10.5211     45.3502     12.0630   4.0138503474e+01   6.9349623726e+01    0.2441902    0.1923595  -3.88 0.0007823399    1.273    0.215
         8 -10.2197     34.9297     13.5044   4.6199801085e+01   7.1004399608e+01    0.2674751    0.1920308  20.31 0.0006758727    1.260    0.206
         9 -10.2571     32.2426     10.2774   4.5852339972e+01   7.1875849779e+01    0.2246384     0.196029 -18.59 0.0006944455    1.255    0.203
        10  -9.8001    114.6201      8.9060   1.8683922142e+01   5.4160053270e+01    0.2295217    0.1483678  60.35 0.0006248939    1.337    0.252
        11 -11.2828    119.1934      9.0923   1.7991550900e+01   5.3032535225e+01    0.3220333    0.2299169 -31.63 0.0002924454    1.556    0.357
        12 -11.2594    123.8904      6.5450   1.6392512041e+01   5.2114526853e+01     0.323925    0.2196427 -85.33 0.0009852495    1.504    0.335
        13  -9.7224    191.8663     12.1029   1.0594618462e+01   3.5754562441e+01    0.1512078    0.1438812  51.31  0.001085002    1.355    0.262
        14  -9.8762     79.3925     11.9576   2.7663293115e+01   6.2230580266e+01    0.2398538    0.1716602  75.16 0.0007874173    1.551    0.355
        15  -9.9794     27.6134     11.4658   4.9239121585e+01   7.2448377453e+01    0.2147778    0.1780548   4.05 0.0007326143    1.041    0.039
        16 -10.7160    104.7908      8.6854   2.0380269561e+01   5.6557891804e+01    0.3648887    0.2877832 -45.93  0.002190547    1.416    0.294
        17 -11.4881     97.0277      6.5287   2.1085067913e+01   5.8607799801e+01    0.4588919    0.2753973 -59.58  0.001467167    2.174    0.540
        18 -10.8325     74.6748      9.4931   2.7896080559e+01   6.3537122328e+01    0.3209005    0.2278558 -19.10  0.001843762    1.588    0.370
        19 -10.4088     78.0824      7.6666   2.6089847687e+01   6.2937713042e+01    0.2916037    0.1996717  40.39 0.0004958474    1.341    0.254
        20 -11.5591     56.6294      8.7931   3.3612143071e+01   6.7500119561e+01    0.4358902    0.2997482  29.51  0.001760832    1.372    0.271
        21 -10.1433    212.9541      8.9177   8.3642784780e+00   3.1671151682e+01    0.1679927    0.1371962 -68.32 0.0003535087    1.049    0.047
        22 -10.5477     69.6574      8.2203   2.8813589355e+01   6.4775766401e+01     0.318575    0.1983511  10.01  0.001627734    2.038    0.509
        23  -8.8174     10.4722      9.5036   5.9711397562e+01   7.5015158344e+01    0.1225004   0.09671545  -5.07 3.565203e-05    1.022    0.022
        24 -10.5633      3.4414      8.1342   6.4452712082e+01   7.5954866500e+01    0.2280987     0.180985 -22.61 0.0006234782    1.119    0.106
        25 -11.4346    179.6478      2.4235   9.2077971868e+00   3.9362424699e+01    0.3874659     0.186432 -69.38  0.001637376    2.097    0.523
        26 -11.3743    177.9020      7.1952   1.0542171284e+01   3.9310856416e+01    0.2698571    0.1491628 -54.85 0.0008968478    1.662    0.398
        27 -10.8025    174.0718      2.7101   9.7241378539e+00   4.0586113664e+01    0.3169205    0.2120639 -81.44  0.001423557    1.323    0.244
        28 -11.6559     86.7603      6.6516   2.3419976532e+01   6.1024082899e+01    0.4964609    0.2224216  48.64  0.002301002    1.926    0.481
        29 -10.3218     22.0500      6.1899   4.9567817011e+01   7.4001110476e+01    0.3999296    0.2179841  -8.30  0.001085781    2.559    0.609
        30 -10.2100    242.6807      5.0899   5.9363010088e+00   2.6395691195e+01    0.1516969    0.1073304 -51.82 0.0005880593    1.115    0.103
        31  -9.4972    203.2638      4.7748   8.0825946060e+00   3.4058824350e+01    0.1398611    0.1269197  69.92 0.0003983401    1.341    0.254
        32 -10.3073    131.1435      4.0160   1.4549580583e+01   5.0570635372e+01    0.2530558    0.1725299  55.89  0.001451788    1.389    0.280
        33  -9.6822     16.2184      4.8265   5.2673560926e+01   7.5005868431e+01     0.171638    0.1491638  10.17 0.0006069898    1.200    0.166
        34 -11.1584    114.4310      1.8032   1.6172918094e+01   5.4800580582e+01    0.4231244    0.1618754  70.50  0.001068845    2.253    0.556
        35  -9.9626     37.5122      1.7642   3.7974051543e+01   7.1962951320e+01    0.2323153     0.150701  42.73  0.001370009    1.338    0.253
        36  -9.1557    230.1484      1.6149   5.8785906432e+00   2.9039095435e+01    0.1395969   0.08826593  71.41 0.0006915246    1.689    0.408
        37 -11.3046      3.8050     96.2346   8.9276106380e+01   5.6483386224e+01     0.251351     0.216314 -48.90 0.0003520609    1.077    0.071
        38 -11.1474     41.3661     95.5687   7.3307092866e+01   5.3519618138e+01    0.4769641    0.2368529  25.83  0.002010941    2.076    0.518
        39  -9.1089     51.4733     95.4837   6.9159373274e+01   5.2266703463e+01     0.144723    0.1394967 -34.49 4.159681e-05    1.024    0.024
        40  -9.9828     20.0323     95.0378   8.2205397720e+01   5.5741538082e+01    0.2631989    0.1838537  47.06 0.0007840531    1.628    0.386
        41 -10.6357     15.5473     93.7025   8.3892801893e+01   5.6416215455e+01    0.3241239    0.2944925 -69.76  0.001796012    1.080    0.074
        42  -8.8369     89.4804     94.5014   5.4823214183e+01   4.6232209655e+01    0.1543266    0.1440319  -5.27 0.0008086681    1.093    0.085
        43 -10.4362    132.4938     92.6606   4.1848574287e+01   3.7644669600e+01    0.2818258    0.2627806  73.83  0.000572954    1.121    0.108
        44  -9.4424     61.0476     89.6503   6.3815605059e+01   5.2289747853e+01    0.2021334    0.1897458  -0.91 0.0006577943    1.047    0.045
        45  -9.0604    108.3612     89.6931   4.7505260325e+01   4.3460742544e+01    0.1562953     0.121806  84.27 0.0005344559    1.736    0.424
        46  -9.3306      2.2060     88.7765   8.8919634223e+01   5.8451178012e+01    0.1883488     0.128757 -47.36 0.0005079852    1.304    0.233
        47  -9.2186     11.8904     86.1126   8.4171829989e+01   5.8578751806e+01    0.1894958    0.1372722 -39.60  0.000417434    1.285    0.222
        48  -9.5787      6.2488     85.4981   8.6614936550e+01   5.9068432640e+01    0.2354501    0.1303276   1.23  0.001131754    2.050    0.512
        49  -9.2016     16.5241     81.5216   8.1168348022e+01   5.9399371558e+01    0.1359397    0.1216389 -45.77 0.0001301503    1.008    0.008
        50 -11.2269     54.6993     78.6664   6.3262916415e+01   5.5802886796e+01    0.3329802    0.2892903  89.58  0.000497268    1.443    0.307
        51  -9.0887      5.9577     80.0612   8.5830516452e+01   6.0436760170e+01      0.15895     0.137528 -53.53 0.0004424015    1.017    0.017
        52  -9.3933     88.6880     79.0777   5.0475599936e+01   4.9714589694e+01    0.2003595    0.1859826 -32.83 0.0003300185    1.088    0.081
        53  -8.7517    215.6507     78.4339   2.3450677763e+01   2.2472472310e+01    0.1242159    0.1054736 -41.55  1.76254e-05    1.084    0.078
        54  -9.6252     77.9849     78.0249   5.3899146970e+01   5.2007835633e+01    0.2184909    0.2057033  13.48            0    1.029    0.029
        55 -10.4716      2.8360     75.4294   8.6505120562e+01   6.1735711659e+01    0.3173095    0.2275038 -28.66  0.001817753    1.350    0.259
        56  -9.2644     76.7805     71.3626   5.2181802570e+01   5.3623772245e+01    0.2057765    0.1345554  30.86 0.0007357709    1.581    0.367
        57  -9.4357     63.9813     69.6896   5.6584450879e+01   5.6285297515e+01    0.1958368    0.1803663  18.87 0.0005235641    1.054    0.051
        58  -9.6708      7.9130     68.6680   8.2676835989e+01   6.3098573147e+01    0.1742878    0.1566906 -11.24 0.0004425787    1.140    0.123
        59  -9.6562     83.1274     68.1288   4.8811213353e+01   5.3032353165e+01    0.2121103    0.1903896   4.34  0.001149555    1.145    0.127
        60  -9.6223    140.1482     67.1838   3.2768544694e+01   4.0507466630e+01    0.2061896    0.1685407 -72.82  0.001076321    1.347    0.258
        61  -9.8549    192.1159     65.8051   2.3563497878e+01   2.9051766342e+01    0.1895699    0.1553582 -64.79  0.000341826    1.155    0.134
        62  -8.9264    151.8194     66.3914   3.0197672293e+01   3.7928222673e+01     0.197489    0.1269021  48.42 0.0008273109    1.609    0.379
        63 -10.2468     70.1642     65.8518   5.2822952465e+01   5.5976869512e+01    0.2957801    0.2124615  37.00 0.0008903452    1.356    0.262
        64 -10.5860      4.2279     63.9353   8.3576998050e+01   6.4429994687e+01    0.3085652    0.2026989   4.15  0.001367744    1.608    0.378
        65 -11.1948      3.6366     59.4852   8.2916955044e+01   6.5504043289e+01    0.3625623    0.2839593 -35.23  0.001164041    1.117    0.105
        66 -10.3551     85.0035     63.7136   4.6642856327e+01   5.3498417252e+01    0.2478978    0.2086938 -47.86 0.0002193347    1.272    0.214
        67 -10.4578     86.4904     60.4820   4.5002367462e+01   5.3787755827e+01    0.4469503    0.2969469 -54.99  0.002066917    1.826    0.452
        68  -9.1039     75.2544     64.4665   5.0400107626e+01   5.5293956951e+01    0.2003449    0.1355742  52.70 0.0009304341    1.645    0.392
        69 -10.8508     99.1363     61.6726   4.1387656760e+01   5.0854739893e+01    0.4229916    0.3063634 -67.58  0.001973149    1.874    0.466
        70  -9.0463    121.1319     61.8685   3.5468713074e+01   4.5818497312e+01    0.1875391    0.1658652  21.89 0.0002527472    1.254    0.202
        71  -9.3823    114.3045     61.0097   3.6915803751e+01   4.7542335207e+01    0.1930051    0.1850105 -44.64 0.0003381732    1.085    0.078
        72  -9.8802     35.1786     60.8525   6.6653848851e+01   6.2437069173e+01     0.245811    0.1824408  12.49 0.0004223274    1.358    0.263
        73 -10.4959     14.2734     61.2606   7.7606923942e+01   6.4411210519e+01    0.3370172    0.1684287  11.51  0.001566854    2.148    0.534
        74  -9.8042    232.4581     60.0078   1.7660696030e+01   2.1910853738e+01    0.2387843    0.1322858  46.43  0.001276225    2.517    0.603
        75  -9.8989     57.3661     59.8727   5.5967827218e+01   5.9425219401e+01     0.260891    0.1942851  24.08 0.0004599774    1.333    0.250
        76 -12.0380     24.2724     56.4093   7.0857860734e+01   6.4625068365e+01    0.6501177    0.4931087 -60.57  0.003198489    1.404    0.288
        77 -10.2829     43.4657     62.6173   6.3217588894e+01   6.0976777577e+01     0.256334    0.2323236  -7.82 0.0005480277    1.020    0.019
        78  -9.5397     78.0075     55.6734   4.6224090519e+01   5.6400721176e+01    0.2056603    0.1782902  35.40 0.0004717328    1.093    0.085
        79  -8.7817     45.4857     56.5033   6.0142408935e+01   6.1973089882e+01       0.1388    0.1269191  -6.16 0.0001273031    1.019    0.018
        80 -10.5917     63.4746     52.1732   5.0519144972e+01   5.9839310665e+01    0.3920008    0.2439398 -44.85  0.001778072    1.697    0.411
        81 -10.1613     73.0177     53.2445   4.7159424792e+01   5.7830943830e+01    0.2731379    0.1906072  51.14  0.001200929    1.508    0.337
        82 -10.7074     69.2189     50.7417   4.7660245913e+01   5.9017336549e+01    0.3213188    0.2881158   2.39  0.001194534    1.092    0.084
        83  -8.7488    111.5125     51.4768   3.4444146523e+01   4.9727961430e+01    0.1452559    0.1322134  35.63 0.0002354595    1.111    0.100
        84 -11.8027     94.0676     48.5396   3.8251770253e+01   5.4179115221e+01    0.2536941    0.2327905 -12.76 6.789296e-05    1.153    0.133
        85  -9.1205    148.5311     47.4210   2.5318770292e+01   4.1528701693e+01    0.1378265    0.1253555 -87.51 7.335554e-05    1.037    0.035
        86 -10.7744     52.0595     46.2549   5.3148916657e+01   6.2928599654e+01    0.4690821    0.2506775  38.48  0.002110333    1.807    0.447
        87 -11.8952     37.9587     36.9043   5.6156195784e+01   6.6844154214e+01    0.6262394    0.3605455  22.34  0.002341971    1.801    0.445
        88 -10.5448     37.9074     43.6664   5.9019853702e+01   6.5602295232e+01    0.4076282    0.2501754  44.71  0.002014515    1.924    0.480
        89 -10.1144     32.8517     44.1188   6.1879448658e+01   6.6199575658e+01    0.2488878    0.1849514  30.89 0.0007172386    1.368    0.269
        90  -9.6195      7.3432     44.9353   7.6953784622e+01   6.8554904584e+01    0.1911072    0.1516588 -67.81   0.00116333    1.407    0.289
        91 -10.7901    118.8220     42.5511   2.9643137074e+01   4.9311331266e+01    0.3362918    0.2368784 -40.11  0.000481425    1.494    0.331
        92  -8.6141     24.3401     44.2604   6.6660606649e+01   6.7189840165e+01    0.1357081   0.08942194 -15.75 0.0004560118    1.587    0.370
        93  -9.2003     20.5219     44.5395   6.8961206324e+01   6.7533142766e+01    0.1309222    0.1136496 -18.45 7.909079e-05    1.018    0.017
        94  -8.8313     71.5083     42.5045   4.3508833490e+01   5.9959784776e+01    0.1406312    0.1270874  22.65 0.0008105465    1.019    0.019
        95  -9.2818    237.4322     41.2598   1.3375699635e+01   2.3374242408e+01    0.1550852    0.1342189   8.77 0.0006411255    1.735    0.424
        96  -9.9955    107.6161     40.6905   3.1653993163e+01   5.2230665857e+01    0.3172686    0.1902334  46.19 0.0007899028    1.597    0.374
        97  -8.7635    211.7237     40.3552   1.5380867035e+01   2.8412225176e+01    0.1310144   0.07430875 -58.79 0.0005889763    1.650    0.394
        98  -9.9542      1.3232     39.6965   7.9130285069e+01   7.0053013620e+01    0.1980118    0.1065519 -63.40  0.000326055    1.811    0.448
        99  -9.5221     30.1369     39.1754   6.1381279908e+01   6.7502654489e+01    0.1952339    0.1532277 -13.54 0.0003586524    1.187    0.157
       100  -9.6005     96.0629     38.0218   3.3727271760e+01   5.5293381098e+01    0.2064881    0.1860751  48.46 0.0003613781    1.020    0.020
       101 -10.6253     47.8504     34.0052   4.9885874940e+01   6.5766414893e+01    0.4280035    0.2498966 -19.03  0.001972856    2.199    0.545
       102  -9.6595     51.7878     33.3692   4.7755476667e+01   6.5182784399e+01    0.2939355    0.1877463  15.21 0.0008441518    1.882    0.469
       103  -9.8531    173.9631     34.3445   1.7955826901e+01   3.7283300358e+01    0.2063552    0.1576199 -54.73 0.0004926491    1.219    0.179
       104  -9.3163    119.3005     35.0099   2.6965576887e+01   5.0201193707e+01    0.1812511     0.174128 -22.89 0.0004936465    1.150    0.130
       105  -8.8484     82.2645     35.6960   3.6966893606e+01   5.8722017771e+01     0.128358    0.1085057 -76.75 0.0001810161    1.524    0.344
       106  -9.2317     57.3144     35.3094   4.6167367415e+01   6.3867665829e+01    0.1398644   0.09892072   9.63 0.0007029542    1.630    0.387
       107  -9.4875     13.3330     34.3428   6.9534046769e+01   7.0282068730e+01    0.1402375   0.08025549 -24.35 -5.831465e-05    1.756    0.431
       108  -9.6437    139.2708     32.8298   2.2485152318e+01   4.5645534742e+01    0.2332563    0.1786351  63.20 0.0007286685    1.213    0.176
       109  -9.0012    154.0056     31.9786   1.9941674392e+01   4.2217533926e+01    0.1634094    0.1358161  78.34 0.0004302158    1.109    0.098
       110 -10.4122     17.5631     31.4669   6.5657141302e+01   7.0427119381e+01    0.2192428     0.200283   3.18 0.0001484636    1.186    0.157
       111 -10.2000      4.4496     31.5835   7.4366094571e+01   7.1545733791e+01    0.3836714    0.1592452  32.27   0.00146975    2.666    0.625
       112  -9.4009     85.6437     30.6864   3.3862125198e+01   5.8656406040e+01    0.2936715    0.1382666  40.72 0.0009504781    2.160    0.537
       113 -10.0110     64.8516     29.8172   4.0625083229e+01   6.3228316819e+01    0.2191382    0.1890522 -17.67 0.0006878755    1.209    0.173
       114  -9.2391     59.4777     29.5400   4.2654883052e+01   6.4332544170e+01    0.1357194    0.1185608  22.39 0.0001510238    1.016    0.016
       115  -9.3050    153.1478     27.8057   1.8854243654e+01   4.2909289524e+01    0.1709075    0.1435884  52.16 0.0002622153    1.276    0.216
       116  -9.2133    104.1157     28.1604   2.7910926713e+01   5.4688128164e+01    0.1761497    0.1508809  88.55 0.0002482069    1.255    0.203
       117  -9.2114     42.2093     28.6006   5.0155841888e+01   6.7583672993e+01    0.1764265    0.1124105  26.39 0.0003376117    1.507    0.336
       118  -9.4767    160.8063     27.1442   1.7645871552e+01   4.1174549387e+01    0.1950287    0.1535138 -73.45 0.0005888127    1.201    0.167
       119  -9.6950    143.7783     27.3864   2.0090023930e+01   4.5200096894e+01    0.2003424    0.1070733  57.08 0.0009531422    1.742    0.426
       120  -9.2122      8.1116    180.8920   9.5561151258e+01   3.4635201983e+01     0.160934    0.1407764 -57.88  0.001027287    1.266    0.210
       121 -10.8105     46.8597     26.6704   4.6931956553e+01   6.7091630681e+01    0.2217949    0.1946681   1.49 0.0002918789    1.067    0.062
       122  -9.0965    133.6187     25.8500   2.1225190689e+01   4.7830415817e+01    0.1804029    0.1150621 -45.31 0.0004181663    1.631    0.387
       123  -9.5065    120.5775     25.7344   2.3518322294e+01   5.1009854462e+01    0.2984956    0.1275715  52.65  0.001262593    2.112    0.526
       124  -8.9465     20.5228    174.5308   9.1706205062e+01   3.5179490757e+01    0.1354636    0.1145868  66.25 8.819907e-05    1.080    0.074
       125  -9.7352     60.8980     25.8320   4.0360666632e+01   6.4576400392e+01    0.2057673    0.1609338  18.38 0.0005622028    1.265    0.209
       126  -9.2449     55.8610     25.3280   4.2207803752e+01   6.5631349259e+01    0.1783277    0.1553604 -23.92 0.0007665027    1.229    0.186
       127  -9.0314    250.8130     23.9744   9.0808179989e+00   2.2988652507e+01    0.1366861   0.06783026 -36.84 0.0003278358    1.688    0.408
       128  -8.6402    239.2666     24.3155   9.8538825460e+00   2.4998635066e+01   0.09199385    0.0859512  -2.38 0.0002838812    1.549    0.355
       129  -9.3393    128.9949     24.2969   2.1503155712e+01   4.9126440102e+01    0.1854121    0.1564044  70.91 0.0004079988    1.068    0.063
       130  -9.0098    111.5483     24.5662   2.4921465556e+01   5.3326550307e+01    0.1349832    0.1213569  74.70 -3.83368e-06    1.060    0.057
       131 -10.4373      2.9166     23.6364   7.2355413689e+01   7.3219362301e+01    0.2217331    0.1596241 -24.92 0.0005975313    1.164    0.141
       132  -9.4107    245.9017     23.3538   9.2543361495e+00   2.3915355921e+01    0.1472553    0.1132117 -66.52 0.0004088533    1.093    0.085
       133 -10.3882     38.2752     22.7135   4.9300937556e+01   6.9138805869e+01    0.2290996    0.1896794  24.71  0.000339465    1.109    0.098
       134  -9.5007    196.4604     22.5345   1.2676636022e+01   3.3668395673e+01     0.123322    0.1003405 -68.21 0.0005763917    1.030    0.029
       135  -9.5180     72.8932     22.3587   3.4350508376e+01   6.2526942368e+01    0.1910964    0.1479135  46.26 0.0004833427    1.147    0.128
       136  -9.3057     21.4144     22.1760   5.8901168078e+01   7.1654654222e+01    0.1605658    0.1183068 -53.60 0.0006932769    1.746    0.427
       137  -9.7199     66.6641     20.8352   3.5823760219e+01   6.4043283034e+01    0.2139543    0.1550776  39.73 0.0003185045    1.223    0.182
       138 -10.6883     31.2071     20.5007   5.2073056951e+01   7.0580528855e+01    0.3398261    0.1529522  39.55  0.001429602    2.162    0.537
       139  -9.0606    159.1597     20.1690   1.5897071090e+01   4.2327298721e+01    0.1789595    0.1323492 -70.18 0.0005205445    1.294    0.227
       140  -9.1743     48.5520     19.5120   4.2580564805e+01   6.7805296834e+01    0.1303681    0.1124223  20.46 8.601796e-05    1.013    0.012
       141 -11.1129     11.6140     18.0387   6.3467576813e+01   7.3479070163e+01    0.7063378    0.2526501  16.17  0.002659416    3.808    0.737
       142  -9.0913    152.4769     18.4933   1.6240303542e+01   4.4084096773e+01    0.1292474    0.1138095  88.90 0.0003242781    1.017    0.016
       143  -9.4935    147.4953     17.9999   1.6736454119e+01   4.5324260501e+01    0.1754618    0.1263335 -33.33 0.0003851232    1.491    0.329
       144  -9.1679     70.5214     18.4493   3.3365130525e+01   6.3504953280e+01    0.1319014    0.1171184  42.09 0.0001818962    1.046    0.044
       145  -8.6772     15.2745    171.6995   9.2962310904e+01   3.6320664418e+01    0.1361167   0.08554536  60.97 0.0001731642    1.535    0.348
       146  -9.2832     21.2797    169.6511   9.1084995998e+01   3.6327836231e+01     0.169929    0.1260072   7.66 0.0005129164    1.585    0.369
       147  -9.8859     85.2193     15.7301   2.7710085243e+01   6.0513350027e+01    0.3785779    0.1475809  58.00  0.001583253    2.194    0.544
       148  -8.7376     39.7069    147.3468   8.3024528026e+01   4.0279296872e+01    0.1511084    0.1006187  64.71  0.000601235    1.667    0.400
       149 -10.5306    183.3143     14.8820   1.1992608713e+01   3.7345879822e+01    0.2097072    0.1437398 -84.68 0.0004764178    1.329    0.248
       150 -10.3936     25.2275    146.0896   8.7563508652e+01   4.2010309925e+01    0.3307886     0.199094  23.43 0.0008062674    1.742    0.426
       151  -9.1708      7.3684    143.2006   9.3033444097e+01   4.4130966857e+01    0.1942776    0.1127072  87.27   0.00094144    1.685    0.407
       152 -10.1232    127.7992     14.1384   1.8341852578e+01   5.0470465026e+01     0.249091     0.164909  63.92 0.0004828527    1.329    0.247
       153  -9.1188    113.0078     14.2090   2.0879950628e+01   5.4059033757e+01    0.1809336   0.09486654  66.03 0.0004188316    1.675    0.403
       154  -8.8863     94.5524     14.5053   2.4849505257e+01   5.8457948283e+01     0.131527    0.1180006  65.10 0.0001237117    1.060    0.057
       155  -9.0129     28.5297    138.4430   8.5557333908e+01   4.3711966088e+01    0.1381647    0.1297163 -79.37 7.213645e-05    1.009    0.009
       156  -9.6564     10.9363    133.1716   9.0917215916e+01   4.6492628597e+01    0.2124809    0.1665115  65.70  0.001201309    1.288    0.224
       157  -9.7342     17.6259    132.1512   8.8514668789e+01   4.6277122442e+01    0.2145174    0.1578903  82.74 0.0004673053    1.369    0.270
       158  -8.8505    132.2873    129.2924   5.1304992207e+01   3.0051735002e+01     0.149912    0.1181353  -6.74 0.0002289905    1.543    0.352
       159  -9.0284     58.8132    129.1511   7.3689208618e+01   4.2735623972e+01     0.199094    0.1680286 -26.67   0.00036503    1.279    0.218
       160  -9.9241     40.4021    127.9954   7.9937757530e+01   4.5270690842e+01    0.2383602      0.18441  46.05 0.0001431458    1.346    0.257
       161  -8.5536     81.3640    121.7080   6.4484856049e+01   4.1234944484e+01    0.1593805    0.1173762  65.51 0.0007027913    1.706    0.414
       162  -9.9124      6.7862    118.3835   9.0814780350e+01   5.0607439498e+01    0.1761879    0.1260494  -9.80 0.0009453034    1.622    0.384
       163  -9.5583     13.7220    117.0069   8.8082166968e+01   5.0523030685e+01    0.3006123    0.1049364 -52.38   0.00115542    2.504    0.601
       164  -9.2929     91.7201    116.4165   5.9861974937e+01   4.0729998231e+01    0.2081889    0.1486211  23.69 0.0007114742    1.535    0.349
       165 -10.1305     34.0391    116.1003   8.0288726291e+01   4.9047969463e+01    0.2086063    0.1965135 -61.86 0.0003918514    1.006    0.006
       166  -8.9405     21.4946    115.5101   8.4949706886e+01   5.0334338074e+01     0.337775          nan -55.28 0.0008106616    5.859    0.829
       167  -9.0286     80.4112    113.9833   6.2998014412e+01   4.3291220423e+01    0.2635376    0.1876907 -58.44 0.0003624685    1.444    0.307
       168  -8.9068     79.4821    110.5521   6.2479322870e+01   4.4282949269e+01     0.220425    0.1395312 -43.07 0.0007190185    1.604    0.377
       169  -9.4057     95.8831    111.8502   5.7400711140e+01   4.1045740975e+01    0.2240396    0.2041601 -16.88 0.0004690681    1.145    0.127
       170  -9.2820      3.0664    111.9473   9.1490861499e+01   5.2483653887e+01    0.2224984    0.1287234 -43.90 0.0004982611    1.690    0.408
       171 -10.1887     19.2391    107.9137   8.4683951956e+01   5.2490874259e+01    0.2602356     0.195062   7.68 0.0007361769    1.474    0.321
       172  -9.8757     13.3934    106.6247   8.6810865709e+01   5.3246064054e+01    0.3341952    0.1870346  60.16  0.001498351    2.212    0.548
       173 -10.4500      2.1632    104.5087   9.0991683469e+01   5.4447469213e+01     0.296084    0.1894708 -51.35  0.001273625    1.408    0.290
       174 -10.4195     78.6739    102.4416   6.0698107207e+01   4.6367971968e+01    0.6029791    0.2219029 -52.11  0.002045624    2.685    0.628
       175  -8.6242     86.6739    103.2751   5.8172923879e+01   4.4749753469e+01     0.151785    0.1203556  70.34 0.0004383306    1.585    0.369
       176  -8.6210     66.2812    103.2624   6.5376202632e+01   4.8205818785e+01    0.1463052    0.1132085 -18.81            0    1.481    0.325
       177  -8.9812    108.3112    101.2734   5.0796579260e+01   4.1007794522e+01     0.151398    0.1208413   1.55 0.0002254091    1.553    0.356
       178  -9.7584     49.3330    101.1425   7.1361882872e+01   5.1143632110e+01     0.243242    0.1988769  -4.74 0.0006499892    1.332    0.249
       179  -9.8166     26.2293    100.9857   8.0692440202e+01   5.3702102143e+01    0.2000061    0.1490551 -42.09 0.0002286082    1.284    0.221
       180  -8.9751    159.5742     98.4178   3.7291545771e+01   3.0654479905e+01    0.1420295    0.1364831 -53.12 0.0001091883    1.013    0.013
       181  -9.4485    102.9816     97.2810   5.1292196152e+01   4.2959939840e+01    0.2159085    0.2092679  20.40  0.001164136    1.020    0.020
       182 -10.3724     64.1508     95.9283   6.4300239655e+01   5.0314687836e+01    0.3246689    0.3125043 -76.62  0.001219843    1.120    0.107
