#   1 NUMBER                 Running object number                                     
#   2 MAG_AUTO               Kron-like elliptical aperture magnitude                    [mag]
#   3 X_IMAGE                Object position along x                                    [pixel]
#   4 Y_IMAGE                Object position along y                                    [pixel]
#   5 X_WORLD                Barycenter position along world x axis                     [deg]
#   6 Y_WORLD                Barycenter position along world y axis                     [deg]
#   7 A_WORLD                Profile RMS along major axis (world units)                 [deg]
#   8 B_WORLD                Profile RMS along minor axis (world units)                 [deg]
#   9 THETA_WORLD            Position angle (CCW/world-x)                               [deg]
#  10 FWHM_WORLD             FWHM assuming a gaussian core                              [deg]
#  11 ELONGATION             A_IMAGE/B_IMAGE                                           
#  12 ELLIPTICITY            1 - B_IMAGE/A_IMAGE                                       
         1 -17.0932    156.9554    116.5639   8.9984314806e+01   2.7643015545e+01     2.728906     2.271154 -23.09   0.01383805    1.323    0.244
         2 -17.1819    236.6381     17.3054   4.8983476409e+01   2.3273002796e+01     3.024683     2.192777  -9.75   0.01594781    1.506    0.336
         3 -14.9886     51.1601     12.2279   8.5814095828e+01   6.7589787072e+01     1.376182     0.664815 -16.47  0.005288397    3.590    0.721
         4 -12.8578     29.2656    198.2772   1.2867035356e+02   3.1335351132e+01    0.2778381    0.1316687  67.97  0.001754013    1.752    0.429
         5 -17.0159     35.1454    153.6350   1.2429913828e+02   3.9360593606e+01     3.030567     2.042513  21.50   0.01905149    2.216    0.549
         6 -20.1812     87.0717    221.9767   1.2039758062e+02   2.0422652125e+01     5.712723     3.993767  44.75   0.03808365    1.323    0.244
         7 -11.7016      9.4583    214.5372   1.3274414949e+02   3.0450265315e+01   0.09776027   0.06574243  70.31 0.0001460883    1.016    0.016
         8 -16.1488    215.5124    185.4762   9.2901177334e+01   5.0891485501e+00     1.278427     0.848852 -34.19  0.007242722    1.699    0.411
         9 -19.0238     70.7673     94.9636   1.0676413258e+02   4.8096864089e+01     15.43948      1.05163 -57.50   0.02505352   14.649    0.932
        10 -14.1169     44.6374    174.4967   1.2415581341e+02   3.4140773502e+01    0.4055358    0.3228045 -81.87  0.002823904    1.236    0.191
        11 -16.2966    164.0652    160.3396   9.7769667584e+01   1.8264987519e+01      1.58677    0.7009408  44.89  0.006886378    2.061    0.515
        12 -16.0370    163.1773     92.1682   8.2298461230e+01   3.0824225630e+01     1.682149     1.215977 -61.15  0.007681379    1.678    0.404
        13 -16.7053    159.4016    145.8113   9.5908757585e+01   2.1709189697e+01      2.44329     1.186131  49.14   0.01056704    1.980    0.495
        14 -12.3067      4.2190    235.6565   1.3427717469e+02   2.7546530546e+01    0.1606702   0.08374333  75.88  0.001116119    1.388    0.280
        15 -12.5276    119.6913    163.1681   1.0732893083e+02   2.5801095658e+01    0.2113558    0.1567868  59.18 0.0005061874    1.258    0.205
        16 -14.0258    134.4202    155.3212   1.0292679718e+02   2.4704367339e+01    0.4539463    0.3068589 -38.55  0.002374648    1.781    0.438
        17 -14.8973    121.9758    155.1366   1.0554478258e+02   2.6952341723e+01     1.144867    0.2943707  47.80  0.003759444    3.826    0.739
        18 -15.1183    247.4249    144.5103   7.9637732880e+01   4.5144921026e+00    0.9323442    0.4544821 -32.53  0.004502539    1.993    0.498
        19 -16.0471    233.9689    135.9506   7.9924581058e+01   8.1883015002e+00     1.574522    0.7242277  48.43  0.006997912    2.179    0.541
        20 -12.3803    106.8607    131.0791   1.0467247815e+02   3.4459133941e+01    0.3015843    0.1758234  52.78  0.001048867    1.745    0.427
        21 -14.0423    196.8140     92.2289   7.5639803155e+01   2.2868163185e+01     1.356289    0.5653553 -44.40   0.00480295    2.618    0.618
        22 -15.9494    196.3496    116.4963   8.1977722283e+01   1.8991852595e+01     1.349514    0.8684985  86.53  0.004966103    3.410    0.707
        23 -16.1329    205.2615    113.8444   7.9687625103e+01   1.7449310766e+01     1.268523    0.8590401 -55.97  0.005839395    1.939    0.484
        24 -15.0952    203.5496    107.1359   7.8321295458e+01   1.8901104087e+01    0.7486249    0.6091834 -14.51   0.00297507    1.241    0.194
        25 -15.1550    198.2277    105.9559   7.8992788718e+01   2.0298539465e+01     0.926026    0.6357804  58.15  0.004388281    1.589    0.371
        26 -15.0166    238.1533    160.6189   8.4446697077e+01   4.1860488045e+00    0.5769356    0.4629832  15.46  0.003384027    1.073    0.068
        27 -12.1911     98.2469    142.7779   1.0875579369e+02   3.3420036453e+01    0.1639406    0.1547194 -30.48 0.0004627669    1.345    0.257
        28 -12.3691     26.9176    223.0256   1.3035364577e+02   2.7353533830e+01    0.1465227    0.1027001  72.20 0.0007879792    1.069    0.065
        29 -14.2280    224.8138     75.3311   6.6401147081e+01   1.8811247483e+01    0.4951733    0.3337815 -33.57  0.002393213    1.378    0.274
        30 -14.2112     25.4419     70.8339   1.1589962191e+02   5.8584223683e+01    0.8251367    0.4345062 -20.85  0.003774237    3.508    0.715
        31 -15.1339      6.2792     67.2767   1.2178760672e+02   6.0703949573e+01    0.7982364    0.5223466 -10.04  0.005086871    2.201    0.546
        32 -15.2730     17.1736     54.6956   1.1547364092e+02   6.2796703824e+01    0.4136684    0.2646054 -60.46  0.002021217    1.191    0.160
        33 -14.4915     22.9448     58.1955   1.1410554479e+02   6.1599010325e+01    0.4940955    0.2551893 -44.42   0.00264372    1.805    0.446
        34 -13.8082     31.8106     54.8066   1.0996907770e+02   6.1593577710e+01    0.6503645    0.4572234  -7.20  0.003767801    1.926    0.481
        35 -13.5824      2.6409     56.2693   1.2122586936e+02   6.3332105596e+01    0.3358136    0.1093371 -55.63  0.001664122    2.168    0.539
        36 -14.4687     19.9124     42.7166   1.1141115917e+02   6.5188515252e+01    0.7996721     0.165198 -63.30  0.002594546    4.565    0.781
        37 -11.8052    166.6494     44.6917   6.6864351728e+01   3.7939405597e+01     0.164171    0.1142516  26.22  0.000704365    1.712    0.416
        38 -13.0745     25.4157    201.6620   1.2952431293e+02   3.1124661198e+01    0.2638957    0.1869246 -55.61  0.001450536    2.090    0.521
        39 -14.1707     38.5005     35.4705   1.0133170873e+02   6.4992291979e+01    0.7840371    0.2896832 -45.83  0.003516628    2.170    0.539
