#   1 NUMBER                 Running object number                                     
#   2 MAG_AUTO               Kron-like elliptical aperture magnitude                    [mag]
#   3 X_IMAGE                Object position along x                                    [pixel]
#   4 Y_IMAGE                Object position along y                                    [pixel]
#   5 X_WORLD                Barycenter position along world x axis                     [deg]
#   6 Y_WORLD                Barycenter position along world y axis                     [deg]
#   7 A_WORLD                Profile RMS along major axis (world units)                 [deg]
#   8 B_WORLD                Profile RMS along minor axis (world units)                 [deg]
#   9 THETA_WORLD            Position angle (CCW/world-x)                               [deg]
#  10 FWHM_WORLD             FWHM assuming a gaussian core                              [deg]
#  11 ELONGATION             A_IMAGE/B_IMAGE                                           
#  12 ELLIPTICITY            1 - B_IMAGE/A_IMAGE                                       
         1 -10.2323    250.0188     40.4806   5.0612450953e+01   1.7308188547e+01    0.6730489    0.2576837 -17.52  0.002310819    3.606    0.723
         2 -11.7880    214.2144      4.6712   4.4624531719e+01   2.9908270786e+01     1.369849    0.7673697 -61.33  0.006340117    1.883    0.469
         3 -12.5728    235.5427     27.9054   4.8849921099e+01   2.2156002221e+01     2.138164     1.030914 -37.91  0.009641397    1.832    0.454
         4 -11.9224    249.2500      8.6660   4.2804327316e+01   2.1025573466e+01     1.353172    0.8330418 -21.86  0.007167308    1.664    0.399
         5 -10.6398    215.4342     31.2625   5.1938374777e+01   2.6716577657e+01     0.955867     0.338608 -44.04  0.003417742    2.772    0.639
         6 -10.2323    215.8014     23.8054   4.9804630233e+01   2.7492707694e+01    0.4346926     0.311274 -66.10  0.001624967    1.458    0.314
         7 -11.6900    248.1662     17.7637   4.5125114803e+01   2.0321274859e+01    0.9421077    0.8327609  61.74  0.005706595    1.254    0.202
         8 -10.7370    211.8982     15.3230   4.7834378150e+01   2.9418512217e+01    0.5070594    0.3675048 -39.80  0.002674499    1.318    0.241
         9  -9.7945    145.6573     16.0778   5.7217238758e+01   4.6852013305e+01    0.3342342     0.156896 -35.88   0.00134917    2.150    0.535
        10  -9.2088     94.9934     14.5073   6.8239188272e+01   5.9306516146e+01    0.3093726    0.2008241  14.00  0.001114181    1.803    0.445
        11  -9.1398     91.5217     15.0031   6.9490227355e+01   5.9986893741e+01    0.2954967     0.224953 -35.00  0.001250968    1.368    0.269
        12 -10.4569    197.7867     10.9899   4.8088676657e+01   3.3528964091e+01    0.6829553    0.1931129  59.42  0.002346812    3.011    0.668
        13  -9.5436    161.7513      9.2762   5.2133718065e+01   4.3299747181e+01    0.2757728     0.223094  43.40  0.001166932    1.231    0.187
        14  -8.3670    131.9656      9.5320   5.7269233747e+01   5.1080796745e+01    0.2251588    0.1357979  64.41 0.0007439376    1.607    0.378
        15  -9.9621     94.8477      6.5317   6.4573879140e+01   6.0266687228e+01     0.415897    0.2508524 -15.94  0.001894422    1.687    0.407
        16  -9.3376    101.4456      6.5502   6.2824364782e+01   5.8785838179e+01    0.3108244    0.2407598 -45.57  0.001701828    1.516    0.341
        17  -7.9045    172.3402      6.6913   4.9789580032e+01   4.0717644790e+01    0.1532142    0.1016896 -62.89 0.0007043785    1.688    0.408
        18  -7.6279    167.2904      6.6777   5.0457196861e+01   4.2070608362e+01    0.1490481    0.1025723 -59.29 0.0007011615    1.607    0.378
        19 -11.7507    227.2691      2.6608   4.2971842209e+01   2.6841413736e+01     1.942705    0.8631772 -89.34  0.007912675    2.643    0.622
        20  -9.0025    145.5020      2.3851   5.2124105695e+01   4.8254737312e+01     0.349694    0.2440587 -17.78  0.001297178    1.526    0.345
        21  -8.2649    131.0080      3.7432   5.5135833949e+01   5.1886837494e+01     0.270938    0.1168196  27.01 0.0008945144    3.551    0.718
        22  -8.4097    170.5036      1.9967   4.8462605180e+01   4.1642620422e+01    0.2005259    0.1415424 -20.50 0.0004273306    1.513    0.339
        23  -9.0204    117.9432      1.9625   5.6959543218e+01   5.5322550131e+01     0.219457    0.1649536 -61.57  0.001133096    1.672    0.402
        24  -8.3922    184.1611      4.8398   4.7742983020e+01   3.7735433273e+01    0.2036587    0.1607152  39.10 0.0007044525    1.364    0.267
        25  -8.4478    182.9635      1.4711   4.6818138378e+01   3.8363857480e+01    0.2195181    0.1309896  72.32 0.0007242304    1.570    0.363
        26  -8.9275     48.0291      1.7667   7.8602672127e+01   6.9672967460e+01    0.1538939   0.09742372  38.64 0.0008865301    1.658    0.397
        27  -8.0110    179.5004    203.2972   9.8530421343e+01   8.3500037051e+00    0.1501462    0.1164194 -14.95 0.0006959101    1.572    0.364
        28  -8.6047    217.4783    250.5517   9.8797233413e+01  -3.1217942053e+00    0.1853823   0.07778201  38.77 0.0006278859    1.741    0.426
        29  -9.4562    224.1947    248.2717   9.7439028528e+01  -3.8643958483e+00    0.2304904    0.1340766  12.36 0.0007747555    1.871    0.465
        30  -8.7412    135.9874    250.0099   1.1204802201e+02   8.9533682730e+00    0.1382253   0.09934837  46.53 0.0002547789    1.011    0.011
        31 -10.4197    238.7317    193.1521   8.6537305587e+01  -3.6719401965e-01    0.3303431    0.2699751 -85.00  0.001755969    2.741    0.635
        32 -10.2063    232.3578    193.5896   8.7662410522e+01   6.2216350843e-01    0.2664171    0.2034563  -6.02  0.001716949    1.264    0.209
        33  -8.6004    249.9772    193.5157   8.4796458274e+01  -2.1969870377e+00    0.1739895   0.09971877  38.62 0.0007960248    1.557    0.358
        34 -10.3322    245.4865    190.4291   8.4961156858e+01  -1.1473031777e+00    0.3608886    0.1967468 -12.15  0.001940461    2.067    0.516
        35  -9.6966    245.6408    182.7010   8.3530913854e+01  -2.9495393579e-01    0.3466778    0.1705968   5.68  0.001377754    3.709    0.730
        36  -8.8356    243.4665    180.4676   8.3467020140e+01   3.2329963634e-01    0.1233078    0.1003749  13.59 0.0001436156    1.022    0.022
        37  -8.8024    237.3933    177.2403   8.3854022011e+01   1.7317923562e+00    0.1665824    0.1107001 -35.42 0.0009607777    1.704    0.413
        38  -8.9552    240.3343    175.3095   8.3005900942e+01   1.4655211930e+00    0.1320924   0.08236781  14.29            0    1.676    0.403
        39  -8.4196    192.8222    172.8485   9.0890815929e+01   1.0375932337e+01    0.2016476    0.1636218  21.83 0.0005224538    1.164    0.141
        40  -7.9834    177.2418    170.9898   9.3535207582e+01   1.3613884126e+01    0.1655217    0.1147999 -39.67 0.0008861391    1.615    0.381
        41 -10.4099    249.5236    166.7925   7.9882014579e+01   9.3234632999e-01    0.5390453    0.2488676 -37.35  0.002612064    2.386    0.581
        42  -8.1515    115.2736    165.3702   1.0550962553e+02   2.6015214814e+01    0.1242093    0.1048958 -15.96 0.0005377034    1.678    0.404
        43  -7.7609    206.7036    162.3162   8.6290049699e+01   9.3024052317e+00    0.1220598    0.1082486 -89.08            0    1.607    0.378
        44 -10.5349    235.9365    156.6112   8.0044086966e+01   4.6086398629e+00    0.6515203    0.3604174 -54.44  0.002575225    3.920    0.745
        45 -10.4713    232.1648    146.0152   7.8461226675e+01   6.7406799569e+00    0.4857774    0.3012255 -44.84  0.002433854    1.972    0.493
        46  -8.7844    183.8609    156.0219   8.9361019668e+01   1.4754578815e+01    0.2173891    0.1631359 -70.66  0.001083078    2.004    0.501
        47  -8.6415    196.4912    154.9889   8.6713062501e+01   1.2404881399e+01     0.185032    0.1184694 -60.52 0.0008105314    2.569    0.611
        48  -8.2534    118.2930    152.0209   1.0262696953e+02   2.8149299766e+01    0.1865776    0.1700645  89.08 0.0004442673    1.087    0.080
        49  -8.2965     86.2029    149.3763   1.0969215782e+02   3.4002306851e+01    0.1936165    0.1075326  50.36  0.000953514    1.715    0.417
        50  -9.0982    156.9818    148.2602   9.3315495125e+01   2.1505253613e+01    0.2859236    0.2030332  65.76  0.001398592    1.684    0.406
        51  -9.1650    250.3854    139.9218   7.4230288449e+01   4.1430902521e+00    0.3408206   0.09564777 -36.06  0.001235215    3.402    0.706
        52 -11.1303    245.3091    131.1942   7.3116463508e+01   6.2461155174e+00    0.6387594    0.4291201   0.98  0.003337285    1.641    0.391
        53  -8.7590    191.7698    139.4327   8.4320749684e+01   1.5870605392e+01    0.2784447    0.1346307  51.49   0.00114082    2.112    0.526
        54  -8.4805    113.9735    138.7592   1.0122724952e+02   3.1657558275e+01     0.191474    0.1128232  42.98 0.0008930375    1.645    0.392
        55  -9.2982    138.1637    132.2195   9.4176308423e+01   2.8385994160e+01    0.3538628    0.1972358  49.08  0.000901018    1.742    0.426
        56  -7.8975    212.6206    128.2845   7.7912971223e+01   1.3260908199e+01    0.1373809    0.1140469 -83.97 8.389603e-05    1.725    0.420
        57 -11.0747    236.8865    124.6465   7.2974338466e+01   8.7963817961e+00    0.6546073    0.4309254  70.66  0.003058668    2.412    0.585
        58  -8.0350    194.3361    122.6798   7.9990923506e+01   1.8106673883e+01    0.1450869    0.1175234 -79.50 0.0007049767    1.706    0.414
        59 -10.3600    230.4865    117.3498   7.2317593395e+01   1.1148010288e+01    0.4753085    0.2826825 -23.40   0.00225249    1.683    0.406
        60  -9.7604    122.9368    109.0550   9.2588350519e+01   3.6233971146e+01    0.5158907     0.429444 -56.56   0.00269118    1.209    0.173
        61  -8.9449    161.0091    108.7279   8.3428047597e+01   2.8085129759e+01    0.3533607    0.2960505  66.64  0.001793563    1.298    0.229
        62  -9.2106    242.6299    108.3473   6.8299495703e+01   9.9144727521e+00    0.2637857     0.173479  46.79  0.001080038    1.579    0.367
        63  -8.0046    176.7065    109.3602   8.0232641814e+01   2.4383292618e+01    0.1531757    0.1190743 -72.77 0.0007030345    1.700    0.412
        64  -8.6269    173.5815    100.6035   7.8610038936e+01   2.6678402136e+01    0.3006362     0.144782 -22.23 0.0009571705    3.355    0.702
        65  -9.2722     69.4632    101.0293   1.0553523479e+02   4.7236903156e+01    0.2583219    0.2302368  79.82  0.001572971    1.131    0.116
        66  -9.6611    242.3420     99.4609   6.6221968721e+01   1.1214056567e+01    0.3282809    0.1854883 -56.03  0.001358009    2.676    0.626
        67  -9.8907    122.2901     98.9858   9.0213277997e+01   3.8477985104e+01    0.6002024    0.3322178 -53.60  0.002501464    1.921    0.479
        68  -9.6610    125.5996     97.8012   8.9043754225e+01   3.8037278910e+01    0.5159588    0.2721526 -53.40  0.002067175    2.066    0.516
        69  -8.7641     57.5026     99.5098   1.0879418288e+02   4.9166139668e+01    0.2438005    0.1192789 -73.62 0.0008448351    2.347    0.574
        70  -8.4224    131.5933     98.7773   8.7776667889e+01   3.6566453956e+01    0.2192793    0.1402482 -54.68 0.0009547409    1.692    0.409
        71  -9.3977     34.4396     98.0015   1.1550628355e+02   5.2033426553e+01    0.3806039    0.1756886  55.18  0.001741274    2.740    0.635
        72  -8.5677      4.4503     99.4954   1.2460276456e+02   5.4012657187e+01    0.1159316   0.08876996 -77.26 0.0003192443    1.045    0.043
        73  -9.8300    214.6951     94.9900   6.9429215272e+01   1.7968348513e+01    0.3909452    0.2831773 -37.73  0.001723198    1.352    0.260
        74  -9.8678    247.8406     84.6370   6.1849650427e+01   1.2090750218e+01    0.5478045    0.3762412 -22.78  0.002244835    1.364    0.267
        75  -8.4336    197.6595     94.7001   7.2331887865e+01   2.1994326541e+01     0.156582    0.1136717  19.62 0.0003396986    1.668    0.400
        76  -9.4045     73.3264     93.3564   1.0268517582e+02   4.8422250580e+01    0.3938274    0.1775152 -57.56  0.001670562    2.059    0.514
        77  -8.4539    235.1235     86.0980   6.3983212914e+01   1.4655558731e+01    0.2244328    0.1833551   9.21  0.001176134    1.321    0.243
        78  -9.0182    218.7774     77.7601   6.4269855977e+01   1.9610541686e+01    0.2944743    0.2640439 -41.81  0.001625611    1.105    0.095
        79  -8.4779    198.9512     81.9599   6.8666886214e+01   2.3736652643e+01    0.2438334    0.1848149 -70.29  0.001029326    1.681    0.405
        80  -8.2218    181.0030     79.9744   7.1422617182e+01   2.8471613758e+01    0.2468195    0.1868454 -69.28 0.0009119668    1.667    0.400
        81  -9.7069    232.7744     58.7068   5.7255929464e+01   1.8976984915e+01    0.5200287    0.3666626  63.81  0.002665266    1.514    0.340
        82  -9.3851    243.2779     75.7939   6.0268790694e+01   1.4279766398e+01    0.5640219    0.3600281 -25.44  0.002197242    1.470    0.320
        83 -10.5192    241.4813     63.6389   5.7429653345e+01   1.6312961023e+01    0.7992122      0.47116  55.66  0.003856299    1.794    0.442
        84 -10.1876    248.6924     73.9845   5.9118742050e+01   1.3339382276e+01    0.6159118    0.3358869 -26.51  0.002874901    1.700    0.412
        85 -10.7578    248.3763     66.7755   5.7368760241e+01   1.4361266219e+01    0.6924983    0.5198035 -23.09   0.00362173    1.252    0.202
        86  -8.9462    234.7048     73.1825   6.0759412966e+01   1.6560137769e+01    0.3205352    0.2075632 -13.23  0.001382663    1.729    0.422
        87  -9.2605    105.7343     72.1981   8.7134917114e+01   4.7371968152e+01     0.455727    0.3066304 -70.37  0.001920611    2.149    0.535
        88  -9.0904    147.8202     69.0517   7.5162574440e+01   3.8549283049e+01    0.4509794    0.1915149 -43.35  0.001595418    2.413    0.586
        89  -9.4406     31.3885     63.2026   1.0971600221e+02   6.0175862720e+01    0.3834739    0.2044777  61.50  0.001714188    3.206    0.688
        90  -7.8184    171.4546     61.5651   6.7804156408e+01   3.3885276122e+01    0.1507595    0.1492317  33.67 5.565621e-05    1.006    0.006
        91  -7.7900     82.0000     59.0452   9.0276760707e+01   5.4443986830e+01     0.229663    0.0747143 -45.94 0.0005329944    2.853    0.650
        92  -8.0774    192.4706     57.4956   6.2796638433e+01   2.9109683010e+01    0.1484329    0.1468024 -35.15 0.0003476588    1.005    0.005
        93  -7.8642    130.3117     56.2974   7.5193877495e+01   4.4983387078e+01    0.1539214    0.1169161  16.26            0    1.600    0.375
        94  -8.1810    131.5487     62.5585   7.6990411808e+01   4.3591944321e+01    0.1497285    0.1463341   2.64 0.0001193211    1.012    0.012
        95  -8.2741    148.0000     54.9867   7.0563669994e+01   4.0896024351e+01    0.2573139   0.08694715 -32.85 0.0008067108    2.972    0.664
        96  -8.0758    238.6325     52.2625   5.4855074579e+01   1.8452514926e+01    0.1435137   0.09948815 -64.26 0.0006982593    1.648    0.393
        97  -9.2917    228.6647     51.3852   5.5839029891e+01   2.0920186782e+01    0.3694001    0.2602271   9.17  0.001297372    1.854    0.461
        98 -10.1953    233.1437     45.0927   5.3626152047e+01   2.0656979893e+01    0.6257641     0.445726  34.56  0.003172137    1.679    0.404
        99  -8.5618    123.7544     51.3815   7.5157793574e+01   4.7358895604e+01    0.3549499    0.2321066  82.71  0.001397803    2.582    0.613
       100  -8.6955    244.1879     48.8644   5.3344894737e+01   1.7603771597e+01    0.2177876    0.1751298 -50.31  0.001074583    1.191    0.160
       101  -9.0129    250.3824     46.2144   5.2006541427e+01   1.6530488471e+01    0.3051533    0.1949858 -30.94  0.001271472    1.404    0.288
       102  -8.4717    232.6021    247.7619   9.6060358704e+01  -5.0020055777e+00    0.1153143   0.09637646 -21.13 0.0004912385    1.592    0.372
       103  -7.7313    111.9631     46.4891   7.6565046983e+01   5.0859897348e+01    0.1945511    0.1337001  82.39 0.0008075516    2.383    0.580
       104  -8.0695     58.2336     45.4152   9.4078653222e+01   6.0866211073e+01    0.1706243    0.1250814  46.25 0.0005713367    1.634    0.388
       105  -8.2405     86.0008     42.7104   8.3063113060e+01   5.6828718936e+01    0.1973815    0.1837014  25.20  0.001128486    1.117    0.105
       106  -8.8704    128.5636     41.0327   7.0195334846e+01   4.7892700088e+01    0.4858671    0.3088304 -79.32  0.001818161    2.952    0.661
       107  -8.7858    143.4853     37.4820   6.5489870778e+01   4.4710431103e+01    0.1474317    0.1463954  65.66  1.85037e-05    1.042    0.040
       108  -7.4222    101.3025    248.3260   1.1766980552e+02   1.4105017689e+01    0.0926168   0.07714141  25.71 0.0003181009    1.641    0.391
       109  -8.7171    243.1637    246.9476   9.4325093816e+01  -6.3891456132e+00    0.1721661    0.1218637  -1.37  0.001334889    1.380    0.275
       110  -9.9028    187.4346    246.3015   1.0308906525e+02   1.7215743350e+00     0.197089    0.1396669 -31.59  0.001432544    1.849    0.459
       111  -8.8317    184.9613    243.5702   1.0315728536e+02   2.3980105954e+00     0.264331    0.1585511  18.51  0.001597753    2.037    0.509
       112  -7.8013    197.5550    246.4882   1.0145877654e+02   1.9008129570e-01    0.1108062   0.08060283  32.61 0.0008079624    1.009    0.009
       113  -7.9118    207.9457     48.0000   5.7660253637e+01   2.6490321179e+01      0.24162   0.08342932  63.77  0.000804783    2.959    0.662
       114  -8.1863    184.5080     26.0007   5.4378840802e+01   3.5397232388e+01    0.2270433    0.1422661 -28.71 0.0008088875    1.601    0.375
       115  -8.5936    164.5244    246.0021   1.0685187976e+02   5.2081342350e+00    0.1315525    0.1118604 -40.59 0.0006881704    1.591    0.371
       116  -9.9066    202.7735     19.2666   4.9974353531e+01   3.1348970990e+01    0.4243087    0.3196525  66.78  0.002219651    1.297    0.229
       117 -10.8487    236.1093    239.5381   9.4361222912e+01  -4.7470005710e+00    0.4729658    0.2473215  27.80  0.003020727    1.520    0.342
       118 -10.2332    231.3476    234.9473   9.4446301384e+01  -3.6300031640e+00    0.2686391    0.1972205  54.88  0.001506727    2.026    0.506
       119  -8.0847     70.5560    234.2968   1.2176117875e+02   2.0281533634e+01    0.1177865   0.09422648 -75.19 0.0008022272    1.506    0.336
       120  -8.9623    114.4478     13.9197   6.2857903833e+01   5.4939433461e+01    0.4048541    0.1522875  52.81   0.00155236    2.370    0.578
       121  -9.4576    234.3292    229.0296   9.3099690111e+01  -3.4900401898e+00    0.2796656    0.1711186 -12.93  0.001719785    1.808    0.447
       122  -8.7056    211.5121    227.9402   9.6639841569e+01   6.3330188316e-02    0.1416049    0.1085804 -21.51 0.0005503896    1.528    0.346
       123  -7.7351    238.3080    227.2927   9.2207447018e+01  -3.9035170848e+00    0.1138299   0.06650785  17.72 0.0003249935    1.583    0.368
       124 -11.0889    222.5023    217.0581   9.3184249531e+01  -4.5492598621e-01    0.6142924    0.2875224 -42.13   0.00322409    3.000    0.667
       125  -9.2780    242.4358    220.7018   9.0536481152e+01  -3.8641811290e+00    0.3040899    0.1588439 -20.82  0.001497747    2.103    0.525
       126 -10.9061    248.2945    221.2646   8.9707248574e+01  -4.7749849660e+00    0.7051499    0.3839191 -23.63   0.00447262    1.962    0.490
       127  -8.9236    243.8180    213.6942   8.9197983358e+01  -3.3689179936e+00    0.2746893    0.1701302  26.31  0.001102232    1.288    0.224
       128 -11.2384    243.5454    206.1463   8.7996050930e+01  -2.5480788390e+00    0.7312086    0.5715175  58.56  0.004752186    2.058    0.514
       129  -8.4891    156.7699    225.4187   1.0571840168e+02   9.0529353736e+00    0.1656553    0.0905453  35.69 0.0006576547    1.593    0.372
       130  -7.3712    182.3239    216.6760   1.0000811080e+02   6.0716948096e+00    0.1138461   0.08628649  63.21 0.0003425642    1.685    0.407
       131  -7.6636    188.2645    208.6698   9.7769817123e+01   6.1312530702e+00    0.1084121   0.09110411  67.54 0.0002942135    1.574    0.365
       132  -8.4389    164.9595    208.0655   1.0190818641e+02   1.0148903202e+01    0.1843318    0.1528457  38.99 0.0004943315    1.027    0.026
       133  -8.4085    193.9801    207.1460   9.6519858118e+01   5.3688525305e+00    0.1965701    0.1306682  60.07  0.001090285    2.031    0.508
       134  -8.6613    124.0234    206.0191   1.0934168998e+02   1.7228644738e+01    0.1723977    0.1370766  54.17            0    1.038    0.036
       135  -8.0509    198.8145    204.8523   9.5305032789e+01   4.8502560569e+00    0.1556844    0.1313429  47.31 0.0005923924    1.289    0.224
