#   1 NUMBER                 Running object number                                     
#   2 MAG_AUTO               Kron-like elliptical aperture magnitude                    [mag]
#   3 X_IMAGE                Object position along x                                    [pixel]
#   4 Y_IMAGE                Object position along y                                    [pixel]
#   5 X_WORLD                Barycenter position along world x axis                     [deg]
#   6 Y_WORLD                Barycenter position along world y axis                     [deg]
#   7 A_WORLD                Profile RMS along major axis (world units)                 [deg]
#   8 B_WORLD                Profile RMS along minor axis (world units)                 [deg]
#   9 THETA_WORLD            Position angle (CCW/world-x)                               [deg]
#  10 FWHM_WORLD             FWHM assuming a gaussian core                              [deg]
#  11 ELONGATION             A_IMAGE/B_IMAGE                                           
#  12 ELLIPTICITY            1 - B_IMAGE/A_IMAGE                                       
         1 -12.6404    199.9324     37.7712   4.5841833021e+01   3.0383962247e+01     1.275793     1.041499  30.23  0.007014152    1.514    0.340
         2 -12.4800    211.4070     26.0682   4.1430554099e+01   2.9049566146e+01     0.949114    0.7533564  35.34  0.003128215    1.603    0.376
         3 -10.0718     32.6726     18.0146   8.3350555208e+01   6.8957362802e+01    0.3748742   0.08664995 -37.42  0.001366078    3.895    0.743
         4 -10.5041    237.0008      3.0037   3.3764326362e+01   2.5719666573e+01    0.4992753    0.2780636  65.58  0.002789495    1.791    0.442
         5  -9.8568    233.0098      2.2374   3.3883781802e+01   2.6679927246e+01    0.3258544    0.2270526  84.54  0.001540382    1.296    0.228
         6  -9.2914     48.7064    224.6673   1.1992590523e+02   2.1857770296e+01    0.1925576    0.1803574 -42.42 0.0004824015    1.579    0.367
         7  -9.3653     81.7023    250.1481   1.1581649875e+02   1.2830937353e+01     0.218378    0.1384173  47.07 0.0005942457    1.255    0.203
         8 -12.2906     85.8783    226.9455   1.1281876667e+02   1.6485346607e+01     1.901408     1.195077 -76.90  0.008713893    1.743    0.426
         9 -11.5073     13.6845    189.8267   1.2431155589e+02   3.2846896301e+01    0.4453949    0.3034912 -69.75 0.0004089838    1.408    0.290
        10 -12.4456     43.6198    202.6170   1.1913375042e+02   2.6990150519e+01     2.740234      1.11606  69.15  0.002012388    3.248    0.692
        11 -13.9489     57.8975    246.0500   1.1982918885e+02   1.6688633219e+01     6.591311     2.145671  28.10  0.001948759   10.252    0.902
        12 -10.1543     45.6552    220.9015   1.2022174149e+02   2.2971120731e+01    0.5025106    0.2258527  67.42  0.002480646    2.344    0.573
        13 -12.1156     53.3294    191.8203   1.1603992990e+02   2.8177591610e+01     1.062822    0.6754191 -68.31  0.004316669    1.494    0.330
        14  -8.5518     92.9746    217.9137   1.1037962203e+02   1.7208692642e+01    0.1893546    0.1605281  66.12 0.0005193249    1.043    0.041
        15  -8.8301     65.6354    207.5366   1.1499280517e+02   2.3203945539e+01    0.2173311    0.1913902 -67.86 0.0005683496    1.302    0.232
        16  -8.0338    113.4762    207.5189   1.0467916156e+02   1.6079570079e+01    0.1349854    0.1178926  56.27 0.0008098214    1.020    0.020
        17 -15.4056      9.5073    242.0304   1.2795899181e+02   2.2844963882e+01     17.19836     3.648976 -78.70   0.04441488    4.343    0.770
        18  -8.6862     63.8530    202.0913   1.1481242357e+02   2.4595737225e+01    0.1847425    0.1567124  78.46 0.0003984997    1.041    0.039
        19  -9.2714    193.4001    195.4699   8.5505695864e+01   4.2506810573e+00    0.5935419     0.284067 -59.29  0.001653852    6.724    0.851
        20  -8.4204     67.3021    195.8232   1.1338443261e+02   2.5494707544e+01    0.2124881    0.1426628  80.78  0.001172734    1.493    0.330
        21  -9.2664     54.0722    222.0477   1.1867628411e+02   2.1718840720e+01    0.3844362    0.1603883  59.96  0.001819784    2.410    0.585
        22 -12.8515     10.4078    206.4532   1.2599717526e+02   2.9643043867e+01    0.6926032    0.5735363  28.18   0.00247141    1.649    0.393
        23 -14.6360      2.4993    199.0789   1.2708547993e+02   3.1870205279e+01     10.93586          nan -73.23   0.02636953   10.750    0.907
        24  -8.1833     99.3561    180.9090   1.0400924953e+02   2.4063454892e+01    0.1938981    0.1709359 -70.58 0.0006459499    1.144    0.126
        25 -10.2897     68.1565    176.5760   1.1086369924e+02   2.9718399881e+01    0.4148607    0.2800493 -36.58  0.001987554    2.090    0.522
        26 -10.3545     72.8137    171.5195   1.0905268037e+02   3.0253342617e+01    0.3349721    0.2425186 -46.31  0.001349786    1.586    0.370
        27  -8.9336    115.4600    174.4889   9.9078909091e+01   2.2780963642e+01    0.1432103    0.1358386  64.58 2.821171e-05    1.008    0.008
        28  -9.4439    101.4970    170.4981   1.0181411110e+02   2.6081504375e+01    0.2352449    0.1723292  72.58  0.001164229    1.547    0.353
        29  -9.5636     28.2148    168.1241   1.1936966995e+02   3.6343612828e+01    0.1856229    0.1511794 -66.66  0.001215438    1.246    0.198
        30  -7.8271     36.1310    167.1352   1.1740484250e+02   3.5774791770e+01    0.1758587    0.1246132  75.27 0.0005602872    1.304    0.233
        31 -10.8787     81.5185    161.9732   1.0544238862e+02   3.1248109793e+01    0.5868319     0.398436  71.75 0.0004691509    1.694    0.410
        32 -11.9612     69.7670    157.5344   1.0777364754e+02   3.4001784113e+01    0.6394942    0.4697791 -31.56  0.002057552    1.815    0.449
        33 -11.9052     68.5127    144.1394   1.0595293330e+02   3.7427964810e+01    0.8171541    0.5748197  77.45  0.003166835    1.638    0.390
        34  -8.5357    158.8054    161.9079   8.6282810914e+01   1.7262488328e+01    0.2727274    0.2134936 -70.98  0.000942028    1.637    0.389
        35  -9.7932     31.9513    157.1278   1.1733852632e+02   3.8553619093e+01    0.3128159    0.1974749  76.11  0.001720605    1.580    0.367
        36 -10.5023     88.1223    155.3981   1.0263361571e+02   3.1806489959e+01     0.543277    0.4090277 -19.61  0.001379285    1.897    0.473
        37  -9.2107    134.0000    144.5130   8.8499436555e+01   2.6081146809e+01    0.4623951    0.1034115 -49.31  0.001175786    4.589    0.782
        38  -8.6191     53.6593    149.3234   1.1077505422e+02   3.8067320880e+01    0.1437844   0.09336621  70.83 0.0007050881    1.725    0.420
        39  -8.9716     38.9493    146.3817   1.1426320807e+02   4.0421889177e+01    0.2900541    0.1881233  56.46 0.0009504011    1.622    0.383
        40 -10.5107     31.2300    144.3328   1.1603680603e+02   4.1679792607e+01    0.3683789    0.2986932 -47.76  0.002310897    1.365    0.267
        41  -8.6467     83.0116    142.7460   1.0171911165e+02   3.5662305196e+01    0.1973014    0.1812393 -83.18 0.0002503823    1.035    0.034
        42  -9.4102    101.7027    140.9229   9.6233428774e+01   3.3029810149e+01    0.4572896     0.298907 -32.94  0.001990174    1.923    0.480
        43 -10.6790     89.5257    140.1477   9.9420994294e+01   3.5266969304e+01    0.2900781    0.2667587 -43.60 0.0004193336    1.137    0.120
        44 -11.7365     58.2825    130.9881   1.0656413756e+02   4.1993412893e+01     1.194707    0.4363843 -72.48  0.003741482    3.957    0.747
        45  -8.2753    107.9025    119.3330   8.9605764073e+01   3.7041947316e+01    0.2069388    0.1893056  30.84 0.0003129754    1.142    0.124
        46  -9.2884     98.5997    126.6324   9.3994646042e+01   3.7004050367e+01    0.3076187    0.2548413  -2.51 0.0007825391    1.494    0.331
        47  -8.7516    111.4346    130.9278   9.1377599889e+01   3.3644104552e+01    0.2895325    0.2219483  14.39   0.00104004    1.641    0.391
        48  -8.0995    205.5901    110.1907   6.4000776515e+01   1.7412849307e+01    0.2088643    0.1401058 -25.43  0.000723956    1.580    0.367
        49  -8.6456    105.7713    130.4730   9.2842701139e+01   3.4801884517e+01    0.2953325    0.2395081  85.27  0.001156025    1.473    0.321
        50  -8.3640     53.9840    230.9933   1.1941342195e+02   1.9979476635e+01    0.2021225    0.1328751 -81.92  0.001299809    1.472    0.321
        51 -10.5418     32.3980    128.2820   1.1358805966e+02   4.5456592730e+01    0.5846064    0.1177175 -62.49  0.001993612    3.398    0.706
        52  -8.6650     40.4005    103.2181   1.0688964861e+02   5.0767989810e+01    0.1949552    0.1169076 -73.11 0.0009525309    1.687    0.407
        53  -9.9036    115.1315    100.1134   8.2445051114e+01   4.0006551230e+01    0.4237504    0.1678715 -38.70  0.001249439    2.752    0.637
        54  -9.7598     33.0074     97.9826   1.0831352801e+02   5.2714842231e+01    0.4381756    0.1537716 -68.85  0.001626442    2.975    0.664
        55  -9.5767    244.0176     91.9897   5.3381681314e+01   1.2211694295e+01    0.2503342    0.1506616 -10.78  0.001034934    2.651    0.623
        56  -8.3685     41.7417     91.6344   1.0398836880e+02   5.3380192886e+01    0.1654305    0.1232734  37.88 0.0004420187    1.563    0.360
        57 -11.8356    190.1232     44.9558   4.9181282814e+01   3.1860938410e+01    0.7031312    0.5741461  40.39  0.002465175    1.365    0.268
        58  -8.8932     48.8541    216.1425   1.1921506716e+02   2.3548402004e+01    0.2644554     0.172936 -73.36  0.001289249    1.489    0.328
        59  -7.4684    172.4794    239.4946   9.7072576915e+01   7.2248021933e-01    0.1266725    0.1029747  29.39 0.0008103092    1.001    0.001
        60 -10.0392     19.5586     53.2502   1.0284780770e+02   6.3802791089e+01    0.2500518    0.1727165 -24.62  0.001547839    1.359    0.264
        61  -8.1334     66.5261     51.5066   8.2781461310e+01   5.8776743330e+01    0.1392892     0.118374 -12.86 0.0001083989    1.037    0.035
        62  -9.5548    143.6085     48.6492   5.8791731450e+01   4.3070051736e+01     0.381145    0.2753224 -79.47  0.001413217    1.918    0.479
        63  -8.5674    146.3161     43.0253   5.6355244910e+01   4.3200316573e+01    0.1999422    0.1903874 -27.22 0.0003763928    1.103    0.093
        64  -9.1148     33.0000     40.0334   9.2477042949e+01   6.5224644655e+01    0.3428796   0.06125269 -49.70  0.001048429    4.908    0.796
        65  -7.5292     50.6565    235.2300   1.2035687781e+02   1.9582034954e+01    0.1189657   0.06398791  59.04 0.0003339032    1.547    0.354
        66  -8.3909     33.9331    227.5509   1.2290924552e+02   2.3009023955e+01    0.1626642     0.133175 -86.90 0.0003615794    1.256    0.204
        67  -9.3711     60.6313    233.1830   1.1832935759e+02   1.8722220477e+01    0.2153092    0.1666787  74.46 0.0004085128    1.098    0.089
