#   1 NUMBER                 Running object number                                     
#   2 MAG_AUTO               Kron-like elliptical aperture magnitude                    [mag]
#   3 X_IMAGE                Object position along x                                    [pixel]
#   4 Y_IMAGE                Object position along y                                    [pixel]
#   5 X_WORLD                Barycenter position along world x axis                     [deg]
#   6 Y_WORLD                Barycenter position along world y axis                     [deg]
#   7 A_WORLD                Profile RMS along major axis (world units)                 [deg]
#   8 B_WORLD                Profile RMS along minor axis (world units)                 [deg]
#   9 THETA_WORLD            Position angle (CCW/world-x)                               [deg]
#  10 FWHM_WORLD             FWHM assuming a gaussian core                              [deg]
#  11 ELONGATION             A_IMAGE/B_IMAGE                                           
#  12 ELLIPTICITY            1 - B_IMAGE/A_IMAGE                                       
         1 -13.3220    170.5508     55.4984   6.0855556210e+01   3.4910633009e+01     1.976841      1.09832  33.48  0.005905147    2.344    0.573
         2 -13.3471    185.2670     41.2728   5.3849208939e+01   3.3006027720e+01     1.039331    0.9989803   9.81  0.003251506    1.062    0.058
         3 -12.7411    190.1472     35.1028   5.1163535765e+01   3.2476612548e+01    0.6767628    0.5836236 -14.08  0.001587112    1.176    0.149
         4 -13.9295    208.0835     10.8318   4.1418630149e+01   3.0308328519e+01     1.371995     1.136271  11.99  0.005644046    1.337    0.252
         5 -11.6329    191.3877     15.7785   4.4703790464e+01   3.4298197677e+01     0.605603    0.3802968  84.70  0.002710554    1.734    0.423
         6 -12.2922    238.3057      3.0395   3.6798349188e+01   2.3378736529e+01     1.330096    0.4041036  78.71   0.00467682    3.694    0.729
         7 -11.4437     58.7638      3.3622   6.8460064718e+01   6.9359122463e+01    0.4530239    0.2025644  40.55  0.001971026    2.485    0.598
         8  -9.3470     79.0607    193.8653   1.0856600132e+02   2.7872456524e+01    0.2264057    0.1277216  62.17 0.0004276898    1.562    0.360
         9 -13.3612    247.9727    242.9082   8.6176715818e+01  -1.9606719920e+00     1.066359    0.5521643 -16.68  0.008029109    2.228    0.551
        10 -11.5042     65.1738    194.2598   1.1127903288e+02   2.9590990118e+01    0.2676364    0.2076625 -47.52  0.001305752    2.014    0.503
        11  -9.5248    207.3244    194.6653   8.5505315107e+01   7.9068588878e+00    0.1018981   0.08515868  63.30 0.0007051051    1.713    0.416
        12 -12.1013    149.8014    188.7171   9.4536493358e+01   1.8030557694e+01    0.3611628    0.2753061  60.05  0.001688884    1.338    0.253
        13 -11.5001     57.7283    214.2902   1.1400664149e+02   2.7262877605e+01    0.2088956    0.1182328  52.69 0.0008875662    1.241    0.194
        14 -11.3089    133.8491    185.2866   9.7061311779e+01   2.1125359158e+01    0.2341394    0.1914622  86.89  0.001597609    1.457    0.314
        15 -11.4591     70.2417    207.0376   1.1126635865e+02   2.6883046500e+01    0.4448785    0.2218411  28.90  0.001474873    2.710    0.631
        16 -11.5704    150.9177    179.9549   9.3104921941e+01   1.9089857857e+01    0.3406573    0.2561139 -76.37  0.002121036    1.892    0.471
        17 -10.7692    188.4864    176.1549   8.5736160005e+01   1.3146866742e+01    0.4999538    0.3320122 -53.95  0.002393697    2.271    0.560
        18 -10.5790    160.3388    205.7722   9.4889242442e+01   1.4097830022e+01    0.2013112    0.1309592  40.43 0.0008337498    1.173    0.147
        19 -12.9486     75.1986    248.9957   1.1308609783e+02   2.0293356180e+01    0.2281523    0.1415712 -65.61  0.001859716    2.201    0.546
        20  -8.8733    194.4871    172.4686   8.4094944872e+01   1.2559699223e+01    0.1221639    0.0996471  32.54 0.0008096629    1.015    0.015
        21 -11.4487     61.1768    203.9812   1.1272691367e+02   2.8481658630e+01    0.1803785    0.1209628  59.25 0.0005534489    1.091    0.084
        22  -9.7975      1.5341    163.0645   1.2237954506e+02   4.1812097409e+01    0.1399944   0.09171893  84.67 0.0006840674    1.246    0.197
        23 -10.5775     71.5763    243.5029   1.1335618066e+02   2.1438403322e+01    0.1843058    0.1053725  79.70 0.0007766162    1.896    0.473
        24 -10.9360     93.6905    157.0091   1.0160510926e+02   3.2289715660e+01    0.2181977    0.1961625  76.27 0.0003397484    1.130    0.115
        25 -12.2377     99.1166    150.6698   9.9531204386e+01   3.2636911084e+01    0.4966786    0.4495432  -5.02  0.002181535    1.580    0.367
        26 -10.1918    187.7008    152.2846   8.1711302508e+01   1.6398398889e+01    0.2288539    0.1614542 -54.77  0.001262207    1.976    0.494
        27 -11.0826    133.7722    145.5723   9.1092679684e+01   2.7610833857e+01     1.020508    0.2680262 -54.98  0.002948321    6.232    0.840
        28 -10.2014    113.4630    151.3355   9.6439764080e+01   3.0158352709e+01    0.2790245     0.180015  77.26  0.001221725    1.996    0.499
        29  -9.7829    174.8146    149.1169   8.3486391856e+01   1.9291653471e+01     0.191452    0.1719926  60.60 0.0005965935    1.219    0.179
        30 -11.0966    192.8936    194.7770   8.7870644882e+01   1.0208838624e+01    0.9305555    0.5282547 -62.68  0.003603468    6.636    0.849
        31  -9.8676     91.9834    146.7802   1.0060723699e+02   3.4505076213e+01    0.2497141    0.1507682  56.68  0.001354752    1.516    0.340
        32  -9.3250     87.8949    202.5969   1.0764409436e+02   2.5286785613e+01    0.1649344    0.1128432  38.51 0.0006599748    1.401    0.286
        33  -9.4920    112.6844    141.3804   9.5030711709e+01   3.2142047932e+01     0.238666    0.1573783  61.79 0.0006937271    1.521    0.343
        34 -11.7434    109.4545    137.2879   9.5089488588e+01   3.3482513750e+01    0.5952212    0.3358815 -39.58  0.002772923    2.511    0.602
        35 -11.8529     98.0523    136.6501   9.7665309282e+01   3.5528474200e+01     0.266791    0.2481659  77.27 0.0005614551    1.118    0.105
        36 -11.1182    105.9424    130.8506   9.4811166533e+01   3.5348811910e+01    0.3475886    0.2882802 -84.03  0.001202476    1.227    0.185
        37 -10.3803    161.2883    128.3408   8.2012229556e+01   2.5200587231e+01    0.4299571    0.2643948  70.41    0.0018552    2.481    0.597
        38 -10.5221    116.2384    128.4489   9.1932461910e+01   3.3988485905e+01     0.257165    0.2404258  31.65 0.0008143359    1.225    0.183
        39 -10.6065    103.9663    124.1621   9.4089720601e+01   3.7031306013e+01    0.2650816    0.2399509  -0.87 0.0009132774    1.488    0.328
        40 -10.1629    120.6767    123.2490   8.9883814657e+01   3.4172855000e+01     0.252883    0.1639434 -28.95 0.0009337458    2.375    0.579
        41 -10.6052    135.0000    120.9738   8.6103269027e+01   3.1821857578e+01    0.5152496   0.07995796 -46.13  0.001252621    6.936    0.856
        42  -9.3386    151.9277    119.3057   8.2017555197e+01   2.8664575354e+01    0.2303105     0.190905 -57.55 0.0005736563    1.341    0.254
        43  -9.5719    110.9656    118.0180   9.1182793240e+01   3.7016389821e+01     0.204093    0.1832223  67.42 0.0003209937    1.016    0.016
        44  -9.8219    231.2718    113.7829   6.6446099086e+01   1.2814426458e+01    0.2316237    0.1953055  27.42 0.0007449053    1.103    0.093
        45 -10.0241    167.4027    112.5154   7.7260807496e+01   2.6518110965e+01    0.3008585    0.2238652  89.97  0.001221839    1.960    0.490
        46 -10.6249    134.5952    105.0660   8.2628076943e+01   3.4892701290e+01    0.5450596    0.1374115 -46.31  0.001621598    4.189    0.761
        47 -11.3254    119.4314    110.6186   8.7542683086e+01   3.6890871212e+01    0.4866267     0.293215  63.09  0.002193136    1.936    0.483
        48  -9.6225    205.5150    110.2289   6.9695924863e+01   1.8590449056e+01    0.2509436    0.1826491  47.54  0.000631857    1.328    0.247
        49  -9.9848     14.9762    201.3347   1.2107865934e+02   3.3860268244e+01    0.1266436   0.07393807  40.49 0.0005566777    1.519    0.342
        50  -9.7922    185.9171     85.7515   6.6944461240e+01   2.6535558718e+01    0.2782898    0.2641924  64.05      0.00114    1.108    0.097
        51  -8.9145    152.6289     82.1742   7.2539535654e+01   3.5048155706e+01    0.2049277    0.1433963 -24.82 0.0005198769    1.627    0.385
        52  -9.5161     74.0222     73.8427   9.1528890189e+01   5.2947038893e+01    0.2027861    0.1861311 -78.27 0.0004384292    1.013    0.013
        53 -10.3930    204.5031    200.4995   8.6822040230e+01   7.7459897199e+00    0.2444847   0.08687159  43.11  0.001219349    2.194    0.544
        54  -9.0489    167.5617    229.1071   9.6456740544e+01   1.0314519320e+01    0.1146542    0.1060813 -33.85 0.0006322063    1.507    0.336
        55  -9.6376     56.9351    225.1152   1.1476438038e+02   2.5720825185e+01   0.09990054   0.07074282  72.18 0.0002635836    1.245    0.197
        56  -9.1256     95.9590     63.4652   8.1488468476e+01   5.1224750471e+01    0.2094831    0.1425592  49.44 0.0006133576    1.522    0.343
        57 -11.4590     63.3216    221.4766   1.1345458397e+02   2.5514191369e+01    0.3298267     0.137852  65.02  0.001846622    2.374    0.579
        58 -19.4356     33.1395    145.5559   1.1436377367e+02   4.2373109011e+01     16.44102     4.698924 -79.82   0.06811672    3.594    0.722
        59  -9.2554     82.4914    195.0013   1.0800388714e+02   2.7228295535e+01    0.2686005    0.1372596  73.81  0.001465594    2.411    0.585
