#   1 NUMBER                 Running object number                                     
#   2 MAG_AUTO               Kron-like elliptical aperture magnitude                    [mag]
#   3 X_IMAGE                Object position along x                                    [pixel]
#   4 Y_IMAGE                Object position along y                                    [pixel]
#   5 X_WORLD                Barycenter position along world x axis                     [deg]
#   6 Y_WORLD                Barycenter position along world y axis                     [deg]
#   7 A_WORLD                Profile RMS along major axis (world units)                 [deg]
#   8 B_WORLD                Profile RMS along minor axis (world units)                 [deg]
#   9 THETA_WORLD            Position angle (CCW/world-x)                               [deg]
#  10 FWHM_WORLD             FWHM assuming a gaussian core                              [deg]
#  11 ELONGATION             A_IMAGE/B_IMAGE                                           
#  12 ELLIPTICITY            1 - B_IMAGE/A_IMAGE                                       
         1 -16.2128    242.8529     87.9812   7.5687741661e+01   1.2896296984e+01     10.34841     1.896579 -36.37   0.02605117    5.729    0.825
         2 -12.9738    227.5737     19.8252   6.2182103995e+01   2.6440541746e+01    0.4716746    0.3705425 -53.58 0.0007020344    1.231    0.188
         3 -15.0043    215.4402     31.9343   6.6283470503e+01   2.7791075865e+01     2.655369     1.138169 -56.49  0.009306736    2.690    0.628
         4 -14.2479    240.0889     29.5987   6.3046503713e+01   2.2343931096e+01      1.76529    0.7177233 -79.10  0.005315117    5.454    0.817
         5 -12.6989    249.5593     26.3313   6.1447824865e+01   2.0658890766e+01    0.6442985    0.2795325 -38.38  0.002742484    2.176    0.541
         6 -14.2647    179.0266     72.1490   8.2265291935e+01   3.0797990054e+01     6.583552    0.7637694 -43.29   0.01285437    8.591    0.884
         7 -14.6629    165.5435     54.3252   7.9877328821e+01   3.7003836100e+01     2.287326     1.250616  88.77  0.003583653    3.797    0.737
         8 -14.4408    204.4468     41.7847   7.0095389826e+01   2.9143046077e+01     1.255553     1.047309 -25.99  0.006813386    1.426    0.299
         9 -14.2716    135.1076     38.4464   8.1363593426e+01   4.6562774355e+01     3.674879    0.6671993  57.92  0.009246971    5.761    0.826
        10 -14.8887    233.8100      4.7503   5.8377438092e+01   2.6748710697e+01     1.594861    0.8437594  74.40  0.008661622    1.649    0.394
        11 -13.7320    187.1253     10.1657   6.4406586251e+01   3.7197955202e+01     1.267643    0.6538075  88.69 0.0008470347    2.200    0.545
        12 -15.2341    174.6015      2.3579   6.3952182213e+01   4.0990173518e+01     12.04596          nan  60.53   0.01477565   11.063    0.910
        13 -12.9867    250.1804     11.3269   5.8358524819e+01   2.2373585325e+01    0.3798801    0.2464837 -48.79   0.00104917    1.405    0.288
        14 -13.8812    248.3288      3.2156   5.6903192146e+01   2.3706335817e+01    0.6293971    0.4626856  84.59  0.002895231    1.187    0.158
        15 -11.3362    105.3464      2.5698   7.5831152892e+01   5.6918360181e+01    0.2513748    0.1875635  36.36  0.001587468    1.149    0.130
        16 -13.6683    233.5986     54.3841   6.9267666942e+01   2.0361876894e+01     1.790875    0.8328031 -74.12  0.003944482    4.287    0.767
        17 -15.1405     48.5029    190.1007   1.3903164813e+02   2.9768857397e+01     1.792144     1.393682 -33.41   0.01015237    2.028    0.507
        18 -11.5769    246.3560    163.7717   9.1915869807e+01  -1.1022064697e+00    0.4981205    0.2913298  -1.13  0.001869928    3.397    0.706
        19 -10.5635     11.9405    162.4691   1.4395174021e+02   3.9797650854e+01    0.1802156    0.1260827 -79.76  0.000415845    1.096    0.088
        20 -14.7017     57.8845    180.5618   1.3589842140e+02   3.0736208607e+01     1.231701     1.128816 -32.23  0.002589421    1.516    0.340
        21 -12.4187     67.8273    144.3343   1.2814818045e+02   3.7922020089e+01    0.6544001    0.3948608  66.85  0.002729411    2.129    0.530
        22 -10.6152    191.5819    192.8046   1.0837170468e+02   4.2252567613e+00    0.5945174     0.311428 -67.12  0.001622192    6.267    0.840
        23 -11.1253    188.1005    137.8465   9.7264687820e+01   1.5916333248e+01    0.3195209    0.2782955 -84.98 0.0006468333    1.300    0.231
        24 -12.0740    184.1789    135.3747   9.7510316443e+01   1.7317559998e+01    0.4699911    0.2412472  52.40  0.001427152    2.031    0.508
        25 -12.9087    210.7349    133.9217   9.1786621287e+01   1.1623694522e+01    0.7214882    0.3696871  50.64  0.002438338    2.032    0.508
        26 -11.8501    208.8523    129.6861   9.1153320606e+01   1.2867965956e+01    0.3696074    0.2822174  23.75  0.001258007    1.621    0.383
        27 -11.5480    213.3175    128.4097   9.0005371410e+01   1.2117894795e+01    0.2966189    0.2742228 -76.05 0.0008037229    1.139    0.122
        28  -9.6021     15.7692    133.9854   1.3988941874e+02   4.5920950824e+01    0.1676167    0.1226574 -73.69 0.0002062541    1.070    0.066
        29  -9.6493     20.6351    139.1066   1.3933545281e+02   4.4356234383e+01    0.1688129    0.1215013 -69.33 0.0003742402    1.106    0.096
        30 -11.1314    160.4891    127.9711   1.0099462837e+02   2.4302394571e+01    0.4153994    0.3259157 -48.10  0.001618053    1.270    0.213
        31 -12.8516    218.6955    122.8563   8.7707725670e+01   1.1982413634e+01    0.6692235    0.2880926 -35.94  0.002453156    2.371    0.578
        32 -13.4537    214.6367    117.1040   8.7080807871e+01   1.3985813338e+01    0.6783448    0.5190753 -86.76  0.002957182    1.648    0.393
        33 -12.7979    220.8052    112.9731   8.4997063125e+01   1.3366937913e+01    0.6468293    0.3725168 -22.39  0.002377624    2.483    0.597
        34 -12.1327    203.5142    126.1199   9.1338397444e+01   1.4773737328e+01    0.4622446    0.2934341  27.57  0.001864456    2.223    0.550
        35  -9.8805      1.4108    126.0373   1.4250267794e+02   4.8718630905e+01    0.1741538   0.08657427 -70.72  0.000345884    1.507    0.336
        36 -13.4116    170.0278     73.1239   8.4310016361e+01   3.2858886523e+01    0.7285982    0.6121318  18.56  0.002926523    1.446    0.308
        37 -10.2896     91.3037    217.6371   1.3342283073e+02   1.7707321440e+01    0.2217053    0.1595286  70.43  0.001281901    1.258    0.205
        38 -12.7766     14.3391    193.4096   1.4617772748e+02   3.2790712661e+01     0.378433    0.1682707  74.83  0.001885465    2.338    0.572
        39 -13.3791    204.3372    110.7022   8.7436248655e+01   1.7584615587e+01    0.6192971     0.574431 -29.57    0.0023827    1.129    0.114
        40 -12.9078    197.0982    101.6995   8.6565018193e+01   2.1019611030e+01    0.5883205    0.4002081 -76.26  0.002467436    2.018    0.505
        41  -9.6584     72.1933    105.1495   1.1892121197e+02   4.6455567857e+01     0.176109    0.1558418  89.33 0.0003617945    1.287    0.223
        42 -11.4519    155.7062    100.9281   9.5131262756e+01   3.1100035739e+01     0.358389    0.2675505 -72.94   0.00159062    1.685    0.407
        43 -11.7755    158.6557     98.1522   9.3697232443e+01   3.0961351367e+01    0.4423288    0.2837139  86.27  0.001599261    2.748    0.636
        44 -13.3195    155.2521     88.1789   9.1729689380e+01   3.3715928798e+01      1.05003    0.6438592 -17.18  0.002711912    2.590    0.614
        45 -11.1143    215.1054     99.2302   8.2683219586e+01   1.7212764669e+01    0.3076108    0.1810387 -61.55  0.001243218    2.118    0.528
        46 -11.3176    124.1888     99.1704   1.0252212763e+02   3.8519394125e+01    0.4319964     0.272175 -23.90  0.001747581    2.161    0.537
        47 -11.5627    146.3083     95.5915   9.5906055820e+01   3.4363184928e+01     0.395113    0.3103983  25.50 0.0008165189    1.493    0.330
        48  -9.5304    113.4521     94.9749   1.0427314468e+02   4.1594912131e+01    0.2209978    0.1430503 -44.48 0.0003530854    1.506    0.336
        49 -11.4706    206.5672     93.2012   8.2687450163e+01   2.0330247259e+01    0.3781295    0.2422513  78.41  0.001349162    2.018    0.504
        50 -10.7777    133.3300     93.3625   9.8517005745e+01   3.7743189222e+01    0.2945679    0.2504635 -84.36 0.0003539299    1.396    0.284
        51 -12.2472    218.6676    181.5343   1.0071023650e+02   1.0070013267e+00    0.7279911    0.2922077  32.85  0.002490297    3.349    0.701
        52 -13.2588    197.2387     95.1958   8.4888183234e+01   2.2207301452e+01    0.7975343    0.5102911 -70.16  0.003242906    2.141    0.533
        53 -11.7134    139.8526     84.3726   9.4310459448e+01   3.8039963034e+01    0.3552873     0.315377 -54.55  0.001084548    1.171    0.146
        54  -9.5430     82.1271     80.2132   1.0927499917e+02   5.0262811665e+01    0.1716878    0.1590912 -76.27 0.0002924485    1.294    0.227
        55 -10.4432    219.6856     78.0341   7.6779318544e+01   1.9861489883e+01    0.3630703    0.2042375  64.82  0.001594823    1.859    0.462
        56 -13.0477    153.3490     74.8818   8.8377533160e+01   3.6616581770e+01    0.4537032    0.3300444 -44.02 0.0009459303    1.410    0.291
        57 -12.2474    225.4952    176.5021   9.8368275877e+01   5.9324789288e-01    0.3743562    0.2881968  -8.60  0.001976118    1.426    0.299
        58 -10.3641    134.7689    113.0175   1.0346962406e+02   3.3296933572e+01    0.4203144    0.1673761 -45.42  0.001434742    2.481    0.597
        59 -10.3139    130.5285     66.0069   9.1145812096e+01   4.3466943324e+01    0.2269773    0.2014046  45.07  0.001154099    1.093    0.085
        60 -12.7146    185.4025     58.2524   7.7333551133e+01   3.1462743473e+01       0.4837    0.3852096 -11.76   0.00121775    1.607    0.378
        61 -12.6583    190.3149     53.8604   7.5334497504e+01   3.0905975409e+01    0.4459171    0.3163908  35.74  0.002095992    1.759    0.431
        62 -11.4668    134.6861    105.7221   1.0156611419e+02   3.4884328085e+01    0.6435401    0.3195875 -41.63   0.00246693    2.028    0.507
        63  -9.2285    213.2805     53.5787   7.1770559965e+01   2.5293854106e+01    0.1561184   0.09504122 -64.64 0.0003245257    1.826    0.452
        64  -9.6245    189.8170     36.1710   7.0755462675e+01   3.3509219522e+01    0.1767047    0.1566578  46.07 0.0007444964    1.254    0.202
        65  -8.9954    183.6081     33.3241   7.0931117967e+01   3.5416590416e+01    0.1526633   0.09756891 -73.88 7.095216e-05    1.875    0.467
        66  -9.4741    162.0172     32.5456   7.4238401915e+01   4.0857415295e+01    0.2028058     0.125469  62.45 -1.006111e-05    1.459    0.315
        67 -10.5033    135.1387    120.9631   1.0540268016e+02   3.1468558578e+01    0.3688348    0.1051867 -46.44  0.001054653    3.463    0.711
        68 -12.5527    198.5247    119.4615   9.0706447869e+01   1.7236116701e+01    0.7274063    0.3682296  66.68   0.00244553    3.055    0.673
        69 -12.2106    227.7570    172.4518   9.7097413622e+01   8.7787165022e-01    0.4315464    0.2694436 -29.25  0.002058836    1.643    0.391
        70 -11.0617    167.5066    113.3485   9.5705331906e+01   2.5776161990e+01    0.3455736    0.2690643 -88.56  0.001379305    1.608    0.378
        71  -9.4475    119.2364    208.5587   1.2642867387e+02   1.4912696067e+01    0.1737466    0.1264307  36.89 0.0004099375    1.449    0.310
        72  -9.8322    163.3758     19.9790   7.0394286810e+01   4.1976613676e+01     0.262988    0.1275043 -52.84  0.001101041    2.641    0.621
        73 -10.8799      4.9955    170.3322   1.4612937503e+02   3.8633958805e+01    0.1538363    0.1226175  84.41 0.0003734629    1.115    0.103
        74  -9.7980    202.2473    248.0665   1.1593231968e+02  -6.7749567262e+00    0.1638543    0.1433519  21.43 0.0003072916    1.081    0.075
        75 -11.2164    141.0054    101.3075   9.8779421511e+01   3.4407725693e+01    0.4640238    0.2985293  14.33  0.001679356    2.842    0.648
        76 -14.5622     18.5094    216.7659   1.4715494116e+02   2.7486226092e+01    0.9492955    0.6188611  80.97  0.004105189    1.160    0.138
