#   1 NUMBER                 Running object number                                     
#   2 MAG_AUTO               Kron-like elliptical aperture magnitude                    [mag]
#   3 X_IMAGE                Object position along x                                    [pixel]
#   4 Y_IMAGE                Object position along y                                    [pixel]
#   5 X_WORLD                Barycenter position along world x axis                     [deg]
#   6 Y_WORLD                Barycenter position along world y axis                     [deg]
#   7 A_WORLD                Profile RMS along major axis (world units)                 [deg]
#   8 B_WORLD                Profile RMS along minor axis (world units)                 [deg]
#   9 THETA_WORLD            Position angle (CCW/world-x)                               [deg]
#  10 FWHM_WORLD             FWHM assuming a gaussian core                              [deg]
#  11 ELONGATION             A_IMAGE/B_IMAGE                                           
#  12 ELLIPTICITY            1 - B_IMAGE/A_IMAGE                                       
         1 -12.9258    201.8911     34.5103   6.0935067376e+01   3.1164701714e+01    0.7670735    0.7348529 -73.35  0.004339343    1.274    0.215
         2 -12.7363      2.5345     20.0511   1.0977709058e+02   6.9823352720e+01    0.8360224    0.2529432 -46.52  0.004071079    3.168    0.684
         3 -13.0230      3.0757      7.2779   1.0428017939e+02   7.1461770471e+01     1.230132     0.698166   1.68  0.008497955    1.546    0.353
         4 -13.5505    219.6926     16.1747   5.5284927188e+01   2.9516545793e+01    0.9866611    0.7592936  52.46  0.006549561    1.691    0.409
         5 -10.9258    198.3425    245.6137   1.0644721683e+02  -7.0118653296e+00    0.2733165    0.1806411  18.04  0.001497689    1.516    0.340
         6 -11.0333    184.7192    250.0454   1.0990534513e+02  -5.6597474247e+00    0.3777793    0.1791805  32.51  0.001764489    1.955    0.489
         7 -10.3570    162.7365    250.1773   1.1442246185e+02  -2.2047525786e+00    0.2362027    0.1661142  45.05 0.0005603625    1.369    0.269
         8 -11.3176    100.1227    247.8273   1.2716949053e+02   8.3445373458e+00    0.6252008    0.3697529  36.66  0.002660598    1.616    0.381
         9 -12.4436    102.2538    238.9246   1.2561303597e+02   9.8448935552e+00    0.9286467     0.581514 -80.18  0.001041755    1.942    0.485
        10 -10.5105     97.1362    239.3058   1.2675078514e+02   1.0572257236e+01     0.456671     0.258108  75.02  0.001984359    2.532    0.605
        11 -13.3377    124.4510    245.1334   1.2171750014e+02   4.9934247880e+00     1.444816    0.7908409  46.89  0.006062597    1.665    0.399
        12 -13.4899    113.2374    248.4863   1.2452108658e+02   6.1417345719e+00     2.981435    0.3733719  38.74   0.00756038    6.245    0.840
        13  -9.8256     90.5064    250.5124   1.2946020608e+02   9.2784509642e+00    0.2989485    0.1770585  31.62  0.001288869    1.847    0.459
        14 -11.3024     86.4764    248.1947   1.3002219221e+02   1.0358506513e+01    0.4375107    0.3839261  11.50 0.0009828432    1.551    0.355
        15 -10.2255     81.5390    248.1595   1.3102392703e+02   1.1101420615e+01    0.3019327    0.2029523 -79.20  0.001177136    1.549    0.354
        16 -10.9770     83.4025    241.2877   1.2987611761e+02   1.2259344807e+01    0.4916754    0.2707255  60.50  0.001954477    1.869    0.465
        17 -10.9795     91.3279    241.4948   1.2824399148e+02   1.1012882766e+01    0.4939587    0.3330636  19.69  0.002488841    2.110    0.526
        18 -11.7508     87.7034    237.0204   1.2847300190e+02   1.2518187912e+01    0.7236683    0.4167207  63.37   0.00349871    1.876    0.467
        19 -10.3681     84.1778    230.2361   1.2840519421e+02   1.4532031570e+01    0.3453652    0.2248286 -54.38   0.00181104    1.681    0.405
        20  -9.1632     56.7333    250.4290   1.3617418609e+02   1.4138147538e+01    0.2135278    0.1553788  31.17  0.001285745    1.667    0.400
        21 -11.1777     59.7432    245.7882   1.3515393143e+02   1.4697335968e+01    0.4889217    0.3116565  49.11  0.002478045    1.375    0.273
        22 -10.9604     68.1939    245.2022   1.3341082521e+02   1.3647401097e+01    0.4117122    0.2322051  59.20  0.001742882    1.651    0.394
        23 -10.3801     50.8997    249.1041   1.3718166235e+02   1.5187218330e+01    0.3225031      0.29227 -26.81  0.001655674    1.713    0.416
        24 -12.6416      3.0383    189.9385   1.4179540422e+02   3.3772471734e+01     2.113133    0.3054067 -73.02  0.006313737    5.232    0.809
        25 -12.1517      9.6632    206.7514   1.4178972536e+02   2.9276853740e+01     1.220821    0.6595463   8.43  0.005517632    4.063    0.754
        26 -12.6774      3.7795    226.5924   1.4437889943e+02   2.5417814489e+01     1.071822    0.9507107  83.33  0.008103362    1.288    0.223
        27 -13.1346     40.6957    244.1983   1.3872078387e+02   1.7520749759e+01     1.164678    0.9005927  83.07  0.004015199    1.079    0.073
        28 -12.8142     24.2552    225.2854   1.4035929879e+02   2.3572346248e+01    0.5644691    0.3474252 -51.74 0.0007863794    2.050    0.512
        29 -14.3234     30.4936    218.7130   1.3854208881e+02   2.4347461141e+01     1.727403     1.553897 -39.64   0.01161232    1.568    0.362
        30 -12.3227    135.2893    235.4410   1.1800146070e+02   5.1307977499e+00    0.6159748    0.4456311 -63.19  0.003300286    1.567    0.362
        31 -11.6784    117.3838    237.8876   1.2222799633e+02   7.6142898248e+00    0.5650117    0.4027933  -4.49  0.002682621    2.400    0.583
        32  -8.9369     66.3829    239.5494   1.3319888526e+02   1.5104191247e+01    0.2394133    0.1289817  78.43  0.001105904    2.257    0.557
        33 -12.8533     26.3778    247.4067   1.4165091215e+02   1.8572199456e+01    0.9883807    0.8131875  74.48  0.005695666    1.135    0.119
        34 -10.0495    129.9040    236.0193   1.1925448397e+02   5.9187141408e+00    0.2112411    0.1935251  56.68 0.0006484977    1.043    0.041
        35 -13.6320      6.1618    245.2563   1.4512715927e+02   2.1232584665e+01     1.202508     1.047387  74.19  0.009301635    1.303    0.233
        36 -11.3346    105.2775    228.4827   1.2356693503e+02   1.1591747027e+01    0.3309371    0.2845074  -5.79  0.001667512    1.567    0.362
        37 -11.3099    113.4530    230.9490   1.2211250899e+02   9.7182909262e+00    0.3615681    0.2995008 -45.11  0.001522438    1.386    0.278
        38  -9.1060    156.5136    233.0116   1.1303628622e+02   2.0166025949e+00    0.1858459    0.1240878 -81.05 0.0008105271    2.601    0.616
        39 -10.0621     56.2704    228.7637   1.3417232901e+02   1.8861558199e+01    0.3272308    0.2892032  17.47  0.001624064    1.561    0.359
        40  -9.5216     77.1730    220.7821   1.2876957411e+02   1.7711356811e+01    0.2490805    0.1726439  87.86 0.0003894697    1.493    0.330
        41  -9.7505     92.4866    225.8292   1.2603155749e+02   1.4225275790e+01    0.2286348    0.1949737  65.60  0.001212205    1.055    0.052
        42  -9.7165    117.1866    224.7091   1.2038133022e+02   1.0439741043e+01     0.239531     0.231446  32.19 0.0007434341    1.131    0.116
        43  -9.3311     64.9696    224.2037   1.3183745779e+02   1.8694688085e+01    0.3910553    0.1794638 -50.20  0.001682639    2.652    0.623
        44 -10.5593     79.3345    225.6467   1.2889475626e+02   1.6285161376e+01    0.5162665    0.2391719 -69.05  0.002245675    2.277    0.561
        45 -11.9108    179.6936    243.6880   1.0990172828e+02  -3.7813786923e+00    0.5464356    0.2738506  27.95  0.002478972    2.075    0.518
        46  -8.6763    164.4564    224.0193   1.0982250548e+02   2.4224652497e+00    0.1926006    0.1378452 -48.11 0.0003405437    1.482    0.325
        47 -11.8321     21.8800    219.7413   1.4037724653e+02   2.5074207265e+01    0.2912435    0.2451491  76.74 0.0004335095    1.125    0.111
        48 -10.7957     98.7991    223.0298   1.2425227400e+02   1.3845657580e+01    0.3151471    0.2783076  67.35  0.001239262    1.026    0.025
        49  -9.2794     87.5005    223.3724   1.2681280163e+02   1.5554390196e+01    0.2514809    0.1832989  79.38 0.0009472985    1.421    0.296
        50 -10.4958     71.0289    219.8194   1.3000771656e+02   1.8833312821e+01    0.4915168     0.317105  84.37  0.002493067    1.664    0.399
        51 -10.5845    141.9380    219.9008   1.1408153844e+02   7.2021081343e+00    0.4131485    0.3489464 -74.65  0.001582168    1.338    0.253
        52  -9.7636     91.2012    219.2849   1.2544357585e+02   1.5903599725e+01    0.4541379    0.2231125  36.75  0.001792231    2.019    0.505
        53  -9.4258    246.3105    219.3396   9.2700277145e+01  -9.6679966175e+00    0.1320009   0.08448793 -10.10  0.000402765    1.691    0.409
        54  -9.3645    111.7999    215.1749   1.2016320732e+02   1.3466226604e+01    0.2517715    0.1866417  40.30 0.0003152697    1.306    0.235
        55  -8.5379     99.2796    218.3224   1.2348459723e+02   1.4829650542e+01    0.1323278    0.1105931 -26.05 0.0002864691    1.586    0.370
        56  -9.8605    117.5551    215.3141   1.1886551584e+02   1.2453492433e+01    0.3356891    0.2649704  15.10  0.001050217    1.586    0.369
        57  -9.4476     87.9824    212.8616   1.2529334109e+02   1.7891731885e+01    0.3169004    0.1988497  79.22  0.001395658    1.977    0.494
        58 -10.5972     56.2003    209.2803   1.3205026500e+02   2.3359218126e+01    0.7297427    0.3982683  75.72  0.002709476    2.212    0.548
        59 -10.0915     62.7285    208.5714   1.3049529030e+02   2.2639871119e+01    0.3365762    0.2822596  54.53  0.001049596    1.175    0.149
        60 -10.1785     63.8758    205.1526   1.2980837655e+02   2.3295986845e+01    0.3706099    0.2079964 -69.55  0.001209443    1.681    0.405
        61  -8.4853    112.4507    208.4906   1.1896898833e+02   1.4883875911e+01    0.1466057    0.1329008  72.30 1.974816e-05    1.057    0.054
        62  -8.5070    134.4576    207.5108   1.1368692018e+02   1.1231770000e+01    0.1438078    0.1402051  44.06 8.628283e-05    1.036    0.035
        63 -11.4582    150.2762    246.7435   1.1649946608e+02   4.4427616376e-01    0.3697938    0.2920325  36.66  0.001521312    1.131    0.116
        64 -10.8672    106.8904    203.5324   1.1948530495e+02   1.6990728145e+01    0.2912623    0.2308585 -64.90 0.0001495619    1.262    0.207
        65  -8.4478     89.4426    205.4366   1.2389743932e+02   1.9411015056e+01    0.1466409    0.1248027  75.15 0.0001422147    1.112    0.101
        66  -8.4262     92.2980    204.3630   1.2306663839e+02   1.9210300064e+01    0.1427311    0.1110631 -30.19 0.0007033467    1.718    0.418
        67  -9.2416     83.8453    201.6860   1.2467185775e+02   2.1187647840e+01    0.1951906    0.1676382  71.54 0.0003443423    1.091    0.083
        68 -10.0812     74.9820    200.1391   1.2655120619e+02   2.2906955377e+01     0.238139    0.1889849 -79.80 0.0003506349    1.179    0.152
        69  -8.3340    130.6256    199.2442   1.1313445879e+02   1.3803104597e+01    0.1532068    0.1098665  64.64 0.0003731859    1.629    0.386
        70  -9.1464     52.8194    198.3854   1.3151859680e+02   2.6415607024e+01    0.2674509    0.2053112  30.72  0.001506286    1.536    0.349
        71 -11.5574     54.1331    193.3648   1.3058323964e+02   2.7468622735e+01    0.3805043    0.3426957   0.36  0.001051469    1.494    0.331
        72 -12.2518      6.1911    215.1075   1.4312149282e+02   2.7716415604e+01     1.139445    0.6728243  12.65  0.004778051    3.083    0.676
        73  -9.9464    249.9051    193.7003   8.7276278851e+01  -5.8865806868e+00    0.2271915    0.2004642 -19.25  0.001478339    1.081    0.075
        74 -10.0706     33.9569    192.5085   1.3518341214e+02   3.0120112671e+01     0.342361    0.1985528  80.76 0.0009077427    1.814    0.449
        75  -9.9445     30.5347    193.4430   1.3606403715e+02   3.0272895721e+01    0.1763014    0.1685277  73.84 -1.522653e-05    1.249    0.199
        76  -9.8694     25.7982    192.6777   1.3705274728e+02   3.0963726861e+01    0.2555275    0.1846824 -76.60 0.0008746032    1.160    0.138
        77  -9.2231    191.5246    191.5499   9.7958464772e+01   4.1740517322e+00    0.2469827    0.2294605 -27.09 0.0006751762    1.031    0.030
        78  -8.8805     40.1428    188.7300   1.3331439373e+02   3.0332364187e+01    0.2690815    0.1384089 -84.67 0.0009277092    2.062    0.515
        79  -9.3087     21.4324    192.7867   1.3803968166e+02   3.1387334872e+01    0.3135575    0.1906768  71.88 0.0009676923    1.616    0.381
        80 -10.0987    250.2225    187.5122   8.6035264221e+01  -4.8562892068e+00    0.3085452      0.15877 -40.01  0.001521639    1.660    0.398
        81  -9.2603     76.0297    186.7561   1.2434213451e+02   2.6037613266e+01    0.4464045    0.2425143  85.37  0.001631203    2.991    0.666
        82  -9.9471     71.1114    187.0901   1.2560908991e+02   2.6680126632e+01    0.3026028    0.1947998  38.87  0.000355651    1.613    0.380
        83 -10.1426      9.5692    186.8232   1.4010116927e+02   3.3936438321e+01     0.379121    0.1753397 -89.22  0.001783187    2.127    0.530
        84 -11.5265     60.6844    185.7031   1.2797641719e+02   2.8489505065e+01    0.2943002    0.2429217 -51.71 0.0004780206    1.300    0.231
        85  -9.4797    107.0047    185.5648   1.1642945389e+02   2.1291593547e+01    0.2115322    0.1961404 -76.39  0.000344945    1.040    0.038
        86  -8.4083     83.3289    186.7359   1.2252617055e+02   2.4926290183e+01    0.1489426    0.1047057  68.82 0.0005212725    1.571    0.363
        87  -9.2456     24.6785    183.9514   1.3638927102e+02   3.3185374638e+01    0.1914444    0.1472794 -81.42 0.0007602719    1.067    0.063
        88  -9.9440     36.9589    180.5973   1.3309106612e+02   3.2695536248e+01    0.3666271    0.1583894 -60.89  0.001514699    1.973    0.493
        89  -9.1698     30.0282    183.5008   1.3508791893e+02   3.2739348208e+01    0.1751649    0.1275115  38.57 0.0007296368    1.532    0.347
        90  -9.7199     27.0048    179.6619   1.3536674081e+02   3.3993008143e+01    0.2511469    0.1625868 -74.75 0.0001658096    1.295    0.228
        91 -10.7643    136.1300    225.2956   1.1625036024e+02   7.0764920317e+00    0.4615016     0.214863 -49.81 0.0009755017    2.276    0.561
        92  -8.4957     64.6372    176.3139   1.2560805499e+02   3.0296110776e+01    0.1534623    0.1010066  70.68 0.0007041019    1.759    0.431
        93  -8.7693    103.0147    175.7870   1.1566670976e+02   2.4399086136e+01    0.1913406    0.1222197  39.17 0.0002223561    1.604    0.377
        94 -10.6752     72.0275    173.6579   1.2328925048e+02   2.9912210910e+01    0.2671925    0.2511204 -62.35 0.0004217234    1.115    0.103
        95  -9.8833     18.9026    173.0961   1.3656285755e+02   3.6387771619e+01    0.4000092    0.2188467  80.47  0.001942422    2.018    0.505
        96 -11.6668    248.6932    172.3772   8.3342528940e+01  -1.9239177577e+00    0.7686787    0.3262804 -38.15  0.003342893    2.069    0.517
        97 -12.1541    244.9603    162.3066   8.1958902503e+01   5.2167686812e-01    0.9767613    0.2966008 -50.67  0.003018296    4.235    0.764
        98 -10.5471    249.5903    160.8049   8.0906608763e+01   3.9675922458e-02    0.3616869    0.2029144 -46.24  0.001801086    1.561    0.360
        99 -11.1591    248.2794    157.5542   8.0469125827e+01   8.5071523853e-01      0.78583     0.354861  59.97  0.002810961    4.483    0.777
       100 -10.2752     57.2850    173.4637   1.2705574188e+02   3.2005914100e+01    0.3336408    0.2307167  49.47   0.00125399    1.508    0.337
       101 -10.1604     12.3401    173.0508   1.3811919434e+02   3.6989521471e+01    0.3255349    0.1632144 -59.14  0.001673359    1.727    0.421
       102 -11.6897      9.9720    157.2346   1.3696187610e+02   4.1013896940e+01    0.6047921    0.2670918  84.13  0.002391178    3.209    0.688
       103 -10.8375      2.5906    172.4030   1.4032785639e+02   3.7950658733e+01    0.4605514    0.2132669 -89.59  0.002186945    2.137    0.532
       104 -11.5948     11.8983    166.3315   1.3750683973e+02   3.8652611396e+01    0.6242955    0.3177166  42.50  0.002497321    2.132    0.531
       105 -10.5505      4.8513    166.9301   1.3926169212e+02   3.9081200375e+01    0.2886769    0.2313965  31.92  0.001205084    1.543    0.352
       106 -10.2406     27.3278    171.5947   1.3434171181e+02   3.5940171956e+01    0.3448811    0.1952061 -47.19 0.0005143152    1.924    0.480
       107  -9.1002     51.8963    171.0300   1.2807757672e+02   3.3309104313e+01    0.2087962    0.1859171 -82.17 0.0005985528    1.028    0.028
       108 -10.0245     44.2584    165.5328   1.2925066651e+02   3.5613109959e+01     0.362302    0.2285841 -31.11  0.001698125    2.240    0.554
       109  -9.1392     38.9126    167.6636   1.3092845649e+02   3.5688721247e+01    0.1774799    0.1583101  86.57 0.0003888205    1.089    0.082
       110 -11.3913     80.0114    165.8069   1.1985517043e+02   3.0696401301e+01    0.5429136    0.4353408  14.54  0.001638311    1.566    0.361
       111  -9.7006     82.0125    158.0613   1.1789387220e+02   3.2342849464e+01    0.4393406    0.2227235 -65.41  0.001133113    2.063    0.515
       112 -10.1016     68.2770    166.2848   1.2305340621e+02   3.2316527563e+01    0.2507196    0.2152425 -88.31 0.0003126983    1.124    0.111
       113  -8.6709     29.6674    164.7269   1.3289489190e+02   3.7400690821e+01    0.1294005   0.09225757 -41.87 0.0002031515    1.595    0.373
       114 -10.0902     66.9381    161.5184   1.2260263742e+02   3.3712500484e+01    0.2627533    0.1922339 -61.19  0.000316201    1.239    0.193
       115  -9.9745     23.9981    162.0039   1.3398862798e+02   3.8628227406e+01    0.1973968    0.1654968 -75.48 0.0003848095    1.026    0.026
       116  -8.6292     43.1576    161.1574   1.2889883024e+02   3.6837410275e+01    0.1848279    0.1450874  78.46 0.0002439086    1.308    0.235
       117  -9.6898     28.7791    161.0228   1.3263635408e+02   3.8407031507e+01    0.1942319     0.181196 -82.53 0.0003144208    1.137    0.120
       118 -10.1813      3.1072    158.3793   1.3879434960e+02   4.1263408719e+01    0.2329261    0.1360829  48.01  0.001307297    1.907    0.476
       119  -9.3387     46.4536    156.0374   1.2723566660e+02   3.7740178189e+01    0.1916575    0.1839758  84.43 0.0003026451    1.130    0.115
       120 -11.3942     24.7867    155.4166   1.3292827751e+02   4.0177398244e+01    0.5598285    0.2143353  31.67  0.002441367    2.850    0.649
       121  -8.3800    228.4442    155.4888   8.3369538662e+01   4.6693702742e+00    0.1419938    0.1242486 -46.31   0.00017228    1.058    0.055
       122  -9.4176     32.3830    153.5073   1.3064722456e+02   3.9909664190e+01    0.2340608    0.1121498 -67.32 0.0007769918    1.774    0.436
       123 -11.7520      2.6063    143.8524   1.3728692221e+02   4.4775119698e+01     0.580599    0.2297308 -70.54    0.0027134    1.977    0.494
       124 -12.3354      9.2854    143.0080   1.3541214263e+02   4.4502917141e+01    0.6108589    0.2247944 -58.10   0.00234211    2.066    0.516
       125 -11.5735      5.8405    141.8438   1.3618619420e+02   4.5031397186e+01    0.3168429    0.2574663 -81.09 0.0008861438    1.102    0.092
       126 -12.0328    241.2729    120.7919   7.4077379185e+01   8.8950360395e+00    0.8461556    0.4257061  58.80  0.003842513    2.417    0.586
       127 -10.8106    249.5979    150.9355   7.8936788394e+01   1.8494808767e+00    0.4159145    0.2362854 -47.48  0.002077192    1.539    0.350
       128 -12.9277    247.7854    101.3876   6.9214020058e+01   1.1148683233e+01     1.113975    0.6252936 -38.45  0.005571715    1.715    0.417
       129 -11.6769    248.2076    112.8132   7.1458902938e+01   9.0531569793e+00    0.5029885    0.3919734  51.71  0.002981292    1.534    0.348
       130 -12.7253    248.3093    134.0588   7.5738548928e+01   5.1774081920e+00     1.260211    0.5968171 -38.74  0.005674528    1.907    0.476
       131  -9.0466     54.2946    151.5840   1.2435519893e+02   3.7906840441e+01    0.2631635    0.1436466 -46.18 0.0008277274    1.843    0.458
       132  -9.9679     94.2831    150.1935   1.1296961015e+02   3.2307867782e+01    0.3143617    0.2612878 -76.63 0.0009324675    1.249    0.200
       133  -9.2428     86.9657    151.0440   1.1516350539e+02   3.3317123297e+01    0.2226783    0.2042798 -77.30  0.001199539    1.061    0.058
       134 -11.2624     21.7372    149.0189   1.3287085558e+02   4.2028493078e+01    0.4985892     0.217731  40.84  0.002292856    2.548    0.608
       135  -9.6324     82.3756    148.9924   1.1602746387e+02   3.4569425622e+01    0.2444604    0.2220795  23.41 0.0004302829    1.230    0.187
       136 -11.7063     68.0492    144.0718   1.1910501838e+02   3.7954011104e+01    0.7557871    0.5036109  89.76  0.002520769    1.995    0.499
       137  -9.6370    236.0711    146.0945   8.0124344289e+01   5.1019756938e+00    0.2081449    0.1776899 -20.68 0.0005424608    1.265    0.209
       138  -8.6019     97.5087    146.4264   1.1128462939e+02   3.2687567106e+01    0.1520951    0.1449383 -48.82 2.062352e-05    1.052    0.049
       139  -9.9432    133.1523    141.0288   1.0054146627e+02   2.7176781329e+01    0.3536457     0.242554 -58.32 0.0009625244    1.514    0.340
       140 -11.2059     16.6796    140.1748   1.3301990654e+02   4.4613594485e+01    0.2914475    0.2402219  62.08 0.0003851892    1.365    0.267
       141  -9.3089    107.5361    135.6774   1.0610521340e+02   3.3502620797e+01      0.40204    0.2336502 -24.53  0.001388429    2.980    0.664
       142 -12.2667      2.4513    109.5190   1.3259381895e+02   5.2816664889e+01     1.038098    0.1836446 -67.61  0.003190277    4.843    0.794
       143 -11.7015      2.7777    130.8650   1.3560798958e+02   4.7846891564e+01    0.5704455    0.2776366 -60.89  0.003014426    1.557    0.358
       144 -13.0408      3.3670    122.1027   1.3422735163e+02   4.9864819830e+01     0.717748    0.6122296 -71.86   0.00493653    1.107    0.096
       145 -10.0299     44.3455    130.0072   1.2335119981e+02   4.4441260405e+01    0.2019854    0.1544775 -60.37 0.0004866041    1.140    0.123
       146 -10.7039     13.0654    127.9356   1.3226308680e+02   4.7832017133e+01    0.2109107    0.1222099 -42.31   0.00104575    1.686    0.407
       147  -9.5237     59.4390    146.6659   1.2204402077e+02   3.8480620008e+01    0.4215342      0.18139 -37.84  0.001417082    3.475    0.712
       148  -8.5886     47.9717    126.2436   1.2152740092e+02   4.4941467716e+01    0.1592204    0.1195004  27.99 0.0003389452    1.511    0.338
       149  -9.1512     94.0862    133.1223   1.0929790767e+02   3.6549480961e+01    0.2265445    0.1949485 -23.75 0.0003093468    1.277    0.217
       150 -10.6667    231.7491    116.3976   7.4593618235e+01   1.1529403105e+01     0.242963    0.2057764 -58.17 0.0008054047    1.043    0.041
       151 -12.2888      8.8922    112.3967   1.3106237128e+02   5.1758842446e+01    0.4363453    0.2957884 -58.00  0.001049921    1.161    0.138
       152  -9.4188    167.7687    112.8873   8.5465416309e+01   2.5914180986e+01     0.286138    0.1997716  85.92  0.001204478    2.015    0.504
       153 -11.9806    247.6715    142.4505   7.7530340918e+01   3.7416539643e+00    0.6024756    0.5677949  27.28  0.003385674    1.266    0.210
       154  -8.5358    203.3149    111.3660   7.8162449187e+01   1.8343294063e+01    0.1452926    0.1177779  -2.82 0.0007038885    1.770    0.435
       155  -8.9249     59.9680    108.0158   1.1376241692e+02   4.7741792997e+01    0.1680808    0.1493458 -41.36 0.0003199372    1.010    0.010
       156 -12.4833     14.5225    100.9422   1.2720540227e+02   5.3970507261e+01    0.4864112     0.297824 -42.45  0.001545716    1.405    0.288
       157  -8.3162     71.7112    100.2773   1.0802842352e+02   4.7799961188e+01    0.1306566    0.1123047  81.46 0.0002298995    1.518    0.341
       158  -9.9687    249.7099    117.9204   7.2279706633e+01   7.8631493458e+00    0.2969876    0.2200374 -41.91 0.0006095364    1.209    0.173
       159 -11.6226      2.2930     79.0517   1.2702264580e+02   5.9449509040e+01    0.7107014          nan -60.19  0.001839584    7.388    0.865
       160 -10.4660    169.3219    248.7544   1.1284397856e+02  -3.0108662830e+00    0.2730874    0.2020576  -1.72 0.0006448079    1.617    0.382
       161 -11.2472    170.1568    243.6822   1.1187080277e+02  -2.2452891570e+00    0.3384542    0.2267628  60.42  0.001001686    2.081    0.520
       162 -11.1403     73.9457    243.9348   1.3211522384e+02   1.3092270311e+01    0.4429852    0.2816083 -63.53  0.002247831    1.637    0.389
