#   1 NUMBER                 Running object number                                     
#   2 MAG_AUTO               Kron-like elliptical aperture magnitude                    [mag]
#   3 X_IMAGE                Object position along x                                    [pixel]
#   4 Y_IMAGE                Object position along y                                    [pixel]
#   5 X_WORLD                Barycenter position along world x axis                     [deg]
#   6 Y_WORLD                Barycenter position along world y axis                     [deg]
#   7 A_WORLD                Profile RMS along major axis (world units)                 [deg]
#   8 B_WORLD                Profile RMS along minor axis (world units)                 [deg]
#   9 THETA_WORLD            Position angle (CCW/world-x)                               [deg]
#  10 FWHM_WORLD             FWHM assuming a gaussian core                              [deg]
#  11 ELONGATION             A_IMAGE/B_IMAGE                                           
#  12 ELLIPTICITY            1 - B_IMAGE/A_IMAGE                                       
         1 -14.0429    184.8663     22.7876   2.8985547865e+02   6.3907830704e+00   0.08593187   0.04660046 -44.45  0.005782675    1.960    0.490
         2 -14.3077    192.4394     16.3111   2.8972646226e+02   6.4183815101e+00   0.09905974   0.07069805 -44.25  0.008091547    1.449    0.310
         3 -13.8424    197.8264      8.9614   2.8961789679e+02   6.4693692056e+00   0.06996928   0.04248429  -7.49  0.001404716    2.459    0.593
         4 -11.0372     33.0095      2.7123   2.9152824952e+02   7.5497975586e+00  0.009724743  0.009046599  23.44  0.001179078    1.053    0.051
         5 -12.0143    247.7095    240.9630   2.9044643588e+02   3.5053892688e+00   0.03036738   0.01324221  44.44  0.002477501    2.449    0.592
         6 -11.2255    151.0380    247.4856   2.9162407561e+02   4.0221615801e+00   0.02122286    0.0124383  40.29  0.002058915    1.680    0.405
         7 -12.0725    129.6120    233.6470   2.9179254396e+02   4.3118369041e+00   0.03607424   0.01769359 -82.57  0.002581548    3.685    0.729
         8 -11.6678    135.6691    249.6434   2.9181823211e+02   4.0913105862e+00   0.03925436   0.01015337  34.00  0.002690137    3.299    0.697
         9 -12.0667    146.1518    240.7017   2.9164046086e+02   4.1298446471e+00   0.02249606   0.01854648 -29.78 0.0007962162    1.299    0.230
        10 -11.7367    135.8140    241.1440   2.9176495420e+02   4.1879362188e+00   0.02263679   0.01448928  46.41  0.001542813    1.629    0.386
        11 -11.6309    134.5042    235.4138   2.9174561200e+02   4.2616806390e+00   0.01784243    0.0142836  54.15  0.002005501    1.329    0.248
        12 -10.1305    132.5849    230.7653   2.9174001531e+02   4.3267399027e+00   0.01206153  0.008361177  82.67  0.001186882    1.899    0.473
        13 -11.3892    136.0766    228.6172   2.9168582309e+02   4.3300521346e+00   0.02407415   0.01204164 -44.91  0.002121062    2.132    0.531
        14 -11.3897    121.4993    244.5116   2.9195407046e+02   4.2367253696e+00   0.02690595   0.01470959  58.19  0.002280563    2.508    0.601
        15 -12.5881    126.0413    240.3904   2.9187554431e+02   4.2562748203e+00   0.05870283   0.02035617 -62.25  0.004389558    2.952    0.661
        16  -9.8219    134.0757    217.8653   2.9164411746e+02   4.4656388568e+00   0.01062893  0.008722415  56.97 0.0005970746    1.307    0.235
        17 -10.0380    233.0697    216.1502   2.9046764111e+02   3.8794662525e+00  0.009961158  0.009646431  45.10 0.0006339359    1.038    0.037
        18 -11.6512    101.5506    212.5816   2.9199553067e+02   4.7249141020e+00   0.02711889   0.01937992  47.13  0.002888045    1.448    0.310
        19  -9.1033    220.1663    223.3778   2.9066350128e+02   3.8756646199e+00  0.009278925  0.005757635  39.92 0.0001046333    1.584    0.369
        20 -10.5839    182.7821    213.8921   2.9104600621e+02   4.2133335827e+00   0.01201341  0.009476318  26.73 0.0007695306    1.242    0.195
        21 -10.1378    151.5845    213.0236   2.9140832732e+02   4.4141563312e+00   0.01897587   0.01001831 -47.11 0.0008708345    1.950    0.487
        22 -14.2940     27.6076    234.7055   2.9300167286e+02   4.9215325432e+00   0.05435913   0.03921058 -48.13  0.003417138    1.406    0.289
        23 -10.5984    141.3769    212.5709   2.9152589116e+02   4.4817583445e+00   0.01319989   0.01126911  42.86 0.0008320976    1.168    0.144
        24  -9.1431    186.4340    210.4564   2.9098208899e+02   4.2303822713e+00  0.006609453  0.006416509  45.45 -4.688319e-05    1.036    0.035
        25 -13.4164     53.9845    227.9360   2.9264960736e+02   4.8387017804e+00   0.04363317   0.02710533 -34.15  0.003495479    1.896    0.473
        26 -16.8865     61.3745    215.3689   2.9248631267e+02   4.9379401459e+00     1.465191    0.6310485 -82.01   0.07874274    6.605    0.849
        27  -9.3197    134.6740    208.3468   2.9157924507e+02   4.5711928933e+00   0.01923777  0.008840727 -34.98  0.001428409    3.181    0.686
        28  -9.7780    167.1367    207.4125   2.9119093450e+02   4.3833938967e+00   0.01765435  0.009677027  68.09   0.00136337    3.157    0.683
        29 -11.0380     92.7889    205.5759   2.9205635517e+02   4.8587861800e+00   0.03060655   0.02344432  36.45  0.003406814    1.273    0.214
        30 -10.2662     89.1206    204.6508   2.9209401172e+02   4.8917865136e+00   0.01494515  0.009782196  43.90 0.0007026346    1.550    0.355
        31 -12.6017     41.3720    204.3411   2.9265549497e+02   5.1863554096e+00   0.03464179    0.0214734 -70.81  0.003392583    1.799    0.444
        32 -15.7674     25.9817    248.1434   2.9310208839e+02   4.7771561015e+00   0.07727516    0.0460955  14.14  0.007277138    1.933    0.483
        33  -9.7456    175.0068    205.4437   2.9108622372e+02   4.3578158385e+00     0.014444  0.009558032  16.60 0.0003293008    1.624    0.384
        34 -10.6417    171.5076    205.4262   2.9112734871e+02   4.3794314776e+00   0.01486221   0.01108318  86.55  0.001564507    1.642    0.391
        35 -11.1547    247.7551    205.3017   2.9022876333e+02   3.9137931630e+00   0.02662252   0.01397886   5.65  0.002073651    2.997    0.666
        36 -10.2481    126.2238    205.3896   2.9166090995e+02   4.6567617887e+00    0.0124075   0.01110458  48.47 0.0005985001    1.134    0.118
        37  -8.8803    114.3137    206.3094   2.9180694003e+02   4.7189648729e+00  0.006969485  0.005025361 -24.82 0.0007028781    1.629    0.386
        38  -8.7715    183.3222    205.6847   2.9098971887e+02   4.3041545570e+00  0.007048023  0.004987899  60.63 0.0007041408    1.661    0.398
        39  -9.5442    163.2526    205.0474   2.9122232439e+02   4.4342863033e+00  0.009142099  0.008851957 -43.24 0.0004715268    1.047    0.045
        40  -9.3462    148.0948    205.4884   2.9140366210e+02   4.5219402449e+00   0.01014925  0.006539509  25.03 0.0005619748    1.543    0.352
        41 -10.1078    107.4586    205.4535   2.9188258754e+02   4.7706472288e+00  0.006651334  0.006404066  44.77 6.840258e-05    1.042    0.041
        42 -10.7412    102.9881    203.3098   2.9192229929e+02   4.8225421078e+00   0.01476766    0.0116152 -31.34 0.0008620961    1.379    0.275
        43 -10.0131    169.8926    200.1110   2.9111405107e+02   4.4502791891e+00   0.00971841  0.009446873 -13.05  0.000347316    1.035    0.034
        44  -9.8936    133.1884    202.5695   2.9156165658e+02   4.6465581668e+00   0.01169694  0.009267946 -62.15 0.0004490643    1.291    0.225
        45 -11.1617     71.0732    202.1943   2.9229202134e+02   5.0300513778e+00   0.02156343   0.01094574  44.58  0.000381688    2.063    0.515
        46 -10.9843    197.1583    200.1440   2.9079301153e+02   4.2829742566e+00   0.01846808    0.0141475  21.62  0.001278657    1.309    0.236
        47 -10.0553    122.8212    200.9420   2.9167401401e+02   4.7285851057e+00   0.01187883  0.009587175  27.23 0.0006464185    1.212    0.175
        48 -10.8833    141.4878    198.3236   2.9143799922e+02   4.6445371639e+00   0.01775431   0.01224538 -17.93 0.0009646725    1.825    0.452
        49  -9.6036    250.6275    199.2189   2.9015790596e+02   3.9658907073e+00   0.01002599  0.005819066 -50.63 0.0009555173    1.724    0.420
        50  -9.1617    158.8044    199.3532   2.9124012412e+02   4.5268170642e+00  0.009230963  0.006291064  14.51  0.000254338    1.596    0.373
        51 -10.0267    166.9507    202.9415   2.9116593542e+02   4.4358158677e+00  0.009919904  0.009636863  63.14 0.0005342015    1.057    0.054
        52 -16.6464      9.5499    247.1113   2.9328960522e+02   4.8888931996e+00    0.2798329   0.08299647 -64.76   0.01439879    3.830    0.739
        53 -10.0852    118.9483    236.4599   2.9193529613e+02   4.3446885547e+00   0.01819474   0.01101224  81.72  0.001561072    2.595    0.615
        54  -9.7463    192.0003    197.9384   2.9084034620e+02   4.3398556811e+00  0.009883714  0.009756594  -6.51 0.0004590213    1.017    0.016
        55  -9.8648    173.0697    239.2452   2.9131452196e+02   3.9819826925e+00   0.01293929   0.00972973 -75.57 0.0008953646    1.473    0.321
        56  -9.7002     95.6800    196.8333   2.9196918608e+02   4.9414772941e+00   0.01089061  0.007882353 -43.12 0.0005528381    1.435    0.303
        57 -10.0373     79.4939    182.1415   2.9207097243e+02   5.2088554124e+00    0.0139676   0.01095754  37.36  0.001056171    1.247    0.198
        58 -12.0171     75.6259    194.4650   2.9219141548e+02   5.0910065479e+00   0.02353618   0.01746927 -37.58  0.002547381    1.440    0.305
        59 -12.0197     79.8315    187.5318   2.9209971215e+02   5.1449318910e+00   0.01774186   0.01323252 -31.73 0.0008904847    1.483    0.326
        60 -10.3357    113.4453    195.7969   2.9175333496e+02   4.8449002358e+00   0.01325193  0.007043359  37.71  0.001221354    1.810    0.448
        61  -9.0038    217.9738    194.9628   2.9051632180e+02   4.2148527140e+00  0.007730172  0.007450501  21.36 -0.001877172    1.016    0.016
        62 -11.1758    159.5807    193.8966   2.9119778558e+02   4.5846600647e+00   0.01999901   0.01239074  42.73 0.0009461645    1.624    0.384
        63  -9.5542    135.5173    195.0036   2.9148821454e+02   4.7191291755e+00  0.009506498  0.006644306 -63.03 0.0003490543    1.470    0.320
        64 -10.3258    177.6517    218.3225   2.9113338530e+02   4.1939187522e+00   0.01287518   0.01069903 -89.84 0.0008680606    1.357    0.263
        65 -10.2261     82.9550    193.6548   2.9210002052e+02   5.0556035827e+00    0.0196243   0.01033749  18.46 0.0007815376    2.137    0.532
        66 -10.1858    246.8027    218.0104   2.9031737673e+02   3.7739848312e+00   0.01016072  0.007430479  -3.61 0.0007502068    1.631    0.387
        67 -10.8164    191.5478    191.2808   2.9080514972e+02   4.4189717836e+00   0.01324055   0.01261758 -51.19  0.000594461    1.066    0.062
        68  -9.7769    174.8860    191.0896   2.9100031592e+02   4.5231872771e+00    0.0101196  0.008868853  57.22 0.0004221693    1.199    0.166
        69 -14.1594     45.4565    246.8118   2.9286441124e+02   4.6739514107e+00   0.06383431   0.04345167   4.02  0.006408146    1.766    0.434
        70 -10.9450     25.4441    191.4830   2.9276558648e+02   5.4308953007e+00   0.02188596  0.008214201  32.00  0.001737022    2.452    0.592
        71 -10.9857    250.1571    187.8427   2.9009410567e+02   4.0991449598e+00   0.01949253  0.007947107 -50.60  0.001588071    2.417    0.586
        72  -9.1655    101.9888    191.9258   2.9186496161e+02   4.9592839873e+00  0.007870307  0.007533824  22.57 0.0003712454    1.023    0.023
        73 -10.9947    155.5429    232.1903   2.9147813189e+02   4.1700808311e+00   0.01222641   0.01114875  22.21 0.0007486839    1.079    0.073
        74 -16.2525     96.6235    240.9331   2.9222557249e+02   4.4296120872e+00     1.687224    0.8608595  88.80    0.1125736    4.416    0.774
        75  -8.8804    137.9245    188.0000   2.9141725096e+02   4.7847637681e+00   0.01076651   0.00374534  27.44 0.0007732645    2.816    0.645
        76 -10.8664     20.6141    186.4653   2.9279220739e+02   5.5178760483e+00   0.02007163  0.008907982  43.80  0.001657486    2.363    0.577
        77 -10.1964     67.4381    186.1731   2.9223772370e+02   5.2361023340e+00   0.01229633  0.009006014  34.46 0.0005142482    1.323    0.244
        78 -10.2574     89.1479    184.2799   2.9197003156e+02   5.1254111644e+00   0.02119709    0.0112582  55.89 0.0005248507    2.504    0.601
        79  -9.8472    245.3213    184.3207   2.9012954431e+02   4.1691677935e+00  0.007063178  0.005013303 -25.06 0.0007044635    1.671    0.402
        80 -10.7289    115.9155    239.7855   2.9199121494e+02   4.3250457280e+00    0.0132632   0.01135218 -80.08 0.0004343733    1.264    0.209
        81  -9.0224    214.6698    180.3443   2.9046617621e+02   4.4026947813e+00  0.007207517  0.004973774  62.04 0.0007050634    1.753    0.429
        82  -9.6111    144.2065    180.3765   2.9129680595e+02   4.8338056545e+00  0.009906013  0.005715247  38.60 0.0009403628    1.684    0.406
        83 -10.0355    134.9873    180.2513   2.9140476897e+02   4.8916222181e+00   0.01296769   0.00861886  44.62  0.001189293    1.535    0.349
        84 -10.2489    129.0999    179.0158   2.9146669558e+02   4.9417903782e+00   0.01230746   0.01003351 -27.10  0.001027864    1.332    0.249
        85 -10.8476    181.8498    176.6835   2.9083054703e+02   4.6457655585e+00   0.01781245   0.01324407   9.28  0.001484555    1.476    0.322
        86 -10.2051    177.4493    173.9826   2.9086596598e+02   4.7036898574e+00   0.02190477  0.005475206  41.24  0.001363635    4.050    0.753
        87 -11.8880     87.4487    175.9655   2.9193958607e+02   5.2311991496e+00   0.02332453   0.01537847  -5.91  0.001497026    2.006    0.501
        88  -9.7220     95.8831    175.3158   2.9183610204e+02   5.1871718349e+00    0.0124296  0.008461195 -40.03 0.0008569995    1.574    0.365
        89 -11.4453     75.2627    173.7727   2.9207009817e+02   5.3307113229e+00   0.02366837   0.01324535 -44.80  0.001330173    1.882    0.469
        90  -9.4697    144.2551    175.0143   2.9126361110e+02   4.8950221939e+00   0.01276917  0.005752516  55.65 0.0008874041    3.560    0.719
        91  -9.5549     67.7180    174.2633   2.9216213532e+02   5.3710914385e+00   0.01118706  0.007943236 -66.84 0.0005303806    1.481    0.325
        92 -12.0155    248.4586    171.9921   2.9001745152e+02   4.2912060160e+00     0.025987   0.01699101  20.15  0.002633038    1.589    0.371
        93 -11.6729     36.5686    170.3045   2.9250587239e+02   5.6063076879e+00   0.01883634   0.01430071  49.91 0.0005002823    1.380    0.276
        94 -12.0560     30.8181    170.4786   2.9257483206e+02   5.6393121196e+00   0.02061929   0.01639078   9.86  0.002056874    1.335    0.251
        95 -10.7653    142.9030    229.1687   2.9160872150e+02   4.2820082039e+00   0.01135162  0.009776685 -65.41 0.0005475192    1.198    0.165
        96 -10.0560    100.1222    170.2198   2.9175510906e+02   5.2197671715e+00    0.0134171  0.007769411  30.11  0.001034082    1.662    0.398
        97 -12.5525     93.6460    166.9383   2.9181159713e+02   5.2969646599e+00   0.03454591   0.02319509 -30.94  0.002391777    1.744    0.427
        98 -11.3115     96.6850    159.3972   2.9172988805e+02   5.3649424668e+00   0.01804175   0.01014003 -48.30 0.0009862082    1.807    0.447
        99  -9.0559    122.5267    168.9532   2.9148304211e+02   5.0974206843e+00  0.009343668   0.00662033 -62.15 -4.615431e-05    1.443    0.307
       100 -10.9776    108.0371    168.3610   2.9165040780e+02   5.1927551641e+00   0.02463614   0.01136571  28.02  0.001239509    2.105    0.525
       101  -9.8101     58.9195    167.2553   2.9222346272e+02   5.5051593869e+00   0.01119495  0.009399545 -62.18 0.0005485376    1.218    0.179
       102 -10.2118    175.4470    165.9988   2.9084094531e+02   4.8075118407e+00   0.01517915  0.008269341  42.68  0.000876067    1.856    0.461
       103 -11.8239    240.3039    150.8336   2.8998437798e+02   4.5837113127e+00   0.02015407   0.01574393   6.17  0.002223379    1.399    0.285
       104 -11.4656    242.9903    154.3842   2.8997441392e+02   4.5265364793e+00   0.01856529   0.01259743  11.55  0.001880061    1.658    0.397
       105 -11.3748    247.9098    157.1157   2.8993316752e+02   4.4650416292e+00   0.02684893   0.01112153  30.54  0.002220951    2.273    0.560
       106 -12.1610    245.0991    161.8217   2.8999496222e+02   4.4283662309e+00   0.02261678   0.01348488 -55.43  0.002226762    1.664    0.399
       107 -10.4905    249.4812    160.5036   2.8993534142e+02   4.4165771533e+00   0.01263836   0.01087812 -19.92   0.00109473    1.246    0.197
       108  -9.4100    128.5163    165.5219   2.9139150578e+02   5.1001724543e+00  0.006659036  0.006439867  42.36 -4.274936e-06    1.035    0.034
       109 -10.5961     79.9240    164.2157   2.9195702563e+02   5.4119548193e+00     0.017608  0.009009426  49.83   0.00151069    2.282    0.562
       110 -12.2838    142.2186    221.2858   2.9156891258e+02   4.3766297864e+00   0.02331293    0.0182849 -78.82    0.0025869    1.418    0.295
       111 -10.2996    190.9328    227.9677   2.9103560231e+02   4.0020270596e+00  0.009772133  0.009598461  29.70 0.0003123706    1.013    0.013
       112  -9.7875    202.8345    161.3847   2.9049005351e+02   4.6926076789e+00   0.01433853   0.01002467 -15.79  0.001435398    1.792    0.442
       113  -9.0590    154.8245    161.8770   2.9105900352e+02   4.9810464439e+00  0.009343392  0.007620964  62.21  0.000542418    1.353    0.261
       114  -9.2948    171.3989    159.2318   2.9084745111e+02   4.9099086023e+00  0.008633862  0.006524271 -79.46 0.0002610622    1.501    0.334
       115 -10.8883    244.9925    226.3998   2.9038975481e+02   3.6889317026e+00   0.01564466  0.008094071  67.84  0.001085996    3.890    0.743
       116 -10.8241    164.3480    226.1227   2.9133752893e+02   4.1858390381e+00   0.01229327    0.0113699 -41.48 0.0004086219    1.098    0.089
       117  -9.7882    115.9095    157.2710   2.9149006265e+02   5.2718961700e+00   0.01113735  0.009471462 -57.65 0.0005233374    1.192    0.161
       118 -13.4594     43.1876    237.2228   2.9283315601e+02   4.7978364390e+00   0.02833314   0.02665375  34.35 0.0005337344    1.045    0.043
       119 -13.5451     25.2700    155.2054   2.9254772003e+02   5.8483827119e+00   0.03900328   0.01841666  32.15  0.002603375    1.995    0.499
       120 -12.0211     33.4518    153.9331   2.9244335715e+02   5.8131915270e+00   0.01526789    0.0144598 -35.72 0.0001276993    1.071    0.067
       121 -10.7147     72.5383    156.5759   2.9199780523e+02   5.5446847575e+00   0.02199188   0.01206653  18.25  0.001987883    2.030    0.507
       122  -9.8660    134.8100    155.4330   2.9125585829e+02   5.1774232043e+00   0.01300655  0.009364617 -50.90 0.0007857253    1.397    0.284
       123  -9.2732    124.8220    153.8390   2.9136400732e+02   5.2567890783e+00  0.009538061   0.00744643  52.75 0.0004228641    1.361    0.265
       124 -10.3660     62.4009    153.0387   2.9209602199e+02   5.6470968870e+00   0.01891468   0.01058187 -75.86  0.001677601    2.258    0.557
       125 -10.2574    113.8636    152.2138   2.9148344018e+02   5.3424191454e+00   0.01513064    0.0111685 -81.61 0.0009539363    1.575    0.365
       126 -11.4018    249.5146    149.6881   2.8986895520e+02   4.5402989204e+00   0.02291735   0.01531001 -79.51  0.002285123    1.806    0.446
       127 -11.1384    104.1791    150.8328   2.9158934633e+02   5.4174387635e+00   0.02053333   0.01334243 -34.34  0.001529448    1.769    0.435
       128 -10.1819    107.1791    145.9986   2.9152452440e+02   5.4545716606e+00   0.01655385   0.01072983 -29.86  0.001607096    1.866    0.464
       129  -9.0112     79.6177    152.4688   2.9188925935e+02   5.5486255746e+00   0.00657969  0.006327088 -29.71 7.652978e-05    1.053    0.050
       130  -9.0034    156.0303    218.2224   2.9138752786e+02   4.3273317995e+00  0.008439006   0.00541762  26.20 0.0002915964    1.536    0.349
       131  -8.7477    119.7122    151.3094   2.9140891250e+02   5.3170468722e+00  0.006814963  0.005038502  62.74 0.0002132182    1.576    0.365
       132 -10.3020     93.3211    150.5951   2.9171607896e+02   5.4864805351e+00   0.01404028   0.01127797   8.24  0.001572573    1.327    0.246
       133 -10.4378     82.4997    159.0741   2.9189537682e+02   5.4552425651e+00   0.01189934  0.009497814  23.80  0.000296082    1.239    0.193
       134 -12.4977     55.8571    149.5443   2.9215207734e+02   5.7270873849e+00   0.02277128   0.01739073 -44.98  0.002411408    1.341    0.254
       135 -10.7475     59.4970    145.4859   2.9208443205e+02   5.7514743867e+00   0.01225856  0.008869942  13.36 0.0007660562    1.485    0.327
       136 -10.1495    142.4520    147.9545   2.9112016713e+02   5.2164544796e+00   0.01675661   0.01442721  42.29  0.001967214    1.156    0.135
       137 -10.9463    134.0000    144.9986   2.9120189218e+02   5.3020686210e+00   0.02833586    0.0103614 -68.09  0.001991844    3.452    0.710
       138 -11.2848    133.0542    140.4666   2.9118545515e+02   5.3598385622e+00   0.01911473   0.01545731 -53.93  0.001142256    1.247    0.198
       139 -12.4963     58.6097    134.5638   2.9202853895e+02   5.8822139458e+00   0.03049177   0.02014915 -73.58  0.001912242    1.715    0.417
       140 -13.3821     67.7477    143.9708   2.9197777794e+02   5.7185513444e+00   0.03981258   0.03366819  69.10  0.004129363    1.312    0.238
       141 -12.8625     71.1531    138.7755   2.9190597775e+02   5.7573948113e+00   0.04500923   0.02782552  40.79  0.003195238    1.600    0.375
       142 -10.3548     88.9908    156.8799   2.9180541077e+02   5.4408030601e+00   0.01095464  0.009577136 -39.28 0.0003019338    1.173    0.148
       143 -10.8764    132.4081    224.6547   2.9170500213e+02   4.3979293437e+00   0.01312481  0.008462618  23.60 0.0007332409    1.560    0.359
       144 -10.7840    116.9604    224.3889   2.9188548718e+02   4.4953380300e+00   0.02145457    0.0132051  19.58  0.001403302    1.717    0.418
       145 -10.4584    105.0907    222.3583   2.9201310885e+02   4.5911082780e+00   0.01986267   0.01236992   2.32  0.001578896    2.124    0.529
       146 -12.2560     98.0764    221.8946   2.9209300344e+02   4.6392384070e+00   0.03665566   0.02237939  71.72  0.002838257    2.452    0.592
       147 -11.7437     91.0777    219.5536   2.9216133687e+02   4.7088083282e+00   0.02321625   0.01398358  60.43  0.001854757    2.175    0.540
       148 -10.5917    150.0033    222.2937   2.9148329031e+02   4.3174786551e+00   0.01160917   0.00946879 -56.08 0.0001801344    1.239    0.193
       149 -11.6988    248.3867    140.9718   2.8982903314e+02   4.6470906937e+00   0.04195544   0.01975549  10.19  0.003019236    3.457    0.711
       150 -12.3986    248.2654    134.2746   2.8978957740e+02   4.7245661010e+00   0.03544165   0.01996364 -58.66  0.003397671    1.772    0.436
       151 -10.0997    163.7759    221.4134   2.9131565173e+02   4.2433560088e+00    0.0106339  0.007967123 -53.51 0.0006474481    1.341    0.254
       152  -8.9509    194.2050    140.3635   2.9046358999e+02   4.9865075036e+00  0.009317519  0.005825177  37.82 0.0003569313    1.552    0.356
       153 -13.4090     44.6303    129.6381   2.9216376292e+02   6.0239274059e+00    0.0363207   0.02543657  79.26  0.002732425    1.864    0.464
       154 -12.7304     47.7332    137.9907   2.9217785212e+02   5.9091778631e+00   0.02862831   0.01725888 -21.06  0.002535697    2.364    0.577
       155 -10.5822     51.5257    137.5565   2.9213041182e+02   5.8910524331e+00   0.01193227  0.008412207 -59.97 0.0007441909    1.436    0.303
       156  -9.8381    119.4744    138.5027   2.9133376846e+02   5.4654146452e+00    0.0104546  0.008641317  10.88 0.0007129012    1.260    0.206
       157 -11.2195    113.6479    136.2232   2.9138866866e+02   5.5271822450e+00   0.01708378   0.01450761  26.02  0.001515561    1.154    0.134
       158  -9.1792     94.3511    135.4958   2.9161207220e+02   5.6534290556e+00   0.01359482  0.004120675 -48.52 0.0009288985    3.368    0.703
       159  -8.7987     82.6327    135.7445   2.9175196847e+02   5.7221230459e+00  0.006881126  0.005050294 -15.80 0.0003986571    1.634    0.388
       160  -9.5758     97.9877    134.3229   2.9156199365e+02   5.6446736604e+00  0.009176856  0.008292928  21.16 0.0003091147    1.091    0.084
       161  -8.8682    129.9902    131.9936   2.9117001094e+02   5.4757654068e+00  0.007735861  0.007666228 -39.99            0    1.028    0.027
       162  -9.6884    107.3523    130.7057   2.9142940577e+02   5.6289526334e+00   0.01439544  0.009420806 -87.78  0.001370902    2.028    0.507
       163 -12.2281     65.5608    126.8642   2.9189961079e+02   5.9281732646e+00   0.02848443   0.01979037  56.78  0.002933825    1.647    0.393
       164 -10.2624    118.9043    128.2366   2.9127798693e+02   5.5866573237e+00   0.01107758  0.007490964 -13.22  0.001068094    1.921    0.480
       165 -10.6433    143.8467    249.2887   2.9171973559e+02   4.0454210432e+00   0.02446602   0.01421967 -89.38  0.002061365    2.685    0.628
       166 -12.1915     37.5588    125.3073   2.9222100778e+02   6.1166928323e+00   0.01959917   0.01308256  81.00  0.001579651    2.057    0.514
       167 -10.4766    209.8132    125.6535   2.9018988664e+02   5.0593910461e+00   0.01243825   0.01076895 -40.53 0.0004250919    1.184    0.155
       168 -10.2003    159.5087    126.0098   2.9078522393e+02   5.3636990721e+00  0.009593758  0.005831828  82.24 0.0008105469    2.571    0.611
       169  -9.4883     85.5632    126.5672   2.9166152573e+02   5.8095225192e+00  0.009542935  0.006597397   9.53 8.843455e-05    1.640    0.390
       170 -11.3960    248.0072    121.3176   2.8971349627e+02   4.8745872838e+00   0.03295482   0.02137787  74.98  0.003079915    2.179    0.541
       171 -11.7261    248.4098    112.6346   2.8965571647e+02   4.9715760122e+00   0.02401611   0.01905834  -5.17  0.001808051    1.423    0.297
       172 -10.4402     50.6264    122.6817   2.9205063173e+02   6.0672102120e+00   0.01377424  0.008770584  60.86  0.001304453    1.982    0.495
       173  -9.0246    238.6324    121.7149   2.8982631806e+02   4.9276160371e+00  0.007051799  0.005044818 -19.46  0.000701931    1.698    0.411
       174 -10.0858    249.5204    117.4897   2.8967229892e+02   4.9091408666e+00   0.01184588   0.01074667 -77.67 0.0006141628    1.163    0.140
       175 -10.7933    130.8573    119.0996   2.9108121956e+02   5.6183396711e+00   0.01053119   0.01031146  41.27 0.0002473162    1.026    0.025
       176  -9.8490     85.6214    117.4901   2.9160559549e+02   5.9132953668e+00   0.01473655  0.008137032  53.74  0.001256114    2.228    0.551
       177  -9.2722    110.9689    222.5668   2.9194506657e+02   4.5528298129e+00   0.01040589  0.006447947  26.56  0.001022548    1.588    0.370
       178 -10.1844     70.4659    116.9629   2.9178143214e+02   6.0118441215e+00    0.0107956  0.009109082 -16.58 0.0005870712    1.288    0.224
       179 -10.2400    168.3060    113.1868   2.9060323761e+02   5.4568168869e+00   0.01684713   0.01069134  57.00  0.001338577    1.892    0.472
       180 -12.0488     60.9501    112.1702   2.9186471267e+02   6.1248673192e+00   0.02428604   0.01763826  59.28  0.002313735    1.578    0.366
       181  -9.8064    149.5247    111.5073   2.9081460300e+02   5.5911296436e+00   0.01089936     0.010724  33.12 0.0003453385    1.016    0.016
       182 -10.5176    102.6657    110.6041   2.9136234050e+02   5.8881610827e+00   0.01138788   0.01060619  60.84 0.0003376555    1.116    0.104
       183 -11.4242     70.0742    110.4695   2.9174654743e+02   6.0887222037e+00   0.01842538   0.01380849  30.82  0.001101778    1.295    0.228
       184  -9.2797     80.0070    108.9903   2.9162018264e+02   6.0450698700e+00   0.01059711  0.007697576  65.02 0.0005107051    1.648    0.393
       185 -10.6952    114.8336    107.1579   2.9119763849e+02   5.8532991022e+00   0.01010166  0.008869042  60.90 0.0002367456    1.211    0.174
       186  -9.2877     80.5436    117.4617   2.9166540721e+02   5.9446206214e+00  0.006673147  0.006386955 -12.96 1.720165e-06    1.057    0.054
       187 -10.8211    134.5034    104.9493   2.9095192108e+02   5.7582859179e+00    0.0177106  0.006569421 -61.65  0.001362849    2.729    0.634
       188  -9.2744     76.3707     99.0046   2.9160235008e+02   6.1817991024e+00  0.008953172  0.008484582 -58.90  0.001091865    1.077    0.071
       189  -9.9674     63.7993     98.1046   2.9174544296e+02   6.2688302048e+00   0.01022527   0.00883225  57.62 0.0006920539    1.225    0.184
       190 -11.3491    248.4743    100.0123   2.8957783104e+02   5.1157492162e+00   0.02696656   0.01618395 -42.59  0.002611771    1.785    0.440
       191  -9.0003    123.6882     89.3260   2.9098435421e+02   6.0035959758e+00  0.007027616  0.005010347  62.03 0.0004014121    1.662    0.398
       192  -9.1165    102.0165     87.9255   2.9123181353e+02   6.1521935506e+00  0.007727116  0.007585373 -55.98 0.0003550907    1.041    0.039
       193  -8.9712     99.8441     83.5702   2.9123092960e+02   6.2154065431e+00  0.008953897  0.005968013  40.18 0.0009097941    1.479    0.324
       194  -8.7218     68.2906     76.7197   2.9156211427e+02   6.4866614067e+00   0.00670859  0.004994249  59.71 0.0002160373    1.527    0.345
       195 -11.3429    248.2177    247.7454   2.9048172888e+02   3.4245540250e+00   0.01911065   0.01351231 -47.88   0.00203483    1.436    0.303
       196 -10.5057    204.9980    249.3126   2.9099976897e+02   3.6711996530e+00  0.009598408  0.008485566  25.59 0.0003431375    1.109    0.098
       197 -11.2765    152.2849    243.0616   2.9158253098e+02   4.0652887936e+00   0.01458505   0.01233242  68.35  0.001422617    1.309    0.236
       198 -14.9124     20.9349    238.4549   2.9310303996e+02   4.9190681137e+00   0.04386454      0.03506  69.18  0.004899833    1.433    0.302
