#   1 NUMBER                 Running object number                                     
#   2 MAG_AUTO               Kron-like elliptical aperture magnitude                    [mag]
#   3 X_IMAGE                Object position along x                                    [pixel]
#   4 Y_IMAGE                Object position along y                                    [pixel]
#   5 X_WORLD                Barycenter position along world x axis                     [deg]
#   6 Y_WORLD                Barycenter position along world y axis                     [deg]
#   7 A_WORLD                Profile RMS along major axis (world units)                 [deg]
#   8 B_WORLD                Profile RMS along minor axis (world units)                 [deg]
#   9 THETA_WORLD            Position angle (CCW/world-x)                               [deg]
#  10 FWHM_WORLD             FWHM assuming a gaussian core                              [deg]
#  11 ELONGATION             A_IMAGE/B_IMAGE                                           
#  12 ELLIPTICITY            1 - B_IMAGE/A_IMAGE                                       
         1 -15.1129    183.6068    145.7281   8.8327443943e+01   1.6779683084e+01     2.677378     2.009498 -24.68   0.01422013    1.455    0.313
         2 -13.4332     58.5301    101.9548   1.0985167874e+02   4.8357421596e+01     1.464021    0.9896535  81.80  0.007762923    1.763    0.433
         3 -13.7461      2.1972     70.9648   1.2248881636e+02   6.0259050021e+01     2.928363    0.2077685 -72.32  0.006399668   10.883    0.908
         4 -11.6968    148.6836     30.8179   6.3090174632e+01   4.4324802069e+01    0.3636399     0.252972  49.30  0.001725549    1.383    0.277
         5 -12.9257      2.3445     19.1816   1.1118005980e+02   7.1198340320e+01    0.8187512    0.2411887 -60.20  0.003813998    2.547    0.607
         6 -12.0466    207.9446     19.8632   5.0459276559e+01   3.0007859242e+01    0.3933131    0.2938406  20.34  0.001030129    1.625    0.385
         7 -12.9152    214.4742     12.0023   4.7507299923e+01   2.9160790975e+01     0.721213    0.6932768 -84.10  0.003151803    1.041    0.040
         8 -11.9020      6.9962      6.9742   1.0398999783e+02   7.3228894514e+01     0.318352    0.1650522 -25.55  0.001853261    1.957    0.489
         9  -9.9776     46.8897    191.0509   1.2356099423e+02   3.0834677807e+01     0.485438    0.2062961 -60.09   0.00264573    2.592    0.614
        10 -14.7929    243.8005    233.3381   9.3259256824e+01  -4.8141718260e+00     2.181897     1.018765 -22.79   0.01312887    2.449    0.592
        11 -11.7159    148.2396    247.3979   1.1060533980e+02   7.9116994786e+00    0.5073835    0.2382596  47.62   0.00220553    1.636    0.389
        12 -11.3549    141.2642    243.0969   1.1131884177e+02   9.4898290744e+00    0.4263048      0.35103  -4.22  0.002852507    1.801    0.445
        13 -12.8216    149.1024    239.5027   1.0960888163e+02   8.7821997747e+00     1.817851    0.7505592  55.60  0.008560168    2.990    0.666
        14 -13.1498    130.1796    245.7640   1.1344399410e+02   1.0764604612e+01    0.5445938    0.4587877  49.46   0.00292047    1.158    0.137
        15 -13.3301    120.1643    246.5640   1.1518626912e+02   1.2093362137e+01    0.7367192    0.4822848  41.84  0.003899863    1.234    0.189
        16 -11.4329    114.1317    236.5839   1.1527612700e+02   1.4344403982e+01    0.5117196    0.3419258  28.69  0.003377447    1.811    0.448
        17 -11.5285    103.3096    237.5511   1.1720947212e+02   1.5730603108e+01    0.6380411    0.4051998  52.07  0.004501595    1.175    0.149
        18 -12.7433     95.1773    247.5722   1.1939236777e+02   1.5393795538e+01    0.5901062    0.3310711  60.76  0.003281278    1.536    0.349
        19 -12.2988     85.6598    249.3257   1.2106963040e+02   1.6392018259e+01    0.6617783    0.1388375  43.23  0.003031802    3.145    0.682
        20 -11.8142     63.3531    250.3987   1.2469473900e+02   1.9007721258e+01    0.5748942    0.1082608  39.99   0.00252015    3.906    0.744
        21 -12.5424     71.4513    248.8181   1.2331493852e+02   1.8256594568e+01    0.9203604    0.3871256  68.61  0.005112973    2.795    0.642
        22 -11.8283     63.4706    245.7625   1.2439702496e+02   1.9676516843e+01    0.3242381    0.2108454  65.27  0.001757423    1.182    0.154
        23  99.0000     18.5757    210.1701   1.2986064796e+02   3.0355006655e+01     1.615626    0.7216821  63.24     0.010531    1.734    0.423
        24 -13.6970     40.1192    222.9754   1.2688089207e+02   2.5956450985e+01     1.835779    0.8005403  73.87   0.01087606    2.260    0.558
        25 -15.2332     38.5157    244.1363   1.2824131079e+02   2.2769707705e+01     1.439307    0.4809614  56.96  0.008599205    2.209    0.547
        26 -16.2862     16.2838    244.0681   1.3162955143e+02   2.5065123364e+01     1.844027    0.5328779  50.22   0.01157513    2.139    0.533
        27 -11.0623    183.3270    196.9507   9.7819202533e+01   8.9549313636e+00    0.3481221    0.2899746 -34.84  0.002305124    1.425    0.298
        28 -10.1650     18.7710    191.3748   1.2887255917e+02   3.3702176242e+01    0.2701636    0.1908624  42.88  0.001233281    1.477    0.323
        29  99.0000     26.4951    192.9711   1.2754049733e+02   3.2655621773e+01    0.6139327    0.2666219 -88.85  0.003549455    2.156    0.536
        30  99.0000     29.5163    186.6630   1.2657946445e+02   3.3530950550e+01    0.5597239    0.2399655  78.50  0.002994864    2.386    0.581
        31  -9.8720      1.5599    196.1077   1.3217215022e+02   3.4380055254e+01    0.1400282   0.07586223 -86.43 0.0007487949    1.522    0.343
        32 -12.8331     95.8943    210.4702   1.1599582732e+02   2.1024871337e+01     1.877689     1.480838  87.49   0.01092221    1.291    0.225
        33 -10.5314    164.0476    224.4815   1.0523601470e+02   8.4238126936e+00    0.6809584    0.4472276  22.83  0.004179721    1.745    0.427
        34 -12.3453    208.6609    181.3742   9.0580163576e+01   6.6056824444e+00    0.7514588     0.449397 -12.89  0.003799866    2.184    0.542
        35 -12.8702     26.3667    153.9977   1.2483301305e+02   4.0330725399e+01     1.270399    0.9320948 -33.67   0.00824554    2.195    0.544
        36 -11.5496     12.2681    178.9710   1.2941279544e+02   3.6630876881e+01    0.8878767    0.6891356 -82.74  0.005933376    1.284    0.221
        37 -11.5931     18.6164    169.6885   1.2761350494e+02   3.7867181278e+01     0.729467    0.2761019  71.55  0.003552959    2.810    0.644
        38 -14.9228     12.5711    139.9450   1.2680911921e+02   4.4478616966e+01     1.797981     1.176074 -89.89  0.009521702    1.210    0.173
        39 -13.0753     28.8579    139.2630   1.2294456983e+02   4.3213156085e+01    0.6957799    0.4545585  83.84  0.003066485    1.331    0.249
        40 -13.4607     38.4268    134.5448   1.2013389578e+02   4.3299256224e+01     1.009059    0.6853377  53.86  0.004698812    1.431    0.301
        41 -12.1058    177.4519    182.9932   9.6617935526e+01   1.2028741055e+01    0.5528747    0.5219982  62.85  0.003685615    1.229    0.186
        42 -12.0785    148.7021    183.7973   1.0234618176e+02   1.7068535628e+01    0.7103356    0.3742014  39.52  0.003539701    1.700    0.412
        43 -10.4714     67.6068    185.2590   1.1897834280e+02   2.9416616520e+01    0.2234547     0.164705 -62.07 0.0009702317    1.541    0.351
        44 -11.4884     60.6642    179.2315   1.1980668436e+02   3.1457667700e+01     1.132637    0.4127952  39.77  0.005517032    2.449    0.592
        45 -12.8335     75.7009    123.8133   1.0906263508e+02   4.1143038248e+01    0.7941503    0.5891895 -32.78  0.004326059    1.807    0.446
        46 -13.3641     99.6779    173.3502   1.1094210123e+02   2.7163694456e+01     1.733107    0.8988487  49.12  0.008882222    1.719    0.418
        47 -13.3532     84.2700    134.3519   1.0866570097e+02   3.7569448043e+01     1.096422    0.9582638 -52.15  0.004910983    1.259    0.206
        48 -11.3986     74.6910    177.5777   1.1673362483e+02   2.9962711353e+01    0.4561296    0.2451223  31.65  0.001882058    2.211    0.548
        49 -14.0818     70.8526    165.6210   1.1620323193e+02   3.2859416404e+01     1.135096    0.7584149  83.87  0.001542519    1.485    0.327
        50 -14.3775    199.7942    164.4659   8.9019335223e+01   1.0629752752e+01     2.335609     1.288532 -22.25   0.01078479    2.296    0.565
        51 -10.4169    171.7983    237.1941   1.0549794894e+02   5.6047828547e+00    0.3725225    0.1224487  45.99  0.001758098    2.450    0.592
        52 -12.5881    147.7395    166.5155   9.9695533807e+01   2.0216469596e+01    0.8492569    0.6498575  25.64  0.004269749    1.451    0.311
        53 -13.4079    143.9075    160.5080   9.9443229962e+01   2.2012017996e+01     1.137308    0.8249945 -17.45  0.005769271    2.032    0.508
        54 -11.4363    163.0324    180.7475   9.9025321266e+01   1.5000815548e+01    0.5117095    0.4127721  31.86  0.003125428    1.165    0.142
        55 -10.2891     27.3625    165.6844   1.2554000169e+02   3.7844084705e+01    0.2617577    0.1888085  83.46  0.001382043    1.098    0.089
        56 -11.5941     54.3691    160.6470   1.1927666032e+02   3.5961068176e+01    0.6734673    0.4948623 -46.89  0.003724026    1.798    0.444
        57 -10.0034     49.2057    159.4177   1.2029098045e+02   3.6819098019e+01    0.2246027    0.1515674  81.53  0.001068657    1.329    0.247
        58 -11.3505    101.8833    160.8832   1.0869910567e+02   2.9269588489e+01    0.4305714    0.3533337  79.16  0.002646534    1.179    0.152
        59 -10.9152     87.1566    161.3533   1.1205536783e+02   3.1439236789e+01    0.1834002    0.1520078  36.20 0.0005389695    1.355    0.262
        60 -13.4465     71.1571    144.7733   1.1347161956e+02   3.7181719990e+01     1.421602    0.8329719 -80.04  0.007388171    1.803    0.445
        61 -14.1585    132.5117    144.3437   9.8948156568e+01   2.7226240997e+01     1.909626     1.234309 -58.13  0.009432168    1.710    0.415
        62 -14.0640    162.9925    124.4533   8.7888066403e+01   2.4864586103e+01     1.354937     1.089271 -51.20  0.007048072    1.345    0.257
        63 -11.9551    140.0206    169.3816   1.0179370393e+02   2.1114776872e+01    0.6592813    0.5419002  82.25  0.003896399    1.397    0.284
        64 -11.4809     89.7761    144.4187   1.0896043128e+02   3.4569008713e+01    0.2730275    0.2291475 -81.63 0.0004291711    1.135    0.119
        65 -11.4803     85.3572    115.9310   1.0503128339e+02   4.1461516491e+01    0.6494234    0.3446687 -76.44  0.002603085    2.748    0.636
        66 -11.4101    150.1864    224.2924   1.0765523097e+02   1.0647769010e+01    0.4772501    0.4105786  47.66  0.002947082    1.113    0.101
        67 -13.1672     31.9026    103.8692   1.1793926646e+02   5.0773764134e+01    0.9684009    0.8056218  42.92  0.005571031    1.372    0.271
        68 -12.7638     39.2536    100.4725   1.1527165238e+02   5.0843444013e+01    0.7502214    0.3902077 -60.00  0.003836289    1.621    0.383
        69 -11.1182     78.6213    100.8844   1.0377623681e+02   4.5849854299e+01    0.3395155    0.2500022  51.65   0.00184798    1.444    0.308
        70 -12.5200    158.5897    208.4904   1.0408454063e+02   1.1527548640e+01     0.916857    0.5322027 -53.36  0.005200698    2.236    0.553
        71 -10.7413     99.0851    129.4534   1.0408046008e+02   3.6287328147e+01    0.2676728    0.2386349 -12.69  0.001098766    1.446    0.308
        72 -12.4785     44.4065    106.4296   1.1473461982e+02   4.8961697434e+01      1.27554    0.6488674 -47.62   0.00633641    2.092    0.522
        73 -12.6643    191.9635     34.3473   5.6874398862e+01   3.2488438094e+01    0.5062503    0.3660468  35.03  0.001884508    1.538    0.350
        74 -12.4609    199.6898     28.6978   5.4085105352e+01   3.1150266830e+01    0.6140512    0.4077774 -40.82   0.00294584    1.476    0.323
        75 -15.1423    127.7607    214.3467   1.1051501408e+02   1.5627756918e+01     2.679303     1.585556  35.78   0.01512493    1.605    0.377
        76 -10.8702      1.8823    212.6378   1.3274475894e+02   3.1466281663e+01    0.1827833   0.09882769  77.20 0.0008783143    1.380    0.275
        77  99.0000     61.2221    192.8711   1.2094011556e+02   2.8791384992e+01    0.7218551    0.3790824 -76.48  0.004276729    1.907    0.476
        78 -12.4276     52.4627    200.8951   1.2325415876e+02   2.8378730673e+01     1.164307    0.4410568 -73.20  0.006165389    2.650    0.623
