#   1 NUMBER                 Running object number                                     
#   2 MAG_AUTO               Kron-like elliptical aperture magnitude                    [mag]
#   3 X_IMAGE                Object position along x                                    [pixel]
#   4 Y_IMAGE                Object position along y                                    [pixel]
#   5 X_WORLD                Barycenter position along world x axis                     [deg]
#   6 Y_WORLD                Barycenter position along world y axis                     [deg]
#   7 A_WORLD                Profile RMS along major axis (world units)                 [deg]
#   8 B_WORLD                Profile RMS along minor axis (world units)                 [deg]
#   9 THETA_WORLD            Position angle (CCW/world-x)                               [deg]
#  10 FWHM_WORLD             FWHM assuming a gaussian core                              [deg]
#  11 ELONGATION             A_IMAGE/B_IMAGE                                           
#  12 ELLIPTICITY            1 - B_IMAGE/A_IMAGE                                       
         1 -13.7731    227.5321      3.7400   3.6516000897e+01   2.7751482810e+01     1.847412    0.8315061  57.25  0.004551297    2.342    0.573
         2 -14.0456    184.1849     46.9312   5.2975316046e+01   3.3153798286e+01     1.925775     1.220064  26.73  0.001010026    2.275    0.561
         3 -14.1050    194.7433     38.4509   4.8959540955e+01   3.1648811520e+01     1.447364     1.155034 -32.04  0.003374894    1.293    0.226
         4 -14.6570    203.8246     28.4903   4.5048670507e+01   3.0651177655e+01     1.708718     1.344514  30.81  0.001440823    1.599    0.375
         5 -12.0098     60.2371      2.9509   6.6085316590e+01   6.6729111339e+01    0.4658107     0.154054  44.16  0.002036222    2.672    0.626
         6 -10.6350     28.9960      2.0000   7.9146085566e+01   7.1486286941e+01    0.1724211   0.05930544  35.68 0.0007215321    2.955    0.662
         7 -11.7514    207.7510    194.8904   8.5027750621e+01   1.9349493362e+00    0.3631306    0.3031493 -18.99  0.001829234    1.185    0.156
         8 -12.0322    139.3495    248.3453   1.0663251715e+02   4.9635929011e+00     0.430227    0.3755755 -36.86  0.003074247    1.465    0.317
         9 -16.8211     72.0134    149.9075   1.0776302673e+02   3.5432399689e+01     23.68493     11.42943  86.09   0.01538493    5.511    0.819
        10 -10.2996    204.3757    176.2576   8.2013792274e+01   5.6317373682e+00    0.3705753    0.2602627 -46.71  0.001891797    1.619    0.382
        11  -9.5389    188.4541    175.2389   8.5016506800e+01   8.8443323427e+00    0.1901125    0.1376662 -50.20 0.0006395001    1.585    0.369
        12 -11.0505    230.3793    166.7448   7.5115131699e+01   2.4176687521e+00    0.3157393    0.1595529 -46.61  0.001348204    2.388    0.581
        13  -9.9412    159.6797    163.3692   8.8782613688e+01   1.6827840790e+01    0.2243857    0.1786422  85.38  0.000946708    1.689    0.408
        14 -11.6038    141.1187    174.6306   9.5218309678e+01   1.8109509470e+01    0.7059671    0.4653277  87.98  0.002883898    2.653    0.623
        15 -10.2648    236.5098    158.4754   7.2259538551e+01   2.6415281463e+00    0.1393102    0.1199578  -8.02 -2.698902e-05    1.019    0.019
        16 -12.3172     91.9777    154.0645   1.0334203288e+02   3.1442478755e+01    0.6860328    0.4884998 -24.27  0.003213146    2.113    0.527
        17 -15.5820     11.0166    206.4467   1.2702457069e+02   2.9740602666e+01    0.6109787    0.5664548  38.75   0.00337154    1.555    0.357
        18 -11.6435    133.8398    144.8887   9.0942286067e+01   2.5998480900e+01     1.227147    0.3293104 -54.71  0.003003402    5.382    0.814
        19  -9.4096    139.4273    150.5068   9.0793527982e+01   2.3633160872e+01    0.1482396    0.1465322  84.25 0.0001751487    1.011    0.011
        20 -10.8158    174.4232    148.6863   8.2303110436e+01   1.6782296564e+01    0.3424276    0.2976395 -80.49  0.001431532    1.421    0.296
        21 -10.8316    143.8888    146.2651   8.8793233330e+01   2.3664200062e+01    0.4580656    0.2171244 -58.69  0.001576227    2.817    0.645
        22 -10.5687     86.3431    145.3600   1.0324417548e+02   3.4404390883e+01    0.2788389    0.2177823  74.22 0.0003393985    1.376    0.273
        23 -11.2711    104.7511    139.2186   9.7181691149e+01   3.2805452223e+01    0.5714937    0.3753648 -29.41   0.00245963    2.099    0.524
        24 -12.3383     92.3734    139.4581   1.0052648118e+02   3.4855692592e+01    0.2820013    0.2521381 -51.41 0.0006834605    1.131    0.116
        25 -16.7141     50.2858    202.8488   1.1919117671e+02   2.6268143296e+01     8.190771     2.211516  55.79   0.02761921    4.738    0.789
        26 -11.1219    113.6929    129.9541   9.2780494220e+01   3.3350608519e+01    0.5063946    0.3353381  29.89  0.002246554    1.752    0.429
        27 -11.1430    135.8067    127.5340   8.6439344816e+01   2.9496029211e+01    0.6188748    0.2094071 -50.74  0.001886853    3.172    0.685
        28 -10.5782    135.0000    120.4207   8.4878465600e+01   3.1254913262e+01    0.4479136     0.156736 -47.91  0.001412444    2.862    0.651
        29 -10.8855    105.9331    130.7812   9.5054498712e+01   3.4589953904e+01    0.3715204    0.3175764 -68.71  0.001162653    1.169    0.145
        30 -10.3092    160.8074    127.8952   8.0447111614e+01   2.4022576117e+01    0.3691751     0.211358 -49.85  0.001479561    1.834    0.455
        31 -11.2358    100.1618    126.4620   9.5672063141e+01   3.6641478946e+01    0.4517092     0.282871 -29.91  0.001551461    2.186    0.542
        32 -11.5365    119.6731    123.4802   8.9656597431e+01   3.3698800455e+01    0.5684787    0.4010493  -9.96  0.002350264    2.219    0.549
        33 -10.2213    108.9543    119.0112   9.1491838460e+01   3.6800081657e+01    0.2195799    0.2121384 -58.20 0.0003290217    1.009    0.009
        34  -9.2948    114.3040    118.2944   8.9840167571e+01   3.5945528242e+01    0.1515561    0.1214736 -11.38 0.0006995582    1.578    0.366
        35 -15.7182     47.2781    221.3250   1.2130279424e+02   2.2893949750e+01     2.249769      1.19639  81.54  0.009685898    1.852    0.460
        36  -9.9522    167.4548    112.3820   7.4939742047e+01   2.5736504224e+01    0.3365821    0.2627697 -78.30  0.001509196    1.692    0.409
        37 -10.4615    134.7162    104.5054   8.0739181731e+01   3.4811356618e+01    0.7617044    0.1942041 -41.79   0.00203401    3.968    0.748
        38 -11.7170    118.2611    109.9604   8.6623363334e+01   3.7069300984e+01    0.6743122    0.4445405  57.10  0.002797303    1.784    0.439
        39 -12.1737     18.3633    111.1378   1.1664825143e+02   5.0549250674e+01    0.3015271    0.2553002  74.90  0.001456945    1.261    0.207
        40 -10.2557    205.4067    110.1010   6.6556130370e+01   1.7427639870e+01    0.3147975    0.2273187  43.10 0.0007905433    1.463    0.316
        41 -10.3124     81.7716    194.8831   1.1174261333e+02   2.3762336949e+01    0.2605249    0.2229197  62.49 0.0006746279    1.066    0.062
        42 -14.2902     60.3536    189.4252   1.1576304120e+02   2.7883932757e+01      1.24828     1.075779 -49.81   0.00811391    1.473    0.321
        43 -10.8524    146.4400    182.7241   9.5503273306e+01   1.5449919391e+01    0.2746716    0.2463962  37.27 0.0007001363    1.061    0.057
        44 -10.9424     42.9471    179.1891   1.1850041848e+02   3.2261980510e+01    0.2613088    0.1963011  85.95  0.001264218    1.118    0.105
        45 -11.9034     47.4769    173.2992   1.1687000395e+02   3.3073113811e+01    0.4614048    0.4306055  68.67   0.00207274    1.222    0.182
        46  -9.6035    156.7971     81.1989   6.8568967213e+01   3.4393749537e+01    0.2172365    0.1856794   9.81 0.0005617453    1.332    0.249
        47  -9.6235    184.3526     77.0722   6.1641731725e+01   2.8353165350e+01    0.2214001    0.1922668 -37.01 0.0005427998    1.129    0.114
        48 -18.2177      7.8311    240.1688   1.2924391853e+02   2.3634403247e+01     7.110015     1.718413 -77.95   0.02720092    3.624    0.724
        49 -16.5229     42.3712    249.6789   1.2409340137e+02   1.8241779512e+01     3.622859     1.047341  31.30   0.01228993    6.987    0.857
        50  -9.5102     94.0315    250.2277   1.1515328512e+02   1.1436015024e+01    0.1654616    0.1173217  52.33 0.0004621669    1.096    0.088
        51 -10.3677    152.3075    197.1965   9.6750172569e+01   1.1551933382e+01    0.2519714    0.2479109   3.96  0.001437861    1.100    0.091
        52 -10.9121    113.4223    207.6560   1.0661178403e+02   1.6235571575e+01    0.2953429    0.2133918  68.29  0.001431928    1.445    0.308
        53 -11.2269    152.2694     55.3286   6.1523625258e+01   3.9977676994e+01    0.4523801    0.3073227 -79.69 0.0004609542    2.208    0.547
        54 -10.8267    154.6155     49.4030   5.9121418812e+01   4.0298675278e+01    0.3066907    0.2581424 -78.82  0.001570732    1.359    0.264
        55 -12.0417     53.3292    171.2978   1.1529947131e+02   3.2834467501e+01    0.7663976    0.2609825 -60.26  0.002347507    2.600    0.615
        56 -11.4117     32.8476     15.5705   8.4217487853e+01   6.9160252260e+01    0.1997377    0.1272186 -35.99  0.001223346    1.440    0.306
        57  -9.8577    189.7751     15.0844   4.3081101336e+01   3.5687645385e+01    0.2088438    0.1705448 -65.39 0.0005955904    1.194    0.163
        58 -10.9830    133.6333    172.0958   9.6469908490e+01   2.0050524931e+01    0.3441941     0.209415  41.50  0.001471292    1.575    0.365
        59 -12.6546    196.5607    198.3419   8.7854996389e+01   3.3542752950e+00     1.204806    0.9681507  79.42  0.006457572    2.039    0.510
