#   1 NUMBER                 Running object number                                     
#   2 MAG_AUTO               Kron-like elliptical aperture magnitude                    [mag]
#   3 X_IMAGE                Object position along x                                    [pixel]
#   4 Y_IMAGE                Object position along y                                    [pixel]
#   5 X_WORLD                Barycenter position along world x axis                     [deg]
#   6 Y_WORLD                Barycenter position along world y axis                     [deg]
#   7 A_WORLD                Profile RMS along major axis (world units)                 [deg]
#   8 B_WORLD                Profile RMS along minor axis (world units)                 [deg]
#   9 THETA_WORLD            Position angle (CCW/world-x)                               [deg]
#  10 FWHM_WORLD             FWHM assuming a gaussian core                              [deg]
#  11 ELONGATION             A_IMAGE/B_IMAGE                                           
#  12 ELLIPTICITY            1 - B_IMAGE/A_IMAGE                                       
         1 -14.5053    160.7364     55.2499   7.5432819895e+01   3.7989685220e+01     1.649363      1.40057  23.49  0.004243184    1.191    0.160
         2 -14.6639    173.8118     39.9650   6.7843453481e+01   3.6786789614e+01     1.250244     1.050786  13.27   0.00405597    1.260    0.206
         3 -14.2289    190.0594     12.2382   5.6586913935e+01   3.5665443655e+01    0.9884724    0.5879065  77.10  0.003105263    1.720    0.418
         4 -14.4547    191.4476      5.4696   5.4360197815e+01   3.5933492766e+01     3.487619    0.4694831  68.32  0.009083122    5.389    0.814
         5 -10.1853    166.4312    233.9324   1.1343885228e+02   6.8217677173e+00    0.1811857    0.1656953 -33.23 0.0007992371    1.445    0.308
         6 -12.4727    248.8000    249.7213   1.0143303232e+02  -6.3689580721e+00    0.4331388    0.2233395  38.70  0.002806846    1.846    0.458
         7 -18.3309     68.4422    234.9895   1.3160832812e+02   2.0030525319e+01     7.258988     5.587282  81.64   0.04707703    1.312    0.238
         8 -11.0973     31.5488    207.2689   1.3667517275e+02   2.8703736042e+01    0.1451999   0.08809078  15.87  0.000872231    2.602    0.616
         9 -12.5396    152.2867    192.2345   1.1037156126e+02   1.5104683467e+01    0.3729261    0.3149213  87.42  0.001647955    1.644    0.392
        10 -11.8429     36.7485    183.8901   1.3421016821e+02   3.2584313852e+01    0.1663739    0.1387499  66.38 0.0006508957    1.069    0.065
        11 -10.1080     27.3130    179.8573   1.3591364283e+02   3.4273321732e+01    0.2303975    0.1373783  18.20   0.00138512    2.307    0.566
        12 -10.9736     17.5709    180.6043   1.3796766533e+02   3.4980033485e+01    0.1024474   0.08611607  79.16 0.0007938585    1.129    0.114
        13 -11.6138    204.6230    176.5167   9.7072750074e+01   8.4581615481e+00    0.4006294    0.2897366 -40.75  0.001638579    1.704    0.413
        14 -11.9904    203.4373    166.5338   9.5360369919e+01   1.0114631598e+01    0.5788287    0.4085857   8.16  0.002674037    1.435    0.303
        15 -11.9338    167.4957    175.5265   1.0438532775e+02   1.5221664318e+01    0.4576068    0.3143266 -77.15  0.002004095    3.182    0.686
        16  -9.5233    198.5372    177.5216   9.8440483836e+01   9.3829683224e+00    0.1335105    0.1125658  20.13 3.760854e-05    1.057    0.054
        17 -11.5357    230.1678    166.4526   9.0371975059e+01   5.3905959641e+00    0.2921342    0.1686716 -45.27  0.001394114    2.543    0.607
        18 -12.2232    193.6168    166.2873   9.7250095595e+01   1.1946686229e+01    0.3498781    0.3049915 -21.16 0.0007150361    1.234    0.190
        19 -11.5689    190.0321    160.8486   9.6887103900e+01   1.3461253593e+01    0.3276913    0.2964457  46.63 0.0009350671    1.309    0.236
        20 -11.9855    189.5930    155.5335   9.5886886208e+01   1.4393150507e+01    0.4575567    0.3732199  25.16  0.001471075    1.083    0.077
        21 -10.3495     25.6745    165.3595   1.3530637764e+02   3.7352187970e+01    0.2279285    0.1212434  28.55   0.00133643    2.049    0.512
        22 -10.9839    140.5969    163.3987   1.0812680208e+02   2.2173448653e+01     0.249312    0.2038848  86.53 0.0008329463    1.631    0.387
        23 -12.2564    160.4144    198.6673   1.0969130315e+02   1.2738169309e+01    0.5613446    0.4109527  72.87  0.002065423    2.223    0.550
        24 -12.9672    134.0302    146.2151   1.0644623340e+02   2.6687937891e+01     1.293438    0.3386922 -54.43  0.003273861    6.363    0.843
        25 -11.3017    166.1046    154.1210   1.0059787303e+02   1.9141345696e+01    0.3755163    0.2530239  64.84  0.001684223    2.267    0.559
        26 -12.2358    153.3024    200.9891   1.1148215016e+02   1.3540470853e+01    0.3155191    0.2558634 -16.32  0.001489991    1.465    0.317
        27 -10.8410    174.2940    148.6918   9.7677925768e+01   1.8504838374e+01    0.3081232    0.2702343 -76.12  0.001121923    1.591    0.371
        28 -12.5110    144.4011    146.2422   1.0396202295e+02   2.4747731405e+01     0.472195    0.3541396 -81.36  0.002255838    2.035    0.509
        29 -12.6066    103.3945    136.8047   1.1239889987e+02   3.4000655054e+01    0.2887785    0.2601213  45.73 0.0003655424    1.077    0.071
        30 -12.7825    106.4132    130.9246   1.1046393817e+02   3.4782673204e+01    0.4832437    0.3849774  60.09  0.001508926    1.348    0.258
        31 -12.6641    135.4273    124.4441   1.0145123003e+02   3.0838539839e+01     1.201506    0.2452405 -49.34  0.002849576    6.181    0.838
        32 -12.0340    118.7989    128.6125   1.0669291776e+02   3.3114943515e+01    0.3501602     0.291151 -19.64  0.000697617    1.382    0.276
        33 -12.2527    122.0966    123.1768   1.0463206296e+02   3.3666327449e+01    0.5400959    0.3400351  -3.41  0.001959316    3.236    0.691
        34 -11.5550    160.6888    127.6806   9.6044918847e+01   2.5067008876e+01    0.4052899    0.3215776 -64.38  0.001455228    1.665    0.399
        35 -11.6178    107.4110    124.3256   1.0884399302e+02   3.6058894511e+01    0.2861329     0.246978 -18.13 0.0007215762    1.318    0.241
        36 -11.0394    113.4471    118.4698   1.0590929839e+02   3.6273379128e+01    0.3000686    0.2530509 -80.93  1.43616e-05    1.397    0.284
        37 -11.2032    168.3896    113.3060   9.0741874925e+01   2.6098035869e+01    0.3949758    0.3183437  89.61  0.001100875    1.846    0.458
        38 -10.9941    135.0000    112.0000   9.8570110918e+01   3.3481655257e+01    0.5043868    0.1690209 -46.24  0.001624119    3.104    0.678
        39 -11.0649    134.6864    105.5229   9.6993828693e+01   3.4875465605e+01     0.530336     0.158808 -42.30  0.001605868    3.405    0.706
        40 -12.0160    117.4761    109.3932   1.0265342382e+02   3.7493220325e+01     0.356776    0.2538113  62.67  0.001632773    1.777    0.437
        41 -11.5191     94.4416    111.0674   1.0965566173e+02   4.1195911403e+01    0.2816803    0.2176393  34.84 0.0006510766    1.331    0.248
        42 -10.2108    130.5197    109.4851   9.9119088518e+01   3.4912636091e+01    0.1510919    0.1442611   8.01 4.537118e-05    1.021    0.020
        43 -10.7205    205.5093    110.2604   8.2241366817e+01   1.8445989681e+01    0.3137505    0.2202872  35.92 0.0008274692    1.400    0.286
        44 -10.7954    167.9390    229.8748   1.1263892726e+02   7.1206528068e+00    0.1738172      0.16403 -15.50 0.0003989994    1.355    0.262
        45 -19.1714     48.3810     99.1158   1.2154892826e+02   5.0140447828e+01     16.62984    0.9741127 -64.20   0.02715222   15.189    0.934
        46 -12.3811    141.4869    188.2132   1.1203059288e+02   1.7569177349e+01    0.4399321    0.2397514 -42.52  0.002211539    2.171    0.539
        47 -10.1165    148.5004     80.9506   8.6461424986e+01   3.6625033339e+01    0.2338333    0.1531112 -34.33 0.0005782163    1.531    0.347
        48 -11.4818     88.1475     77.9614   1.0319545583e+02   4.9661561719e+01    0.3103435    0.2080825  40.46  0.001109345    1.574    0.365
        49 -11.1002    113.0630     76.2874   9.4738628677e+01   4.5357204234e+01    0.5781356    0.2982044  56.82   0.00209103    2.738    0.635
        50 -11.1410    172.6181    189.0335   1.0566801697e+02   1.2172927024e+01    0.2183386    0.1611859  43.68 0.0009057437    1.300    0.231
        51 -12.4922    248.5130    245.4764   1.0086349764e+02  -5.9665721793e+00    0.3073412    0.1949212   9.53  0.001949062    1.220    0.180
        52 -10.7940     13.5490     59.5061   1.2690639525e+02   6.2126899936e+01     0.228686    0.1660646 -55.12 0.0005625019    1.108    0.098
        53 -13.0153    177.8156     33.1462   6.4942721922e+01   3.6599608744e+01    0.4566906    0.3724805  22.70 0.0009498552    1.307    0.235
        54 -10.4817    123.6556     25.9082   7.3314028411e+01   5.1511284365e+01    0.2575857    0.2084865  61.47 0.0003560942    1.314    0.239
        55 -11.7061    150.0491    240.0045   1.1717135620e+02   8.4301468627e+00    0.1747673    0.1650534 -21.44 0.0006481965    1.377    0.274
