#   1 NUMBER                 Running object number                                     
#   2 MAG_AUTO               Kron-like elliptical aperture magnitude                    [mag]
#   3 X_IMAGE                Object position along x                                    [pixel]
#   4 Y_IMAGE                Object position along y                                    [pixel]
#   5 X_WORLD                Barycenter position along world x axis                     [deg]
#   6 Y_WORLD                Barycenter position along world y axis                     [deg]
#   7 A_WORLD                Profile RMS along major axis (world units)                 [deg]
#   8 B_WORLD                Profile RMS along minor axis (world units)                 [deg]
#   9 THETA_WORLD            Position angle (CCW/world-x)                               [deg]
#  10 FWHM_WORLD             FWHM assuming a gaussian core                              [deg]
#  11 ELONGATION             A_IMAGE/B_IMAGE                                           
#  12 ELLIPTICITY            1 - B_IMAGE/A_IMAGE                                       
         1 -14.5055    149.9812     62.1843   8.5016348809e+01   3.9663220018e+01      1.49592     1.164715  27.41  0.004349454    1.480    0.324
         2 -14.7620    161.4041     47.3454   7.8313575240e+01   3.9136928807e+01     1.131373     1.047668 -15.21   0.00379553    1.213    0.176
         3 -14.9909    174.6828     16.5836   6.7467403063e+01   3.9668843498e+01     1.221973     1.116992 -16.08  0.004619468    1.325    0.245
         4 -14.4710    188.9501     14.1233   6.4938672478e+01   3.6453718391e+01     1.400945    0.6576657 -80.08   0.00529372    3.322    0.699
         5 -11.7398    162.9834    244.8581   1.2252530467e+02   3.7119133299e-01    0.3122952    0.2372251  32.43 0.0008158021    1.252    0.201
         6 -20.1989     78.1820    173.8657   1.3000339343e+02   2.9518200632e+01     17.38335      7.26958 -64.61    0.0713081    2.294    0.564
         7 -11.0466    121.6020    197.9426   1.2391694085e+02   1.6761120743e+01    0.2345657    0.2154688 -42.73 0.0008732486    1.303    0.233
         8 -13.1517    134.7897    238.6596   1.2712568149e+02   6.3301192707e+00    0.3490001    0.2736869 -67.74  0.001258441    1.449    0.310
         9 -10.8682     14.1135    241.1655   1.4919992264e+02   2.3171533550e+01    0.2325041   0.09679445  86.37 0.0009688456    2.180    0.541
        10 -12.5897    185.1546    170.2505   1.0476543539e+02   9.9902473223e+00    0.5988734    0.3772919 -60.43  0.001625305    2.007    0.502
        11 -12.8208    189.4794    178.9642   1.0566921864e+02   7.3579653181e+00    0.5030615    0.3646393  75.98  0.001416748    2.007    0.502
        12 -11.9552    188.6843    175.3352   1.0508721348e+02   8.2375174105e+00    0.3432001    0.2573844  64.17 0.0008876713    1.582    0.368
        13 -12.8316    204.0827    174.8533   1.0183440680e+02   5.1916368393e+00    0.5621725     0.372804 -55.98  0.002070484    1.803    0.446
        14 -11.0965    207.9951    172.2021   1.0049827172e+02   4.9068109331e+00    0.3542168    0.1931836 -56.97   0.00138433    2.553    0.608
        15 -12.7751    196.1408    174.4260   1.0335467217e+02   6.8863025925e+00    0.7002265    0.4303961 -58.84  0.002824609    2.110    0.526
        16 -12.9401    189.5055    155.4675   1.0063927851e+02   1.2078252492e+01    0.5474943    0.5413309  51.61   0.00156348    1.018    0.017
        17 -12.5328    192.5240    164.8864   1.0207504591e+02   9.5241772520e+00     0.424714    0.3292267 -37.07 0.0008074084    1.310    0.237
        18 -12.2794    189.7825    160.8036   1.0175959683e+02   1.0930123781e+01      0.39529    0.3189019  85.63  0.001517412    1.588    0.370
        19 -12.3606    230.4053    167.4335   9.5211200943e+01   1.3721391982e+00    0.4535701     0.219923 -52.36  0.001756386    2.696    0.629
        20 -11.0378    151.1619    236.1950   1.2357748263e+02   3.9063478282e+00    0.2123481    0.1869554  44.30 0.0008494827    1.068    0.064
        21 -10.6058     28.2830    233.4753   1.4637168971e+02   2.3080767480e+01    0.1114976   0.07701063  84.66 5.373593e-05    1.109    0.098
        22  -9.6981      4.5005    157.4299   1.4480125600e+02   4.1648460370e+01    0.1168211   0.08828856 -75.18 0.0001314136    1.105    0.095
        23 -12.0088    167.2663    155.9424   1.0557078156e+02   1.6807117054e+01    0.2939368    0.2188243  73.34  0.001320505    1.669    0.401
        24 -10.6237    139.5151    248.5968   1.2751923108e+02   3.7817845290e+00    0.3339273    0.1264074 -62.26  0.001276923    4.203    0.762
        25 -10.5223     22.9860    156.0565   1.4050446767e+02   4.0395458790e+01    0.1847088    0.1473887 -81.08 0.0004682351    1.025    0.024
        26 -11.4999     17.6499    153.6321   1.4146026561e+02   4.1429414566e+01    0.3524981    0.1945651 -52.76  0.001459058    1.806    0.446
        27 -10.8431     18.5594    148.4926   1.4066190584e+02   4.2525383477e+01    0.2168434    0.1885586   4.82  0.001512711    1.623    0.384
        28 -12.7322     27.2516    145.5743   1.3821339796e+02   4.2416554979e+01    0.4045455    0.3780072 -67.85  0.001671545    1.230    0.187
        29 -10.2302    130.8212    231.7518   1.2697526108e+02   8.2868308696e+00    0.1764475     0.142944  56.68 0.0003411617    1.054    0.051
        30 -11.8054    174.1300    148.3807   1.0234724538e+02   1.6928734058e+01    0.4538325    0.3308874 -64.52  0.001524558    1.597    0.374
        31 -10.9145    133.3661    228.7353   1.2605089184e+02   8.4083101552e+00    0.5428435    0.2620032  31.84  0.001803302    2.655    0.623
        32  -9.5517     32.4065    221.8714   1.4479742112e+02   2.4931689771e+01     0.336482    0.1901537 -51.26  0.001865108    2.591    0.614
        33 -12.9570    160.4687    128.0799   1.0062564827e+02   2.4377887606e+01    0.5382842    0.3924764 -61.93  0.001720578    1.518    0.341
        34 -11.4281    217.9849    218.9613   1.0769766368e+02  -5.0742890095e+00    0.2618005    0.1589108 -45.08  0.001049222    1.898    0.473
        35 -10.3089     24.4960    215.9695   1.4576881454e+02   2.7041066646e+01    0.1454945    0.1104277  80.51  0.001030394    1.056    0.053
        36 -11.1656    167.5824    112.7492   9.5146350805e+01   2.5983950097e+01    0.3756149    0.2661821  86.92  0.001187059    1.991    0.498
        37 -11.6054    114.6439    250.6559   1.3244214320e+02   7.5677903537e+00     0.142273   0.09679934  49.94 0.0005789228    1.204    0.169
        38 -10.8294    205.3503    110.2550   8.6807013479e+01   1.7561287091e+01    0.3110771    0.2112159  48.82 0.0009134004    1.535    0.349
        39 -13.1550     11.4848    206.0015   1.4739027009e+02   3.0468432146e+01    0.3696501    0.2661476  32.64  0.001856854    1.876    0.467
        40 -11.1084     22.3230    107.6108   1.3385607231e+02   5.1525204061e+01    0.2165028    0.1648843 -26.32 0.0008829552    1.524    0.344
        41 -10.3806     31.8590    205.1211   1.4352554246e+02   2.8504856743e+01     0.167454    0.1318969  82.71 0.0005448096    1.064    0.060
        42 -11.2349    140.6650    201.3755   1.2033453324e+02   1.2498136738e+01    0.4924109    0.3114865  44.74  0.002388896    1.461    0.315
        43 -12.1665     27.1104     98.1836   1.3069661759e+02   5.3222956010e+01    0.3979276    0.3245353 -28.03  0.001921388    1.316    0.240
        44  -9.9202     29.2004    201.1832   1.4369522558e+02   2.9648642009e+01    0.1924406    0.1385049 -53.75  0.001074675    1.762    0.432
        45 -10.7804    134.5336    198.4032   1.2116705778e+02   1.4274585748e+01    0.3736198     0.252368  21.88  0.001694221    2.121    0.529
        46 -11.4308      3.5592     89.9993   1.3644495159e+02   5.6620028669e+01    0.3232766    0.1808546  -8.88  0.001877167    2.472    0.596
        47 -10.9535    139.9884    241.5313   1.2649988814e+02   4.9214614660e+00    0.2211028    0.1729122 -50.60  0.001349819    1.529    0.346
        48 -10.7080     10.2099     87.4138   1.3390593990e+02   5.6774477308e+01    0.1810657     0.113589   4.04 0.0009715979    2.066    0.516
        49 -10.6793    144.0150     81.7353   9.2125487358e+01   3.7670948060e+01    0.2136373    0.1971195  53.08  0.000465912    1.068    0.064
        50 -11.1986     19.8425    196.6462   1.4511469498e+02   3.1620244376e+01    0.1672971      0.12274 -75.46 0.0004971884    1.244    0.196
        51  -9.8846    155.8837    247.4879   1.2425442248e+02   1.1663143412e+00    0.1752579    0.1068445  43.00 0.0002769198    1.365    0.267
        52 -13.3817    165.6154     38.8126   7.5084998250e+01   3.9265508964e+01    0.4654995    0.4031267  61.04 0.0009014624    1.067    0.063
        53 -11.0953     13.5616     59.9005   1.2672918814e+02   6.2121129867e+01    0.1742865    0.1581962  -4.69 0.0003997886    1.285    0.222
        54 -11.1984    127.9289    246.5520   1.2946028713e+02   6.0943429585e+00    0.1650446    0.1518347 -86.48  0.001120098    1.223    0.182
