#   1 NUMBER                 Running object number                                     
#   2 MAG_AUTO               Kron-like elliptical aperture magnitude                    [mag]
#   3 X_IMAGE                Object position along x                                    [pixel]
#   4 Y_IMAGE                Object position along y                                    [pixel]
#   5 X_WORLD                Barycenter position along world x axis                     [deg]
#   6 Y_WORLD                Barycenter position along world y axis                     [deg]
#   7 A_WORLD                Profile RMS along major axis (world units)                 [deg]
#   8 B_WORLD                Profile RMS along minor axis (world units)                 [deg]
#   9 THETA_WORLD            Position angle (CCW/world-x)                               [deg]
#  10 FWHM_WORLD             FWHM assuming a gaussian core                              [deg]
#  11 ELONGATION             A_IMAGE/B_IMAGE                                           
#  12 ELLIPTICITY            1 - B_IMAGE/A_IMAGE                                       
         1 -11.7165    206.4050     29.7937   4.7696269754e+01   2.9711333368e+01    0.8798878    0.8019586 -73.37  0.005194153    1.013    0.013
         2 -10.7701    213.4438     22.8808   4.5026133738e+01   2.8799767075e+01    0.4599756    0.3528216  29.71  0.001054308    1.697    0.411
         3 -10.0810      9.1283     22.6964   1.0201529347e+02   6.9992942757e+01    0.2154764    0.1652728  77.99  0.001333129    2.584    0.613
         4 -11.8400    222.8565     12.4681   4.1409446027e+01   2.7696287151e+01     0.744855    0.6311853 -71.83  0.002746233    1.037    0.035
         5 -11.0112      6.0215      7.9949   9.7591648392e+01   7.2725091989e+01     0.559165    0.2029388  11.85  0.002621248    3.763    0.734
         6  -9.6143     59.4978    243.6637   1.2254322126e+02   1.7716676650e+01    0.2412235    0.1365099  88.42  0.001540866    1.749    0.428
         7  -9.6587    114.5099    243.4842   1.1282162797e+02   1.0045975535e+01     0.323206    0.1183218 -66.30   0.00136982    4.182    0.761
         8 -10.9194    119.6857    248.9239   1.1245526792e+02   8.3982403832e+00    0.4997485    0.2063094  37.94  0.002487242    2.160    0.537
         9  -9.8751    101.3675    247.8155   1.1560437792e+02   1.1297358574e+01    0.3313295    0.1486107 -63.18  0.001807583    2.649    0.623
        10  -9.7468     96.0140    248.5017   1.1661099067e+02   1.1958907145e+01    0.3469913    0.1736881  70.35  0.001782747    2.558    0.609
        11  -9.4105     83.0896    249.6495   1.1895842487e+02   1.3585079594e+01    0.2300021     0.120296  84.55  0.001268922    2.431    0.589
        12  -9.7506     74.5431    250.1984   1.2046508520e+02   1.4651698060e+01    0.2065958    0.1250328  48.67 0.0009313769    1.301    0.231
        13  -8.4931     53.2305    250.6006   1.2405690048e+02   1.7315741348e+01    0.1368947    0.0883131  39.89 0.0004767707    1.615    0.381
        14  -8.4612     49.4168    249.7594   1.2462890238e+02   1.7922138397e+01    0.1308303   0.08857263 -72.15 0.0009525958    1.653    0.395
        15 -14.0994      2.2983     25.8816   1.0654136388e+02   6.9814022375e+01     23.65543     2.210528 -59.70   0.03378093   28.740    0.965
        16 -11.2077    112.2263    229.5912   1.1174392489e+02   1.2726023291e+01     0.504254    0.3470997  31.60  0.003019046    1.618    0.382
        17  -9.8114     77.4936    244.0779   1.1947378006e+02   1.5283524088e+01    0.1698005    0.1425871  48.60 0.0008579425    1.313    0.238
        18  -8.0057    149.3495    230.3091   1.0477037141e+02   6.6287211934e+00    0.1224913   0.09083506  15.64  0.000704425    1.712    0.416
        19  -8.9509     59.0351    228.9529   1.2153584251e+02   2.0399939025e+01    0.1776719    0.1356506  71.24    0.0012268    1.038    0.036
        20 -10.4896     50.1134    227.6434   1.2302941878e+02   2.1754317207e+01    0.2695316    0.1881913  81.82  0.001899456    1.200    0.167
        21 -11.1421     45.7123    222.4729   1.2344274127e+02   2.3253419356e+01    0.5525402    0.1823296 -69.83  0.002720152    2.865    0.651
        22  -8.7632    164.0000    237.9734   1.0305091753e+02   3.0548290374e+00    0.1688909   0.07106564 -47.07 0.0008035386    2.950    0.661
        23 -10.0240     93.0242    225.9897   1.1499618055e+02   1.6272690234e+01    0.2449893    0.1998454 -89.85  0.001684367    1.230    0.187
        24  -9.3936    118.8188    242.1477   1.1189634278e+02   9.6047302392e+00    0.1798363    0.1299471  50.24  0.001183487    1.091    0.083
        25 -10.1008     83.3149    223.0299   1.1653903317e+02   1.8222889371e+01    0.2498408    0.1454836  48.27   0.00146643    1.426    0.299
        26  -9.7181    134.7612    240.6593   1.0880220315e+02   7.3551171210e+00    0.1589542     0.136471  43.96  0.001112908    1.112    0.101
        27 -10.2082     97.2113    226.1007   1.1421404972e+02   1.5632087866e+01    0.2670252    0.1736305  74.25 0.0009339953    1.600    0.375
        28  -9.5411     53.3992    239.1860   1.2327109283e+02   1.9261916466e+01    0.1873631   0.09190352 -70.65  0.001134592    2.087    0.521
        29  -8.6066    193.4791    194.4954   9.0482184984e+01   4.6956901426e+00    0.1348902    0.1199371  25.69   9.0805e-05    1.032    0.031
        30  -8.9615     73.2634    187.9684   1.1483480782e+02   2.6668838738e+01     0.372047    0.2010067  68.25  0.001799503    2.066    0.516
        31  -8.2359    170.0000    238.4383   1.0200592751e+02   2.0118604304e+00    0.2285354   0.07081023 -45.92 0.0009430593    4.002    0.750
        32 -10.0551     63.1965    182.7991   1.1641236221e+02   2.9148381124e+01    0.3181882    0.2491744 -47.92  0.001383806    1.640    0.390
        33 -10.0844     68.4726    176.8838   1.1456330690e+02   2.9741974909e+01     0.321026    0.2450904 -42.10 0.0008872199    1.757    0.431
        34  -8.6090     58.9936    237.2084   1.2216546659e+02   1.8911933158e+01    0.1515002    0.1329545   6.67  0.001086485    2.013    0.503
        35 -10.6004     49.1442    234.3924   1.2367350261e+02   2.0638412048e+01     0.288038    0.2217209 -77.77  0.001127946    1.413    0.292
        36  -9.6806     78.1424    166.6131   1.1100227251e+02   3.0687187199e+01    0.2400964    0.2067507 -77.28 0.0004195574    1.105    0.095
        37 -11.5011     65.3305    163.0219   1.1352100825e+02   3.3288714819e+01    0.4559523    0.2682596 -46.69  0.001385478    2.074    0.518
        38 -11.2168     83.4914    159.7417   1.0871456991e+02   3.1465696008e+01    0.6970899    0.5769776  46.97  0.002354634    1.242    0.195
        39  -9.4513     32.9129    156.1056   1.2029683261e+02   3.8664648257e+01    0.2641036    0.1374272 -78.79  0.001043919    1.660    0.398
        40 -10.0847     73.4342    155.2295   1.1047372107e+02   3.3978626131e+01    0.3759012    0.2380629  77.06  0.001841267    1.826    0.452
        41 -11.6689     68.0382    144.0646   1.1010668155e+02   3.7347261814e+01    0.8721786    0.5303584  82.42  0.003261262    2.045    0.511
        42 -12.0568     36.5578    211.7734   1.2434382251e+02   2.6378544987e+01    0.6612921    0.5706885 -14.11  0.003997493    2.123    0.529
        43  -8.5837     98.9945    144.7180   1.0229312196e+02   3.2474121748e+01    0.2005877     0.188578  68.88  0.001142689    1.068    0.064
        44 -10.5044     87.1456    143.4023   1.0508329788e+02   3.4711759990e+01    0.2903575    0.2525092 -50.29 0.0005311572    1.222    0.181
        45  -8.2019    101.4953    141.4719   1.0103104380e+02   3.2804321412e+01    0.1431973    0.1367403 -70.44 0.0008089881    1.071    0.067
        46  -9.6511     18.8325    138.6828   1.2182780991e+02   4.3962749825e+01    0.1977172    0.1525417 -15.73  0.001258514    1.957    0.489
        47 -10.7408     58.8045    133.1686   1.1077788678e+02   4.1142355006e+01     0.839994    0.2885782 -72.81  0.002656807    4.095    0.756
        48  -9.0126     32.9968    133.7509   1.1767577720e+02   4.3845795782e+01    0.3276289    0.1040278 -69.28  0.001323821    2.611    0.617
        49  -9.0728    109.7357    131.9421   9.6931236690e+01   3.3558290762e+01    0.2527251    0.2132998  27.72  0.001052368    1.343    0.255
        50  -9.1531     96.8771    128.9291   9.9701046376e+01   3.6538549190e+01    0.2528878    0.2283816 -11.09 0.0005218731    1.341    0.254
        51  -7.7976    107.1281    120.7931   9.5124771146e+01   3.6627624762e+01    0.1906704    0.1733513 -16.10 0.0003702363    1.261    0.207
        52  -9.2063     32.6024    114.7074   1.1510455052e+02   4.8380434357e+01    0.3380357   0.08286604 -62.41  0.001259073    2.934    0.659
        53 -13.6281      9.0427    207.3468   1.2902633851e+02   3.0084029850e+01     2.253028     1.134585 -68.21    0.0110947    1.932    0.483
        54 -14.4970      8.4184    241.8323   1.3074790450e+02   2.3790121324e+01     4.083044     1.875831 -78.80  0.003600817    1.949    0.487
        55 -13.6066     46.2201    200.9742   1.2167715819e+02   2.7426671872e+01     2.359009    0.9930402  62.93   0.01128038    2.434    0.589
        56  -8.6420     33.0000     96.9410   1.1198428456e+02   5.2525564805e+01    0.2219805   0.06122263 -64.32 0.0008060505    2.968    0.663
        57  -9.8640    141.0310    233.9983   1.0682231157e+02   7.4037493369e+00    0.1876421    0.1436338  13.97  0.001138607    1.727    0.421
        58 -11.2618     12.1254     59.3776   1.1151743568e+02   6.2523068537e+01    0.4058878    0.2559811 -70.93  0.002446021    1.518    0.341
        59 -11.0506    197.7852     36.4813   5.0681403701e+01   3.1033929331e+01    0.5436028    0.4458734  75.61  0.001892885    1.186    0.157
        60 -11.0345    127.4026    246.2108   1.1077794666e+02   7.6397589407e+00    0.3811256    0.2599102  58.77  0.002454283    1.343    0.255
        61 -11.1275    129.1592    238.3073   1.0956348778e+02   8.6139901900e+00    0.3487526    0.2721694 -12.25  0.002145636    2.089    0.521
        62 -10.8367    126.0123    231.1828   1.0931455680e+02   1.0283445346e+01    0.3585232    0.2066886  35.46  0.001963569    1.673    0.402
        63 -10.4228     65.6484    243.1581   1.2145437506e+02   1.7015204212e+01     0.289279    0.2329749  76.80 0.0006835951    1.161    0.139
        64 -10.0694     70.9591    242.4638   1.2048287598e+02   1.6437600840e+01    0.2457106    0.1658331  64.49  0.001702827    1.163    0.140
        65  -8.9341     32.6845     21.8752   9.0208011477e+01   6.8081341982e+01     0.250685   0.08272807 -38.67  0.001094501    2.559    0.609
