#   1 NUMBER                 Running object number                                     
#   2 MAG_AUTO               Kron-like elliptical aperture magnitude                    [mag]
#   3 X_IMAGE                Object position along x                                    [pixel]
#   4 Y_IMAGE                Object position along y                                    [pixel]
#   5 X_WORLD                Barycenter position along world x axis                     [deg]
#   6 Y_WORLD                Barycenter position along world y axis                     [deg]
#   7 A_WORLD                Profile RMS along major axis (world units)                 [deg]
#   8 B_WORLD                Profile RMS along minor axis (world units)                 [deg]
#   9 THETA_WORLD            Position angle (CCW/world-x)                               [deg]
#  10 FWHM_WORLD             FWHM assuming a gaussian core                              [deg]
#  11 ELONGATION             A_IMAGE/B_IMAGE                                           
#  12 ELLIPTICITY            1 - B_IMAGE/A_IMAGE                                       
         1 -14.1742     81.1925    145.7233   5.9306772669e+01   3.5257360836e+01      3.19975     1.563784 -57.35  0.009766576    2.019    0.505
         2 -13.3455    224.7502     45.0090   3.5260677443e+00   2.4251619141e+01    0.7662369    0.6741332  46.84  0.003373589    1.500    0.333
         3 -12.2996     11.0930      5.6727   4.4951286212e+01   7.4746988084e+01    0.7016847     0.485056  -3.36  0.004637631    1.210    0.174
         4 -13.5120      7.1589     28.2399   5.8900864410e+01   7.1458291512e+01     1.795597    0.4534716 -42.33  0.007169062    3.143    0.682
         5 -12.5414     18.5693     12.9840   4.4180846718e+01   7.2820499502e+01    0.7127713     0.264058  36.28  0.003294831    2.689    0.628
         6 -12.1278      2.4109     18.2140   5.7714446041e+01   7.3616191090e+01     1.212108    0.2484391 -52.65  0.004334676    4.619    0.784
         7 -10.5188      2.0092      3.0971   5.0058131177e+01   7.6065879222e+01    0.3467068    0.1905603 -39.71  0.001855406    1.750    0.429
         8 -10.0905     72.1089      7.2780   1.6871819931e+01   6.3946651056e+01    0.2910301    0.1242717  54.12  0.001311223    1.908    0.476
         9 -11.8337    249.5081     23.3513   3.5723935254e+02   2.2103643215e+01    0.6602787    0.2140916 -35.38  0.003203033    2.643    0.622
        10 -10.0827    175.9504    230.7126   5.0502648080e+01   1.6142177435e+00    0.2206333    0.1590673 -20.72 0.0009062865    1.375    0.273
        11  -8.9385     77.9695    250.2298   7.4373760557e+01   1.1844181393e+01    0.1573361    0.1336005  22.46 0.0002839628    1.233    0.189
        12 -10.7432     75.2306    247.5089   7.4719828120e+01   1.2709668658e+01    0.5939464    0.2002486 -53.85  0.002527135    3.461    0.711
        13 -15.2790     56.7780    233.2516   7.7552338795e+01   1.7855048590e+01      5.20724     3.254724 -27.63   0.02529491    2.797    0.642
        14 -14.5577     10.2713    206.2574   8.6257222498e+01   2.8711255156e+01     1.076596    0.6010219  22.71  0.003178646    1.989    0.497
        15 -11.7059    134.0427    230.0971   5.9480347380e+01   7.8048775480e+00    0.3216397    0.2629018  -1.57  0.001923103    1.267    0.211
        16 -11.9607    126.7890    229.7425   6.1070775614e+01   8.9409552564e+00    0.3854711    0.3130639  17.06  0.002303639    1.146    0.127
        17 -11.8664    107.3739    228.5460   6.5375203612e+01   1.2012643734e+01    0.4595535    0.1998257  41.35  0.002011941    2.027    0.507
        18 -11.9227     99.1697    226.0458   6.6976744250e+01   1.3694183437e+01    0.4419169    0.3418033 -77.60  0.002534616    1.564    0.360
        19 -12.0032     87.9681    222.3130   6.9175196852e+01   1.6051708913e+01    0.4640072    0.3386524 -60.31   0.00261285    1.530    0.346
        20 -13.6392     41.0354    175.1710   7.5792466597e+01   3.3118012082e+01     1.339723    0.9339622  71.14  0.006972344    1.473    0.321
        21  -9.6107    164.3202    226.3296   5.2253580695e+01   4.0124052331e+00    0.1376114   0.09183065  -3.33 0.0007048273    1.690    0.408
        22  -9.9748    148.2330    227.9955   5.6008627599e+01   6.0877629907e+00    0.1646634    0.1107202 -45.11 0.0008888648    1.667    0.400
        23 -10.2337    174.9745    223.3108   4.9514174984e+01   2.9753529439e+00    0.1897949    0.1466004  17.86 0.0004356135    1.116    0.104
        24 -10.1084    139.8616    221.0786   5.6834082434e+01   8.6135243259e+00    0.1982612      0.17828  47.25 0.0004816953    1.256    0.204
        25 -10.8006     95.4568    219.5078   6.7040226312e+01   1.5575899732e+01    0.2385039    0.2164814  42.33 0.0006100534    1.033    0.032
        26 -15.7372     25.8029    178.1460   8.0284079738e+01   3.3955926297e+01     6.477602     2.584974  69.72    0.0206788    3.710    0.730
        27  -9.6914    131.1047    202.9572   5.6012394595e+01   1.3566771617e+01    0.2654642    0.1837182 -54.46 0.0007629853    1.627    0.385
        28  -8.9771    136.6927    201.3196   5.4403421230e+01   1.2997497685e+01    0.1390279    0.1103732  64.25 0.0007031996    1.637    0.389
        29 -12.3152    114.6108    194.8916   5.8757700694e+01   1.7962241493e+01    0.8161037    0.4070707  13.91  0.002621872    3.845    0.740
        30  -9.6192    194.5360    197.5494   4.1006656656e+01   4.4663077728e+00    0.2328909    0.1231595 -50.77  0.001035849    2.448    0.592
        31 -10.9756     68.8431    193.3313   7.0420785451e+01   2.5205568207e+01    0.4736743    0.2835327  68.40  0.001360625    2.074    0.518
        32  -9.6281    210.9210    198.7856   3.8068606014e+01   1.8459258275e+00    0.1957801    0.1491467  -3.51 0.0004571962    1.171    0.146
        33 -10.1730     73.9041    189.8446   6.8622868341e+01   2.5340054529e+01    0.2910714    0.1930566 -74.79 0.0007417305    1.648    0.393
        34 -11.2077    108.2187    189.2683   5.9474563634e+01   2.0258427026e+01    0.3271918    0.2358428   8.65   0.00155072    1.680    0.405
        35 -15.3454      8.4175    148.4531   8.2481719415e+01   4.2917144616e+01     9.541806     1.595602 -77.29   0.02401765    6.342    0.842
        36 -15.4136      4.0019    240.4175   8.9291644341e+01   2.1997726518e+01     1.670979     1.031514  43.69   0.01098535    1.329    0.247
        37  -9.2197     65.1466    185.8990   7.0456574957e+01   2.7492967512e+01    0.2086798    0.1734893  69.97 0.0003932253    1.198    0.165
        38  -9.1721    206.6776    190.2791   3.7285686833e+01   3.8739596808e+00    0.1134344    0.1081064  83.57 0.0002204787    1.585    0.369
        39 -10.2428    116.0970    181.8358   5.6161319532e+01   2.0647772987e+01    0.2304946    0.2025365  63.48  0.000777673    1.261    0.207
        40  -9.3438     99.0380    181.4760   6.0611480395e+01   2.3548964379e+01    0.2325985    0.1407968  32.36   0.00103062    1.590    0.371
        41  -8.4645     63.3016    181.6562   7.0404909557e+01   2.8778528770e+01    0.1519278    0.1005695  65.25 0.0007038431    1.680    0.405
        42  -9.5147     59.9926    178.7110   7.0932878426e+01   2.9942416917e+01    0.2436708    0.1887181 -73.05 0.0005281671    1.288    0.223
        43 -10.1037    171.8555    175.3231   4.1466737284e+01   1.2268386531e+01    0.2396305    0.1975642 -49.11 0.0008451946    1.344    0.256
        44  -9.5835    173.4843    170.9827   4.0233421370e+01   1.2834756285e+01    0.1928031    0.1289338 -66.86 0.0008096175    2.474    0.596
        45 -11.2239     71.7621    168.0099   6.6049319222e+01   3.1018186818e+01     1.362063    0.5618527 -76.84  0.003956342    4.384    0.772
        46 -12.0250     73.8110    130.3441   5.8516246735e+01   4.0346689607e+01    0.7353074    0.7098458  38.94 0.0003207219    1.059    0.055
        47  -9.0406     83.3140    247.3260   7.2932485380e+01   1.1697129749e+01    0.1189445   0.09415705  -8.01 0.0003117262    1.667    0.400
        48 -12.5188     64.2141    155.7413   6.6329065107e+01   3.5208453531e+01      1.01955    0.4668213 -44.35  0.003827993    2.491    0.599
        49 -13.8461     69.6318    144.6233   6.2709300620e+01   3.7308921174e+01     3.121555     1.590218  74.67  0.007946624    6.028    0.834
        50 -13.3252     60.3282    145.7603   6.5862255336e+01   3.8322454002e+01     1.213641    0.7480604 -41.41  0.002259371    1.778    0.438
        51  -9.9078    110.4379    166.9808   5.4938722140e+01   2.5080736027e+01    0.2791565    0.2206293  35.73 0.0003936906    1.225    0.184
        52  -9.0069    101.6288    166.7641   5.7325643523e+01   2.6644726829e+01    0.2071581    0.1462257 -69.57 0.0004885251    1.638    0.390
        53  -9.8847     66.9080    169.9196   6.7742100732e+01   3.1219044321e+01    0.2113643    0.1984496  84.30 0.0003583985    1.036    0.035
        54 -10.0241    178.1506    164.6949   3.7932275258e+01   1.3235226347e+01     0.218761    0.1869715  54.79 0.0006272247    1.420    0.296
        55 -10.8656     35.9153    158.7865   7.5341165997e+01   3.7846743500e+01    0.4012639    0.2807834  89.49  0.001579863    1.444    0.307
        56 -10.2247     32.6060    155.1226   7.5888209256e+01   3.9132335852e+01    0.4371293    0.1660038 -66.70  0.001716529    2.328    0.571
        57 -10.9009     28.5665    151.8463   7.6722205886e+01   4.0375244797e+01    0.4411923    0.2535308  76.07  0.001665629    2.030    0.507
        58 -12.1812     73.4102    150.4508   6.2599443064e+01   3.5250298606e+01    0.5927483    0.4187807 -68.29 0.0007134211    1.464    0.317
        59  -9.3088     45.1711    157.1624   7.2341435188e+01   3.7249819604e+01    0.2039751    0.1575256  70.73   0.00065415    1.345    0.257
        60  -9.2814    167.5047    156.0780   3.8414444846e+01   1.6916594993e+01    0.2212929    0.1413912 -41.56 0.0004984122    1.521    0.343
        61  -9.7449    125.1307    154.1149   4.8362993094e+01   2.5439119417e+01    0.4175981    0.2231503 -61.29  0.001545815    2.413    0.586
        62  -8.8707    107.3952    152.5530   5.2918507890e+01   2.9085452779e+01    0.1505095     0.149381  74.21 0.0001914328    1.038    0.036
        63 -10.0061     89.7516    151.3601   5.7815449802e+01   3.2438846790e+01    0.2620247    0.2358411 -55.80 0.0003761535    1.115    0.103
        64 -10.6998    133.6569    145.6429   4.4252941865e+01   2.5741106247e+01     1.134571    0.2596453 -52.83   0.00245516    6.581    0.848
        65  -9.5512    113.7703    145.7710   4.9669092108e+01   2.9545889447e+01    0.2518896    0.2207176 -75.82 0.0006716588    1.287    0.223
        66 -10.3004    108.8476    145.3681   5.0979019081e+01   3.0560150424e+01    0.2854894    0.2688023 -49.18  0.000637335    1.073    0.068
        67 -10.8943     37.2722    142.9217   7.2808900416e+01   4.1831164842e+01    0.5149397    0.3463086  84.22   0.00221015    1.657    0.396
        68 -10.0680     39.7831    139.2114   7.1441222050e+01   4.2534730100e+01    0.2063932    0.1933154 -78.15 0.0004253861    1.014    0.013
        69  -8.9374    100.5306    143.4956   5.2994244526e+01   3.2532231766e+01     0.156254    0.1494746  70.25 0.0008081283    1.095    0.087
        70 -10.9796     97.5446    134.1137   5.1814660246e+01   3.5380145687e+01    0.5860442     0.353046   7.35  0.002026298    2.972    0.664
        71  -9.4344    142.1471    134.2188   3.9425250691e+01   2.6583770876e+01    0.2112071    0.1876589 -81.59  0.001055107    1.327    0.246
        72 -11.5055     84.1948    132.5122   5.5618858941e+01   3.8113901553e+01     0.322006    0.2834818 -41.05 0.0004142139    1.137    0.121
        73 -10.4615    105.6105    130.6366   4.8578341794e+01   3.4726242083e+01    0.4803585    0.3240126 -36.06  0.001641432    1.611    0.379
        74  -9.1928    108.4649    126.5302   4.6743786555e+01   3.5157847125e+01    0.1581115    0.1514041  -8.58 8.751296e-05    1.054    0.051
        75 -10.5065     44.3621    131.2122   6.8608981735e+01   4.4118577042e+01    0.3103072    0.2470666 -83.62  0.001110709    1.297    0.229
        76 -10.8191     66.6411    125.6727   5.9920741326e+01   4.2630248823e+01     0.645744    0.2942591 -72.80  0.002019295    3.548    0.718
        77  -9.5188     24.9238    128.8865   7.4897079033e+01   4.6688538421e+01    0.2658109    0.1818968 -64.21  0.001378707    1.298    0.229
        78 -14.3398      5.9419    187.2652   8.6138209735e+01   3.3489846716e+01     2.073754     1.135862  66.67  0.008177144    1.710    0.415
        79 -10.6764     94.8424    121.8926   4.9766105733e+01   3.8863545271e+01    0.3450937    0.2775837   2.97 0.0007118512    1.470    0.320
        80 -10.3211     47.5228    122.8351   6.5988870119e+01   4.5929459828e+01    0.2822997     0.238071   5.78 0.0008734022    1.307    0.235
        81  -9.8326     32.1874    122.8578   7.1435757140e+01   4.7591041736e+01    0.2122629    0.1816951  79.90 0.0004821883    1.237    0.192
        82 -10.2077    135.0000    120.9917   3.7985093805e+01   3.0982060055e+01    0.4493595   0.08863808 -45.17  0.001063268    5.043    0.802
        83  -9.0876     87.1489    121.1835   5.2056216470e+01   4.0427391865e+01    0.2122924    0.1820946  70.66 0.0004949046    1.351    0.260
        84 -11.9085     78.6604    136.6083   5.8261442442e+01   3.7983427214e+01    0.7090826    0.5105929  46.17  0.002069843    1.443    0.307
        85  -9.0099     37.2743    121.3191   6.9358630119e+01   4.7477380997e+01    0.1485502    0.0983971 -38.59 0.0001933178    1.570    0.363
        86 -10.4519     27.3615    118.3258   7.2421520734e+01   4.9219272598e+01    0.3271079    0.2360317  78.58  0.001670672    1.594    0.372
        87 -10.3237     45.3468    118.2214   6.5872710640e+01   4.7382036991e+01    0.2642757    0.2224364  48.99  0.000308929    1.289    0.224
        88  -8.8598    124.5035    118.4984   4.0144007362e+01   3.3755318451e+01    0.1560571    0.1537141  85.11 0.0008098803    1.063    0.060
        89  -9.7924     73.1612    116.5184   5.5622538806e+01   4.3942522116e+01     0.252192    0.2086042 -57.53 0.0004134145    1.203    0.169
        90  -9.3614    105.3728    116.1904   4.5068131358e+01   3.8202985216e+01    0.2490593    0.2106413  22.48 0.0004191264    1.241    0.194
        91 -11.4473     13.4543    113.9369   7.6819575687e+01   5.1453120162e+01    0.4127944    0.2766376 -83.93 0.0009447101    1.482    0.325
        92  -9.8537     41.5609    114.0617   6.6437928111e+01   4.8888359093e+01    0.2569875     0.188444  47.79 0.0004122077    1.520    0.342
        93 -10.9019     33.2519    108.6505   6.8502966864e+01   5.1153892898e+01    0.3734539    0.3378706 -44.37  0.001417296    1.039    0.038
        94 -10.1494    135.8075    108.0083   3.4383997845e+01   3.3593189187e+01    0.3348806    0.2308656 -62.49 0.0006924667    1.789    0.441
        95 -10.4881     53.0203    108.4319   6.0969220823e+01   4.8922415080e+01    0.3526681    0.1465289 -43.83  0.001279449    2.462    0.594
        96  -9.9405     19.7053    108.7131   7.3682900515e+01   5.2334903635e+01    0.2274082    0.1689642  10.04  0.001126452    1.514    0.340
        97 -11.4114     24.3287    105.0232   7.1263275970e+01   5.2900189133e+01    0.5045982    0.3452061  68.40  0.002504524    1.849    0.459
        98  -9.5156     59.6700    101.9956   5.6926440372e+01   4.9599317296e+01    0.2077231    0.1802888 -51.32 0.0003924004    1.117    0.105
        99 -10.5749     54.7177     96.4048   5.7395835770e+01   5.1663142076e+01    0.2710697    0.1606536 -37.03 0.0009422931    1.759    0.432
       100  -9.5323     45.7370     95.7240   6.0772580978e+01   5.3006787753e+01    0.1881026    0.1682531  72.24 0.0006123098    1.324    0.245
       101 -10.1525     41.9899     88.5141   6.0487455228e+01   5.5205522605e+01    0.2059727    0.1387417  25.41 0.0006363657    1.548    0.354
       102 -11.1948     33.5840     87.2975   6.3725089403e+01   5.6434265742e+01    0.4158722    0.2533216  49.58  0.001917636    2.129    0.530
       103 -11.4813     58.3481    161.8898   6.9055202224e+01   3.4411804034e+01     0.471172    0.3029607 -17.56  0.002003172    2.351    0.575
       104  -9.0799    172.2122     76.2120   1.7923157582e+01   3.1207566308e+01    0.2017806    0.1567141 -65.24 0.0005631428    1.355    0.262
       105  -9.8621     20.1021     75.1238   6.6729618470e+01   6.0575182949e+01    0.1879759    0.1567233  64.07            0    1.545    0.353
       106  -9.3923     30.5129     72.4655   6.1201928596e+01   6.0228633188e+01    0.1393384     0.119213 -29.16 0.0008093165    1.032    0.031
       107  -8.8746     49.5951     69.2618   5.1614741456e+01   5.8590752532e+01    0.1386755    0.1082495  57.77 0.0006725003    1.733    0.423
       108 -11.5371    201.4659     60.7496   9.6361869577e+00   2.6996013617e+01    0.3650153    0.2999014  61.84  0.001098996    1.307    0.235
       109 -12.7517    211.6299     53.9096   6.8350207992e+00   2.5777697944e+01    0.7895689    0.7286647 -58.64  0.003278605    1.136    0.120
       110 -15.9992      5.6080    218.4247   8.7961353344e+01   2.6428542789e+01     2.892225     1.328571  40.24    0.0157035    1.813    0.448
       111  -9.9064    184.8747    243.2202   5.0634901952e+01  -1.5465845349e+00    0.2325971    0.1249159 -29.55  0.001240829    1.957    0.489
       112  -9.3108     93.5263    243.1232   7.0241534467e+01   1.1130525691e+01    0.1631634    0.1278651 -63.20 0.0004764926    1.508    0.337
       113  -9.5100    136.2367    238.9696   6.0230504284e+01   5.8885305507e+00    0.1518177    0.1107692 -48.45 0.0004267748    1.611    0.379
       114  -9.7687     60.9265     21.5913   2.7445680349e+01   6.4782741622e+01    0.2097939    0.1883034 -66.60  0.001293679    1.591    0.371
       115  -9.7482    103.8142    237.6234   6.7307686561e+01   1.0757439071e+01    0.1728483    0.1577205  16.65 0.0006021883    1.132    0.116
       116  -9.1744     38.9430     60.4988   5.3526517107e+01   6.1871882103e+01    0.1969794    0.1289967  25.83 0.0007862966    1.531    0.347
       117 -11.1964     72.5484    231.1447   7.3756165985e+01   1.6300380444e+01    0.4321151    0.2245717 -67.13  0.002011904    2.164    0.538
       118 -10.8965     72.2899    226.5237   7.3348117313e+01   1.7295249145e+01    0.4559401    0.2196792  51.95  0.001771691    2.080    0.519
