#   1 NUMBER                 Running object number                                     
#   2 MAG_AUTO               Kron-like elliptical aperture magnitude                    [mag]
#   3 X_IMAGE                Object position along x                                    [pixel]
#   4 Y_IMAGE                Object position along y                                    [pixel]
#   5 X_WORLD                Barycenter position along world x axis                     [deg]
#   6 Y_WORLD                Barycenter position along world y axis                     [deg]
#   7 A_WORLD                Profile RMS along major axis (world units)                 [deg]
#   8 B_WORLD                Profile RMS along minor axis (world units)                 [deg]
#   9 THETA_WORLD            Position angle (CCW/world-x)                               [deg]
#  10 FWHM_WORLD             FWHM assuming a gaussian core                              [deg]
#  11 ELONGATION             A_IMAGE/B_IMAGE                                           
#  12 ELLIPTICITY            1 - B_IMAGE/A_IMAGE                                       
         1  -8.2922     80.4950     12.4309   7.8456339942e+01   6.2907129466e+01     0.279294    0.2052107 -44.66  0.001132991    1.733    0.423
         2  -7.7534    142.4836     11.5477   6.2038640763e+01   4.8150624795e+01    0.1484393    0.1304306  42.13 0.0001061404    1.049    0.047
         3  -9.6736    201.2696    248.4488   1.0772476562e+02  -4.9511467375e-02    0.3018425    0.1937008   4.93  0.002015551    1.642    0.391
         4  -7.8737    142.6818    250.0322   1.1832080307e+02   8.0393966450e+00    0.1434961    0.1163001  35.49  0.000335183    1.108    0.097
         5  -8.6537    133.3383    246.7320   1.1966770724e+02   9.7788197697e+00    0.2322683    0.2000116 -86.32  0.001809311    1.572    0.364
         6  -8.4761      7.0036    250.2394   1.4163104869e+02   2.3855712617e+01    0.1188391   0.05891975  39.63 0.0008858212    1.625    0.385
         7  -7.9441    216.9986    248.7616   1.0507261619e+02  -2.2490454976e+00    0.1498816   0.06878697  34.42 0.0008787689    1.605    0.377
         8  -7.2085    162.6050    250.5424   1.1480286710e+02   5.1709400574e+00    0.1114706    0.0822413  33.53  0.000104908    1.031    0.030
         9  -7.8129    179.3509    243.1619   1.1090253940e+02   3.6587206859e+00    0.1747069    0.1189023  22.29 0.0006647115    1.240    0.193
        10  -8.3073    175.7709    242.4292   1.1145390289e+02   4.2640373393e+00    0.1804947    0.1231882   1.13  0.001167329    1.765    0.433
        11 -10.1618     91.3707    238.7867   1.2662139336e+02   1.6567993072e+01    0.5182014    0.2689159  25.68  0.002856372    2.376    0.579
        12  -9.6042    140.1811    238.3569   1.1750748050e+02   9.9530169795e+00    0.3102679    0.2581653  89.79  0.002259114    1.688    0.408
        13 -10.2743    146.3879    238.1380   1.1632612554e+02   9.0865410319e+00    0.3462522    0.2719089  47.85  0.001662091    1.240    0.193
        14  -8.7268      2.1552    249.0326   1.4234752113e+02   2.4454847350e+01    0.1245729   0.09288963 -61.29  0.001084882    1.995    0.499
        15  -9.7048      5.1047    236.9888   1.4155340694e+02   2.6078602147e+01     0.164779      0.10239  49.48 0.0005574409    1.222    0.181
        16  -9.1361    188.4309    234.2386   1.0807495940e+02   3.3934743156e+00    0.2287061    0.1534912  49.37  0.001271873    1.778    0.437
        17  -7.7755    222.9192    234.2717   1.0198268557e+02  -1.5945109472e+00     0.160723    0.1051671  21.72 0.0003516351    1.116    0.104
        18  -9.2514    152.6065    221.0163   1.1302661807e+02   1.0558309650e+01    0.3946546    0.3369876  34.67  0.002785888    1.102    0.093
        19  -8.7803    156.0303    230.5454   1.1359795121e+02   8.7001752140e+00    0.3988629    0.1805749  49.83  0.001945435    2.423    0.587
        20 -10.2634    148.4432    227.0820   1.1460938215e+02   1.0319682363e+01    0.5512393    0.2909964  31.36  0.001788278    1.633    0.388
        21 -10.1364    109.3546    223.8853   1.2183125372e+02   1.6495818900e+01    0.4109266     0.247151  42.22  0.002545108    1.305    0.234
        22  -9.5443     99.2168    232.4034   1.2460599649e+02   1.6532414611e+01    0.3624777    0.1921736  22.24  0.001851759    2.712    0.631
        23  -9.8964    107.4006    230.5300   1.2287566900e+02   1.5720729320e+01    0.5928803    0.2521506  40.14  0.003195054    1.794    0.443
        24  -7.8660     98.8125    218.4169   1.2334995941e+02   1.8842677039e+01    0.1726931    0.1485158  59.99 0.0007580387    1.117    0.104
        25 -10.2499    104.7194    225.5492   1.2290145636e+02   1.6871525888e+01    0.4004166     0.249008 -57.89    0.0025514    1.980    0.495
        26  -8.9382     89.4548    230.9859   1.2632305390e+02   1.8033268591e+01    0.2339057    0.1759079  83.72  0.001690294    1.473    0.321
        27  -7.3547    217.2768    230.9872   1.0246675833e+02  -4.4578481811e-01    0.1565463    0.1119377  18.79 0.0003902933    1.031    0.030
        28  -9.6696    139.6344    228.6220   1.1648805657e+02   1.1409668354e+01     0.405217    0.2412713  21.13  0.002265663    1.957    0.489
        29  -8.6058     84.9017    229.6603   1.2707013884e+02   1.8827955523e+01    0.1646581    0.1501076 -64.02 0.0009021739    1.415    0.293
        30  -8.9328    116.6754    229.8752   1.2103584341e+02   1.4535766360e+01    0.2535199    0.1491221  38.56  0.001561567    1.333    0.250
        31  -8.3276      2.7495    223.9915   1.4155361045e+02   2.8399387343e+01    0.1177558   0.06673099  88.58 0.0006144522    1.552    0.356
        32  -8.2288     86.6179    221.0742   1.2599980497e+02   2.0019751809e+01    0.2032019    0.1234735  48.80 0.0007799624    1.320    0.242
        33  -9.6063    102.3906    220.5771   1.2285954433e+02   1.7995687056e+01    0.3140551    0.1731898 -74.41   0.00174927    2.496    0.599
        34  -8.5720     71.4069    216.8759   1.2861073804e+02   2.2648146073e+01       0.1922    0.1175435  35.41  0.001215932    1.493    0.330
        35  -7.7698    127.2645    215.4725   1.1733826695e+02   1.5249599574e+01    0.1762786    0.0923639  45.70 0.0009440001    1.616    0.381
        36  -7.0070    202.4457    213.4267   1.0241253512e+02   3.8120222546e+00    0.1248933   0.09345181  20.51 0.0001580866    1.037    0.036
        37 -10.0613    110.4271    206.9998   1.1976180699e+02   1.9139909076e+01    0.4278345    0.1708559  37.47  0.002016802    2.084    0.520
        38  -9.1102    103.0597    211.2276   1.2174942973e+02   1.9468364831e+01    0.2562478    0.1311401  45.03  0.001039733    1.601    0.375
        39  -9.7338    108.5040    212.9999   1.2083706084e+02   1.8397499161e+01    0.2211764    0.1975222 -81.70 0.0008651865    1.304    0.233
        40  -9.8372    123.6084    206.8048   1.1701172951e+02   1.7215230184e+01    0.3901486    0.1831055 -51.85   0.00125956    2.544    0.607
        41  -7.5359      6.3316    208.6646   1.4041802164e+02   3.0747540204e+01    0.1123466   0.05004782  60.25 0.0007052177    1.733    0.423
        42  -9.9692    128.9115    202.7647   1.1538718905e+02   1.7079656169e+01    0.3210488    0.2485321 -30.04   0.00198946    1.647    0.393
        43 -10.2983     68.1014    203.0189   1.2811018190e+02   2.5526722562e+01    0.4953963    0.1482855  39.75  0.002261685    2.571    0.611
        44 -10.0507    116.8080    201.2139   1.1772681218e+02   1.9196262106e+01    0.5209358    0.2306248  55.22  0.001461762    2.893    0.654
        45  -8.6812     91.0984    204.1105   1.2345584581e+02   2.2368881958e+01    0.2485341    0.2118534  -3.83  0.001665349    1.625    0.385
        46 -10.4100    108.1320    198.6607   1.1924943875e+02   2.0937993675e+01    0.4229601    0.3070759  -4.14  0.002337161    2.205    0.546
        47  -9.7346    100.7249    196.1278   1.2053024613e+02   2.2472712097e+01    0.4123698    0.2186762  63.72  0.001941463    2.525    0.604
        48  -7.1835    126.2995    198.3650   1.1534697164e+02   1.8234900905e+01    0.1229555   0.09505299  -0.99 0.0007033714    1.727    0.421
        49  -9.0856     85.1145    197.1207   1.2398363191e+02   2.4452398099e+01    0.3070237    0.1620727  71.93  0.001454183    2.699    0.629
        50  -9.5701     68.4923    196.4860   1.2744593180e+02   2.6698157008e+01    0.2824706    0.2604493  -7.02  0.002046502    1.481    0.325
        51  -9.6437    111.5494    193.0985   1.1781556795e+02   2.1432778707e+01    0.2936635    0.1696014  25.21  0.001171511    2.000    0.500
        52  -8.1358     77.0244    191.2144   1.2510875052e+02   2.6631072521e+01    0.2558175    0.1477513  63.56  0.001394621    1.828    0.453
        53  -8.0510    249.6911    192.6732   9.0506801179e+01  -9.6049375731e-01      0.12815   0.07419257   8.56 0.0005675367    1.657    0.396
        54  -7.9107    243.4754    179.0444   8.9000216518e+01   1.5748185960e+00    0.1815576   0.09184966  -5.12 0.0008096973    2.557    0.609
        55  -9.0988    245.5401    166.5278   8.6198231111e+01   2.7782983962e+00    0.2227302    0.1879333   5.20 0.0006396472    1.153    0.133
        56  -8.2452    101.2150    163.0940   1.1597819126e+02   2.8840668937e+01    0.1818407    0.1709969  22.37 0.0004399853    1.152    0.132
        57  -8.5395    246.1767    161.8429   8.5146290382e+01   3.2601376350e+00    0.2054383     0.153275 -25.56 0.0006275215    1.363    0.267
        58  -7.0422    167.4903    159.4440   9.9834063832e+01   1.7925815059e+01    0.1437508    0.1244555  20.68 0.0001755503    1.039    0.038
        59  -9.0325    246.0440    157.0235   8.4180167743e+01   3.8925160668e+00    0.2022866    0.1588833   3.62 0.0004501363    1.026    0.026
        60  -8.6849    214.3424    155.1732   8.9392993673e+01   9.7481992496e+00    0.2710715    0.2218005 -22.32   0.00087313    1.241    0.194
        61  -7.5170     68.6128    144.8115   1.2154346228e+02   3.7390211649e+01    0.1844879     0.117234 -81.41 0.0009446809    1.709    0.415
        62  -8.0214    233.0956    137.0950   8.2085352763e+01   8.8487898205e+00    0.2041555    0.1719282   4.06 0.0004006307    1.015    0.015
        63  -7.8819    249.6668    132.3169   7.8306224714e+01   6.4744508983e+00    0.1217905    0.1029211 -52.32 0.0007047586    1.691    0.408
        64  -8.1877    248.5023    128.5149   7.7644140026e+01   7.1864271460e+00    0.1364026    0.1109145  -1.26 0.0008101147    1.044    0.042
        65  -7.4064    174.4342     90.4534   8.1643942103e+01   2.8780175315e+01    0.1543693    0.1447127   7.58 0.0001377049    1.006    0.006
        66  -8.2540      2.3795     89.1961   1.3398801903e+02   5.6048799030e+01    0.1730401   0.09236509 -87.36  0.000949911    1.684    0.406
        67  -9.2758    230.3414     81.6757   6.9219206205e+01   1.7246450350e+01    0.2859364    0.2191666  19.08 0.0001296416    1.417    0.294
        68  -7.8236    184.6630     77.9312   7.5968289362e+01   2.8402503464e+01    0.2185604    0.1847513 -26.07 0.0004515782    1.163    0.141
        69  -7.5771    234.4894     77.5351   6.7568907991e+01   1.6911886985e+01    0.1389245     0.126296 -18.88 0.0001125183    1.018    0.017
        70  -8.2079      3.6688     77.6620   1.3222135397e+02   5.8649892041e+01    0.1289416   0.06694557 -47.97 0.0007051966    1.739    0.425
        71  -8.3927     94.7806     52.6183   9.0843204025e+01   5.3687023722e+01    0.2541988     0.229351 -35.52  0.000655435    1.153    0.133
        72  -8.9442    129.7229     50.5925   7.9573694268e+01   4.6341032126e+01    0.2700613    0.2464708  -6.43 0.0003658955    1.071    0.066
        73  -6.8599     92.2993     37.3090   8.5672431506e+01   5.6873215228e+01    0.1495517    0.1061789   7.55 0.0002338039    1.598    0.374
        74  -7.4760     52.4795     36.5074   1.0123204910e+02   6.3785887076e+01    0.1372405    0.1133323 -21.19 -4.380781e-05    1.047    0.045
        75  -8.6756    225.2316     32.9789   5.7139355450e+01   2.4604293160e+01    0.3032616    0.2077047 -24.19 0.0009378574    1.429    0.300
        76  -7.3388     77.4696     29.4825   8.7686088224e+01   6.1038698205e+01    0.1417787    0.1238109  -2.05 6.000837e-05    1.007    0.007
        77  -8.7774     84.7389     21.1787   8.1186566471e+01   6.0877017438e+01    0.3203849    0.2233927 -37.73  0.001324564    1.559    0.359
        78  -9.3336     75.2193     18.0406   8.3194793967e+01   6.3201646828e+01    0.2956883    0.2498336 -28.72 0.0007496473    1.268    0.211
        79  -7.2478    170.4903     17.5132   5.9546572919e+01   4.0147288204e+01    0.1451915    0.1350161  50.16 0.0008102536    1.032    0.031
        80 -11.1231    240.4034    244.1830   1.0052089355e+02  -4.9343818594e+00    0.3668887    0.2589575  20.22 0.0005772483    1.116    0.104
