#   1 NUMBER                 Running object number                                     
#   2 MAG_AUTO               Kron-like elliptical aperture magnitude                    [mag]
#   3 X_IMAGE                Object position along x                                    [pixel]
#   4 Y_IMAGE                Object position along y                                    [pixel]
#   5 X_WORLD                Barycenter position along world x axis                     [deg]
#   6 Y_WORLD                Barycenter position along world y axis                     [deg]
#   7 A_WORLD                Profile RMS along major axis (world units)                 [deg]
#   8 B_WORLD                Profile RMS along minor axis (world units)                 [deg]
#   9 THETA_WORLD            Position angle (CCW/world-x)                               [deg]
#  10 FWHM_WORLD             FWHM assuming a gaussian core                              [deg]
#  11 ELONGATION             A_IMAGE/B_IMAGE                                           
#  12 ELLIPTICITY            1 - B_IMAGE/A_IMAGE                                       
         1 -14.8305     10.9513    154.5746   1.5058211639e+02   4.2223693731e+01     11.65649     3.047075  59.31   0.04709981    3.375    0.704
         2 -13.5796    192.2291     26.4968   7.2881575144e+01   3.3038448851e+01     1.511022     1.406239 -17.52  0.006766479    1.148    0.129
         3 -13.6723    207.1401      7.5462   6.5826817352e+01   3.1124772624e+01     1.535322     1.130113  44.83  0.008258359    1.570    0.363
         4 -12.9662      3.4626      6.6404   1.3436382358e+02   7.7171760354e+01     1.398902    0.6298266 -55.53  0.007486827    1.707    0.414
         5  -9.2773     81.4873    248.3698   1.4074517029e+02   1.7382837450e+01    0.2075882    0.1008658  61.39  0.001253199    2.123    0.529
         6  -9.5304    249.9788    249.9867   1.1188779058e+02  -4.7261329700e+00    0.1251606     0.080207  17.69  0.000691721    1.010    0.010
         7 -11.8724    139.1449    249.6187   1.3024960343e+02   9.6848524589e+00    0.6283897    0.1306842  40.54  0.002614869    3.218    0.689
         8 -11.6474    125.1899    249.9744   1.3281777257e+02   1.1522694512e+01    0.4967017    0.1587196  35.87  0.002471695    2.259    0.557
         9 -10.4768    198.7538    246.8531   1.1953690829e+02   1.9132471967e+00    0.2197926    0.1281575 -46.89  0.001417546    2.993    0.666
        10 -10.3921    237.7151    246.9807   1.1332879209e+02  -3.0402442592e+00    0.1426886   0.09879488  12.83 0.0006535674    1.103    0.094
        11 -10.1808    139.5951    245.2426   1.2973516623e+02   1.0166115505e+01    0.1573906    0.1024856 -31.82 0.0008655488    2.295    0.564
        12  -7.7404     25.3097    247.3004   1.5091428799e+02   2.3775668604e+01   0.08034994   0.07266571  28.20 0.0003962858    1.601    0.376
        13 -10.3758     35.2644    245.5188   1.4907458111e+02   2.3047354885e+01    0.4069441     0.219161 -62.54  0.002805253    2.617    0.618
        14  -9.4117    249.3014    242.6456   1.1099909325e+02  -4.0718334129e+00   0.08389038    0.0710422  24.06 0.0007038367    1.705    0.413
        15  -8.8945     13.0134    240.9186   1.5292745689e+02   2.5932705655e+01    0.1238178    0.1195789 -33.78  0.001138565    1.753    0.429
        16 -11.2440    184.8864    238.7106   1.2088950501e+02   4.6326809722e+00    0.2711259    0.1790272  47.37  0.001839022    1.699    0.412
        17 -13.2828      8.6596    202.5972   1.5278977958e+02   3.2830662734e+01     1.956884     0.700093  77.17  0.007321482    2.559    0.609
        18 -11.3129    173.1892    247.9487   1.2402422994e+02   5.2350584034e+00    0.4856783      0.17972  48.50  0.002166949    3.632    0.725
        19  -9.6342    177.4501    227.1900   1.2074691192e+02   6.9952329647e+00    0.1223838    0.1134143 -60.11  0.000939685    1.683    0.406
        20 -12.7603     38.9585    235.6016   1.4800595045e+02   2.4215306134e+01    0.2477152    0.2180666  57.66  0.000766348    1.336    0.252
        21 -14.0480     44.8028    228.1991   1.4655603093e+02   2.4790430855e+01    0.9067889    0.5136843  43.12  0.004989921    1.267    0.211
        22 -10.5324    172.9497    221.9050   1.2087819569e+02   8.2967001068e+00    0.2441617    0.1621796  26.65  0.001245362    1.216    0.178
        23  -8.9421    152.6570    213.0253   1.2357242382e+02   1.2541524308e+01    0.1527486    0.1304541  27.90 0.0003359414    1.129    0.115
        24 -11.5263     64.3499    200.6833   1.4081784934e+02   2.7311774712e+01    0.2303396      0.22156 -72.50 0.0005473774    1.395    0.283
        25 -11.6105     18.9350    199.2007   1.5054581730e+02   3.2535564109e+01    0.5442609   0.08819888  43.20  0.001283823    2.930    0.659
        26  -9.7561    192.2327    193.4919   1.1314958802e+02   8.9108350735e+00    0.4189329     0.273889 -69.58  0.001632402    5.728    0.825
        27 -11.8966     70.2732    192.2392   1.3880214154e+02   2.8134481825e+01    0.2379966    0.2303579  72.97  0.000509991    1.301    0.231
        28 -13.2479     67.0129    177.3518   1.3819905695e+02   3.1473703735e+01    0.4478699    0.2827299 -43.38  0.001704703    2.336    0.572
        29  -8.8655    103.8055    179.8377   1.2971533018e+02   2.5688858922e+01    0.1776934    0.1266063  58.13  0.000332186    1.329    0.248
        30 -10.8939     79.9427    179.1331   1.3527455521e+02   2.9366783024e+01    0.2249373    0.1998875  55.33 0.0003416002    1.114    0.102
        31 -11.7967     87.1777    169.5860   1.3241626024e+02   3.0234499744e+01     0.584243    0.5354122  27.34  0.003786207    1.263    0.209
        32  -9.9776     99.1958    153.3790   1.2713055674e+02   3.1699611963e+01    0.2807215    0.2494006 -61.01 0.0007192367    1.265    0.209
        33  -9.1280    102.0616    149.1203   1.2571145470e+02   3.2116598927e+01    0.1961516     0.181678  13.78 0.0003269374    1.265    0.209
        34 -12.0388     87.9680    152.7580   1.2997232894e+02   3.3626446951e+01    0.2643388    0.2518833  -2.18 0.0005573725    1.304    0.233
        35 -12.4601     67.0986    143.7242   1.3441370652e+02   3.8670895796e+01    0.7347172    0.4162706  57.62  0.002834361    1.741    0.425
        36 -10.7825    153.8994    229.2246   1.2533789725e+02   1.0177488472e+01    0.3376622    0.1082655  31.77  0.001396967    3.065    0.674
        37  -8.4358    192.2326    144.0174   1.0404507821e+02   1.5893512250e+01    0.1627794    0.1114329 -30.74  0.000393219    1.526    0.345
        38  -9.7637    110.3021    138.0111   1.2160242885e+02   3.3025786311e+01     0.369754    0.2670697 -10.18  0.001431371    2.281    0.562
        39 -10.6480     97.6732    135.3810   1.2455222789e+02   3.5825359950e+01    0.2551526     0.238089  35.06 0.0005866961    1.146    0.128
        40  -9.1620     86.1093    136.1128   1.2792024993e+02   3.7577021989e+01    0.2180202    0.1470868  64.28 0.0005477161    1.569    0.363
        41 -11.0801     56.0405    126.8182   1.3539600348e+02   4.4038754164e+01    0.4085737    0.1758891 -84.96   0.00149879    3.264    0.694
        42  -9.2365    107.2599    124.4434   1.1977581050e+02   3.6515108127e+01    0.1997886    0.1921755 -37.32 0.0005283448    1.167    0.143
        43 -10.1063    167.9065    112.9239   1.0194871569e+02   2.6084817991e+01    0.3063563    0.2689207 -85.00 0.0008057298    1.403    0.287
        44  -9.5719    203.3282    111.5857   9.4717953425e+01   1.8545829492e+01    0.2409204    0.1641958  -5.90 0.0007984829    1.740    0.425
        45  -8.6417     73.2743     86.2413   1.2188658166e+02   5.1331995507e+01    0.2273987    0.1033847  47.72 0.0006078709    2.361    0.576
        46 -10.4495    242.5043     83.0070   8.1986390380e+01   1.4302527025e+01    0.2103688    0.1164206 -26.75  0.001039987    1.611    0.379
        47  -8.4628    184.6641     77.6589   8.9232565959e+01   2.8033773064e+01    0.1594435    0.1135511  20.45  0.000705076    1.759    0.432
        48  -9.8372    156.6735     75.9312   9.4290901681e+01   3.5294504051e+01    0.2227103    0.2065165 -39.54 0.0008003107    1.102    0.092
        49 -10.6508      6.9940     63.2744   1.4507677496e+02   6.3915654539e+01    0.1710818    0.1521769 -65.16 0.0007901671    1.093    0.085
        50 -10.7382     28.2810     60.5059   1.3448687122e+02   6.3205539168e+01    0.3046619    0.2135471  42.92 0.0006415565    1.559    0.359
        51  -9.8218     19.7862     57.2084   1.3793553162e+02   6.4660789906e+01    0.2057349    0.1630176  41.77 0.0006652533    1.398    0.285
        52 -11.5276      2.4549     48.7995   1.4536972452e+02   6.7580310557e+01    0.5656672    0.1022894 -66.57  0.002078548    3.346    0.701
        53 -10.5798    152.9474    248.9572   1.2770342797e+02   7.8837646261e+00    0.1749221    0.1211221  35.44 0.0005429738    1.030    0.029
        54 -10.1294     98.8699    249.1485   1.3758639077e+02   1.5090273132e+01    0.1758707    0.1224787  42.39 0.0007118931    1.024    0.023
        55 -11.4350      2.6594     37.2779   1.4339898172e+02   7.0300338326e+01     0.459448    0.2035657  89.92  0.002113285    2.467    0.595
