#   1 NUMBER                 Running object number                                     
#   2 MAG_AUTO               Kron-like elliptical aperture magnitude                    [mag]
#   3 X_IMAGE                Object position along x                                    [pixel]
#   4 Y_IMAGE                Object position along y                                    [pixel]
#   5 X_WORLD                Barycenter position along world x axis                     [deg]
#   6 Y_WORLD                Barycenter position along world y axis                     [deg]
#   7 A_WORLD                Profile RMS along major axis (world units)                 [deg]
#   8 B_WORLD                Profile RMS along minor axis (world units)                 [deg]
#   9 THETA_WORLD            Position angle (CCW/world-x)                               [deg]
#  10 FWHM_WORLD             FWHM assuming a gaussian core                              [deg]
#  11 ELONGATION             A_IMAGE/B_IMAGE                                           
#  12 ELLIPTICITY            1 - B_IMAGE/A_IMAGE                                       
         1 -15.0170    106.0662    106.2072   7.6759779172e+01   4.0645802177e+01     2.264431     1.307759 -40.94   0.00935393    1.732    0.423
         2 -14.3212      6.7980     44.8983   9.7635984907e+01   6.7089101359e+01     1.606848     0.633822 -50.06  0.008065657    1.947    0.486
         3 -14.5651    166.1603     28.3180   4.0082280655e+01   4.0147515811e+01     1.272053    0.9145251  80.56  0.006550117    1.305    0.234
         4 -13.5426    119.7944     26.4933   4.7651359244e+01   5.1375181253e+01     1.232942    0.6312214  29.95  0.005123872    2.749    0.636
         5 -14.5120    122.0395     37.2100   5.0753410975e+01   4.9581693833e+01     1.459964    0.4843062  43.23  0.004966937    3.345    0.701
         6 -13.6456    132.2535     32.9799   4.7195693386e+01   4.7701327232e+01    0.7438052    0.5652483 -37.55  0.003203667    1.435    0.303
         7 -14.9689    146.9866     30.1181   4.3585243703e+01   4.4522649771e+01     1.316149    0.8016721  63.76  0.003540516    1.472    0.321
         8 -13.4779    187.5314     24.2435   3.6304760048e+01   3.5610173351e+01     1.485303    0.4722237 -55.99  0.004765806    4.809    0.792
         9 -13.4958    187.6517     12.9780   3.3565084054e+01   3.6804823351e+01    0.8891035    0.4692506 -44.85  0.004775735    1.829    0.453
        10 -13.3978      2.8572     10.5074   8.6613849573e+01   7.3343074546e+01     0.700532    0.3086095 -46.41   0.00389653    2.232    0.552
        11 -13.2389      8.2780      2.7264   7.9254344970e+01   7.3955433157e+01    0.5498964    0.3639672  39.60  0.002619539    2.305    0.566
        12 -15.9281     11.6464     22.8970   8.6959815729e+01   7.0688750785e+01     1.917875     0.889538 -22.64   0.00976631    2.232    0.552
        13 -14.1107     24.9598     14.1346   7.5539345105e+01   7.0610121057e+01    0.7733417    0.2887962  27.85  0.003658574    2.617    0.618
        14 -13.0483     44.3078     32.2518   7.4360878947e+01   6.5474610316e+01    0.6104059    0.5199034  12.77  0.004039187    1.154    0.133
        15 -13.4214    218.4731     15.7655   3.1364923216e+01   2.9720948098e+01    0.3905918     0.275258 -86.72  0.002521869    1.225    0.183
        16 -12.6970    214.7096      9.9510   3.0443235220e+01   3.1149576507e+01    0.3050771    0.2479119  85.04  0.001023346    1.161    0.139
        17 -15.3237     99.2540     11.5402   4.6936044673e+01   5.7538009526e+01     1.397062    0.7319706  58.46  0.004301926    1.644    0.392
        18 -12.2548     70.1321     16.2051   5.7080290104e+01   6.3157983850e+01    0.3467876    0.2918794  65.55  0.001542798    1.537    0.350
        19 -12.0493     59.7741     16.8029   6.1044978154e+01   6.5015079699e+01    0.2840637    0.2422811 -77.47  0.001732016    2.062    0.515
        20 -11.8698     46.6763     12.8826   6.4488958149e+01   6.7682270351e+01    0.2273765    0.1880768  39.19  0.001528975    1.391    0.281
        21 -13.9104     41.8874      4.3148   6.2307882376e+01   6.9367859919e+01    0.6312333    0.4398638  18.10  0.003427691    1.181    0.154
        22 -11.0970     75.8895     11.0870   5.3025136114e+01   6.2533501034e+01    0.2379243     0.159933  80.55 0.0008597147    2.541    0.606
        23 -12.0060    153.0587      8.7272   3.6475507486e+01   4.5278794966e+01    0.1956826    0.1866811 -59.57 0.0008237672    1.189    0.159
        24 -12.2172    224.2046      5.0444   2.8721640821e+01   2.9673595120e+01    0.2063249    0.1889924 -76.18 0.0005399877    1.279    0.218
        25 -11.8046    120.4225      3.7948   3.9902608380e+01   5.3368206855e+01    0.2180755    0.1282851  59.35 0.0008316584    1.390    0.281
        26 -11.1068    117.0740      1.4934   3.9715530967e+01   5.4318839838e+01    0.2474301     0.148357  85.44 0.0009021797    1.907    0.476
        27 -11.5452     81.7671      1.4474   4.7284368225e+01   6.2141278918e+01     0.369734    0.0950171  57.68  0.001424813    3.068    0.674
        28 -11.4491     61.2866      1.4963   5.3420132654e+01   6.6226598559e+01    0.3128825    0.1009319  52.97  0.001351009    2.681    0.627
        29 -12.9196     85.4436     14.7112   5.1732865684e+01   6.0225074072e+01    0.3963664    0.3463509 -13.47  0.001903323    1.263    0.208
        30 -11.6203    177.4043    167.7858   7.3227181311e+01   1.2432197593e+01    0.2190143    0.1336527 -33.68 0.0009528529    1.671    0.402
        31 -12.5014     51.6707    248.6161   1.1421520652e+02   1.5025420200e+01    0.3451517     0.314469 -89.17  0.002493827    1.236    0.191
        32 -12.8334      2.8781    248.4711   1.2353546352e+02   2.0316596356e+01    0.4920288    0.2643783  87.71  0.003111452    1.611    0.379
        33 -13.7237      9.5404    246.0224   1.2220515585e+02   2.0160863112e+01    0.7220531    0.3476698  63.50  0.003597822    1.726    0.421
        34 -11.3021    222.0000    166.9887   6.4106747342e+01   4.6768115619e+00    0.2326229   0.07016944 -40.99 0.0008028241    2.945    0.660
        35 -12.7514    206.6962    163.5190   6.6254739918e+01   7.9418262985e+00    0.4118532    0.1564494 -49.19  0.001435055    3.012    0.668
        36 -11.3792    192.9741    164.9868   6.9310918453e+01   1.0122499817e+01     0.231476    0.2104674 -23.48 0.0009109319    1.022    0.022
        37 -11.1444    200.6655    192.3074   7.3299956360e+01   3.5334479682e+00    0.1272992    0.1139593  85.36 0.0006416373    1.671    0.402
        38 -11.6735    206.2888    190.9656   7.1913625093e+01   2.8700517743e+00    0.2008222    0.1655135 -22.32 0.0007503791    1.085    0.079
        39 -12.1976     76.5752    156.8006   9.7133655427e+01   3.3154391420e+01    0.4074499    0.2837398  26.68  0.001267639    1.576    0.365
        40 -13.2997     73.1655    153.1069   9.7467009838e+01   3.4602398163e+01    0.6366835      0.46152  19.01  0.001565155    1.613    0.380
        41 -13.1535    246.9180    150.7080   5.6584315545e+01   3.5270480165e+00    0.5274915    0.3814952 -50.32  0.003042582    1.433    0.302
        42 -11.4775    109.4379    153.7340   8.7190827120e+01   2.8536616461e+01    0.3067091    0.1538597 -59.10     0.001138    2.143    0.533
        43 -11.3354    103.0162    150.4910   8.8317653285e+01   3.0483651693e+01    0.3211874    0.2056183 -38.88  0.001363658    1.698    0.411
        44 -11.7666    189.0000    149.9839   6.6862626027e+01   1.3896979523e+01    0.2526762   0.08033292 -42.95  0.000803041    2.947    0.661
        45 -12.3651      7.2352    146.0088   1.1567196199e+02   4.3385749206e+01    0.4880542    0.2882094 -58.72  0.002648416    1.476    0.323
        46 -12.3765    189.1762    156.0409   6.8165773608e+01   1.2631271916e+01    0.2628306    0.2214524  34.03 0.0009946374    1.245    0.197
        47 -11.6802    148.5038    141.0121   7.3992445726e+01   2.3985859763e+01    0.2528695    0.1525554 -46.17  0.001042843    1.620    0.383
        48 -12.3772    246.4512    137.7298   5.4013542907e+01   5.8259425784e+00    0.4712431     0.274132  62.98  0.002236024    2.757    0.637
        49 -10.5347     62.7466    138.6393   9.7960597492e+01   3.9789249587e+01    0.1539989     0.102808 -38.40 0.0006960273    1.617    0.381
        50 -12.4587     45.2096    134.0497   1.0264032181e+02   4.3112085308e+01    0.3748961    0.2604889 -76.45  0.001879696    1.433    0.302
        51 -13.8776     84.4498    115.2243   8.5917540356e+01   4.2456682750e+01     1.227036     0.760685  48.08  0.005180336    1.832    0.454
        52 -13.7658    108.7628    123.5160   8.0480172078e+01   3.6073638736e+01    0.8916841    0.8249047   0.98  0.004613262    1.135    0.119
        53 -12.2633    108.1739    243.8147   1.0186892354e+02   8.3586786020e+00    0.2052515    0.1577643  -6.39 0.0005968714    1.763    0.433
        54 -10.4682     58.5982    125.4792   9.6714958685e+01   4.3716029159e+01    0.1471826    0.1321954 -55.26 0.0001925637    1.019    0.019
        55 -14.2896    248.1854    114.0047   4.8876744789e+01   9.5647459522e+00    0.7137016    0.5131497 -22.75   0.00404404    1.555    0.357
        56 -11.9899     34.5860     86.9366   9.6755580760e+01   5.5886112184e+01    0.2957686    0.2193302 -37.09 0.0008655103    1.198    0.166
        57 -14.7781     18.0642    110.7955   1.0772087095e+02   5.1492621720e+01     1.157411     0.769483 -18.98  0.005662983    1.764    0.433
        58 -15.4043     26.3498     93.7752   1.0152000834e+02   5.5014927323e+01     1.666171     1.173175  11.07  0.009295573    1.603    0.376
        59 -12.3096    120.8541    112.4092   7.4122501393e+01   3.6251928271e+01    0.3566095    0.2567026  74.85  0.001481538    2.036    0.509
        60 -13.1480    236.1959    110.7364   4.9855229116e+01   1.2261877735e+01    0.3191174    0.1625109 -39.45  0.001505467    1.682    0.405
        61 -11.8489     63.2012    111.6494   9.2146895481e+01   4.6579134273e+01    0.3721455    0.1571438  42.90  0.001369807    2.736    0.635
        62 -14.5191     10.8959    103.5857   1.0906216623e+02   5.3743551240e+01    0.9309613    0.7073742 -44.67  0.005235422    1.186    0.157
        63 -13.7739      2.2207     97.1311   1.1115670052e+02   5.5779571630e+01     1.012714     0.291653 -71.27  0.003734809    3.019    0.669
        64 -12.2686    136.7656    103.3404   6.7369938363e+01   3.4824492631e+01    0.3862598    0.2740841  59.57   0.00139972    1.595    0.373
        65 -14.0545     95.6748    110.9882   8.1250556660e+01   4.1508876950e+01     1.125622    0.9180812 -89.89  0.005380735    1.594    0.373
        66 -11.8968     47.4524    100.1109   9.5024864135e+01   5.1395582642e+01    0.4611546    0.3373066  69.95  0.002269977    1.935    0.483
        67 -12.6804     42.6271     91.0917   9.4650588349e+01   5.4084431263e+01    0.5003841    0.3117023 -76.59 0.0007033947    2.208    0.547
        68 -12.3999     52.5127     97.9943   9.2652113146e+01   5.1295635077e+01    0.4385189    0.2498984 -20.60  0.001782719    2.447    0.591
        69 -12.9519     49.1596     94.1973   9.2948307271e+01   5.2604762113e+01    0.4664656    0.4551453  45.89  0.002840845    1.192    0.161
        70 -11.5224    163.8040     98.5155   5.9681261866e+01   2.9709806132e+01    0.2594543    0.2064037 -42.67 0.0002957943    1.225    0.184
        71 -12.4100     61.1277     97.9116   8.9489332855e+01   5.0184350219e+01    0.3929355      0.30756  83.45  0.001390245    1.794    0.443
        72 -12.1609      4.1182    119.9225   1.1367105497e+02   5.0106064240e+01    0.4639606    0.1965376  13.64  0.002118907    2.934    0.659
        73 -12.7300    136.1315     95.1976   6.5264599184e+01   3.6649522752e+01     0.396473    0.2795016  49.93  0.001529996    1.435    0.303
        74 -12.2689    230.4970     90.0308   4.6163205767e+01   1.6836451887e+01    0.2172808    0.1163553 -40.33  0.001045999    1.629    0.386
        75 -13.4503     28.8946    122.2083   1.0593035193e+02   4.7762471154e+01    0.4746878    0.3471122 -52.05  0.002256351    1.209    0.173
        76 -12.3448    187.8026     84.7437   5.1448238089e+01   2.6788492370e+01    0.3521641    0.1780665  42.21  0.001406185    2.454    0.593
        77 -14.1455    163.7619     71.6786   5.2426890941e+01   3.4589472141e+01     1.369795    0.8882456  60.03  0.006475043    1.540    0.351
        78 -13.6287    162.1011     79.9184   5.5023504383e+01   3.3562899031e+01     0.801204    0.5063348  23.86  0.003177624    2.602    0.616
        79 -14.6816    169.5816     77.1484   5.2793715383e+01   3.2295230132e+01     1.114225    0.6353189  51.84   0.00406389    1.759    0.431
        80 -12.7272     40.0934     68.4279   8.9426183915e+01   5.9413612589e+01    0.7627501    0.2229725  29.43  0.002796127    3.471    0.712
        81 -13.4423     66.0641     49.0752   7.2055399095e+01   5.9417426644e+01     0.935827    0.5708451 -25.91  0.004641217    1.702    0.413
        82 -13.7757     87.1180     65.4097   7.0349560310e+01   5.2771120232e+01     1.039757    0.6095046  13.03  0.004003657    2.809    0.644
        83 -13.6681     91.6060     58.0779   6.6338549565e+01   5.3181205927e+01    0.5269669     0.477061  -1.49  0.002359182    1.061    0.058
        84 -14.3280     53.9463     68.4377   8.3692662601e+01   5.7677232824e+01     1.169925    0.8108212 -13.13  0.006034668    1.567    0.362
        85 -12.8775     70.8432     75.4396   7.9421896803e+01   5.3707607989e+01    0.5160826    0.3494666  16.63  0.001768288    1.652    0.395
        86 -12.4578     77.1270     73.3758   7.6475890822e+01   5.3070506875e+01    0.5584236     0.321336 -23.73   0.00232217    2.228    0.551
        87 -13.1013     54.4135     81.8343   8.7601370988e+01   5.4768349686e+01    0.5655325    0.3699453 -47.55  0.002791887    1.406    0.289
        88 -14.0667     60.9955     75.7528   8.3232184405e+01   5.5163108702e+01    0.7501064    0.4955105 -28.23  0.001599075    1.543    0.352
        89 -11.9640    114.1798     80.1348   6.6739800100e+01   4.4475741870e+01    0.3999017    0.3240443 -64.49  0.001477842    1.488    0.328
        90 -12.8757     28.2281    245.6208   1.1864098412e+02   1.8318018483e+01    0.3944402    0.2649672  42.06  0.002578421    1.355    0.262
        91 -12.4418     17.5496     40.6682   9.0734521928e+01   6.7107355412e+01     0.225817    0.1821034 -13.20 0.0003036432    1.083    0.077
        92 -15.1285      6.6322     71.8035   1.0473997438e+02   6.1442704795e+01     1.071025    0.6983902 -48.51  0.004232881    1.203    0.169
        93 -14.0258      4.7016     63.5350   1.0370028948e+02   6.3361082231e+01    0.6606438    0.4131328  -1.40  0.003900933    1.726    0.421
        94 -12.8275    135.4303     80.0712   6.1066473831e+01   3.9746030243e+01    0.6675076    0.3897501  50.07  0.002365037    1.686    0.407
        95 -12.0508    211.4822     79.5016   4.6428520877e+01   2.2465612547e+01    0.1376835     0.122467 -59.87 0.0002173144    1.009    0.009
        96 -12.0952     26.9618     75.1231   9.6882901991e+01   5.9274298323e+01    0.5514365    0.3031243 -69.99  0.002549514    2.263    0.558
        97 -13.5048     44.7684     79.9630   9.0870279573e+01   5.6384386088e+01    0.7853702    0.5947579  56.07  0.004168181    1.828    0.453
        98 -13.3858    133.1422     66.7418   5.7608864697e+01   4.2630732131e+01    0.9183967    0.7015509   2.19  0.003749546    1.713    0.416
        99 -13.4820    199.6221     69.7212   4.5833144693e+01   2.6629134436e+01    0.5580056     0.267598  59.04  0.002196849    2.127    0.530
       100 -12.5178     31.4229     63.2737   9.1608874391e+01   6.1407956799e+01    0.5720968    0.2785465 -58.16  0.002632736    2.174    0.540
       101 -11.1819     99.8689     65.3114   6.6216374447e+01   5.0246991250e+01    0.2291021    0.1882195  63.71  0.000847725    1.448    0.310
       102 -13.3477     78.2344     59.7990   7.1474232386e+01   5.5439126754e+01    0.6575427    0.5090342 -39.90  0.003572199    1.340    0.254
       103 -13.0860     82.2904     54.5609   6.8184943780e+01   5.5590344018e+01    0.4871483    0.4309814 -17.46  0.002854999    1.113    0.101
       104 -13.7595    177.5494     56.9481   4.6008413888e+01   3.3658710066e+01    0.9358842    0.5405146 -50.85  0.003714439    1.765    0.433
       105 -14.7228    119.9883     54.5675   5.6994177828e+01   4.7623526467e+01    0.8382928    0.6552285  35.64  0.003236919    1.275    0.216
       106 -11.5860     38.8244     60.2954   8.7402892084e+01   6.1224142409e+01    0.2386106    0.1837922 -74.83  0.001292678    1.980    0.495
       107 -12.3351     24.5309     59.5475   9.3575850763e+01   6.2822731056e+01    0.4688715    0.2156845 -44.23  0.001606557    1.790    0.441
       108 -11.5728     17.8287     55.4779   9.5460223900e+01   6.4210249882e+01    0.3347569    0.1643333 -59.14  0.001645905    2.049    0.512
       109 -12.7963     99.8562     44.1177   5.8847053547e+01   5.3639791316e+01    0.6144556     0.375342  41.55  0.001730829    1.520    0.342
       110 -13.9964    103.0845     50.5631   6.0202961057e+01   5.1995079159e+01    0.6038069    0.4876614 -21.71  0.001041928    1.302    0.232
       111 -13.2399     98.1760     50.4074   6.1588287306e+01   5.3066157415e+01    0.4375263    0.3793852 -88.51  0.001576917    1.534    0.348
       112 -12.2016     37.2350     53.0089   8.5645502698e+01   6.2827349003e+01    0.2842089    0.1566851 -29.19  0.001408352    1.779    0.438
       113 -12.4330    135.9797     50.0472   5.1795468033e+01   4.4568390077e+01    0.4405579    0.2765104  28.20  0.001926731    2.136    0.532
       114 -10.5512     23.4813     50.4117   9.1165644925e+01   6.4743348500e+01    0.1287902    0.1003495 -23.03 0.0001461212    1.056    0.053
       115 -13.2858    158.0405     44.2774   4.5797417954e+01   4.0095578373e+01     1.092636    0.3668703  47.92  0.003818893    3.219    0.689
       116 -13.5196     95.2922    237.7873   1.0396986855e+02   1.1408627920e+01    0.4320822     0.249524 -53.34  0.002238607    1.953    0.488
       117 -13.4610     91.3347    232.1299   1.0419218946e+02   1.3132037820e+01    0.4498033    0.2616605 -87.63   0.00208607    2.443    0.591
       118 -12.9307    113.8579     38.1319   5.2999161912e+01   5.1348020980e+01    0.3791351    0.3391459   1.06  0.001247111    1.194    0.162
       119 -12.4399     24.6194    217.5480   1.1750796898e+02   2.4649564191e+01    0.4841524    0.3415319  76.54  0.003026823    1.213    0.175
       120 -12.9193     14.1168    221.9348   1.1999570182e+02   2.4729426620e+01    0.4366554    0.3097765  61.77  0.001711448    1.171    0.146
       121 -13.6490     26.0569    226.8516   1.1785658183e+02   2.2461234769e+01    0.7350346    0.3464114 -58.96  0.003778453    2.311    0.567
       122 -13.4976    138.6900     21.9721   4.2548883031e+01   4.7404225847e+01    0.9933181    0.2758104  63.00  0.003067447    3.052    0.672
       123 -13.9262    212.4311     41.4438   3.7552871174e+01   2.7900854289e+01     1.812558    0.5804079  74.35  0.006263152    4.184    0.761
       124 -13.3138     20.4196    224.8818   1.1888802891e+02   2.3468039852e+01    0.4836079    0.3733801 -42.95  0.002756857    1.815    0.449
       125 -13.8390     65.4883    223.4810   1.0903824921e+02   1.8539628607e+01     1.038435    0.6273085  48.72  0.005542329    1.479    0.324
       126 -10.7788     55.4838     40.9910   7.3135954346e+01   6.2450767365e+01    0.1804087    0.1202186 -32.63 0.0003480038    1.460    0.315
       127 -12.6405     75.7257     37.2954   6.3924372095e+01   5.9495381366e+01    0.4192409    0.2435657  46.99  0.001324686    1.686    0.407
       128 -11.6394     70.4754     36.4838   6.5472472119e+01   6.0586062567e+01    0.2655174    0.2234762 -17.81 0.0007736064    1.191    0.160
       129 -12.0721    105.1492     35.0025   5.4110418369e+01   5.3706362591e+01    0.4751378    0.2446413 -10.06  0.001845982    3.238    0.691
       130 -14.0937     64.1216    214.7697   1.0843840548e+02   2.0662069917e+01    0.6331882    0.4189208  56.22  0.003425134    1.419    0.295
       131 -12.4618    248.8165    216.3067   6.8812352390e+01  -7.3267790900e+00    0.2481601    0.2121715  19.74  0.001735953    1.404    0.288
       132 -13.9145     16.4964     30.8857   8.7586332952e+01   6.8935290963e+01    0.7021909    0.3755638  34.95  0.001433319    2.303    0.566
       133 -12.2827     94.4335    218.3333   1.0179629973e+02   1.5619396024e+01    0.2788944    0.1564822  38.43  0.001319617    1.612    0.380
       134 -12.1506     72.5154    207.4452   1.0562797974e+02   2.1217076085e+01    0.4095502    0.2941709 -84.54  0.002200591    1.448    0.309
       135 -11.8706    241.4646     36.1258   3.3611113652e+01   2.2574918221e+01    0.2496035    0.1576937  71.74  0.001273416    1.617    0.382
       136 -11.6155     41.1955    206.6489   1.1293174407e+02   2.5339807829e+01    0.1878905    0.1468838  78.37  0.001132574    1.134    0.119
       137 -13.2868    216.0246     28.4440   3.4300265662e+01   2.8770993267e+01    0.4023903    0.1354251 -43.65  0.001781642    2.514    0.602
       138 -12.4167     57.3231    203.0806   1.0877151442e+02   2.4242434902e+01    0.4397252     0.231733  82.54  0.001871323    2.471    0.595
       139 -13.0677     55.3918     27.1576   6.7384984144e+01   6.4494433947e+01     0.535471    0.2980178  45.35  0.002037662    1.893    0.472
       140 -12.0714     63.3506     25.1987   6.3407737057e+01   6.3380350256e+01    0.4246033    0.2148924  25.79  0.001723617    2.242    0.554
       141 -11.3154     88.6006     26.2269   5.5410284460e+01   5.8338773190e+01    0.2362625    0.1213955 -32.48  0.001133215    2.110    0.526
       142 -11.5553     30.7079     25.8715   7.8055362049e+01   6.8237349671e+01    0.2759176    0.1493361  13.79  0.001443999    1.963    0.490
       143 -10.7108     50.5425     44.0002   7.6411332697e+01   6.2704607210e+01    0.1782506    0.1186907 -35.41 0.0001103882    1.442    0.307
       144 -11.1330     36.1439     23.3311   7.4234950703e+01   6.7911135803e+01    0.2203435    0.1431714 -17.56  0.001309794    1.425    0.298
       145 -11.9171     46.6403     20.6708   6.8178512441e+01   6.6747017796e+01     0.285284    0.2015259   9.05  0.001259499    1.281    0.219
       146 -10.7113    198.4785    204.5065   7.6066347021e+01   1.6639229517e+00     0.136227    0.1198081  -4.27 4.327696e-05    1.040    0.039
       147 -11.6930    185.5838    203.7926   7.8608056579e+01   3.8539444483e+00    0.1861868    0.1314128 -50.93 0.0008638904    1.651    0.394
       148 -12.6180    248.4797    197.0165   6.5351820980e+01  -4.3496444239e+00    0.5237246    0.2236488 -43.89  0.002423208    2.370    0.578
       149 -12.6680     15.8554    196.6474   1.1790819149e+02   3.0289394106e+01    0.4644397     0.308351 -73.17  0.002351363    1.352    0.260
       150 -13.6884     30.0782    169.1778   1.1190195686e+02   3.5647841986e+01     1.206606    0.9466727  49.19  0.007113021    1.306    0.235
       151 -13.3988     22.3030    181.2119   1.1509946759e+02   3.3397859024e+01    0.8024719    0.4081576 -52.87  0.003900372    2.059    0.514
       152 -15.1293      7.9416    183.7067   1.1877223743e+02   3.4046136990e+01     1.225735     1.012234  89.43  0.008157174    1.036    0.035
       153 -15.2475     15.5068    175.2566   1.1625130396e+02   3.5466083815e+01     2.025585        0.872  55.77   0.00900841    2.480    0.597
       154 -13.0263    249.3515    182.6860   6.2497320317e+01  -2.1807500656e+00    0.4268404    0.1447564 -40.33  0.001783938    2.520    0.603
       155 -11.7447     49.0229    182.0435   1.0842491122e+02   3.0369722581e+01    0.3416681    0.1787332 -60.63  0.001586222    1.777    0.437
       156 -11.0576    218.5052    175.5240   6.6489912579e+01   3.7008390437e+00    0.1385675    0.1195116 -19.74  0.000561366    1.011    0.011
       157 -12.6500    243.6579    171.6353   6.1288520668e+01   4.6528013373e-01    0.2470892    0.1901479 -67.20  0.001360815    2.077    0.519
       158 -12.8092    124.3085    167.2048   8.5941309057e+01   2.2554798340e+01    0.6171142    0.4073114 -70.41  0.002597087    1.948    0.487
