#   1 NUMBER                 Running object number                                     
#   2 MAG_AUTO               Kron-like elliptical aperture magnitude                    [mag]
#   3 X_IMAGE                Object position along x                                    [pixel]
#   4 Y_IMAGE                Object position along y                                    [pixel]
#   5 X_WORLD                Barycenter position along world x axis                     [deg]
#   6 Y_WORLD                Barycenter position along world y axis                     [deg]
#   7 A_WORLD                Profile RMS along major axis (world units)                 [deg]
#   8 B_WORLD                Profile RMS along minor axis (world units)                 [deg]
#   9 THETA_WORLD            Position angle (CCW/world-x)                               [deg]
#  10 FWHM_WORLD             FWHM assuming a gaussian core                              [deg]
#  11 ELONGATION             A_IMAGE/B_IMAGE                                           
#  12 ELLIPTICITY            1 - B_IMAGE/A_IMAGE                                       
         1 -14.6732     29.2173     92.9076   1.3490375483e+02   5.4309531582e+01     1.334066    0.7085873 -79.26  0.006720039    1.920    0.479
         2 -15.6456      7.0455     69.4533   1.3811415520e+02   6.1041217409e+01     1.642882    0.7079186 -68.82  0.006133772    1.823    0.452
         3 -14.9277     42.3478      8.2606   1.0275860893e+02   6.9475646221e+01     1.649557    0.9503462 -24.34  0.007975392    1.549    0.354
         4 -13.3730      8.0178      3.3726   1.1793473529e+02   7.3740612781e+01      0.69446    0.4422995  30.07  0.004825878    1.987    0.497
         5 -14.0623     25.4124     31.9996   1.2096941383e+02   6.7436848037e+01     0.992392    0.7132955 -71.44  0.006125724    1.921    0.479
         6 -14.7796     22.7994     13.5618   1.1476522525e+02   7.0881717721e+01    0.9822884    0.5341547  30.59  0.005972127    2.120    0.528
         7 -15.1470      8.2001     29.4011   1.2807494414e+02   6.9172911088e+01    0.8674091    0.7765744  44.31  0.006795688    1.546    0.353
         8 -14.7680     13.8235     20.4915   1.2220683195e+02   7.0442378837e+01    0.7846127    0.5030164 -11.63   0.00366718    1.633    0.388
         9 -15.0174     85.2346     66.0067   1.0964595982e+02   5.3160658073e+01     2.944704     1.660589 -13.37  0.009619453    4.396    0.773
        10 -15.2390    119.2633     54.7411   9.5571157680e+01   4.8512551946e+01     1.613897    0.9013524  34.38  0.001946159    2.117    0.528
        11 -15.0841    122.5606     36.8371   8.8194440385e+01   5.0588220931e+01      1.56441    0.6071681  44.60  0.004162833    2.579    0.612
        12 -13.5287    187.1477     13.1786   6.8222285517e+01   3.6865278453e+01     1.077743    0.6769481  34.05  0.003620676    1.984    0.496
        13 -14.2327    189.7289     26.7917   7.1954833477e+01   3.4645495429e+01       1.7741    0.6250369 -51.21  0.005501317    3.823    0.738
        14 -12.4616    195.0098     23.5539   7.0284791382e+01   3.3634623777e+01    0.6761392    0.3590867 -33.37  0.002125154    1.870    0.465
        15 -14.9086    166.4538     30.3514   7.6681096263e+01   4.0383978782e+01     1.468772    0.7874814  65.42  0.002764964    1.793    0.442
        16 -14.5867    146.0986     30.7727   8.0631228153e+01   4.5630523889e+01     1.210415    0.6457452  60.12  0.004262616    1.776    0.437
        17 -13.2176    232.0429      2.2509   6.0739922838e+01   2.6512272329e+01     1.478557    0.2918602  65.70   0.00494179    3.925    0.745
        18 -12.4519    222.9436     21.5022   6.6458549320e+01   2.6661758685e+01    0.4224441    0.3683799 -79.71 0.0006066096    1.044    0.042
        19 -13.5197    214.9849      9.6607   6.4138164026e+01   2.9991593095e+01    0.8897626    0.4126789  60.77  0.003607624    2.030    0.507
        20 -13.9410    218.8446     14.9021   6.5143270002e+01   2.8446016502e+01    0.8316972     0.598044  30.31  0.004000501    1.856    0.461
        21 -15.6744     99.7976     12.9232   8.4511924367e+01   5.8761357726e+01     1.434854    0.7637134  50.56  0.002944894    1.734    0.423
        22 -11.7666    201.9966     11.4705   6.5980116039e+01   3.3145473918e+01    0.2486086    0.2002081  14.09 0.0008162744    1.581    0.368
        23 -11.3756    162.2873      8.9260   7.0273350442e+01   4.3866972429e+01    0.3307252    0.2019393 -72.38  0.001469674    2.057    0.514
        24 -11.2813    126.1631      9.0742   7.6649023564e+01   5.3068005652e+01    0.2249078      0.17254  30.60  0.001226068    1.283    0.221
        25 -11.0182    153.8449      8.1086   7.1289113856e+01   4.6154118411e+01    0.2062488     0.183475 -82.10  0.000343722    1.171    0.146
        26  -9.9804     80.3426      8.2675   8.8138457349e+01   6.3256165012e+01    0.1343143   0.08493406  23.14  0.000377556    1.605    0.377
        27 -11.5973    121.0123      4.1170   7.5744343468e+01   5.4776349787e+01    0.3123845    0.1833179  73.21  0.001468931    1.896    0.472
        28 -11.5770     26.4018      3.9109   1.0820407412e+02   7.1996725448e+01    0.2147637     0.146635   7.84   0.00112151    1.428    0.300
        29 -11.1705     59.3799      1.8491   9.2272003356e+01   6.7726370057e+01    0.2633514    0.1671315 -20.10  0.001562899    1.447    0.309
        30 -10.4245     62.4787      1.4976   9.0919507541e+01   6.7243175983e+01    0.2025802    0.1113227  45.30 0.0007179794    1.800    0.445
        31 -13.8204    215.2453     20.5694   6.7031311390e+01   2.8720341567e+01    0.6899232    0.5386867 -21.56  0.002436168    1.435    0.303
        32 -11.9888     81.1474      1.7998   8.4776132263e+01   6.3770317945e+01    0.5167382    0.1372023  50.19  0.001978419    3.140    0.681
        33 -11.3718    109.4482    183.5138   1.2858818661e+02   2.3277887292e+01    0.2351896    0.1238108  32.26  0.001036937    2.376    0.579
        34 -13.2543     54.9438    247.0046   1.4506542452e+02   1.9462794221e+01    0.7998948     0.431385  31.07   0.00464314    2.768    0.639
        35 -14.1808     26.8755    244.4225   1.4938121124e+02   2.3160318607e+01    0.9924803    0.4802802  83.93  0.006720684    1.774    0.436
        36 -13.7246     10.6946    210.6421   1.5038986208e+02   3.0778473248e+01    0.7115627    0.4595357  48.61  0.005280684    1.458    0.314
        37 -12.5434     24.3448    217.3239   1.4840872251e+02   2.8171326989e+01    0.5069734    0.2750181  73.21  0.003422571    1.432    0.302
        38 -13.6822     25.6129    227.7698   1.4875600626e+02   2.6154111465e+01    0.5495258    0.2984535 -62.47  0.003641756    2.295    0.564
        39 -13.7816     20.3503    224.4314   1.4945275093e+02   2.7302494685e+01    0.3982144    0.3116814  65.20   0.00161255    1.249    0.200
        40 -14.3456      8.9760    245.6017   1.5215750581e+02   2.4828794437e+01    0.7630153    0.3170834  58.80   0.00296288    1.630    0.386
        41 -13.5778     86.4171    180.5223   1.3313454937e+02   2.7575553326e+01    0.7131518    0.3308076  57.54  0.003237475    2.221    0.550
        42 -12.6876    201.4586    191.5563   1.1119844450e+02   4.8036055279e+00    0.3833646    0.2891617  22.28  0.002021116    1.304    0.233
        43 -12.0292    194.7330    177.6525   1.0989376495e+02   8.2803302622e+00    0.2518495    0.2431601  -9.80  0.001339256    1.129    0.115
        44 -13.4807    124.0338    166.7771   1.2277140302e+02   2.4139733430e+01    0.6852322     0.425186 -71.55  0.003209227    1.962    0.490
        45 -10.9148    177.4881    167.5107   1.1136346802e+02   1.3476967373e+01    0.1426666    0.1307534  38.85 9.428438e-05    1.004    0.004
        46 -12.6831     25.3221    156.9382   1.4397594659e+02   4.0232919409e+01    0.4901229    0.3654277  60.05  0.003398647    1.268    0.211
        47 -12.6314     77.5940    157.2590   1.3198963249e+02   3.3909032820e+01    0.4075102    0.2970157  38.28  0.001295781    1.505    0.335
        48 -13.4736     74.1955    153.4978   1.3225573876e+02   3.5237880415e+01    0.7137559     0.489747  37.59  0.003127219    1.597    0.374
        49 -12.6726    122.3156    155.8784   1.2123701098e+02   2.6752056371e+01    0.3924624    0.3170155  17.51  0.002047044    1.654    0.395
        50 -12.8827    111.4483    155.4811   1.2370816521e+02   2.8819427824e+01    0.6120145    0.3505224  75.89  0.002399897    2.818    0.645
        51 -11.8958     55.5872    156.1982   1.3700927453e+02   3.7101458237e+01     0.319326    0.2449537   8.12  0.001401113    2.122    0.529
        52 -12.8602    208.2790    154.9940   1.0267623881e+02   9.2916200603e+00    0.5974192    0.3403172  50.27  0.002715836    1.772    0.436
        53 -11.1932     94.3883    155.8119   1.2779711267e+02   3.1648636814e+01    0.1919786    0.1195827 -52.22 0.0009501749    1.700    0.412
        54 -12.2594     85.7912    153.4450   1.2947236061e+02   3.3533561641e+01    0.4925573    0.3304644 -49.65  0.002592373    1.667    0.400
        55 -11.4739     41.8099    154.5032   1.4000717723e+02   3.9082588575e+01     0.283941     0.148511  71.65  0.001441203    2.046    0.511
        56 -12.1657    103.5452    149.6831   1.2457184722e+02   3.1476815099e+01    0.3485627    0.2994657 -46.79   0.00142128    1.328    0.247
        57 -12.1811      6.4255    147.7609   1.4740740027e+02   4.3835598757e+01    0.3767856    0.2254003  67.51  0.002451986    1.486    0.327
        58 -11.7930    244.7590    147.3366   9.4532859085e+01   3.1774458184e+00    0.2477222    0.1923002 -20.88  0.001404731    1.209    0.173
        59 -11.4343     44.6233    145.2709   1.3828123402e+02   4.0837349977e+01    0.2046458    0.1813489  81.53 0.0004078711    1.134    0.118
        60 -11.4784     38.5242    145.6643   1.3979444265e+02   4.1406725948e+01    0.2017806    0.1798101 -89.93 0.0006043607    1.161    0.139
        61 -11.7694     88.7908    140.9716   1.2667656955e+02   3.5880164789e+01    0.3296547    0.2579198  -4.22   0.00168047    2.073    0.518
        62 -11.4416    149.1572    140.8970   1.1199761977e+02   2.4555603132e+01    0.2914752    0.2509666 -88.35   0.00151902    1.282    0.220
        63 -13.0048     44.2433    137.2769   1.3737106659e+02   4.2692413305e+01    0.8944985    0.3510582 -57.06  0.004102406    2.311    0.567
        64 -11.2004     39.4434    136.3275   1.3845462998e+02   4.3420411086e+01    0.2141359    0.1932323  27.32  0.001063446    1.441    0.306
        65 -10.5433     56.4951    137.4954   1.3430536400e+02   4.1222357335e+01    0.1295854    0.1101773 -83.39 -7.042054e-05    1.029    0.028
        66 -12.5034    246.1910    134.7268   9.1517071313e+01   4.7770833383e+00    0.3909504    0.3161144 -68.33  0.002123062    1.736    0.424
        67 -12.0782     62.9121    134.4046   1.3219590116e+02   4.1123690788e+01    0.4541145    0.2723911  50.81  0.002378132    1.710    0.415
        68 -13.2338    232.1580    133.9488   9.3671100953e+01   7.7465146729e+00    0.5134988    0.3096877  43.80  0.002444968    1.671    0.401
        69 -12.7472    133.5600    131.8019   1.1367520552e+02   2.9734610594e+01    0.6796212    0.5220128 -86.18  0.003271762    1.580    0.367
        70 -12.2678    110.8341    131.7291   1.1931411243e+02   3.4191999614e+01    0.5232787    0.4254422  14.02  0.002465263    1.659    0.397
        71 -12.3349    109.4449     88.8014   1.0919237357e+02   4.3966073334e+01    0.4092346     0.276201 -43.76 0.0002710066    1.438    0.304
        72 -13.0702    111.7126    101.2958   1.1196276202e+02   4.0820260445e+01    0.5371917    0.3710018  52.95  0.002060255    1.533    0.348
        73 -12.5897    109.9465     96.0569   1.1106123291e+02   4.2308341477e+01    0.3409269    0.2820158 -88.78 0.0003482309    1.419    0.295
        74 -14.5520    104.7053    123.2885   1.1910569143e+02   3.7214504235e+01      2.46775    0.9421138  36.65  0.008640535    3.066    0.674
        75 -15.0307    105.8985    108.8271   1.1546042247e+02   4.0259329790e+01     1.899206     1.363087 -66.05  0.009069537    1.481    0.325
        76 -12.7098    223.0542    128.2385   9.3931495992e+01   1.0601132193e+01    0.3700974    0.3141593 -62.49  0.001983108    1.417    0.295
        77 -12.9328      4.0366    119.8604   1.4560470058e+02   5.0099714376e+01    0.5304636    0.4532205 -68.02  0.003077409    1.239    0.193
        78 -14.6577     29.8864    118.9593   1.3869577519e+02   4.8311480100e+01     3.363788    0.2240423 -59.46   0.01024171    5.133    0.805
        79 -14.6595      2.5891     96.7750   1.4353301984e+02   5.5295895570e+01     1.472583    0.6778888 -84.69  0.006245856    1.976    0.494
        80 -14.9736     18.2760    111.4334   1.4089050150e+02   5.0985676540e+01     1.045428    0.8523116  81.29   0.00546394    1.177    0.150
        81 -15.1535     20.8796     96.6920   1.3808829875e+02   5.4120500448e+01     1.253401    0.8246107 -78.88  0.007270074    1.314    0.239
        82 -13.5522    171.2205    242.1650   1.2455762988e+02   2.8752987703e+00    0.6886693    0.3455095  39.15  0.003830716    1.590    0.371
        83 -11.2096    184.9676    124.2472   1.0026184598e+02   1.9881339888e+01    0.2366628    0.2101465 -86.17 0.0004762145    1.295    0.228
        84 -12.3523    180.6556    121.1001   1.0038681248e+02   2.1474751512e+01    0.4047989    0.2998901  50.08  0.001353314    1.330    0.248
        85 -12.0994     46.2154    109.4673   1.3266860046e+02   4.8882145068e+01    0.4221978    0.2908642 -51.89  0.001807239    1.382    0.276
        86 -12.0079    176.0888    111.6511   9.8964727673e+01   2.4355466878e+01     0.281788    0.2206864 -51.93  0.001342094    1.342    0.255
        87 -12.3431    121.1884    111.6779   1.1206233174e+02   3.6654382146e+01    0.3850745    0.2515252  64.81  0.001488847    1.896    0.473
        88 -13.0880     62.3714    102.5698   1.2658661347e+02   4.8565593745e+01     1.331694    0.5912116 -66.85  0.005522524    2.363    0.577
        89 -12.2168     48.8738     93.8782   1.2891928802e+02   5.2173612927e+01     0.423226    0.3090512  81.04   0.00239804    1.618    0.382
        90 -12.8534     43.0158     91.2727   1.3023765694e+02   5.3390288967e+01    0.8161266    0.2541575 -62.60  0.003199942    2.737    0.635
        91 -12.7686     47.2637    100.3338   1.3069939681e+02   5.0872973024e+01    0.5037031    0.3821236  42.12  0.003059269    1.492    0.330
        92 -12.4690     52.7136     98.1328   1.2860049066e+02   5.0766635252e+01    0.4286687    0.3023204 -30.86  0.002072563    1.751    0.429
        93 -10.8941    222.5050    109.5190   8.9518119846e+01   1.3821146051e+01    0.1458525    0.1400625 -26.78 8.233864e-05    1.023    0.022
        94 -10.7404    152.1840    105.3932   1.0269188054e+02   3.1221115276e+01     0.230766    0.1471081  60.69 0.0009556095    1.752    0.429
        95 -12.9516    136.9923     96.1834   1.0388980414e+02   3.6579692477e+01    0.5175336    0.3834898 -56.90  0.001554314    1.441    0.306
        96 -13.0161    134.9522    103.2184   1.0632834145e+02   3.5567565191e+01     1.015662    0.3798891  50.50   0.00253985    2.805    0.644
        97 -12.9671    123.1812    102.9178   1.0929555971e+02   3.8151303533e+01    0.5853767    0.3742888  42.73  0.002618702    1.610    0.379
        98 -12.1970    128.2300     95.9115   1.0606796001e+02   3.8569740906e+01    0.3527301    0.2219591  63.29   0.00145955    1.975    0.494
        99 -13.9572     89.8253    109.5608   1.2011380850e+02   4.2916898796e+01     1.198305    0.7783902  27.66  0.005661283    1.934    0.483
       100 -11.1532     76.0088     95.8275   1.2094692421e+02   4.8214233001e+01    0.1979749    0.1831216 -62.35  0.000280855    1.022    0.021
       101 -13.8827    188.3644     84.3524   8.9084731203e+01   2.6368752613e+01     1.690315    0.8140476  62.33  0.001735548    2.347    0.574
       102 -14.7329    160.7949     80.4942   9.3670532177e+01   3.3989916287e+01      1.68076     1.118123  20.02  0.001272716    2.247    0.555
       103 -14.5865    170.8861     77.0545   9.0479680558e+01   3.2076020228e+01     1.106075    0.7913368  40.14  0.005014602    1.489    0.328
       104 -11.8989     89.5714     87.5931   1.1469855339e+02   4.7884669008e+01    0.4388787    0.2634557  49.97  0.002020729    1.874    0.466
       105 -12.2385    125.3543     86.3846   1.0410680041e+02   4.1167142751e+01    0.4183944    0.3595428  48.31   0.00215807    1.182    0.154
       106 -12.7509    132.6780     86.1320   1.0210902495e+02   3.9597153819e+01     0.421471    0.2903672  50.52  0.001823536    1.470    0.320
       107 -13.4871     84.4872    115.6561   1.2294913706e+02   4.2378140419e+01     1.148162    0.5829424  26.93  0.004599726    2.853    0.649
       108 -12.5878    241.8179     83.8342   8.0122763068e+01   1.3509447666e+01    0.4975687    0.3093176  69.15  0.001895143    1.904    0.475
       109 -13.2155    238.2210     80.4283   7.9782817450e+01   1.4847299182e+01      0.57961    0.3712368  74.20  0.002606104    1.907    0.476
       110 -12.5456    146.1804    237.9377   1.2848176113e+02   7.5720804512e+00     0.475263    0.2565118  61.30  0.002489604    2.160    0.537
       111 -12.8807     34.5181     33.0049   1.1727144287e+02   6.6397558642e+01    0.5970157    0.3569686  51.72  0.003078345    2.940    0.660
       112 -12.1196    145.0067    231.5025   1.2791331974e+02   8.7310114517e+00    0.3238079    0.1648445 -40.03  0.001642013    2.932    0.659
       113 -12.4734     15.9529    197.7016   1.4878244715e+02   3.2728950625e+01    0.5550052    0.1663856 -62.22  0.002659692    3.495    0.714
       114 -13.5286      8.6537     42.9620   1.3177762879e+02   6.6495856504e+01     0.808175    0.5796471  59.22  0.005327806    2.034    0.508
       115 -13.5659     57.4994    202.4757   1.4135182503e+02   2.7144354532e+01    0.8643815    0.2987208 -74.31  0.003939635    2.992    0.666
       116 -13.0336     53.0347    214.2903   1.4314377803e+02   2.5445296008e+01    0.4812851    0.2380501  65.17  0.002542852    1.771    0.435
       117 -13.4107     68.6217    221.1486   1.4085685271e+02   2.2166973106e+01    0.6069815    0.2441489 -68.36  0.003197332    2.561    0.610
       118 -14.8678     62.9815    215.0369   1.4138137477e+02   2.4038239716e+01     1.229813     0.772768  79.93  0.007929808    1.417    0.294
       119 -12.1090    219.7279     74.9705   8.1107898218e+01   2.0086748475e+01    0.3001319    0.2929691 -16.81 0.0004072883    1.071    0.066
       120 -12.8406    217.2401     79.6054   8.2725000271e+01   1.9962718861e+01    0.5310174    0.4374882  33.79  0.001624519    1.355    0.262
       121 -12.8936    210.6052     77.3838   8.3205436426e+01   2.1955029359e+01    0.6524825    0.4579034 -81.09  0.002597728    1.874    0.466
       122 -13.2703    135.1002     79.5931   9.9525243280e+01   4.0337898305e+01    0.9131749    0.4465908  53.58  0.003323909    2.143    0.533
       123 -13.7466    132.0887     66.6667   9.6216286699e+01   4.3470761934e+01      1.34633    0.9384735  49.54  0.006286979    1.431    0.301
       124 -14.0752     97.4457    217.1339   1.3513089085e+02   1.8770295505e+01    0.6255895    0.5115134  16.75  0.003983233    1.920    0.479
       125 -11.2612    249.2118    225.3925   1.0868998357e+02  -7.6014454869e+00    0.1604557   0.09437554  43.57 0.0009600317    1.703    0.413
       126 -14.9638     57.6255     74.4650   1.2144844242e+02   5.5476363892e+01      1.48103     1.093945 -57.93  0.002854516    1.232    0.188
       127 -13.1650    111.1852     42.0584   9.3190341971e+01   5.2382628249e+01    0.5621299    0.3241877  43.74  0.001380773    1.713    0.416
       128 -12.3699     85.2605    215.3841   1.3725626054e+02   2.0899298845e+01    0.2802818    0.1947041  66.92  0.001418148    1.198    0.166
       129 -10.7018     98.2645     84.1906   1.1112685909e+02   4.7079512246e+01    0.1955603    0.1683517 -88.58  0.000495215    1.357    0.263
       130 -11.7713     91.0753     80.1199   1.1212706905e+02   4.9234825049e+01    0.4201085    0.3302653  10.28  0.001855597    1.594    0.373
       131 -12.2926     41.8636     77.2488   1.2756527605e+02   5.6648910170e+01    0.3266996    0.2381147 -55.20 0.0006720452    1.144    0.126
       132 -12.8901    192.2449     74.4479   8.5565131227e+01   2.7071509142e+01     0.466812     0.381298 -87.10   0.00150783    1.385    0.278
       133 -13.5036    199.5315     69.9600   8.3013387234e+01   2.5942118576e+01    0.8663033    0.4581346  51.51  0.002343424    1.891    0.471
       134 -13.1548     39.2158     68.1661   1.2628514735e+02   5.8892640110e+01    0.8209114     0.420838  23.66  0.004199018    2.395    0.583
       135 -11.9984    113.8517     80.6405   1.0555177354e+02   4.4778643625e+01    0.3925818    0.3758053 -66.79  0.001368224    1.074    0.069
       136 -14.2772    101.3510     50.3102   9.9127969356e+01   5.3093311502e+01    0.9213811    0.6501957  62.04  0.002820413    1.775    0.437
       137 -12.0341    158.2756     64.4068   8.9302431246e+01   3.7470040915e+01    0.4889375    0.2178152 -44.30  0.001756039    2.355    0.575
       138 -11.5036    100.3209     64.6643   1.0445198970e+02   5.0666714219e+01    0.3097491    0.2695742  14.26  0.001053431    1.229    0.186
       139 -13.5221     79.2599     60.2836   1.0974582996e+02   5.5296808125e+01    0.6724629    0.4889498 -12.85  0.003469497    1.667    0.400
       140 -13.9006    177.8743     57.7732   8.3300691354e+01   3.3489361332e+01    0.8211272    0.6446515 -60.82  0.002191418    1.383    0.277
       141 -12.6053     63.9087     58.0516   1.1436345726e+02   5.8072162735e+01    0.3561538    0.2390666  34.29  0.001513574    1.650    0.394
       142 -13.0775     25.5989     59.4811   1.2915787359e+02   6.1948535837e+01    0.4289277    0.2441116 -39.30   0.00200674    1.637    0.389
       143 -12.3033    250.0560     48.9508   7.0491037478e+01   1.6637229539e+01    0.4783915    0.3408906  18.02  0.001306202    2.089    0.521
       144 -11.7363    230.6108     55.2302   7.4381030644e+01   2.0371352462e+01    0.4214389    0.2368443  79.74  0.001791968    2.176    0.541
       145 -12.1418     38.9330     60.4559   1.2434407535e+02   6.0558013915e+01    0.2958717    0.2511806  71.98  0.001920182    1.526    0.345
       146 -12.8591     75.8882     37.5369   1.0257423022e+02   5.9993535014e+01    0.3436214     0.250318  37.65 0.0008903982    1.434    0.303
       147 -12.6090     65.4213     51.2298   1.1150830678e+02   5.9189368403e+01    0.4037746    0.3548209  74.24  0.002450668    1.547    0.354
       148 -12.8289     67.9594     46.0097   1.0870104156e+02   5.9788034640e+01     0.857954    0.3930482 -50.15  0.003720641    2.322    0.569
       149 -11.0705     66.5129     38.5566   1.0639104853e+02   6.1333713932e+01    0.2197918     0.156229  23.25 0.0005694451    1.506    0.336
       150 -11.9409     70.4969     36.5111   1.0410241541e+02   6.1055140721e+01    0.2881315    0.2186643  26.93 0.0007443869    1.357    0.263
       151 -11.7383    248.7920     55.5972   7.2255645878e+01   1.6021173194e+01    0.4756241    0.2629934 -54.87  0.001991892    1.895    0.472
       152 -11.4610     86.3988     49.5376   1.0358111004e+02   5.6087559010e+01    0.2348729    0.2169233 -15.85 0.0005991633    1.018    0.017
       153 -10.6316     23.2726     50.0154   1.2758342861e+02   6.4093434160e+01    0.1668473    0.1266785 -51.41 0.0004815646    1.063    0.060
       154 -13.1375    169.0287     43.4509   8.0463017468e+01   3.7951054178e+01    0.6877027    0.2863455  61.86  0.002465656    2.334    0.572
       155 -13.0795    152.8346     46.8890   8.4775841545e+01   4.1660540677e+01    0.8234575    0.2659144  52.77  0.001186072    2.811    0.644
       156 -14.5478     94.0125    235.2884   1.3753707085e+02   1.6133066122e+01     1.031671    0.5118636  72.91   0.00525638    2.568    0.611
       157 -10.7976    157.4869    213.4831   1.2317134015e+02   9.4171591044e+00    0.1292486    0.1066174  47.31 0.0002525141    1.011    0.011
       158 -11.9067      2.9664    249.9802   1.5319664935e+02   2.4705219220e+01    0.2535067     0.142582  50.26  0.002024105    1.439    0.305
       159 -14.2791    217.5959     42.0567   7.2565116231e+01   2.5433041748e+01      1.22112    0.5974581  64.75  0.004714058    2.008    0.502
       160 -11.9439    201.5067     46.0251   7.5889800612e+01   2.9032715496e+01    0.2943996    0.2081778 -86.64  0.001372988    1.604    0.376
       161 -13.2959    159.2992     43.4261   8.2306711617e+01   4.0500669844e+01    0.7216579    0.3593691  60.25  0.002194847    1.940    0.485
       162 -13.5890    205.3324     40.3187   7.3719000868e+01   2.8817878803e+01    0.9178089       0.4798 -88.00  0.003344949    2.855    0.650
       163 -11.5144     25.8032     42.9143   1.2444675871e+02   6.5315695952e+01    0.1847701    0.1271745 -38.46 0.0004192514    1.213    0.176
       164 -12.7870    242.9247     36.2639   6.8137775272e+01   1.9965691370e+01    0.7469475    0.3635935  75.79  0.003257613    2.249    0.555
       165 -11.5838     51.9165     36.5673   1.1129079758e+02   6.3747270013e+01    0.3978093    0.1428389  34.86  0.001695883    3.082    0.676
       166 -13.0358     56.1486     27.6763   1.0594195822e+02   6.4682287247e+01    0.4465531    0.2985155  35.46  0.001840483    1.615    0.381
       167 -11.3182     45.4479     36.5100   1.1392229701e+02   6.4559618936e+01    0.1989148    0.1621204 -33.13 0.0006903986    1.047    0.045
       168 -12.0796     47.4152     32.1357   1.1139097005e+02   6.5097340804e+01    0.4340095    0.2484669  -7.88  0.001973597    2.635    0.621
       169 -12.7307    139.4267     21.6619   7.8709471490e+01   4.8436767086e+01    0.6631023    0.4875879  77.13 0.0006272976    1.490    0.329
       170 -10.7872    136.5332    211.0330   1.2687218439e+02   1.3485478649e+01    0.1695332    0.1265561 -59.37  0.000989633    1.569    0.363
       171 -12.8998    152.2774     31.3817   7.9617431260e+01   4.3963850945e+01    0.4665394    0.3287656  -5.23    0.0012721    1.724    0.420
       172 -10.8690     39.3258    210.9712   1.4538821554e+02   2.7707048367e+01    0.2463877   0.07348584  47.52  0.001218995    2.522    0.604
       173 -11.6226    211.4178     33.4031   7.0983427558e+01   2.8145706024e+01    0.2459341    0.2232411 -72.02  0.000222906    1.028    0.027
       174 -11.5731     80.3290    208.3444   1.3750233571e+02   2.2924487218e+01    0.2575936    0.1326404  67.56   0.00132891    2.018    0.504
       175 -13.0884    216.0240     28.9937   6.9218843576e+01   2.7516092979e+01    0.4698089    0.3241704 -63.56  0.001382191    1.473    0.321
       176 -10.7828    149.6228    206.7119   1.2371026940e+02   1.1927511338e+01    0.2394706    0.1381002  36.58   0.00121681    1.662    0.398
       177 -12.8839     41.8707    201.1254   1.4421494000e+02   2.9307242315e+01    0.3212231    0.2226682  55.10  0.002231467    1.255    0.203
       178 -13.6048     39.4559    195.1438   1.4422039471e+02   3.0765087983e+01    0.7773288    0.2932366  51.18  0.004049272    2.198    0.545
       179 -11.3537     97.1831     30.5855   9.2749350768e+01   5.7070810643e+01    0.2642136    0.2032161  16.02  0.001048831    1.346    0.257
       180 -11.7735     97.8148     27.3845   9.1240562618e+01   5.7389709217e+01    0.3200662    0.2868091 -22.13  0.001303144    1.133    0.118
       181 -10.3856     89.2764     30.3399   9.5104795785e+01   5.8684606832e+01    0.1392399   0.09834749   5.70 0.0002363418    1.617    0.381
       182 -10.9859    212.4671    200.4991   1.1076385240e+02   1.4943223269e+00    0.1305883    0.1077507  23.40 0.0001075126    1.045    0.043
       183 -11.2792     70.8094     16.9851   9.5503985770e+01   6.3943231115e+01    0.1983657    0.1676538  23.20 0.0004056834    1.140    0.123
       184 -12.4283    164.1419    194.7485   1.1898599855e+02   1.1307342907e+01     0.607482    0.3390753 -63.34  0.002695345    2.769    0.639
       185 -13.3093     29.8825    170.0416   1.4412807225e+02   3.6969830746e+01    0.6823091    0.6262021 -45.86  0.004153597    1.583    0.368
       186 -13.6067     22.4903    181.0033   1.4648123146e+02   3.5423201431e+01    0.5538821    0.4497084  72.30  0.003115703    1.165    0.141
       187 -14.9699      8.0309    183.6626   1.4944352529e+02   3.6230883379e+01     1.055015    0.7701536  75.26  0.008084602    1.059    0.055
       188 -15.2118     15.4523    175.4042   1.4748902941e+02   3.7241664632e+01      2.27496    0.9885836  76.74   0.01158214    2.178    0.541
       189 -10.5039    107.6402    193.1308   1.3028349468e+02   2.1668573018e+01    0.1705827    0.1154754 -52.02 0.0009432324    1.743    0.426
       190 -10.5195     81.2784    193.4021   1.3574308514e+02   2.5703094272e+01    0.1806554     0.095961  51.63 0.0009522275    1.627    0.385
       191 -12.3416    121.2846     27.5761   8.4981718257e+01   5.2150952048e+01    0.3557189    0.2643034  71.45  0.001042679    1.557    0.358
       192 -10.8361    100.6522    185.6866   1.3076205194e+02   2.4287811826e+01    0.1192665    0.1054868  -5.57 0.0003882905    1.718    0.418
       193 -12.5330     48.7582    180.9753   1.4116219174e+02   3.2575385306e+01    0.5301584    0.2697469 -67.67  0.002956185    1.821    0.451
       194 -11.6007    122.5219    181.8853   1.2554749170e+02   2.1345022335e+01      0.44637    0.2544556  79.20  0.001789948    3.021    0.669
