#   1 NUMBER                 Running object number                                     
#   2 MAG_AUTO               Kron-like elliptical aperture magnitude                    [mag]
#   3 X_IMAGE                Object position along x                                    [pixel]
#   4 Y_IMAGE                Object position along y                                    [pixel]
#   5 X_WORLD                Barycenter position along world x axis                     [deg]
#   6 Y_WORLD                Barycenter position along world y axis                     [deg]
#   7 A_WORLD                Profile RMS along major axis (world units)                 [deg]
#   8 B_WORLD                Profile RMS along minor axis (world units)                 [deg]
#   9 THETA_WORLD            Position angle (CCW/world-x)                               [deg]
#  10 FWHM_WORLD             FWHM assuming a gaussian core                              [deg]
#  11 ELONGATION             A_IMAGE/B_IMAGE                                           
#  12 ELLIPTICITY            1 - B_IMAGE/A_IMAGE                                       
         1 -12.5677     56.4053    194.6050   1.3208570672e+02   2.7337563970e+01     1.614862      1.34354 -64.09  0.009637165    1.231    0.188
         2 -10.6862    246.9446      4.6445   5.2277301832e+01   2.4952960316e+01    0.8297174    0.4859408 -77.03  0.005310894    1.385    0.278
         3 -11.6612    220.1196     10.3848   5.5444252890e+01   2.9908893607e+01    0.8762544    0.4977386 -79.24  0.003952303    1.615    0.381
         4 -12.2148    229.3838      3.7369   5.3396344831e+01   2.8656502023e+01     1.104964    0.6609085  88.10  0.004713496    1.370    0.270
         5  -7.8142    162.6947      7.6514   6.0985106147e+01   4.3159919614e+01    0.1250144   0.08276638  43.10 0.0007041846    1.700    0.412
         6  -8.4468     87.0402      5.7849   7.4328796913e+01   5.9846879689e+01    0.2319358    0.1611799  -4.29  0.001172777    1.600    0.375
         7  -9.0248      6.7444      3.4906   1.0330489593e+02   7.1929463478e+01    0.2275842    0.1379616  27.63  0.001231813    1.741    0.425
         8  -8.9381    243.9789    243.9652   9.9579588605e+01  -1.3137802861e+01    0.1906932    0.1544211  -0.72  0.001305505    1.027    0.026
         9 -10.0353    249.0212    247.2991   9.9248320532e+01  -1.4261848195e+01    0.5464087    0.2342518 -31.21  0.002763759    2.249    0.555
        10  -9.3527    241.2222    249.9545   1.0109988783e+02  -1.3614560368e+01    0.2667783    0.1552559  34.09  0.001564675    1.673    0.402
        11  -8.4995    233.8396    250.3500   1.0251558873e+02  -1.2680759075e+01    0.1753658   0.09559152  23.36 0.0007426664    1.758    0.431
        12  -8.1350    106.2675    250.6334   1.2809447076e+02   7.4402519014e+00    0.2289494    0.1046911  42.98 0.0003154286    1.855    0.461
        13 -10.3439     52.8741    248.8339   1.3845164091e+02   1.5679129160e+01    0.2495671    0.1948103  81.08  0.000390048    1.092    0.085
        14  -9.8626      4.7648    250.0599   1.4715300014e+02   2.1126791488e+01    0.1808628    0.1335091  67.94 0.0003775718    1.124    0.111
        15 -10.4356    235.1680    242.6062   1.0095145904e+02  -1.1747468096e+01    0.3865472    0.2560836   6.46  0.002277924    1.509    0.337
        16  -9.2198     46.3134    243.0618   1.3920820523e+02   1.7729566057e+01    0.2337917    0.2090658  36.12  0.000419749    1.495    0.331
        17  -7.5439    166.2163    243.1050   1.1463250621e+02  -1.1069163311e+00    0.1765611    0.1430561  53.11 0.0004241486    1.305    0.234
        18  -7.5946    137.4449    243.5027   1.2070041020e+02   3.6807044074e+00    0.1333555    0.1187526  41.09 0.0001245848    1.047    0.045
        19  -8.3945    117.0997    242.7119   1.2486293179e+02   7.2395236516e+00    0.2363201    0.1767567  87.82 0.0006701437    1.542    0.352
        20  -8.4428     99.5023    243.0772   1.2857726660e+02   1.0020815788e+01    0.2179328    0.1652681  48.77 0.0004775546    1.156    0.135
        21  -8.3846     85.8781    242.2168   1.3128227696e+02   1.2319796098e+01    0.1978562    0.1649796  89.51 0.0002990742    1.161    0.139
        22 -10.0172      3.2512    241.3876   1.4692388511e+02   2.3024332643e+01      0.22548    0.1578049  70.53 0.0005469862    1.088    0.081
        23  -8.8166     58.7392    240.5486   1.3657146172e+02   1.6603965105e+01    0.2113845    0.1669104  68.35 0.0004466161    1.029    0.028
        24  -9.7648    109.1548    239.2230   1.2607904306e+02   9.2486794072e+00    0.2455217    0.2249511  61.93 0.0003083896    1.081    0.075
        25  -9.0183     38.8148    239.0372   1.4030424009e+02   1.9521214577e+01     0.213375    0.1507043  66.69 0.0003475571    1.146    0.127
        26 -10.9990     30.5321    236.7746   1.4169414071e+02   2.1000451131e+01    0.6181973    0.3682618 -76.38  0.003726421    1.505    0.335
        27 -12.9500     38.6341    215.3720   1.3826362488e+02   2.4726717562e+01     1.247602    0.8498036 -65.30  0.002698177    1.451    0.311
        28  -9.8695     68.9883    188.8239   1.2833572777e+02   2.6996883688e+01    0.5404366    0.3243821 -72.49  0.002443811    1.608    0.378
        29 -10.7782     51.2738    204.5638   1.3443099088e+02   2.5642343243e+01    0.4709936    0.2880307  59.53  0.000428341    1.574    0.365
        30  -8.4374    211.0229    249.1086   1.0661534779e+02  -9.2439699377e+00    0.1853617    0.1581052  10.29 0.0003776581    1.035    0.034
        31  -7.3326     65.2738    238.2435   1.3504486989e+02   1.6182676634e+01    0.1022269    0.1007868 -30.87 0.0001934694    1.441    0.306
        32  -8.9708     50.0022    237.2703   1.3798904151e+02   1.8469410023e+01    0.2098833    0.1572503 -86.66 0.0005186863    1.195    0.163
        33  -7.8448     82.6911    234.9256   1.3111565037e+02   1.4335860891e+01    0.1771866    0.1479809  77.30 0.0003907628    1.066    0.062
        34  -8.4892     45.7308    235.0899   1.3863270665e+02   1.9488961861e+01    0.2125211     0.138875  58.44 0.0005601564    1.303    0.233
        35  -8.0357    132.7637    233.7749   1.2028625703e+02   6.3801098777e+00    0.1870651      0.14712  63.50  0.000504179    1.309    0.236
        36  -7.8520     96.0219    234.4935   1.2825821336e+02   1.2352968758e+01    0.1928774    0.1209338  40.97 0.0004307488    1.481    0.325
        37  -8.5543      6.8217    234.0290   1.4585841177e+02   2.4180213265e+01    0.1754946    0.1305221  69.44 0.0002572222    1.113    0.101
        38  -9.8971    248.0432    232.5894   9.6861843055e+01  -1.2032513843e+01    0.3585879    0.1986947   5.32  0.001745089    2.431    0.589
        39  -8.3981    233.7626    233.0264   9.9536718304e+01  -1.0111631834e+01    0.1725201    0.1437758  -5.14 0.0004466977    1.023    0.022
        40  -8.0085    143.8277    233.5119   1.1786817030e+02   4.5191812137e+00     0.204053    0.1243218  38.88 0.0005606088    1.485    0.327
        41  -7.7045     67.6506    233.2224   1.3404607660e+02   1.6919823684e+01     0.133337    0.0795317  61.03 0.0002479786    1.548    0.354
        42  -7.5971    205.9861    231.9797   1.0468281444e+02  -5.7302026917e+00    0.1561294    0.1375616  -1.72 0.0003932719    1.047    0.045
        43  -7.6154    168.7233    231.0223   1.1216192172e+02   6.6904396910e-01    0.1528044    0.1220297 -45.78  0.000375041    1.372    0.271
        44  -7.5897    111.7936    231.4498   1.2448288705e+02   1.0420558070e+01    0.1782799    0.1260962  32.32 0.0004291994    1.493    0.330
        45  -7.9831     11.5849    224.6672   1.4437133581e+02   2.5681373749e+01     0.170799    0.1050445  71.61 0.0005988725    1.335    0.251
        46  -9.5666     15.3151    229.3363   1.4399908216e+02   2.4289618581e+01    0.3587945    0.2183102  89.15 0.0008776139    1.335    0.251
        47  -8.2462     88.3933    229.8359   1.2930870226e+02   1.4551705864e+01    0.2129492    0.1563804  57.03 0.0003919317    1.207    0.172
        48  -8.1133    217.8054    229.1938   1.0187661171e+02  -7.1252363248e+00     0.181848       0.1649   9.78 0.0006374696    1.122    0.109
        49  -7.5422    127.4936    229.4461   1.2078907339e+02   8.1691438498e+00    0.1389001    0.1244608  51.73 0.0002239422    1.012    0.012
        50  -8.2038    104.2632    229.2597   1.2581730254e+02   1.2132036788e+01    0.1906397       0.1763  58.73  0.001165379    1.102    0.092
        51  -7.2847    136.6886    228.6976   1.1867341433e+02   6.7245135437e+00    0.1340976    0.1090598  -0.18 0.0003272555    1.609    0.379
        52  -7.8991     48.8845    228.1631   1.3737132591e+02   2.0584288015e+01    0.1940766    0.1372814  69.35 0.0004387524    1.206    0.171
        53  -9.9308    247.9325    224.5549   9.5441975755e+01  -1.0808981486e+01    0.4362079    0.1761275 -28.89  0.001871438    2.730    0.634
        54  -7.6103    149.4238    227.5196   1.1572062962e+02   4.7232663146e+00    0.1377011    0.1272666  39.36 0.0001344586    1.016    0.016
        55  -7.6518    118.6737    227.6988   1.2246032809e+02   1.0047957056e+01    0.1319445    0.1103755  -2.68 -0.0001541599    1.639    0.390
        56  -9.6160      5.6399    226.2028   1.4557679823e+02   2.5950595687e+01    0.2103744     0.153517  79.09 0.0003334613    1.020    0.019
        57  -7.7402    141.6205    225.8500   1.1715354703e+02   6.4370067549e+00     0.181681     0.133662 -70.11 0.0004165237    1.628    0.386
        58  -8.5639     96.0022    226.1357   1.2720025599e+02   1.4150386400e+01    0.2040497    0.1734864  65.43 0.0003831293    1.033    0.032
        59  -7.9618    239.0471    225.4760   9.7211366019e+01  -9.6995242676e+00    0.1765379    0.1147558  30.25 0.0004577322    1.516    0.341
        60  -7.2356    178.4225    225.4468   1.0917235504e+02   2.7014080600e-02    0.1350636     0.125361  28.63 6.032762e-05    1.055    0.052
        61  -8.0853    107.1106    222.7680   1.2430485141e+02   1.3061654058e+01    0.2075412    0.1676266  67.88  0.000406913    1.183    0.154
        62  -7.1993    158.7202    222.2989   1.1284371640e+02   4.1093306838e+00    0.1349722     0.108139  72.24 0.0002633955    1.541    0.351
        63  -7.8213    138.4872    221.8650   1.1720924058e+02   7.8124824131e+00    0.1917025    0.1410355 -56.05 0.0004978703    1.471    0.320
        64  -7.5555    133.2117    222.0198   1.1840174580e+02   8.7159340229e+00    0.1757763    0.1147209 -54.94 0.0003984231    1.650    0.394
        65  -7.1480    194.6675    221.7159   1.0514166826e+02  -2.0805961408e+00    0.1388891    0.1003803   3.18  0.000187836    1.616    0.381
        66  -8.5696    101.4815    220.9608   1.2530120464e+02   1.4393897634e+01    0.2481593     0.169085  55.99 0.0003832708    1.382    0.277
        67  -9.7716     17.5570    238.6734   1.4422742879e+02   2.2077867807e+01    0.3275551    0.2029843  45.46 0.0005941431    1.554    0.356
        68  -8.5978     19.3413    220.3074   1.4257017283e+02   2.5818552288e+01    0.2217098    0.1574238  74.19 0.0004061096    1.135    0.119
        69  -7.2728    117.6873    220.2885   1.2159288401e+02   1.1802458991e+01    0.1445466    0.1014848  68.22 0.0003552898    1.584    0.369
        70  -7.0884    178.2668    219.3484   1.0813578392e+02   1.2042517868e+00     0.139795    0.1050959  -8.13 0.0006986572    1.616    0.381
        71  -7.7079    143.8757    219.0894   1.1556573869e+02   7.4257610642e+00     0.183447    0.1654209  -5.55 0.0003983046    1.277    0.217
        72  -8.0383     63.3450    219.5560   1.3347327056e+02   2.0551770951e+01    0.1531635    0.1246237  39.75  0.000909636    1.363    0.267
        73  -7.2150    218.3102    218.6807   9.9873423063e+01  -5.4464683270e+00    0.1200711    0.1082704  86.98 0.0006792037    1.643    0.391
        74  -8.8366      1.6262    217.8665   1.4577932302e+02   2.8129512525e+01    0.1647183    0.1171577 -85.12  0.000453397    1.145    0.126
        75  -7.4990    189.6815    217.7097   1.0544640237e+02  -4.8908580992e-01     0.139895    0.1032876   1.51  0.000700755    1.599    0.375
        76  -8.3185    122.9678    215.9384   1.1974250871e+02   1.1829055004e+01    0.2061296    0.1939871  63.22 0.0003585102    1.036    0.034
        77  -8.0590    230.0182    215.5096   9.7054475909e+01  -6.7462090797e+00    0.1874979     0.121733  32.54 0.0004595183    1.541    0.351
        78  -8.6227     24.7941    215.0775   1.4106972502e+02   2.6389100684e+01    0.1864976    0.1481829  71.91 0.0003804398    1.098    0.089
        79  -7.3673    127.4560    214.4132   1.1848640293e+02   1.1366896932e+01    0.1435002     0.130244  57.51  9.26985e-05    1.020    0.020
        80  -7.4178    182.6717    213.7050   1.0618647918e+02   1.5043851685e+00    0.1431264    0.1066437   1.42 0.0002494467    1.630    0.386
        81  -7.2658    158.2130    210.9829   1.1099682989e+02   6.4972799612e+00    0.1756813    0.1175644 -49.74 0.0002969581    1.581    0.368
        82  -7.4158    114.2984    211.7239   1.2105938465e+02   1.4280986730e+01    0.1444705    0.1036493  69.26 0.0001904655    1.534    0.348
        83  -8.4737      2.6637    210.6186   1.4509486471e+02   2.9618096618e+01    0.1784115    0.1425541  85.33 0.0003405509    1.106    0.095
        84  -8.4027    227.1222    238.8966   1.0180767710e+02  -1.0053413236e+01    0.1802208    0.1740795 -10.19  0.001248019    1.356    0.263
        85  -7.2775    102.4780    209.5781   1.2344674810e+02   1.6790305461e+01    0.1400151    0.1307563  66.46 2.168588e-05    1.070    0.065
        86  -8.0236    136.1041    206.9300   1.1527634528e+02   1.1442140667e+01    0.2166274    0.1849754  69.45 0.0003739341    1.222    0.182
        87  -7.7983    117.4933    205.9228   1.1940674361e+02   1.5031537883e+01    0.2083302    0.1426037 -61.12 0.0005192513    1.514    0.340
        88  -8.2846     82.1274    206.0285   1.2762539710e+02   2.0905001344e+01    0.2061885    0.1787284  82.75 0.0003718317    1.033    0.032
        89  -7.0932    129.3166    204.6907   1.1645893860e+02   1.3182534982e+01    0.1512544    0.1104686  72.68 0.0003389276    1.635    0.388
        90  -7.5111    106.7846    204.3607   1.2165460587e+02   1.7260160196e+01    0.1951061    0.1346345  32.02 0.0008098464    1.582    0.368
        91  -6.9864    157.6811    239.3057   1.1582061898e+02   1.0274955289e+00    0.1339665    0.1009513  65.72 0.0007029642    1.632    0.387
        92  -8.5951     72.9850    200.3612   1.2897376564e+02   2.3628859618e+01    0.2310012    0.1851963 -65.34 0.0003987246    1.235    0.190
        93  -7.2772     25.2762    201.6486   1.3978787494e+02   2.9398931867e+01    0.1333783   0.07758652  74.20 0.0004005031    1.641    0.391
        94  -8.1493    102.1640    199.9652   1.2205418110e+02   1.9076283372e+01    0.2179701    0.1790041  77.90 0.0003624121    1.214    0.176
        95  -8.2806     36.9259    199.8893   1.3709689579e+02   2.8507314739e+01    0.1837454    0.1546453 -71.32 0.0003644741    1.216    0.178
        96  -8.0328     83.9802    198.4961   1.2613622807e+02   2.2399847460e+01    0.1945847    0.1357441  40.73 0.0009821863    1.445    0.308
        97  -9.1143    107.3711    197.0563   1.2035125402e+02   1.8866003591e+01    0.2577969    0.2042588  47.29 0.0003251201    1.218    0.179
        98  -7.5395    128.0929    195.0015   1.1506424828e+02   1.5612020244e+01    0.1766995    0.1643581  57.24 0.0005144107    1.030    0.029
        99  -7.8338     93.1145    194.8661   1.2341680302e+02   2.1801837745e+01    0.2122267    0.1750193  76.55 0.0002952263    1.181    0.153
       100  -9.0900      3.8695    194.2029   1.4364246117e+02   3.3196106033e+01    0.1943293    0.1437756 -89.53  0.000347685    1.030    0.029
       101  -8.1585    193.8910    194.0978   1.0009092756e+02   3.3079252218e+00    0.2171289    0.2008746 -87.35  0.001217377    1.308    0.236
       102  -7.9055    135.9642    192.2949   1.1271021559e+02   1.4756772106e+01    0.2056711    0.1821039  47.06 0.0002895849    1.095    0.087
       103  -7.2473     99.2841    189.3214   1.2103566485e+02   2.2104886328e+01    0.1417843    0.1156291 -27.92 0.0006999638    1.593    0.372
       104  -7.7950    176.4812    188.4322   1.0268922649e+02   7.7703550328e+00    0.1455892    0.1428477  26.19  8.79295e-05    1.031    0.030
       105  -7.3852     17.5994    188.2604   1.4019848411e+02   3.3307401521e+01    0.1317463   0.07574432  64.91 0.0006965091    1.719    0.418
       106  -8.7100    130.0746    238.9054   1.2160295984e+02   5.8192291841e+00    0.2047624    0.1906538 -89.40 0.0003482329    1.150    0.130
       107  -7.6903      4.5231    186.5779   1.4288681133e+02   3.4890807522e+01    0.1219834   0.09389007 -89.73 8.985637e-05    1.013    0.013
       108  -8.2479    149.0772    182.6055   1.0775954791e+02   1.4432343793e+01      0.25635    0.2091245 -65.41 0.0006130747    1.314    0.239
       109  -8.0749     39.0074    183.0990   1.3476307795e+02   3.2278696462e+01    0.1953441    0.1653213 -83.55 0.0003827479    1.042    0.040
       110  -7.9136    170.1130    182.5412   1.0291297598e+02   1.0279160290e+01    0.2182575    0.1466982  42.75 0.0005152976    1.482    0.325
       111  -7.8869    115.7431    180.0830   1.1535540234e+02   2.1423287354e+01    0.2010862    0.1881751 -65.77 0.0003181177    1.072    0.067
       112  -8.1369     79.1012    179.9090   1.2451183984e+02   2.7683693354e+01      0.21164     0.171107 -31.71 0.0005183545    1.579    0.367
       113  -8.5315     23.5919    177.9170   1.3779665964e+02   3.5177521798e+01    0.3398667    0.1650742 -51.33  0.001632749    2.179    0.541
       114  -8.8480    207.1174    175.8388   9.3680473606e+01   4.4728343410e+00    0.2645527    0.2115921 -27.59 0.0008657491    1.241    0.194
       115 -10.5743    100.9981    175.9111   1.1829776160e+02   2.5082093839e+01    0.2356801    0.2015574 -68.01            0    1.128    0.113
       116  -7.6457     29.7979    176.2433   1.3614652421e+02   3.4949945151e+01     0.171607    0.1316118 -58.65 0.0004931371    1.303    0.233
       117  -8.2461    106.1202    182.3621   1.1816105377e+02   2.2606533822e+01    0.2318658    0.1951235 -53.16 0.0004050158    1.218    0.179
       118  -8.0734     53.4095    173.0279   1.2994074963e+02   3.3006766969e+01    0.2114231    0.1938675   8.07 0.0006817262    1.396    0.284
       119  -7.9225     40.9280    173.3249   1.3309110239e+02   3.4443480278e+01    0.1710774    0.1576204  74.54 0.0003196539    1.149    0.130
       120  -7.8588    186.2030    172.6078   9.7321122630e+01   9.2072879146e+00    0.2006745    0.1423323  31.27 0.0002544396    1.537    0.349
       121  -7.7326    110.5076    170.4623   1.1485970499e+02   2.4724834545e+01      0.15305    0.1445261  88.13 0.0001604312    1.010    0.010
       122  -7.5947     92.8101    170.5864   1.1943853345e+02   2.7797074197e+01    0.2009284    0.1337946  52.04 0.0003476065    1.553    0.356
       123  -8.1087     65.5916    170.3244   1.2643553144e+02   3.2051573424e+01    0.2040163    0.1721419  -8.31 0.0001825638    1.605    0.377
       124  -8.1971    242.8144    168.8076   8.5629807207e+01  -5.9310159420e-01    0.1971024    0.1686767 -20.70 0.0005356419    1.116    0.104
       125  -8.4034    138.1900    167.1401   1.0723026728e+02   2.0196208120e+01    0.2148358    0.2086716 -36.07 0.0002735462    1.081    0.075
       126  -8.6879     88.0494    166.9802   1.2002910405e+02   2.9482233506e+01    0.2199605    0.2021044 -82.63 0.0003305981    1.009    0.009
       127  -8.0145     57.9203    167.0565   1.2791092284e+02   3.3907374443e+01    0.2048897    0.1799635 -77.31 0.0003154036    1.019    0.019
       128  -9.2254     77.1430    164.5540   1.2246927807e+02   3.1808806060e+01    0.2853389    0.2112876 -46.07  0.000659047    1.423    0.297
       129  -7.9507    243.4810    164.0575   8.4554340125e+01   1.6081140141e-01     0.203759    0.1194974 -40.13 0.0003306788    1.492    0.330
       130  -9.1312     98.9901    163.0842   1.1642761403e+02   2.8605393295e+01    0.2920168    0.2317156 -42.32  0.001012592    1.351    0.260
       131  -8.5265     83.2187    162.6105   1.2051466725e+02   3.1351609795e+01    0.1864535     0.145538  23.05 0.0002435751    1.539    0.350
       132  -8.3125    139.0672    238.0285   1.1956431303e+02   4.4577391848e+00    0.2095044    0.1811665  52.46 0.0004132527    1.074    0.069
       133  -7.7913    127.2127    158.8397   1.0822605427e+02   2.4370484002e+01    0.1989017    0.1824651  -9.57 0.0002928134    1.256    0.204
       134  -9.3576     87.5704    159.2298   1.1872765604e+02   3.1496302798e+01    0.2548538    0.2065285  41.45 0.0003833032    1.293    0.227
       135  -7.5811     11.5666    159.5246   1.3866873987e+02   4.0675734258e+01    0.1270544    0.1000742 -79.06 6.642123e-05    1.010    0.010
       136 -10.0769     92.2120    157.1073   1.1707345413e+02   3.1255522962e+01    0.3482758    0.2637155  59.75 0.0007759821    1.421    0.296
       137  -8.6915     76.3909    158.1621   1.2153909689e+02   3.3523951790e+01      0.20538    0.1324518 -73.17 0.0003034316    1.614    0.380
       138 -10.2533    211.6967    156.6503   8.8717748838e+01   7.4342342068e+00    0.2569469    0.2550599 -79.03 0.0003961046    1.085    0.078
       139  -7.0899     58.3159    157.6300   1.2631767407e+02   3.6208606573e+01    0.1509093    0.1009286  76.76 0.0007035626    1.784    0.439
       140  -8.8509    102.2602    155.1978   1.1399354097e+02   2.9983484674e+01    0.2226106    0.2060412 -36.25 0.0006530683    1.167    0.143
       141  -7.8716     64.8642    155.4787   1.2418706796e+02   3.5865490912e+01    0.1933884    0.1417215  37.56 0.0005565772    1.480    0.324
       142  -7.4984    184.7022    154.6960   9.3752700525e+01   1.3343542601e+01    0.1517375    0.1217668  -4.82 0.0001696385    1.585    0.369
       143  -7.4638    115.7070    154.3080   1.1023808573e+02   2.7711749771e+01     0.157183    0.1208869  82.50 0.0002602463    1.583    0.368
       144  -8.0969     35.8917    154.1008   1.3176525498e+02   3.9728566200e+01     0.199332    0.1590459  84.43 0.0003328068    1.230    0.187
       145 -10.6413     98.4681    152.3765   1.1443744362e+02   3.1354589613e+01     0.740559    0.3711877  27.59  0.002707839    2.664    0.625
       146  -9.0017    101.9198    145.3331   1.1201356760e+02   3.2477441544e+01    0.3294786    0.2299838  52.55 0.0009331641    1.538    0.350
       147  -9.2922     97.9390    147.8433   1.1364011374e+02   3.2568946834e+01    0.3675519    0.2142997 -50.66 0.0009870799    1.642    0.391
       148  -9.3020     94.1669    148.1478   1.1473992143e+02   3.3149663479e+01    0.3389864    0.2184061  50.54 0.0009845226    1.670    0.401
       149  -9.4495     88.3561    151.2075   1.1695927194e+02   3.3368977097e+01    0.2766698    0.2284667 -26.40 0.0007641384    1.445    0.308
       150  -7.5327     51.9914    150.9606   1.2693803745e+02   3.8673301734e+01    0.1654953    0.1464903 -72.56 0.0003324805    1.012    0.012
       151  -7.4083     62.6125    148.7643   1.2362615970e+02   3.7850270149e+01    0.1372154    0.1072441 -21.45 0.0006016631    1.641    0.391
       152  -8.6541    135.2376    145.1315   1.0314247491e+02   2.6014547791e+01    0.3964297    0.2697914 -37.90 0.0007785032    1.590    0.371
       153  -9.2076    133.2070    139.5102   1.0235456311e+02   2.7760094339e+01    0.5027213    0.2975878 -43.41  0.002053862    1.711    0.415
       154  -9.6006     89.5229    145.4534   1.1546724692e+02   3.4603862403e+01    0.4128714    0.2619953 -13.69  0.001513364    3.081    0.675
       155  -7.3406     63.6809    145.2874   1.2269558276e+02   3.8570598327e+01    0.1433886    0.1057229  74.16 0.0003220678    1.595    0.373
       156  -7.5982     32.5996    143.8146   1.3114163503e+02   4.2586435127e+01    0.1838931    0.1126458 -77.43  0.000337757    1.552    0.356
       157  -8.5311     82.5288    142.5526   1.1683149548e+02   3.6463200536e+01    0.1485908    0.1379786 -75.25 0.0001232221    1.039    0.037
       158  -8.2207    122.0385    237.8772   1.2316804772e+02   7.3818692047e+00    0.2052935    0.1630701  64.44 0.0003779125    1.238    0.192
       159  -7.9272    143.3029    140.0647   9.9936668484e+01   2.5497732138e+01    0.2223978    0.1969775 -57.01 0.0003868955    1.115    0.103
       160  -7.9343      7.2179    140.0262   1.3750194290e+02   4.5648756394e+01    0.1688047   0.08178396 -69.74 0.0003685152    1.624    0.384
       161  -8.0483    231.0375    139.1344   8.1462698864e+01   7.0977766613e+00     0.201332    0.1795982 -21.51 0.0003811614    1.202    0.168
       162  -7.1851    159.4113    138.4496   9.5671105346e+01   2.2372100051e+01    0.1584786    0.1486922 -76.77 3.355783e-05    1.076    0.071
       163  -7.9203    101.5541    137.9548   1.1048800630e+02   3.4345486991e+01    0.2236631    0.1224603 -33.60 0.0008076113    2.501    0.600
       164  -7.9195     60.0515    136.8830   1.2215270452e+02   4.1134827058e+01    0.2086203    0.1807083  76.18 0.0004324826    1.250    0.200
       165  -9.1965     87.0345    133.4830   1.1360777524e+02   3.7956375049e+01    0.2770975    0.2086117 -56.46 0.0003210307    1.255    0.203
       166  -7.3859    122.7238    131.9948   1.0330933639e+02   3.1685024261e+01    0.1915135    0.1361928 -49.67 0.0002325714    1.376    0.273
       167  -8.0741     64.8392    133.8530   1.2015863508e+02   4.1234032388e+01    0.1962999    0.1643082  84.82 0.0007652743    1.322    0.244
       168  -7.5080     57.7286    126.3530   1.2075256241e+02   4.4000597094e+01    0.1399948    0.1055416  85.55 0.0002887548    1.635    0.388
       169  -8.2063     38.8149    125.2194   1.2624424843e+02   4.6461643880e+01    0.1907115    0.1686586 -83.46 0.0003742393    1.168    0.144
       170  -7.5962    111.9127    121.7792   1.0375110687e+02   3.6224154395e+01     0.206981    0.1272999  39.47 0.0008725236    1.683    0.406
       171  -7.5453     76.5177    120.5308   1.1378196407e+02   4.2744014894e+01    0.1450465    0.1354602 -72.09 4.806593e-06    1.103    0.093
       172  -7.6403     92.7414    119.3901   1.0865634589e+02   4.0343328524e+01    0.1903288    0.1448029  23.51 0.0002310531    1.491    0.329
       173  -7.8030     67.0502    117.4965   1.1598287534e+02   4.4855277047e+01    0.1918531    0.1424225  31.38 0.0001788643    1.469    0.319
       174  -8.9954    247.9464    113.0153   7.3340623419e+01   8.6834311657e+00    0.2161838    0.1799686 -54.30 0.0005636748    1.021    0.020
       175  -8.1950    117.6799    110.9396   9.9372850368e+01   3.7509358914e+01     0.213838    0.1964861 -54.18 0.0004466804    1.088    0.081
       176  -9.6982    135.0878    106.3485   9.3545476214e+01   3.4790285962e+01    0.5732936    0.3462675 -32.68  0.001756418    1.923    0.480
       177  -7.4660    111.6452    106.7499   9.9939582046e+01   3.9645269539e+01    0.1506908     0.118636   6.77 0.0003036457    1.599    0.374
       178 -10.2303    144.6677     94.6660   8.8040380910e+01   3.5011642422e+01    0.9953942    0.6017005   4.99  0.002655791    5.855    0.829
       179  -8.0280     37.7301     99.5900   1.2137127929e+02   5.2505753035e+01    0.1587782    0.1229798  35.82 0.0004209294    1.502    0.334
       180  -7.2163      4.5542     97.4678   1.3200452640e+02   5.5584101042e+01    0.1209207   0.09545804 -56.21 0.0001920659    1.023    0.023
       181  -9.0633    172.7349     90.8265   8.0880546477e+01   2.9191997407e+01    0.3510993     0.254284 -31.41  0.000904434    1.559    0.359
       182  -7.5698     72.6877     92.7249   1.0796665858e+02   4.9569402161e+01    0.1398148    0.1034634 -13.34 0.0002059247    1.558    0.358
       183  -7.2982     32.5018     92.5259   1.2154088649e+02   5.4565030504e+01    0.1290394    0.1086025 -42.54 3.625733e-05    1.008    0.008
       184 -10.2378    151.2979     87.3298   8.4512992979e+01   3.4880985513e+01    0.5118183    0.3798448  47.60  0.001736736    1.335    0.251
       185  -9.8903    153.4984     84.4822   8.3250471846e+01   3.4891578438e+01    0.6536223    0.3919207 -52.55  0.002015213    1.823    0.452
       186  -7.4011     39.4268     90.4615   1.1864643058e+02   5.4324654529e+01    0.1294203    0.1114206 -41.33 0.0002110554    1.036    0.034
       187  -7.1160     27.6594     86.3254   1.2178844040e+02   5.6330436812e+01    0.1182259    0.0963259  74.91 0.0007051245    1.730    0.422
       188  -8.9290    245.7979     84.1731   6.7690289326e+01   1.4087830159e+01    0.2235108    0.2096348 -35.11 0.0007308496    1.339    0.253
       189  -9.4031    228.4530     84.0120   6.9933226810e+01   1.7710940411e+01    0.2656928    0.2234362 -50.25 0.0003671607    1.152    0.132
       190  -7.4380     14.2683     85.3147   1.2631501667e+02   5.7590817685e+01    0.1268177   0.07123266 -38.63 0.0002823744    1.551    0.355
       191  -9.1793    234.1485     79.5368   6.8210426079e+01   1.7252732258e+01    0.3091854    0.1245786  58.33  0.001299078    2.590    0.614
       192  -7.8888     22.0369     77.0007   1.2157246798e+02   5.8734544035e+01    0.2727674    0.1198464  12.36  0.001267021    2.890    0.654
       193  -8.5459    186.4295     75.5731   7.4476727438e+01   2.8658056830e+01    0.2871294    0.2038125  45.60  0.000871837    1.569    0.363
       194  -9.1339    161.3505     75.2782   7.9104824495e+01   3.4663609926e+01     0.315814    0.3002169  42.85 0.0008163445    1.133    0.118
       195 -11.2799    165.7051     70.7125   7.7024229582e+01   3.4394041727e+01    0.8137354    0.7185053 -18.27  0.002429139    1.352    0.260
       196  -9.3037    145.4777     73.3660   8.1964401466e+01   3.8726237485e+01    0.2457599    0.2354009  60.30 0.0006509947    1.020    0.019
       197  -8.4336     15.4121     71.7745   1.2276115597e+02   6.0289299284e+01     0.185796    0.1534259  -6.74 0.0004207417    1.252    0.201
       198  -7.4100     24.4860     71.4653   1.1923737597e+02   5.9639530870e+01    0.1206233    0.1021191 -35.94 0.0001402948    1.075    0.070
       199 -11.6495    179.2237     55.2667   7.0612653639e+01   3.3577718121e+01    0.7762721    0.7469903  65.30  0.001767919    1.167    0.143
       200  -9.6790    186.6382     46.9448   6.7400220370e+01   3.3009053600e+01    0.3107517    0.2717729  72.29  0.000404331    1.104    0.095
       201  -8.0256     19.9814     58.9856   1.1754859002e+02   6.2393889810e+01    0.1535519    0.1426585  67.06 0.0003663303    1.602    0.376
       202  -7.2647    128.4711     52.5201   7.9764802305e+01   4.5901090998e+01    0.1383434    0.1272304  48.96 8.989732e-05    1.002    0.002
       203  -8.6897    104.0808     44.1398   8.3199909369e+01   5.2332090659e+01    0.2552775    0.1896398 -10.41 0.0004989203    1.526    0.345
       204  -7.7605     42.8345     39.9273   1.0202646519e+02   6.3237356958e+01    0.1466862    0.1355342 -15.56 0.0004494018    1.333    0.250
       205  -9.3381    223.6427     35.2961   6.0161864323e+01   2.6130695074e+01    0.3059067    0.2177618 -45.02  0.001236396    1.428    0.300
       206  -7.0762    157.6319     37.7106   6.9644115330e+01   4.1104029986e+01    0.1397014   0.09381025  39.18 0.0007023906    1.709    0.415
       207  -9.9684    179.6344     34.7988   6.5441928025e+01   3.6261069976e+01    0.2549936    0.2364201 -56.55 0.0004709077    1.203    0.169
       208 -10.8580    181.0743     30.9753   6.4303716797e+01   3.6391623676e+01    0.2780999    0.2542443  89.61 0.0003863353    1.109    0.098
       209 -11.2800    198.9992     32.8105   6.2413437667e+01   3.1992520828e+01    0.3422233    0.2802379 -76.67 0.0004641362    1.086    0.079
       210  -7.9282     96.3783     29.2305   8.0225595348e+01   5.5737897180e+01    0.1609788    0.1164147 -37.06 0.0006604097    1.598    0.374
       211  -8.6968    129.7092     26.9713   7.1750680264e+01   4.8832349198e+01    0.2270175     0.168185  66.01 0.0003488091    1.253    0.202
       212 -11.2221    206.8488     24.3549   5.9636408238e+01   3.1239994318e+01    0.3123921    0.2687539  58.56 0.0007179219    1.378    0.275
       213  -8.4176    110.2236     24.0430   7.5024376508e+01   5.3429843181e+01    0.1739695    0.1511901  40.43 0.0004882317    1.030    0.029
       214  -8.0446     98.9750     23.4521   7.7554338239e+01   5.5839325428e+01    0.1780687    0.1588883   7.16 0.0005091531    1.161    0.139
       215  -7.6761    185.8548    248.8268   1.1153066540e+02  -5.3064018153e+00    0.1676887    0.1382724  44.32 0.0003773159    1.272    0.214
       216  -9.7911     66.9422    247.3400   1.3560591163e+02   1.4051369500e+01    0.2098695    0.1769857  78.80 0.0002556343    1.101    0.091
       217  -9.7021     37.3688    246.7748   1.4118653724e+02   1.8091210106e+01    0.2480088    0.1684123  80.31 0.0004965931    1.212    0.175
       218  -7.5575    169.9764     18.7668   6.2807595026e+01   4.0373519006e+01     0.169636   0.09142524  67.71 0.0004908856    1.569    0.363
       219  -8.2652    189.8744     13.8667   5.9180608771e+01   3.6283069568e+01    0.1796092    0.1240688 -81.58 0.0005923755    1.331    0.249
       220  -7.5839    140.4592     11.5026   6.5270706139e+01   4.7921320507e+01    0.1272361    0.1036928  57.73 -0.0002923165    1.076    0.071
       221  -9.6135     20.9815    247.5772   1.4420703365e+02   1.9866967261e+01    0.2076805    0.1540838  74.80 0.0003579684    1.018    0.018
       222  -9.3882     12.8224    247.4326   1.4562648746e+02   2.0799058269e+01    0.1943844    0.1426125  84.19  0.000343384    1.100    0.091
