#   1 NUMBER                 Running object number                                     
#   2 MAG_AUTO               Kron-like elliptical aperture magnitude                    [mag]
#   3 X_IMAGE                Object position along x                                    [pixel]
#   4 Y_IMAGE                Object position along y                                    [pixel]
#   5 X_WORLD                Barycenter position along world x axis                     [deg]
#   6 Y_WORLD                Barycenter position along world y axis                     [deg]
#   7 A_WORLD                Profile RMS along major axis (world units)                 [deg]
#   8 B_WORLD                Profile RMS along minor axis (world units)                 [deg]
#   9 THETA_WORLD            Position angle (CCW/world-x)                               [deg]
#  10 FWHM_WORLD             FWHM assuming a gaussian core                              [deg]
#  11 ELONGATION             A_IMAGE/B_IMAGE                                           
#  12 ELLIPTICITY            1 - B_IMAGE/A_IMAGE                                       
         1 -13.9882     12.8699     48.3598   6.7787218910e+01   6.5161517431e+01     1.168985    0.4247542 -48.60 0.0009711086    2.139    0.532
         2 -12.5758     56.3462     37.0008   4.5890237231e+01   6.3150937834e+01     1.004603    0.3816628 -40.11  0.004137756    2.402    0.584
         3 -11.5206      7.1510     27.4333   6.4560591963e+01   6.9875138829e+01    0.8039357    0.2629184 -69.05  0.002668289    4.171    0.760
         4 -12.4786      3.3556     13.8312   6.1797327856e+01   7.2734244866e+01    0.5201643    0.2937755 -54.47  0.002364005    1.369    0.270
         5 -11.4100     14.5571     17.8645   5.7358384975e+01   7.1245293224e+01    0.4779065    0.3138357   3.19  0.002708998    1.781    0.439
         6 -11.5098     10.4238     11.0904   5.6738171226e+01   7.2789229569e+01    0.5401878    0.2740254 -55.77  0.003144255    1.769    0.435
         7 -10.7409    169.6588     17.4567   7.4300662290e+00   4.0374455321e+01    0.3312874    0.2079759 -32.25  0.001037761    1.611    0.379
         8 -11.5701    165.4872     12.8051   6.4599716671e+00   4.2063885146e+01    0.6242672    0.3394031  77.59  0.002573834    1.910    0.476
         9 -11.1979    160.1640      8.8762   5.8826205635e+00   4.3956707091e+01     0.360694    0.2581418  88.14 0.0003258922    1.451    0.311
        10 -11.2144    154.4279      8.1760   6.5153292862e+00   4.5600111630e+01    0.4457681    0.3224079  25.32  0.001665863    1.609    0.378
        11 -11.3744    133.1224     18.2720   1.4261450233e+01   5.0152999965e+01    0.4975275    0.3321831 -60.93  0.001286565    1.885    0.470
        12 -11.0886     32.4818     15.5076   4.7154203691e+01   7.0015768106e+01    0.2721398    0.2549693 -22.60  0.001216427    1.277    0.217
        13 -12.0426     65.2313     11.8866   3.0864766542e+01   6.5930704524e+01    0.2425911    0.2023146  -3.20 0.0003413484    1.055    0.052
        14 -10.6377     60.2212     11.8652   3.2826198835e+01   6.6776933372e+01    0.4618167    0.1822316 -33.32  0.001937443    2.306    0.566
        15 -11.1997     55.7001     17.2612   3.7401880081e+01   6.6684176380e+01    0.7147309    0.5765783 -51.12  0.003408677    1.538    0.350
        16 -11.7391    248.9632     20.5950   3.5928918072e+02   1.8928346069e+01    0.4116134    0.2186269 -48.96 0.0004013421    1.636    0.389
        17 -10.8517    137.1318     14.9125   1.2120447199e+01   4.9504921424e+01    0.2642293    0.2045639 -56.19 0.0004343046    1.445    0.308
        18 -11.5628     82.1863      7.0152   2.2415826058e+01   6.3364490030e+01    0.2244262     0.197509   6.33 0.0002883261    1.010    0.010
        19 -12.1220     75.4017     11.5157   2.6946404696e+01   6.4137941770e+01    0.6894675    0.4744383   8.94  0.002453783    1.584    0.369
        20 -11.7076    240.4998     14.6692   3.5851283109e+02   2.1714987925e+01    0.3406634    0.2551944 -57.90  0.000828249    1.165    0.141
        21 -12.2149    242.6539      3.9743   3.5563420285e+02   2.2423042198e+01    0.7131122    0.3253646 -80.09    0.0025294    2.498    0.600
        22 -12.1190    235.2704      9.9166   3.5772971473e+02   2.3579076096e+01    0.3998616    0.2528451  87.67 0.0009722651    1.556    0.357
        23 -10.4311    145.9146     12.6656   9.6091516458e+00   4.7423973523e+01    0.4215687    0.1561937 -33.60  0.000968122    2.601    0.615
        24 -10.6996    145.3033      8.0830   7.9800336956e+00   4.8079491587e+01    0.3117622     0.200488  71.35 0.0002480464    1.515    0.340
        25 -10.0922    124.9306     13.7917   1.4202277867e+01   5.2781121006e+01    0.3517249    0.2305203 -79.98  0.001523435    2.212    0.548
        26 -10.2565    227.1747     12.5613   3.5913763483e+02   2.5331102442e+01    0.2733053    0.1923375 -35.11  0.001410546    1.366    0.268
        27 -11.4367    231.9812     12.7717   3.5876047281e+02   2.4076741050e+01    0.4433496    0.1713926 -42.52  0.001776028    2.195    0.544
        28 -10.9361    176.7202     11.4454   4.4060975070e+00   3.9103613634e+01    0.4510245    0.3256975 -75.95 0.0002196424    1.449    0.310
        29 -10.0800    139.1547     10.8113   1.0128896680e+01   4.9429924718e+01    0.2236735    0.1960855 -77.53 0.0006685075    1.231    0.188
        30 -10.2664    120.0103      9.8466   1.3631063530e+01   5.4456647981e+01    0.3253627    0.2025077  -9.67 0.0007626338    1.808    0.447
        31 -10.3773     28.3036     10.6407   4.6885975461e+01   7.1286806808e+01    0.2617489    0.2405836  46.65  0.001910271    1.597    0.374
        32 -10.0996    100.3933     10.1734   1.8588892216e+01   5.9088394350e+01    0.2428897    0.2237726   9.09 0.0006506889    1.029    0.029
        33  -9.7897    102.3262      7.6680   1.6916754493e+01   5.8928978519e+01    0.3552026    0.1653262 -42.46  0.001453205    2.545    0.607
        34 -10.5085     36.0771      7.6999   4.1431539645e+01   7.0866840679e+01    0.4214684    0.1958149 -28.45  0.002096603    2.098    0.523
        35  -9.7978     90.1048      8.2922   2.0610793626e+01   6.1568125162e+01    0.2390499    0.1746989   0.76  0.001295445    1.395    0.283
        36  -9.7393     14.2847      2.0109   5.0134253165e+01   7.4048878419e+01    0.1720811    0.1410418  -9.37 0.0002117896    1.204    0.169
        37  -9.3267     19.7485      8.3314   5.0283443232e+01   7.2516141857e+01    0.1743327    0.1128839 -40.49 0.0003081319    1.230    0.187
        38 -10.1872     16.4576      7.2331   5.1562953722e+01   7.2993066641e+01    0.3481531    0.1152657 -44.02  0.001271105    2.271    0.560
        39 -10.1351     19.9161      4.3441   4.8149860554e+01   7.3160858144e+01    0.2804519    0.2520949 -69.87  0.002054966    1.741    0.425
        40 -10.8120     27.6191      2.9712   4.3191712830e+01   7.2582410452e+01    0.2977571     0.254874  80.40  0.001943044    2.342    0.573
        41 -10.2796     22.2099      1.5885   4.5371133033e+01   7.3371711466e+01    0.2113293    0.1406849   5.72 0.0009524976    1.591    0.371
        42  -9.4486    114.0165      8.5577   1.4437433797e+01   5.6069281588e+01    0.2035776    0.1334781  60.75 0.0003891801    1.495    0.331
        43  -9.8373    228.4899      6.0274   3.5727942989e+02   2.5741769898e+01    0.2049012    0.1306008 -31.32 0.0006940191    1.542    0.351
        44 -10.2409    223.1095      5.0011   3.5746312796e+02   2.7242357578e+01    0.2797344    0.1950028 -21.46  0.001275201    1.603    0.376
        45 -11.6240    179.3863      3.7594   1.5527211274e+00   3.9177810529e+01    0.3972647    0.2667312  61.44 0.0002234804    1.400    0.286
        46 -11.2308    164.6286      4.8394   3.8208944848e+00   4.3142879921e+01    0.2886286    0.2368867 -60.53  0.000380885    1.249    0.199
        47 -10.0209     68.3744      5.2305   2.6209168445e+01   6.6239910219e+01    0.2175828    0.1861902  10.06 0.0007022092    1.047    0.045
        48  -9.0858    110.1678      4.8280   1.3682532797e+01   5.7387271716e+01    0.2035627     0.146231  30.99   0.00105513    1.377    0.274
        49  -9.8934     59.0132      5.3172   2.9843290780e+01   6.7865686178e+01    0.1691685    0.1393335  25.27 0.0003778497    1.204    0.169
        50  -9.7349    134.8899      4.3385   8.3606915337e+00   5.1217336605e+01    0.3030498    0.1359091  76.15  0.001113826    2.631    0.620
        51 -10.4312    126.7175      2.8360   9.2849283127e+00   5.3477215506e+01    0.3608965    0.2334588  45.70   0.00165368    1.450    0.310
        52 -10.3635     97.8719      3.1991   1.5983074650e+01   6.0414884408e+01    0.2698444    0.1828663 -11.20 0.0008810326    1.501    0.334
        53  -9.8125    169.0145      3.0378   2.6129457885e+00   4.2112612384e+01     0.240916    0.1541712 -55.11  0.001109854    1.657    0.397
        54  -9.6152    119.1424      2.8190   1.0806526528e+01   5.5391208255e+01    0.3746205   0.09506485  44.21 0.0006941932    4.131    0.758
        55  -9.9527    173.9010      1.7403   1.5585273764e+00   4.0891502156e+01    0.2203458    0.1818565  52.03 0.0005625547    1.228    0.186
        56 -10.1884     91.0958      2.0830   1.7282119982e+01   6.2030763699e+01    0.1972958    0.1697542  16.46   0.00028411    1.049    0.047
        57 -10.7652     73.9703      1.5216   2.2266813005e+01   6.5616493000e+01    0.2938927    0.1389606  54.02 0.0007696677    2.230    0.552
        58 -10.4671     34.7857      1.8864   3.8857619637e+01   7.1891259689e+01    0.1842631    0.1513551  11.52 -0.0006383859    1.233    0.189
        59 -10.2120    230.2809      1.3940   3.5591669562e+02   2.5794234319e+01    0.2371349    0.1203483  72.17 0.0007270112    1.886    0.470
        60  -9.8130     86.1857      1.3107   1.8306421225e+01   6.3162902849e+01    0.1712652    0.1198338  63.34 0.0004013218    1.636    0.389
        61 -10.0598    134.8569    196.4696   6.0877663848e+01   1.4850485824e+01    0.1996686    0.1752176 -76.35 0.0004844735    1.268    0.211
        62 -12.2268    247.7568    247.9142   4.8535977810e+01  -1.0790075716e+01    0.5542855    0.3319279  15.78  0.003840032    1.499    0.333
        63 -12.2347    226.1638    245.8698   5.1632529072e+01  -7.4746340831e+00    0.5361317    0.3033295  -6.30  0.003196832    2.471    0.595
        64  -9.7808    110.0138    250.3046   7.1380950132e+01   1.0207758225e+01    0.1643244    0.1056387  53.11 0.0006089643    1.102    0.092
        65 -11.6421     21.8858    248.6912   8.5205333334e+01   2.2110036731e+01    0.4212756    0.1233144  52.39  0.002163064    2.089    0.521
        66 -10.3122      4.9076    244.1624   8.7541618333e+01   2.4648318588e+01    0.1960621   0.09486138  78.05  0.000570767    1.476    0.323
        67 -10.4216      6.8213    249.4067   8.7430494776e+01   2.3605912009e+01    0.1801858    0.1045911  80.35 0.0007334746    1.278    0.217
        68 -10.8076     10.3156    248.3076   8.6889951559e+01   2.3418792507e+01    0.3929968   0.06970032  53.16  0.002075531    2.803    0.643
        69  -9.2959     56.4836    197.4827   7.6376362028e+01   2.7095073251e+01    0.1201422   0.08989953  72.70 0.0005311184    1.035    0.033
        70 -12.0115     15.6004    192.0949   8.3638157449e+01   3.2937465987e+01    0.3397574    0.2668949  79.29   0.00177785    1.230    0.187
        71 -11.8582     15.9126    182.3900   8.3036572857e+01   3.4853230642e+01    0.4509877    0.1937095  77.71   0.00187369    1.978    0.495
        72  -9.7420    186.5194    193.4948   5.0425394839e+01   5.6958260894e+00    0.1745085    0.1267469 -23.98 0.0008184737    1.702    0.412
        73 -10.4832    187.3184    189.9993   4.9678308672e+01   6.0807622757e+00    0.2820609    0.1840126   1.89  0.001149547    2.574    0.611
        74  -9.1159      1.6509    193.6967   8.6204261985e+01   3.3974602943e+01   0.09129164   0.07230809 -69.54 0.0007040324    1.696    0.410
        75  -9.7093     60.6065    192.1551   7.5121934981e+01   2.7607194281e+01    0.2125651     0.133969  36.99  0.001241704    1.861    0.463
        76  -9.8574    145.1807    190.1044   5.7895350527e+01   1.4090401224e+01    0.1941016    0.1705012  35.66 0.0006501701    1.240    0.193
        77 -10.5795    244.6758    188.2171   3.9194007532e+01  -4.0994685549e+00    0.2127823    0.1542269  28.72 0.0007248144    1.190    0.160
        78 -10.2517    225.9929    188.2899   4.2366049819e+01  -8.5811718697e-01    0.1836949     0.145792  26.84 0.0005633394    1.074    0.069
        79  -9.4190      2.3302    187.2969   8.5801021096e+01   3.5164305253e+01   0.09266782   0.07243024 -70.28  0.000441175    1.638    0.389
        80  -9.7583     61.9633    184.7097   7.4162643946e+01   2.8943604479e+01    0.1758545    0.1320896  69.27  0.001102585    1.053    0.050
        81 -11.1019     22.9907    180.0743   8.1534883802e+01   3.4604843237e+01    0.3852641    0.1175282  64.59  0.001502475    3.439    0.709
        82 -11.0006    249.5156    179.5347   3.6755082490e+01  -3.8527796894e+00    0.2552342    0.1144719 -30.90  0.001227523    2.231    0.552
        83 -10.6203      1.4770    180.4951   8.5640818038e+01   3.6597392238e+01    0.1649066    0.1067072 -85.98 6.584163e-05    1.263    0.208
        84 -10.0597     96.4245    178.0738   6.6250488360e+01   2.5126585430e+01    0.1652281    0.1073545 -41.54 0.0004485399    2.417    0.586
        85 -10.9951     10.0228    177.7064   8.3890580252e+01   3.6381818774e+01    0.1566622    0.1118999  71.47 0.0005634253    1.104    0.094
        86 -10.2304     54.1035    175.5149   7.4893766104e+01   3.1924623102e+01    0.2244907    0.1512934 -73.54 0.0008074934    1.402    0.287
        87  -9.4702      1.4888    175.5112   8.5397605026e+01   3.7605951933e+01    0.1122989   0.07553639  78.33 1.722961e-05    1.009    0.009
        88 -11.8959      8.1389    172.6757   8.3972342077e+01   3.7594130564e+01    0.2552576    0.1707836 -74.90  0.001248652    1.443    0.307
        89 -10.8169     15.6562    170.3155   8.2347558811e+01   3.7379993671e+01    0.2312994    0.1076427  61.89  0.001330373    1.772    0.436
        90 -11.1211      1.6030    165.9147   8.4881966673e+01   3.9577558555e+01     0.358069    0.1018388 -83.71  0.001639085    2.839    0.648
        91  -9.1539     93.3198    166.7463   6.5393049084e+01   2.8041982192e+01    0.1384052   0.08825027  69.07 0.0002195389    1.536    0.349
        92 -10.2365     67.4978    165.5118   7.0954347761e+01   3.2277499520e+01    0.2485133    0.1137739 -70.07 0.0007019104    2.046    0.511
        93 -10.7093      7.9186    163.5296   8.3481765719e+01   3.9532369684e+01    0.2448699    0.2000495 -18.18  0.001720343    2.321    0.569
        94 -10.1023     51.4709    160.9583   7.3992442455e+01   3.5436265018e+01    0.1864282    0.1052464 -74.56 0.0004541758    1.550    0.355
        95 -11.0076    248.0671    156.4192   3.2336127120e+01  -5.7368155112e-01    0.3483815    0.2394482  16.81  0.001802105    1.517    0.341
        96 -10.1270    186.0244    166.0165   4.5509298460e+01   1.0248790260e+01    0.1760387     0.159465  39.33  0.001017009    1.003    0.003
        97 -10.2770    215.5903    154.0644   3.7433763153e+01   6.1159246343e+00     0.409975     0.213997  44.50  0.001570606    1.818    0.450
        98 -10.1980    159.0089    153.6218   4.8595537167e+01   1.8207775403e+01    0.3436768    0.2305138  34.01  0.001089156    1.653    0.395
        99 -10.3226     11.1588    152.9795   8.2118023836e+01   4.1516102345e+01    0.3167578    0.1200414  52.24  0.001662149    2.309    0.567
       100  -9.9245     40.7947    151.9188   7.5450457762e+01   3.8753828018e+01    0.1781776     0.141338 -79.96 0.0004627309    1.188    0.158
       101 -10.3363    144.4263    149.7077   5.1002527691e+01   2.2073319397e+01    0.4805953    0.2496101 -69.21  0.001276601    3.351    0.702
       102  -9.9261     81.8018    150.3791   6.5676134583e+01   3.3544771420e+01    0.1802156    0.1292239  33.08 0.0009485667    1.741    0.426
       103 -11.7328     13.8601    147.7006   8.1142252318e+01   4.2437500765e+01    0.2832373    0.1499032 -89.85 0.0002535034    1.482    0.325
       104 -10.8104      7.0056    145.2712   8.2482119350e+01   4.3559668826e+01    0.3514009     0.131678  38.34  0.001881628    2.623    0.619
       105  -9.7676     41.1626    146.1945   7.4760066260e+01   4.0013919702e+01    0.1776003    0.1161693  70.34 0.0004392827    1.352    0.260
       106 -10.9361    217.5329    145.0697   3.5126872252e+01   7.1510956939e+00    0.4050255    0.1810431  38.35  0.001477318    2.397    0.583
       107 -10.3973     14.0140    140.0187   8.0498308233e+01   4.4137256101e+01    0.1737627    0.1321377 -81.75 0.0003470661    1.158    0.137
       108 -11.1353     17.5073    143.6147   7.9994848219e+01   4.3020528468e+01    0.2983431    0.1432179  73.28  0.001367502    1.935    0.483
       109  -9.9552    239.9335    140.0844   3.0136827993e+01   3.3263051447e+00    0.2137826    0.1886071   1.46 0.0007602355    1.040    0.039
       110 -10.1941    189.0289    139.7246   3.9364150340e+01   1.4277608898e+01    0.2444738    0.2142865 -38.53 0.0004428724    1.185    0.156
       111 -10.0440    235.8618    138.0979   3.0370068932e+01   4.4468507383e+00    0.2004889    0.1888065 -47.45 0.0004867491    1.235    0.190
       112  -9.5448    144.1627    136.8286   4.8390535327e+01   2.4838186115e+01    0.2003965    0.1836372   6.80  0.000365981    1.346    0.257
       113 -13.3774     37.4738    134.7938   7.4366739421e+01   4.3057930312e+01    0.5291333    0.2902697 -72.77  0.002888128    1.500    0.333
       114 -10.0687     20.5815    135.2790   7.8534863019e+01   4.4627607671e+01    0.2538977   0.09441574 -75.08 0.0009822727    2.120    0.528
       115 -11.2272     16.8592    131.1539   7.9046441436e+01   4.5900397541e+01    0.3494231    0.2178329  37.74  0.001839349    1.837    0.456
       116  -9.1027      9.2837    136.3466   8.1297542486e+01   4.5357684938e+01    0.1131048   0.07196055 -60.36 0.0003683955    1.646    0.392
       117 -11.3583     53.2492    132.5424   7.0119450912e+01   4.1746484019e+01    0.3350768    0.2378282  88.18 0.0004162187    1.237    0.192
       118 -11.7254     74.0860    128.7101   6.4153339771e+01   3.9794244646e+01    0.3461522    0.3328413   2.04  0.001090436    1.420    0.296
       119 -12.7078     81.4298    124.4450   6.1466207209e+01   3.9676981138e+01    0.8771836    0.5130239 -62.03  0.002899481    1.567    0.362
       120 -10.4281     59.5100    131.1560   6.8318829600e+01   4.1268135126e+01    0.1988018    0.1825273 -54.14  0.001256392    1.363    0.266
       121 -11.1780      4.6524    130.2759   8.1907803829e+01   4.7081069613e+01    0.2004324      0.15267 -83.62 0.0002931378    1.124    0.111
       122  -9.5415     55.5052    127.4248   6.8801086915e+01   4.2674918665e+01    0.1326593    0.1110307 -83.58 0.0001526458    1.053    0.051
       123 -10.8908     24.8910    127.4964   7.6689772893e+01   4.6022563616e+01    0.2816889    0.1912087 -77.37  0.001765004    1.171    0.146
       124 -10.0894    229.5087    124.9789   2.8415031951e+01   7.8357642335e+00    0.2249875    0.1358393 -33.47   0.00103076    1.586    0.370
       125  -9.5425    219.2924    124.2434   3.0010774747e+01   1.0200754925e+01    0.2836979    0.1809845 -15.65  0.001230632    1.923    0.480
       126 -11.6380     47.1913    124.3289   7.0533144664e+01   4.4428256315e+01     0.265687    0.2071774  60.85 0.0002669549    1.281    0.220
       127 -10.2322      7.7567    118.7810   8.0162692859e+01   4.9457254403e+01    0.1954925     0.123246  81.78 0.0007784314    1.318    0.241
       128  -9.4504     14.3947    124.7894   7.9051493252e+01   4.7565650955e+01    0.1777172    0.1209996  85.77 0.0006559743    1.164    0.141
       129 -11.4531     11.2032    121.7317   7.9563193888e+01   4.8521585520e+01    0.4252727    0.1519077 -70.43  0.002075679    2.083    0.520
       130  -9.9177    117.3083    123.9804   5.2055762327e+01   3.3312208574e+01    0.2194802    0.1887988 -61.69 0.0008938239    1.143    0.125
       131 -10.1700     30.6491    124.0561   7.4826996792e+01   4.6273878595e+01    0.1790315    0.1259109 -79.95 0.0003878736    1.123    0.110
       132  -9.6184    226.0994    123.1485   2.8561795523e+01   8.8750700668e+00    0.1924274    0.1750967 -88.08  0.000711955    1.327    0.247
       133 -11.5373     69.4465    121.7919   6.4186717313e+01   4.2129564981e+01    0.3537768    0.2570777  33.76  0.001420249    1.662    0.398
       134  -9.9143     65.1551    119.8105   6.5001867037e+01   4.3212477254e+01    0.2174046    0.1908382  57.81 0.0004395401    1.228    0.186
       135 -10.9152     61.0886    121.5975   6.6404800706e+01   4.3338071116e+01    0.2560766    0.1711397 -62.96 0.0006178097    1.340    0.254
       136  -9.7913     56.9640    121.4624   6.7493936456e+01   4.3911678803e+01    0.1839613   0.09347367  61.07 0.0005082567    2.305    0.566
       137 -10.9035     22.7881    119.9876   7.6399683450e+01   4.7961601283e+01     0.227874    0.1483744  63.23  0.001384106    1.498    0.332
       138 -10.9367      1.8489    118.6691   8.1650729017e+01   4.9899295644e+01    0.2307649    0.1453898  75.14  0.001139841    1.366    0.268
       139 -10.5829    249.4708    117.0480   2.3330990624e+01   4.8502083871e+00    0.3663874    0.2054773  -6.13  0.001426178    2.807    0.644
       140 -12.2566     16.4242     97.3381   7.5383813065e+01   5.3780116826e+01     1.001731    0.2406344 -64.81  0.004081659    2.781    0.640
       141 -11.9932     15.9960    115.2626   7.7664156967e+01   4.9635635178e+01    0.3159263    0.2352672  86.05 0.0004566602    1.109    0.098
       142 -12.3118     14.3574    110.2793   7.7554309050e+01   5.0921599156e+01    0.3655262    0.2525802 -89.41 0.0005988345    1.161    0.138
       143 -10.4183     98.0930    117.4379   5.5622948105e+01   3.8510645717e+01    0.2713207    0.1461157  38.41  0.001138426    2.076    0.518
       144  -9.7094     64.4151    131.2774   6.7075541223e+01   4.0575746539e+01    0.1903168    0.1142267 -79.43  0.000940946    1.576    0.366
       145 -10.9640    181.9055    114.6760   3.4807606104e+01   2.0672365622e+01    0.5349104    0.2659494  44.19  0.001581759    2.075    0.518
       146 -10.6985     71.0037    115.1320   6.2547931862e+01   4.3502810377e+01     0.297213    0.2238387  44.82  0.001632026    1.440    0.306
       147 -10.6555     75.6064    112.3891   6.0731445187e+01   4.3473707565e+01    0.2528361    0.2297215  84.00 0.0005607998    1.089    0.082
       148 -10.1660    225.1976    110.8655   2.5724721590e+01   1.1099765765e+01    0.2150481    0.1919589 -53.18 0.0003329386    1.191    0.160
       149  -9.1582    101.5144    111.3527   5.3348307828e+01   3.9316912519e+01    0.1468174    0.1342037  84.50 0.0007912747    1.047    0.045
       150 -10.6464     62.9239    106.8571   6.3254949532e+01   4.6635944891e+01    0.2722219    0.1906679 -76.17   0.00033798    1.306    0.234
       151 -11.4283     61.7795     99.6364   6.2148257881e+01   4.8526393709e+01    0.5082734    0.2315543 -51.28  0.002204262    2.044    0.511
       152 -11.4367     55.2262    109.7329   6.6002576045e+01   4.6949778469e+01    0.2765758    0.2127235 -66.60 0.0006321326    1.135    0.119
       153 -10.2741     58.9153    105.8341   6.4223125990e+01   4.7415844414e+01    0.2092728    0.1761566 -75.66 0.0003077002    1.010    0.010
       154 -11.2362     30.9990    108.2496   7.2671553698e+01   4.9970985137e+01    0.4033153    0.1956701  78.21  0.001776436    2.663    0.625
       155 -10.4094     33.9905    107.6638   7.1736667179e+01   4.9820810724e+01    0.4519804    0.1939671  56.82  0.001588273    2.890    0.654
       156  -9.1725     70.2554    107.9536   6.1358184733e+01   4.5339358994e+01    0.1808847    0.1082164 -64.15 0.0003648461    1.487    0.327
       157  -9.6551      3.3459    107.7006   8.0267492615e+01   5.2296837066e+01    0.1832545    0.1366755  67.54 0.0005658249    1.320    0.243
       158 -10.2490      3.5095    105.0000   7.9955903773e+01   5.2904303845e+01    0.2616963    0.1630642  33.97  0.001688718    1.950    0.487
       159 -11.8037     51.0751    103.6861   6.6121205131e+01   4.8912689491e+01    0.2673828    0.2104659 -79.77 0.0005394773    1.094    0.086
       160  -9.9925     74.9810    104.0440   5.9177738223e+01   4.5573201025e+01    0.2142859    0.1837676 -75.45 0.0003297909    1.026    0.026
       161  -9.8117     38.2637    103.2741   6.9820771130e+01   5.0436415809e+01     0.238403    0.1310191 -65.88  0.001075334    1.473    0.321
       162  -9.6904     26.6003    102.3043   7.3085771402e+01   5.1781407857e+01    0.1326371   0.07875703  70.06 0.0001591058    1.835    0.455
       163 -11.5395     19.7315    108.9558   7.5922997618e+01   5.0802367128e+01    0.3690739    0.2402506 -49.47   0.00194535    1.701    0.412
       164  -9.7770    108.8210    100.6121   4.8736405423e+01   4.0411863990e+01    0.2057412    0.1400703  58.79 0.0002542614    1.590    0.371
       165 -11.4784     75.9341     98.3024   5.7621205325e+01   4.6799988842e+01    0.4445601    0.2958254 -32.39  0.002063293    2.067    0.516
       166  -9.1371      9.7280     99.2889   7.7583817249e+01   5.3807461372e+01    0.1165754   0.07359958  77.41 0.0002374342    1.510    0.338
       167  -8.9031    226.2959     98.2819   2.2368274216e+01   1.2931262047e+01    0.1469611    0.1148824  14.63 0.0001772907    1.539    0.350
       168  -9.9497     66.9996     97.9745   6.0225312483e+01   4.8203657693e+01    0.1624579    0.1475171 -82.34  0.000965642    1.069    0.064
       169  -8.9068     34.0000     98.9752   7.0387950033e+01   5.1885841657e+01     0.218994   0.06014199 -67.64 0.0007538844    2.942    0.660
       170 -11.8625     57.4683     90.4037   6.1503558708e+01   5.1298733117e+01    0.4649337    0.3341661 -25.68 0.0006703126    1.939    0.484
       171 -10.2217     52.3624     97.2801   6.4521967833e+01   5.0294163306e+01    0.2414915    0.1437357 -37.87 0.0009206691    2.194    0.544
       172 -10.1336     52.1063     93.6288   6.3868002508e+01   5.1197981170e+01    0.2160365    0.1598857 -76.80 0.0002943554    1.223    0.182
       173  -9.8369     57.3390     96.2743   6.2798555143e+01   4.9914876637e+01    0.1306621   0.09906705 -35.49 0.0001638543    1.611    0.379
       174 -10.2961    226.2631     93.2046   2.1065143719e+01   1.3777223706e+01    0.2688061    0.2352854 -80.14 0.0004351391    1.290    0.225
       175  -9.9763     27.0241     93.9862   7.1700953772e+01   5.3708178591e+01    0.1844603    0.1454306 -79.94 -0.005334738    1.051    0.048
       176  -9.5911     31.7568     92.7624   7.0039155522e+01   5.3571754521e+01    0.1676397    0.1248315  84.52 0.0003698113    1.315    0.240
       177 -10.5513     35.6818     90.6141   6.8432694199e+01   5.3706449386e+01     0.292836    0.1954852  79.92  0.001143103    1.650    0.394
       178 -11.8259     11.2255     91.0050   7.6097344753e+01   5.5624058941e+01     0.306041    0.2062301  33.16 0.0007935684    1.834    0.455
       179  -9.7547    231.5246     91.4649   1.9789078846e+01   1.2819660221e+01    0.1488999    0.1387907 -35.32 8.143588e-05    1.006    0.006
       180  -9.6525    105.4641     91.0010   4.7120456265e+01   4.3286841779e+01    0.2344345    0.1430567 -50.85 0.0005407862    1.550    0.355
       181 -11.4460     95.2758     88.8363   4.9485201703e+01   4.5738791494e+01    0.4856945    0.2746951  53.26  0.001507795    1.997    0.499
       182  -9.0263    177.3232     89.2647   2.8902948398e+01   2.6731765016e+01    0.1593687    0.1260652  23.09 0.0002072995    1.561    0.359
       183 -11.2915    109.6544     86.1954   4.4575330721e+01   4.3523610074e+01    0.4535875     0.336378 -81.46  0.001463863    1.686    0.407
       184 -10.1578     23.4218     90.2399   7.2220086671e+01   5.4893460982e+01    0.2255604    0.1865683  19.64  0.001514359    1.604    0.376
       185  -9.5246     73.8831     89.1186   5.6056885799e+01   4.9293361649e+01    0.1837191    0.1521265 -44.66            0    1.235    0.190
       186  -9.5031     83.1769     88.5513   5.3047873340e+01   4.7937388744e+01    0.1764549    0.1432567  17.74 0.0003601438    1.602    0.376
       187  -9.4576     46.6376     87.8268   6.4398723572e+01   5.3215800812e+01    0.1825327    0.1088536 -73.62 0.0001716825    1.576    0.366
       188 -10.2071     65.0287     84.4893   5.7711077647e+01   5.1681080033e+01    0.3754227     0.177858 -68.18  0.001268801    2.425    0.588
       189 -10.7151     21.2803     81.9453   7.1536940928e+01   5.7001695725e+01    0.3011608    0.1770416  78.14  0.001449076    2.017    0.504
       190 -10.6216     29.2574     85.3960   6.9540703367e+01   5.5534281673e+01    0.4027071    0.1459705  37.98  0.001814476    3.046    0.672
       191 -10.4288     30.0861     81.6412   6.8572121996e+01   5.6340305074e+01    0.2713368    0.1787934 -51.33 0.0008235003    1.387    0.279
       192  -9.1860     34.2793     84.6388   6.7765260221e+01   5.5251570228e+01    0.1304023   0.08693562  83.62 0.0007012559    1.670    0.401
       193 -10.2835    117.0930     83.1648   4.1601600003e+01   4.2618673591e+01    0.2350419    0.2173171  -7.97 0.0006399695    1.247    0.198
       194 -10.0616     42.6980     83.1339   6.4694801314e+01   5.4756031616e+01    0.2017738     0.170313  58.86 0.0007234053    1.339    0.253
       195 -10.6585     76.5364     81.9433   5.3367188254e+01   5.0554783202e+01    0.3609206    0.2027191  45.32  0.001390153    1.969    0.492
       196 -10.1026      7.5052     81.0250   7.5884688212e+01   5.8162103151e+01    0.2922234    0.1169017 -55.55  0.001268186    2.012    0.503
       197 -11.2383     49.3539     77.7347   6.1248838750e+01   5.5275714264e+01    0.3097982    0.2963575  -8.30  0.002015819    1.261    0.207
       198 -10.0784     65.0978     79.1808   5.6339834888e+01   5.2909224692e+01    0.1974846    0.1709033 -45.89 0.0002856003    1.141    0.123
       199  -9.6236     40.7099     79.5966   6.4598175432e+01   5.5794859838e+01    0.1637813    0.1179986  48.56 0.0009466861    1.614    0.381
       200 -10.4405    203.4268     77.8127   2.0696963171e+01   2.2054024507e+01    0.2570656    0.2431288  61.03 0.0003686365    1.091    0.083
       201  -9.9670    112.3568     78.1222   4.1402293305e+01   4.4732993415e+01     0.283325    0.2164247  26.01 0.0007596066    1.629    0.386
       202 -11.8483      6.4499     68.0985   7.4243603869e+01   6.1164851304e+01    0.7267204    0.3290795  71.98  0.002897169    3.698    0.730
       203 -11.2970     23.1950     75.8642   6.9798606597e+01   5.8261717649e+01    0.9157263    0.5026157   9.03  0.004761661    2.795    0.642
       204 -14.1630     16.7337     67.3476   7.0432830030e+01   6.0691003390e+01    0.5551208    0.3990898 -56.75  0.001218894    1.150    0.131
       205 -10.1296     83.9387    248.5047   7.5512427867e+01   1.4292281193e+01    0.1664514   0.07790978  48.58 0.0005204343    1.540    0.351
       206 -10.7869      7.0524     41.0367   6.8446823294e+01   6.7072738545e+01    0.3535546    0.1768406 -39.15   0.00114356    1.866    0.464
       207 -10.9357      7.9944     51.4867   7.0495380911e+01   6.4771852520e+01    0.2739683    0.1824426 -68.78 0.0008520616    1.205    0.170
       208 -11.9768      3.3428     48.3757   7.1714290506e+01   6.5693921102e+01    0.6353414    0.2317451 -61.45  0.003273862    1.875    0.467
       209 -11.6425    167.8153     73.4876   2.6219283962e+01   3.2191604768e+01    0.4448257    0.2758161 -47.96  0.000339474    1.641    0.391
       210  -9.8879    167.5707     69.5348   2.5048306677e+01   3.2985652426e+01    0.2590292    0.1588282  57.43 0.0001193709    1.635    0.388
       211 -10.6451     99.3609     75.9300   4.4532473285e+01   4.7868186397e+01    0.2835425    0.2519878 -85.18  0.001317562    1.210    0.173
       212  -9.8948     74.5353     75.2835   5.2167465858e+01   5.2396467247e+01    0.3160191    0.2097641 -11.92  0.001338222    2.681    0.627
       213  -9.8464     37.5754     76.0828   6.4897274926e+01   5.6931699129e+01    0.2372458    0.1611889 -22.27   0.00128728    2.032    0.508
       214 -12.8578     88.4110     77.3006   4.8306742701e+01   4.9612228486e+01    0.3533057    0.3398051  -9.29 0.0005174552    1.162    0.140
       215  -9.8997     44.8144     74.5205   6.2036792522e+01   5.6536387905e+01    0.1639184    0.1304798  38.47 0.0009879508    1.484    0.326
       216 -10.3117      6.7444     73.4562   7.5006295656e+01   5.9934801426e+01    0.2358218    0.1656108  11.17  0.001338879    1.954    0.488
       217  -9.5972    206.8221     73.2205   1.8825788368e+01   2.1955671209e+01    0.2027188    0.1800535   1.79 0.0003624443    1.288    0.224
       218 -10.8363    106.8142     71.6214   4.0962152018e+01   4.7294105410e+01    0.3051702    0.2324832  68.27 0.0009247131    1.559    0.359
       219 -11.3116    103.0076     69.3550   4.1360386203e+01   4.8558349173e+01     0.538784    0.3182701 -37.60 0.0003898807    1.723    0.420
       220  -9.8411     61.6342     72.4857   5.5708239939e+01   5.4929265086e+01     0.359863    0.1033972 -51.82  0.001260795    2.873    0.652
       221  -9.2950    159.9819     71.9931   2.7442357097e+01   3.4524684606e+01    0.1951226    0.1849584  70.46 0.0004025984    1.052    0.049
       222 -10.4095     55.4336     70.8067   5.7393842361e+01   5.6130384807e+01    0.1995751    0.1055252 -47.54 0.0004677508    1.684    0.406
       223 -10.1707     45.0999     70.7790   6.1020613285e+01   5.7365906531e+01     0.184107     0.155901 -75.93 0.0003263888    1.159    0.137
       224  -9.3680    114.9556     69.6590   3.7978994930e+01   4.5961394015e+01    0.2007965    0.1972383 -79.99 0.0004962598    1.036    0.035
       225 -11.3679     92.4238     68.1010   4.4207847055e+01   5.0898733190e+01    0.4564068    0.3589479 -19.90  0.001741651    1.517    0.341
       226 -11.8821     50.2775     68.2991   5.8537581515e+01   5.7335638440e+01    0.2973652    0.2342709 -47.64 0.0003361485    1.141    0.124
       227 -11.5771    147.1303     65.7952   2.8378228109e+01   3.9016973884e+01    0.3890329    0.2472052 -46.16  0.001132749    1.577    0.366
       228  -9.0885    199.4878     68.4474   1.8691136971e+01   2.4677777344e+01    0.1567607    0.1516258 -63.14 0.0001717218    1.018    0.018
       229 -10.7197    122.7817     67.4561   3.5084413213e+01   4.4644260044e+01    0.2893794    0.2562791 -46.88 0.0006262981    1.096    0.087
       230 -10.7521     51.4464     63.5265   5.6793629903e+01   5.8267654385e+01    0.3469283    0.1890663 -43.47  0.001084558    1.708    0.415
       231 -12.8243     30.2544     63.3606   6.4593021554e+01   6.0530432138e+01    0.4280671    0.3480712 -65.28  0.001100689    1.067    0.062
       232  -9.0838    135.2673     66.6110   3.1535149889e+01   4.1835335333e+01    0.1670354      0.12001 -66.98 0.0006984895    1.708    0.414
       233 -11.2164    110.0776     63.6844   3.7384287591e+01   4.8248041902e+01    0.5491146    0.3580553 -56.32  0.002203548    1.692    0.409
       234 -10.5704    159.4570     64.5542   2.5195409336e+01   3.6039900527e+01    0.3891337    0.2772675 -33.01  0.001072886    1.431    0.301
       235  -9.1726    131.2895     65.3086   3.2116822477e+01   4.3057149000e+01    0.1555841    0.1257048   8.32 0.0006993601    1.578    0.366
       236  -9.1414    119.2791     65.2964   3.5321412034e+01   4.5880806995e+01    0.1500316    0.1228161   2.07 0.0002353227    1.535    0.349
       237 -10.6998     81.6453     64.9285   4.6667301924e+01   5.3520869572e+01    0.2335964    0.1967353  23.67 0.0005572011    1.367    0.269
       238 -10.5849    210.0027     63.1577   1.5456942160e+01   2.2781257166e+01    0.2493102    0.2142963 -39.65 0.0003504074    1.115    0.103
       239  -9.6228    179.7386     64.0016   2.0908154790e+01   3.0716182349e+01    0.2219548    0.2004348 -45.84  0.000361261    1.086    0.079
       240 -10.3792    202.0404     62.2740   1.6467544794e+01   2.5023766478e+01    0.3151767    0.2271126 -20.04 0.0008359892    1.559    0.359
       241  -9.3016    193.4945     62.5064   1.7966977525e+01   2.7267892839e+01    0.1581659    0.1526278 -66.25 0.0001725872    1.016    0.016
       242 -11.4708     45.9767     60.7809   5.8029331510e+01   5.9522347352e+01    0.3728289     0.262548  -7.98 0.0003715782    1.963    0.491
       243  -9.3198    168.5074     61.4122   2.2293770546e+01   3.4188703035e+01    0.1602523    0.1535718 -85.36 0.0001051755    1.023    0.022
       244 -10.2231    119.1762     60.8909   3.3846007347e+01   4.6773958155e+01    0.2297697    0.2020062 -65.86 0.0002894576    1.212    0.175
       245 -10.1588     90.1687     61.1537   4.2623518733e+01   5.2788969444e+01    0.2401058    0.2114135  43.44 0.0003183216    1.227    0.185
       246 -10.7208     93.3699     59.2162   4.0930833685e+01   5.2578898423e+01    0.3628297    0.2171968 -51.23  0.001239894    1.668    0.400
       247 -10.8520     89.2633     54.3126   4.0520511712e+01   5.4351613993e+01    0.4040392    0.2799314 -47.73  0.001495571    1.377    0.274
       248 -10.5391     89.5132     50.4998   3.9043230034e+01   5.5053640840e+01    0.2529005    0.2215655  59.56  0.001247245    1.305    0.234
       249  -9.3940    150.4835     60.5268   2.5864845623e+01   3.9123796982e+01    0.1590963    0.1552509 -76.17 1.256947e-05    1.005    0.005
       250 -10.4358    136.4586     59.0109   2.8674846568e+01   4.2982362830e+01    0.4398729    0.2624912  75.73  0.001606427    2.502    0.600
       251 -10.3362    171.1442     57.7747   2.0606036147e+01   3.4104638796e+01    0.2542988    0.2142077 -76.17  0.001150885    1.267    0.211
       252 -10.9615    155.7423     62.6107   2.5376384569e+01   3.7370674687e+01    0.3479474    0.2673955  30.18  0.001556123    1.541    0.351
       253  -9.3365     58.0017     58.7668   5.2964400512e+01   5.8474896357e+01    0.1623469    0.1147979  33.46 0.0008805018    1.636    0.389
       254 -11.3508    115.9523     55.4908   3.2841548303e+01   4.8547138422e+01    0.4301309    0.3019616  71.51  0.001904905    1.831    0.454
       255  -9.3842     78.5212     47.4898   4.1640144317e+01   5.7644285861e+01    0.2197028    0.1396253  40.34 0.0006096417    1.718    0.418
       256 -10.5156     79.1993     56.9147   4.4810540344e+01   5.5633022660e+01    0.3468172    0.2531214  -6.25 0.0005203091    1.883    0.469
       257  -9.5133     75.3269     55.5283   4.5668105857e+01   5.6570382501e+01    0.3993648    0.2279187 -24.22   0.00161511    2.615    0.618
       258 -10.4444     82.6290     50.6926   4.1415866317e+01   5.6290712902e+01    0.3143179    0.2212367 -14.11   0.00150018    1.831    0.454
       259 -10.2141     82.3125     47.6897   4.0403217483e+01   5.6933846702e+01    0.2317019    0.2019421  62.57 0.0005592131    1.372    0.271
       260  -9.4500     38.6839     57.7176   5.9928684466e+01   6.0986733065e+01    0.1280914   0.08469778 -34.60 0.0002820752    1.579    0.367
       261  -9.7638    215.2527     56.4411   1.2761487772e+01   2.2467253956e+01    0.2070787    0.1480131  83.33 0.0005612923    1.554    0.356
       262  -9.8471    176.9689     55.7359   1.8843637038e+01   3.2866073677e+01    0.2905732    0.2087073 -17.23  0.001256588    1.640    0.390
       263 -10.2867    145.8042     54.1860   2.4785916644e+01   4.1469033367e+01    0.3234606     0.242969  38.58 0.0007325267    1.446    0.308
       264 -10.8716    149.4632     52.0060   2.3209328195e+01   4.0889564469e+01    0.4337738    0.3158587 -64.53  0.001908096    1.615    0.381
       265 -11.4412    104.9452     52.4469   3.4924862974e+01   5.1554773997e+01    0.3070133    0.2846835  62.70 0.0003745868    1.168    0.144
       266 -10.6699    126.8303     51.0963   2.8322878567e+01   4.6791651069e+01    0.4303583    0.2920412  72.70  0.001845135    1.855    0.461
       267 -11.7873     38.8912     50.1504   5.7621596868e+01   6.2608782098e+01    0.5340413    0.3082774 -43.11  0.002590416    1.512    0.339
       268 -11.9637     84.3803     36.3225   3.5186020784e+01   5.8639797838e+01    0.7096612    0.4257764 -14.47   0.00253286    2.345    0.574
       269 -11.9255     74.9827     35.2267   3.8027644781e+01   6.0542385200e+01    0.5804225    0.4435739 -48.01  0.001457787    1.359    0.264
       270 -11.9406     65.9787     36.8140   4.2036765078e+01   6.1750240260e+01    0.4826623     0.341689  38.18  0.001566376    1.564    0.361
       271 -11.0455     61.1858     36.8190   4.3894703994e+01   6.2484680511e+01    0.5615257    0.1629651 -48.21  0.001648775    3.403    0.706
       272 -10.4841     50.2548     43.1494   5.0684372391e+01   6.2756688471e+01    0.4195061    0.1898852 -46.13  0.001948625    1.855    0.461
       273 -12.3988     54.6967     48.9859   5.0991591201e+01   6.0989253141e+01    0.7201881    0.4654996  -7.30 0.0003883065    2.357    0.576
       274 -11.7050     45.4899     45.3894   5.3402483911e+01   6.2879600661e+01    0.8306155    0.3443549 -58.43  0.003087463    2.504    0.601
       275 -10.7434     44.9334     38.2593   5.1076522329e+01   6.4387494445e+01    0.2477113     0.174333 -48.85  0.001455721    1.235    0.190
       276 -10.5175    133.1755     50.3559   2.6448900271e+01   4.5358297993e+01    0.3745005    0.2527879 -82.76   0.00147595    2.274    0.560
       277 -10.1463     73.2627     49.4215   4.4219370957e+01   5.8152202110e+01    0.2902606    0.1509626 -54.71  0.001073576    2.103    0.524
       278 -10.2743    183.4754     49.6775   1.5760909744e+01   3.2067856372e+01    0.3728286    0.1571683  64.64  0.001269719    2.453    0.592
       279  -9.2831    180.2357     46.9821   1.5467683148e+01   3.3378304616e+01    0.2238479    0.1760955 -60.70 0.0002355855    1.314    0.239
       280  -9.8273    164.1569     48.1729   1.8832928396e+01   3.7590519553e+01    0.2770173    0.2073745 -37.70 0.0003031319    1.327    0.247
       281 -10.3294    163.3084     44.1348   1.7639267965e+01   3.8461689376e+01    0.2550455    0.2231083  80.45  0.000412388    1.155    0.134
       282  -9.5143    157.3283     48.2934   2.0250574330e+01   3.9416953738e+01    0.2191119    0.1395015 -40.98 0.0004889591    1.556    0.358
       283 -10.2833    182.7659    246.6177   5.8827993948e+01  -8.0196175187e-01    0.1729896   0.08198616  48.50 0.0006944857    1.725    0.420
       284  -9.5675    123.0223     52.6555   2.9887710178e+01   4.7426458696e+01    0.2824633    0.1470023 -37.14 0.0009551976    1.880    0.468
       285  -9.0165    222.2985     45.7250   8.7890654765e+00   2.2238158861e+01    0.1544648    0.1054326 -63.36 0.0001663354    1.532    0.347
       286 -10.3320    127.0705     44.9335   2.5998307504e+01   4.7801607928e+01    0.2318695    0.2052747 -71.82 0.0005523643    1.254    0.202
       287  -9.7371    112.4523     45.4594   3.0119677990e+01   5.1173362497e+01    0.2263694    0.2073162 -28.11 0.0001504589    1.061    0.057
       288 -11.1503    109.0133     41.0650   2.9399450377e+01   5.2709940457e+01    0.3689347    0.2607265  72.25  0.000957394    1.861    0.463
       289  -9.5830    237.0058     44.2294   6.5937879582e+00   1.8722049735e+01    0.2467612    0.1487515 -68.60  0.001074304    1.917    0.478
       290 -11.1250    141.3666     48.1240   2.3687886562e+01   4.3658402657e+01    0.4841719    0.2631911 -44.87  0.001364597    1.894    0.472
       291 -11.2760     96.4630     41.8857   3.3495477741e+01   5.5272989539e+01    0.4034893    0.2926236 -18.11  0.001409454    1.519    0.342
       292 -10.9475     72.4206     42.7208   4.1990154915e+01   5.9599561693e+01    0.3668947    0.2422359 -47.89  0.001118176    1.451    0.311
       293  -9.9832    130.7555     41.9209   2.3954229412e+01   4.7386220714e+01    0.3665563    0.1215302 -35.40  0.001174852    2.887    0.654
       294  -9.3752     34.3624     43.7761   5.7463874691e+01   6.4413631457e+01    0.1092376    0.0925499  70.52 0.0003949895    1.574    0.365
       295 -11.7686    247.8173     36.8243   3.5006310363e+00   1.7104357442e+01    0.4643617    0.3110712  -9.10  0.001293976    1.989    0.497
       296 -10.2242    143.7983     42.1836   2.1006918178e+01   4.3996695385e+01    0.2090772    0.1778407  25.88 0.0002588791    1.294    0.227
       297 -10.5189    121.0902     41.7598   2.6347852980e+01   4.9784813685e+01    0.2952097    0.2368714 -68.97  0.000745395    1.509    0.337
       298  -9.8458    117.5130     39.5363   2.6440429953e+01   5.1003613254e+01     0.272725    0.1918433 -45.80 0.0006899483    1.479    0.324
       299 -10.5713     89.4022     41.4332   3.5586148344e+01   5.6770148044e+01    0.2665334    0.2398919 -68.29 0.0005505603    1.313    0.238
       300 -10.5046     92.4443     35.4438   3.2156486008e+01   5.7206715510e+01    0.4549246    0.2351318 -24.56  0.001842506    2.284    0.562
       301 -10.4978     23.6371     41.2419   6.1255601523e+01   6.5905273793e+01    0.3396235    0.1429909 -59.10  0.001024941    1.937    0.484
       302 -12.5205     27.6444     37.6418   5.8340440270e+01   6.6309204612e+01    0.3265314    0.2419298  22.83 0.0003024027    1.625    0.385
       303 -10.8749     24.2455     34.9849   5.8970361103e+01   6.7143657770e+01    0.2656479    0.1799508 -33.63 0.0004260336    1.361    0.265
       304  -9.9434    187.0992     41.1259   1.2466202663e+01   3.2375226393e+01    0.2133392    0.1728912 -68.85            0    1.264    0.209
       305 -10.6508    233.9903     39.5185   5.6827449226e+00   2.0132370224e+01    0.4354869    0.2097434  81.07  0.001055865    2.576    0.612
       306 -10.9609    226.1706     39.5044   6.5875598257e+00   2.2123053940e+01    0.3414034     0.173295 -37.32   0.00143255    1.767    0.434
       307 -10.2626    148.0780     39.4415   1.9090716411e+01   4.3294386709e+01    0.3541771    0.1979119 -41.85 0.0007124332    1.805    0.446
       308  -9.3497    102.5269     40.5247   3.1091477683e+01   5.4231305287e+01    0.1448616     0.138321 -25.32 -2.548231e-06    1.038    0.036
       309  -9.0543    155.0000     38.0325   1.7165342220e+01   4.1651050365e+01    0.2466879   0.08908756 -29.91 0.0007079066    2.821    0.646
       310 -10.1475    221.7734     36.4862   6.2776313814e+00   2.3681106872e+01    0.2871145    0.1935498 -34.34 0.0007235178    1.410    0.291
       311  -9.4984    202.2844     37.3099   9.0330099584e+00   2.8764827225e+01    0.1496854    0.1182535  28.46  0.000392423    1.571    0.363
       312  -9.5735    164.9478     37.4839   1.5068562174e+01   3.9020537571e+01    0.2373989    0.1513513  63.77 0.0009007078    1.535    0.349
       313  -9.5196      1.1985     37.0968   7.0057786690e+01   6.8199609566e+01     0.159594   0.06645642 -63.38  0.000853113    1.744    0.426
       314 -10.7555    129.3532     35.8393   2.1991330055e+01   4.8698533801e+01    0.2652098     0.219422  40.58 0.0002352133    1.218    0.179
       315  -9.3615     97.5121     36.4393   3.0970775166e+01   5.5992552162e+01     0.141784    0.1351683 -20.59 4.342746e-05    1.048    0.046
       316 -10.1851    193.6663     34.8226   9.5004980791e+00   3.1470392403e+01    0.3660899    0.1959671 -62.67  0.001248508    2.345    0.574
       317 -11.1875    110.9450     34.7692   2.6343530869e+01   5.3303529723e+01    0.3849016    0.2490502  43.23  0.001374056    1.566    0.361
       318  -9.8514    241.0662     34.4839   3.5867064446e+00   1.9058079187e+01    0.1997419    0.1382581  75.06 0.0003986796    1.502    0.334
       319  -9.9020    146.1231     34.0354   1.7542661573e+01   4.4622821115e+01    0.2318927    0.1961888  20.05 0.0003792917    1.319    0.242
       320  -9.9951    117.0329     33.6525   2.4244156761e+01   5.2051788399e+01    0.3256147     0.197567  33.82   0.00115486    1.910    0.476
       321  -9.0735    101.6918     34.2984   2.8818196953e+01   5.5450365349e+01    0.1406754    0.1140188 -69.14 0.0002795836    1.594    0.373
       322 -10.3342     97.8447     32.2675   2.9134442027e+01   5.6604140942e+01    0.3745906    0.2150087  49.55  0.001327642    1.789    0.441
       323 -10.0128    101.5387     28.7393   2.6531566816e+01   5.6353474307e+01    0.2812926    0.2024162 -52.74  0.001380321    1.655    0.396
       324  -9.8687     33.9476     33.8958   5.4210647926e+01   6.6462051249e+01    0.1880726    0.1361144 -36.93 0.0006125974    1.167    0.143
       325 -11.0631     18.0731     31.4465   6.0628216820e+01   6.8347467539e+01    0.4799758    0.2467581   6.15  0.002546269    2.736    0.635
       326 -10.4740      1.3479     23.9716   6.6362243203e+01   7.0875863072e+01    0.3327008   0.09713864 -57.01  0.001529092    2.229    0.551
       327 -10.8934     12.1698     29.1495   6.2675206896e+01   6.9222262701e+01    0.2266531    0.1462405 -34.24  0.000375241    1.409    0.290
       328  -9.8667     16.2387     26.7660   5.9888451330e+01   6.9413844288e+01    0.1853477    0.1219566 -52.29 0.0003111408    1.203    0.169
       329  -9.4111    168.6918    250.6646   6.1656087825e+01   9.6352416470e-01    0.1090114   0.07492486  24.28 0.0003111185    1.675    0.403
       330 -10.3936     10.9129     24.2803   6.1646815196e+01   7.0270212053e+01    0.3122727    0.1294883 -40.20  0.001070634    2.023    0.506
       331 -12.4212     74.6769    239.9105   7.6410508317e+01   1.6953855866e+01    0.5535836    0.3502417 -64.71  0.003834667    1.985    0.496
       332 -10.0109     45.7864    244.3192   8.1353358076e+01   2.0022050069e+01    0.1747185   0.08384662  57.87 0.0006841772    1.417    0.294
       333 -10.5420     88.9006    240.9351   7.4115483789e+01   1.4767398383e+01    0.1579957    0.1315718  57.55  0.001212819    1.314    0.239
       334  -9.7699      2.8657     32.7725   6.8176954018e+01   6.9018091424e+01    0.2015633    0.1287821  89.70 0.0008284541    2.049    0.512
       335 -10.1076    162.9558     28.8394   1.2449843259e+01   4.0786573870e+01    0.3830939    0.2290108 -11.22  0.001512106    2.170    0.539
       336  -9.4957    140.9987     33.9105   1.8589831692e+01   4.5994744968e+01    0.1845715    0.1708679 -28.87 0.0006981227    1.099    0.090
       337 -11.2604    198.0238     28.1016   6.8340610749e+00   3.1184656706e+01    0.3766392    0.2335814  88.37  0.001308882    1.780    0.438
       338  -9.9110     82.4214     21.8031   2.9483613813e+01   6.1355355898e+01    0.2623148    0.1937167   9.00  0.001198286    1.483    0.326
       339 -10.4577     81.6336     18.1862   2.8058145508e+01   6.2031365660e+01    0.3495263    0.1803828 -24.51  0.001285462    1.966    0.491
       340 -12.1811    231.4404     26.4391   2.4509963722e+00   2.2527233281e+01    0.4291055    0.2832469  79.85   0.00120382    1.540    0.351
       341 -11.1675    120.3807     26.8920   2.0654680580e+01   5.2238291444e+01    0.5685905    0.2688794  46.42  0.002259062    2.087    0.521
       342 -10.5741    112.4971     26.6709   2.2591453064e+01   5.4161765724e+01    0.3749616    0.2650563 -14.02  0.001224984    1.534    0.348
       343 -11.1960     61.1539     27.3519   3.9886352192e+01   6.4190944199e+01    0.3152729    0.1680214 -35.46  0.001546097    1.689    0.408
       344 -12.1737    216.3744     25.7394   3.8842848713e+00   2.6536312804e+01    0.4233808    0.3003477  68.86 0.0005144985    1.399    0.285
       345 -10.7498     79.7544     27.6792   3.3066244116e+01   6.0956798982e+01    0.3882815    0.2245236 -29.72  0.001196358    1.659    0.397
       346 -10.9896    176.4457     26.2871   9.3545548167e+00   3.7391310384e+01     0.348382    0.2468738 -51.57 0.0008168414    1.437    0.304
       347 -11.2410    226.9686     26.2379   2.8623323675e+00   2.3699423324e+01    0.2584752    0.2328327 -69.81 0.0002843527    1.030    0.029
       348  -9.3741    169.3081     26.3150   1.0501537001e+01   3.9367756927e+01    0.1582216    0.1142191  32.76 0.0004433653    1.629    0.386
       349  -9.9309    165.2103     16.8555   7.9075390364e+00   4.1676674335e+01    0.3163451    0.1618453  44.34  0.001002508    2.133    0.531
       350 -10.5692    156.0021     21.7719   1.1177119489e+01   4.3613342334e+01    0.3218104    0.2316752  67.42  0.001027341    1.339    0.253
       351 -10.2844     59.4454    240.8815   7.8974404189e+01   1.8849094663e+01    0.1749727    0.1050374  48.10  0.001211462    1.415    0.293
       352 -10.2748    160.2117     24.6358   1.1458642481e+01   4.2096066521e+01    0.3734243    0.2168453 -29.29  0.001066598    1.757    0.431
       353  -9.8608    161.5372     20.0818   9.6275104888e+00   4.2303593570e+01     0.238662    0.1998145  31.82 0.0005039711    1.308    0.236
       354 -10.3488     91.3481    249.6701   7.4393127313e+01   1.3056173830e+01    0.1929538    0.1218521  66.41  0.000712374    1.267    0.210
       355 -10.3996    195.6775    238.3460   5.5590749911e+01  -1.9154709792e+00      0.21862    0.1634527  29.66 0.0009277367    1.147    0.128
       356 -10.8749     35.1054    237.8746   8.2702770364e+01   2.2378726974e+01    0.2110788   0.09141255  58.68  0.001229455    1.587    0.370
       357  -9.9931    126.9750     19.2750   1.5996985346e+01   5.1605367730e+01    0.3188564    0.2076909 -51.35 0.0009343235    1.801    0.445
       358 -10.9605     30.7824    233.9465   8.3194923960e+01   2.3548902991e+01    0.3599425     0.193025  83.85  0.002524172    1.512    0.339
       359  -9.9778     90.7295     25.2112   2.8302624529e+01   5.9185342270e+01      0.38493    0.1586292  45.36  0.001536265    2.439    0.590
       360 -10.2170     21.7344     23.9963   5.6158488517e+01   6.9517548446e+01    0.2672342    0.1687753  17.26  0.001097451    1.885    0.469
       361 -10.2260     24.4977     20.0494   5.3175743298e+01   7.0013661081e+01    0.2220775    0.1570596 -41.92 0.0004206454    1.122    0.109
       362 -12.0518     28.7350     19.8134   5.0971246758e+01   6.9650822400e+01    0.2890065    0.1968432 -16.70 0.0002932562    1.511    0.338
       363  -9.7755      3.5285    237.9543   8.7546073370e+01   2.5811163922e+01     0.136955   0.07046976  88.29 0.0007326808    1.538    0.350
       364  -9.7761     40.8945    237.5056   8.1764927076e+01   2.1749295656e+01    0.1495213   0.07762401  49.05 0.0004231156    1.503    0.335
       365  -8.9642     18.3097    237.3299   8.5292342568e+01   2.4371190460e+01    0.0830586   0.07067539 -87.03 0.0003593457    1.666    0.400
       366  -9.9307     53.8760     23.1302   4.0962299414e+01   6.5998356993e+01    0.1964633    0.1615749 -20.45 0.0003871896    1.048    0.046
       367  -9.6063    191.1382    236.1401   5.6058656106e+01  -9.1528000254e-01    0.1756733    0.1277847  28.40  0.000742082    1.243    0.196
       368 -12.0636     34.2416     22.6708   4.9562103816e+01   6.8560432493e+01    0.2344724    0.1812992 -15.88 0.0002001158    1.248    0.199
       369 -10.3907    224.6314     21.6122   1.8413925819e+00   2.4892255639e+01    0.2371675     0.218053 -36.20 0.0005392106    1.164    0.141
       370  -9.8503    101.6778     22.1978   2.3659932034e+01   5.7271806697e+01    0.3078399    0.1652697  31.36  0.001263665    2.288    0.563
       371 -10.9131     69.3898     21.5309   3.4013021622e+01   6.3793366045e+01    0.2905581    0.2115642  54.07  0.001166659    1.723    0.420
       372 -10.4714    193.3059     20.9087   5.2456215303e+00   3.3400722577e+01    0.2621045    0.2047374  65.27 0.0002145184    1.248    0.198
       373  -9.6125    121.2472     19.0712   1.7228143749e+01   5.3066754134e+01    0.3914839    0.3283326 -86.24  0.001200146    1.414    0.293
       374  -8.9551     99.2364     20.3058   2.3525186703e+01   5.8073187066e+01    0.1373454    0.1017771  10.26 0.0001453699    1.487    0.327
       375 -11.2423    160.9164    234.4708   6.1044011116e+01   4.3162219532e+00    0.2860709    0.2503764   0.81   0.00207148    1.527    0.345
       376 -10.2093     67.3519    236.1552   7.7363449563e+01   1.8578652407e+01    0.2389678    0.1383136  41.35  0.001461631    1.737    0.424
       377  -9.9933    109.0124     16.5457   1.9174830629e+01   5.6336759179e+01     0.241294    0.1603289  50.11  0.001002648    1.441    0.306
       378 -10.6501    192.1546    226.1950   5.4499462061e+01   1.3945079846e-01    0.2203912      0.21123 -39.19  0.001661715    1.367    0.268
       379 -10.0293     76.6989     15.9184   2.8665716193e+01   6.3297451283e+01    0.2088116    0.1622499  14.99 0.0002073361    1.283    0.221
       380 -11.0818    182.9729    234.1496   5.7185163686e+01   6.7705931968e-01    0.3474331    0.1900906  43.74  0.001566139    1.400    0.286
       381 -11.6223    185.1060    227.7898   5.5949333204e+01   1.1278834548e+00    0.4101515    0.2881851   4.68  0.002467371    2.001    0.500
       382 -10.0914     91.8083    235.4232   7.3170870925e+01   1.5227306181e+01    0.1576348   0.09169549  39.77 0.0009504932    1.740    0.425
       383 -10.0098     54.7447    232.1395   7.9195994902e+01   2.0928466484e+01    0.1786287    0.1010459  74.50 0.0009363612    1.431    0.301
       384 -10.3587    217.0495     16.1374   1.1017331085e+00   2.7551466887e+01    0.4991632    0.1329923  59.60  0.001623746    3.372    0.703
       385 -10.1773     99.0065     15.2570   2.1310556136e+01   5.8786196594e+01    0.2299541    0.1866543 -10.99 0.0005071815    1.206    0.171
       386 -10.2279    155.6666     13.9309   8.4042893931e+00   4.4637969624e+01    0.2013235    0.1952244 -29.43 0.0005402219    1.092    0.084
       387  -9.2449     23.5262    232.5287   8.4277367216e+01   2.4613981751e+01    0.1041016   0.07002117  69.54 0.0003272643    1.065    0.061
       388 -10.9425     39.6136    229.3009   8.1527835027e+01   2.3308986874e+01     0.243383    0.1099202  64.79  0.001194227    1.671    0.402
       389 -10.3737    248.5793    228.2869   4.5442458382e+01  -9.0986448095e+00     0.187843    0.1005224 -30.75  0.001156391    2.151    0.535
       390  -9.7719     59.1725    229.3891   7.8273973331e+01   2.0824162682e+01    0.1582492   0.07146703  53.29 0.0004805644    1.603    0.376
       391 -10.2892      4.0251    225.7996   8.7060563229e+01   2.7834385209e+01    0.1526943    0.1284122  57.82    0.0012724    1.602    0.376
       392  -9.9832     10.7870    224.4097   8.5948095761e+01   2.7392862718e+01    0.1219137   0.08536366  44.91 0.0009485086    1.645    0.392
       393 -10.3870     79.4847    222.8545   7.4262441581e+01   1.9156417734e+01    0.2138926    0.1410952  34.90  0.001077835    1.935    0.483
       394  -9.6400    123.6478    221.7151   6.6184754294e+01   1.2468123755e+01    0.1692819    0.1333924  25.68 0.0005711251    1.739    0.425
       395  -9.4223    126.3343    220.6647   6.5574799652e+01   1.2192647390e+01    0.2013745   0.08118826  58.14 0.0008478155    2.752    0.637
       396  -9.0163    107.6611     10.2849   1.6743112668e+01   5.7398265648e+01    0.1368544    0.1084829 -67.21 0.0005758594    1.632    0.387
       397  -9.6556     16.2761    222.0685   8.4972834690e+01   2.7232847457e+01    0.1480398   0.09350502  75.83 0.0005233425    1.097    0.089
       398 -10.6197     42.0115    220.5034   8.0618521593e+01   2.4578680020e+01    0.1633173   0.08255488  48.53  0.001028352    1.585    0.369
       399 -11.3092     49.5777    218.5864   7.9195971465e+01   2.3984722802e+01    0.3221192    0.2362413  37.70  0.001824911    1.788    0.441
       400  -9.6205    211.9627    218.9852   5.0005516737e+01  -2.3075579505e+00     0.171172    0.1397932  62.56 0.0007619603    1.647    0.393
       401 -10.5089     69.8211    217.6147   7.5554025773e+01   2.1463757611e+01    0.1715893   0.07755992  52.72 0.0009468306    1.681    0.405
       402  -9.8616     38.4730    217.0126   8.1014291317e+01   2.5641185784e+01    0.1473081   0.08614537 -88.41 0.0003330379    1.468    0.319
       403 -11.1659     29.4018    215.2541   8.2464211732e+01   2.7023314911e+01    0.2294276     0.210049  48.48  0.001873431    1.732    0.423
       404 -10.0985     14.9011    215.5009   8.4907621229e+01   2.8561805701e+01    0.1837986   0.07226682  46.38 0.0006476188    1.979    0.495
       405 -11.9064     11.5754    209.7126   8.5203152918e+01   2.9970360748e+01    0.3469041    0.1753988  76.09  0.001214691    1.437    0.304
       406 -11.5097      3.8082    204.9538   8.6304747336e+01   3.1626421539e+01    0.2974501    0.1958131  61.49  0.002307611    1.205    0.170
       407 -11.3358      7.9942    215.4867   8.6039810679e+01   2.9272472512e+01    0.2431242    0.1585424  68.77  0.001901501    1.055    0.052
       408 -12.0253      5.1433    211.3937   8.6342177342e+01   3.0302416711e+01    0.4643528    0.1641786 -81.82  0.002687915    2.331    0.571
       409  -9.5017    135.9991    216.7381   6.3327968775e+01   1.1194070082e+01    0.1680149   0.08788257  45.93 0.0008841862    1.525    0.344
       410  -9.8472     23.9777    216.0218   8.3420836515e+01   2.7490632527e+01    0.1749993   0.08175053  66.65 0.0004203368    1.579    0.367
       411  -9.7790    110.4671    211.5637   6.7488392550e+01   1.6367077600e+01     0.189984    0.1107379 -49.82   0.00103117    2.326    0.570
       412  -9.9914     20.0866    212.0137   8.3876817947e+01   2.8652734289e+01    0.1863564   0.08220235  66.83  0.001132332    1.699    0.411
       413 -12.0889    128.9101     24.1705   1.7528696508e+01   5.0482512986e+01     0.300027    0.2598012   6.41 0.0003168934    1.222    0.181
       414  -9.7747    216.8538    209.4991   4.7646035759e+01  -1.9763160167e+00    0.1784423    0.1416023 -30.50 0.0008705258    1.482    0.325
       415  -9.0060    132.3007    209.3213   6.3090670070e+01   1.3062923722e+01    0.1147932   0.09648323  20.19 0.0006766372    1.627    0.385
       416 -10.4856     72.8253    208.4633   7.4236921946e+01   2.2727729320e+01    0.2434863    0.1673763  26.62  0.001395499    2.388    0.581
       417  -9.9244    201.6762    206.6771   4.9842634136e+01   1.0325261412e+00    0.1286295   0.08632033  18.00 0.0004876714    1.682    0.406
       418  -9.8849    147.8242    205.9205   5.9686404206e+01   1.0885194157e+01     0.193014    0.1640682  31.77   0.00122886    1.305    0.234
       419 -11.1308     27.9809    205.3387   8.2157654123e+01   2.9040941851e+01    0.1996589    0.1246523  86.62  0.000344059    1.261    0.207
       420 -12.1957     20.4135    201.6348   8.3287731896e+01   3.0576944468e+01    0.5648836    0.2503626 -62.45  0.003215477    2.687    0.628
       421  -9.5330     67.4557    203.4202   7.4800724937e+01   2.4445163845e+01    0.1223754   0.08835266  68.80 5.247632e-05    1.031    0.030
       422 -10.5185    175.1645    202.0531   5.3945901555e+01   6.5065653052e+00    0.2206449    0.1577628  43.29 0.0004089389    1.163    0.140
       423  -8.9009    238.3049    200.7143   4.2512657582e+01  -4.5311722714e+00    0.1039227   0.09517084  58.52  0.000277555    1.563    0.360
       424  -8.9777    120.3312    200.3261   6.4250922359e+01   1.6722081068e+01    0.1173209    0.1011461  15.73 0.0007051021    1.708    0.415
       425 -10.5058     41.0025    197.9831   7.9329953138e+01   2.8952292053e+01    0.3163566    0.1379135  83.26  0.001416186    2.269    0.559
