#   1 NUMBER                 Running object number                                     
#   2 MAG_AUTO               Kron-like elliptical aperture magnitude                    [mag]
#   3 X_IMAGE                Object position along x                                    [pixel]
#   4 Y_IMAGE                Object position along y                                    [pixel]
#   5 X_WORLD                Barycenter position along world x axis                     [deg]
#   6 Y_WORLD                Barycenter position along world y axis                     [deg]
#   7 A_WORLD                Profile RMS along major axis (world units)                 [deg]
#   8 B_WORLD                Profile RMS along minor axis (world units)                 [deg]
#   9 THETA_WORLD            Position angle (CCW/world-x)                               [deg]
#  10 FWHM_WORLD             FWHM assuming a gaussian core                              [deg]
#  11 ELONGATION             A_IMAGE/B_IMAGE                                           
#  12 ELLIPTICITY            1 - B_IMAGE/A_IMAGE                                       
         1 -12.1717    200.1091     32.5573   5.0927446489e+01   3.0789029604e+01      1.16312    0.8918964  28.85  0.005128786    1.541    0.351
         2 -10.6468    208.1665     22.9284   4.7181902981e+01   2.9884374133e+01    0.4709292     0.340046  31.55  0.001080444    1.700    0.412
         3 -11.8897    213.6724     16.1675   4.4720923534e+01   2.9255629840e+01    0.7629883    0.6856984 -67.02  0.002938865    1.039    0.038
         4  -9.8869     32.8875     19.1791   9.0175698081e+01   6.8192521648e+01     0.458168   0.05333201 -42.09  0.001255466    6.558    0.848
         5  -9.2418     22.4703     15.4564   9.3376061613e+01   6.9855135449e+01     0.119409   0.08766235 -23.87 0.0008082468    1.017    0.016
         6  -8.7069     33.2110      5.0163   8.3020935444e+01   7.0242433517e+01     0.159099   0.07783753 -31.77 0.0008698138    1.717    0.418
         7  -9.7830     92.6366    235.3796   1.1787218005e+02   1.5344585450e+01    0.2219237    0.1596713  72.15 0.0006462916    1.256    0.204
         8 -10.3099    102.1640    250.2372   1.1761331883e+02   1.1597077394e+01    0.5726442    0.1356326  40.08  0.002146516    3.707    0.730
         9  -9.4049    114.5200    243.4965   1.1484491711e+02   1.0837932683e+01    0.1948573    0.1118516 -61.54 0.0008394272    2.096    0.523
        10 -10.4380     96.3014    246.6290   1.1827644779e+02   1.2992350131e+01    0.4127447    0.2655453  34.08  0.002655893    1.758    0.431
        11  -9.1188    101.4939    245.5103   1.1729017349e+02   1.2429765431e+01    0.1730358    0.1406971 -85.35 0.0007313389    1.337    0.252
        12 -10.7810    113.9995    248.2106   1.1540993909e+02   1.0189654762e+01    0.5816348    0.2159116  36.17  0.002665014    2.880    0.653
        13 -10.2973    120.1519    247.0806   1.1423705153e+02   9.4457717353e+00    0.2421653    0.2282254  36.55  0.001307614    1.330    0.248
        14 -10.7245     84.2870    249.1257   1.2050264363e+02   1.4257683288e+01    0.5038928    0.2029765  38.04  0.002648176    2.429    0.588
        15 -11.9898     43.3854    210.2036   1.2447482667e+02   2.6286315207e+01     0.572665    0.5268769 -50.12  0.001155957    1.661    0.398
        16 -13.3629     52.3873    200.1170   1.2198269790e+02   2.7189995959e+01      1.92659     1.345566  82.52   0.01290986    1.208    0.172
        17 -15.4043      8.6042    242.6176   1.3200743329e+02   2.4161596090e+01     16.37118     2.560801 -78.25   0.06570905    5.893    0.830
        18 -14.9023      6.7490    207.1366   1.3064848482e+02   3.0637201379e+01      5.40116     1.173662 -73.21   0.01434999    3.549    0.718
        19 -10.0844     72.9505    175.8102   1.1522341888e+02   2.9576945700e+01    0.2921946    0.2361809 -43.80 0.0007850855    1.597    0.374
        20  -9.3282    101.0025    170.5284   1.0829391483e+02   2.6524340237e+01    0.2076467    0.1262952  42.50 0.0007012593    1.609    0.379
        21  -7.8466    196.2928    169.6494   8.7624794413e+01   8.8048691051e+00    0.1345943    0.1150534 -82.21 0.0006675313    1.675    0.403
        22 -11.7018     69.5458    161.7922   1.1413931950e+02   3.3111469027e+01    0.6567047    0.4008578 -39.99   0.00130704    2.337    0.572
        23 -10.5598     81.8004    165.3993   1.1185532138e+02   3.0594141258e+01     0.711692    0.3149639 -68.05 0.0006673761    2.371    0.578
        24 -10.8710     87.9457    158.8816   1.0945171003e+02   3.1125946745e+01    0.6772253    0.4027781 -34.94  0.002047963    2.675    0.626
        25  -9.0445     84.0462    233.9709   1.1924620961e+02   1.6786047244e+01    0.2197509    0.1583825  71.20  0.001534735    1.192    0.161
        26 -10.4061     28.0885    156.8119   1.2287920901e+02   3.8981484211e+01    0.2689756    0.1388419 -69.58  0.001514915    1.590    0.371
        27 -11.5531     68.4110    144.3903   1.1185365138e+02   3.7217101388e+01    0.8194828    0.5033331  80.41  0.003441401    2.022    0.505
        28  -9.9834    144.2697    231.0270   1.0808086847e+02   8.1316560989e+00    0.1669454    0.1449397  53.06 0.0006843109    1.085    0.078
        29 -10.5962     89.5725    142.9140   1.0635361796e+02   3.4494216939e+01    0.3131485    0.2634025 -24.80 0.0009933657    1.530    0.347
        30 -11.6781    116.1862    229.7467   1.1307018344e+02   1.2795431703e+01    0.9920831    0.2721453  38.79  0.003796428    3.514    0.715
        31  -8.3696    134.0000    143.9656   9.5704411585e+01   2.6369148570e+01    0.2490331   0.08355765 -48.47 0.0008097333    2.993    0.666
        32  -9.1793    101.4661    143.2533   1.0346381948e+02   3.2487108566e+01    0.3887936    0.2322089 -37.12  0.001702765    2.154    0.536
        33  -9.9004    162.7090    227.1708   1.0416511511e+02   5.6754908133e+00     0.231001    0.1710086 -39.98    0.0014556    1.643    0.392
        34  -8.3411    110.9954    131.7424   9.8716237865e+01   3.3436685632e+01    0.2062317    0.1891284  49.95 0.0007340296    1.126    0.112
        35  -9.3698     98.5538    128.5355   1.0123618020e+02   3.6348183644e+01    0.2799309    0.2397124 -22.65  0.001149002    1.403    0.287
        36  -8.8619    117.4610    126.5134   9.5895584421e+01   3.3418435286e+01    0.2732428    0.1321314 -40.13  0.001029168    2.294    0.564
        37  -8.3488     57.3255    126.3158   1.1173665890e+02   4.2839237739e+01    0.1324814   0.09387288 -38.42 0.0004564846    1.670    0.401
        38 -11.6940     96.1769    226.5465   1.1637201551e+02   1.6343978518e+01      1.09069    0.2340751  48.82  0.003910225    4.080    0.755
        39  -7.9759    107.7961    120.2240   9.6949504552e+01   3.6634920918e+01    0.1888917    0.1671771 -23.92  0.000248318    1.260    0.206
        40  -8.0169    167.4118    112.1853   8.0178181994e+01   2.5826160395e+01    0.2232659     0.144733 -49.61 0.0009367616    1.646    0.392
        41 -10.3078     80.5084    221.4388   1.1871774034e+02   1.9476413868e+01    0.4126304    0.1316043  40.10  0.001850798    2.802    0.643
        42  -9.5682     59.6164    135.0059   1.1257294974e+02   4.0526101412e+01    0.2976164    0.1111761 -63.11  0.001221577    2.328    0.571
        43  -8.7969     32.6459     87.1810   1.1162419170e+02   5.4527498846e+01    0.1962997   0.08750635 -54.38 0.0006971745    1.733    0.423
        44  -9.4419    235.1642     85.6590   6.0412969791e+01   1.4593054549e+01    0.2794882    0.1442219  67.92  0.001099141    2.606    0.616
        45 -10.1780     73.8309    218.9435   1.1969969481e+02   2.0841200243e+01    0.2845596    0.1749068 -88.00  0.001698149    1.648    0.393
        46  -8.1766    150.9225     54.4909   6.6471699499e+01   4.0381390618e+01    0.2250177    0.1524442  60.10  0.001002517    1.549    0.354
        47  -9.0934     73.5212    206.4005   1.1854902107e+02   2.3246869389e+01    0.2319462    0.1807454 -48.72  0.001362888    1.739    0.425
        48 -10.9001     20.6336     48.5084   1.0645083718e+02   6.3896123705e+01    0.4225465    0.1796717 -45.65  0.002172362    1.769    0.435
        49  -9.1980    151.9568     47.4447   6.3869832790e+01   4.1197622524e+01    0.3457907    0.2512577 -82.55  0.000965555    1.932    0.482
        50 -10.9077    190.8404     38.5934   5.4032064652e+01   3.2408481472e+01      0.43108    0.3522374   1.39  0.001534715    1.412    0.292
        51 -10.3110    127.9056    245.7858   1.1275436970e+02   8.4669073266e+00     0.240928    0.1992722  60.71  0.001357098    1.118    0.106
        52  -9.3815     83.1660    243.8981   1.2025781395e+02   1.5251032136e+01    0.2119987    0.1353981 -62.75 0.0008395838    1.845    0.458
        53  -9.2849     78.0606    243.5162   1.2108351322e+02   1.6000720823e+01    0.2010876    0.1341687  49.98  0.001014687    1.233    0.189
        54  -8.6613    164.0000    238.9860   1.0554572216e+02   3.7561296967e+00    0.1643215   0.06949501 -46.36 0.0008058153    2.966    0.663
        55 -10.1419     68.4135    181.4540   1.1687313032e+02   2.8986637798e+01    0.3769437    0.2373261 -43.06  0.001807298    2.274    0.560
