#   1 NUMBER                 Running object number                                     
#   2 MAG_AUTO               Kron-like elliptical aperture magnitude                    [mag]
#   3 X_IMAGE                Object position along x                                    [pixel]
#   4 Y_IMAGE                Object position along y                                    [pixel]
#   5 X_WORLD                Barycenter position along world x axis                     [deg]
#   6 Y_WORLD                Barycenter position along world y axis                     [deg]
#   7 A_WORLD                Profile RMS along major axis (world units)                 [deg]
#   8 B_WORLD                Profile RMS along minor axis (world units)                 [deg]
#   9 THETA_WORLD            Position angle (CCW/world-x)                               [deg]
#  10 FWHM_WORLD             FWHM assuming a gaussian core                              [deg]
#  11 ELONGATION             A_IMAGE/B_IMAGE                                           
#  12 ELLIPTICITY            1 - B_IMAGE/A_IMAGE                                       
         1 -13.1379    248.3785    133.9581   7.8769483155e+01   5.6410486559e+00     1.451216    0.6409463 -26.94  0.006449136    2.115    0.527
         2 -13.1240    200.5398     33.0838   5.8668197970e+01   3.0729141508e+01     1.128756    0.8385167 -16.15  0.005367687    1.365    0.268
         3 -13.7072    217.9550     15.6109   5.1239085603e+01   2.8213992232e+01     1.224514    0.9431775  26.57  0.006338968    1.510    0.338
         4 -12.2201      2.2939     15.5413   1.1183744419e+02   7.2159711529e+01    0.8417584    0.1339602 -55.84  0.003328518    3.283    0.695
         5 -12.2843      2.0040      4.0253   1.0722240811e+02   7.4393252878e+01    0.6106625    0.4334775 -13.03  0.004407868    1.514    0.340
         6 -11.8857    200.1969    246.0503   1.0602703937e+02   6.8344262804e-01    0.4629047    0.1142569  45.48  0.002037307    3.285    0.696
         7 -11.9548    184.4694    248.9253   1.0877361515e+02   2.6785955789e+00    0.4639745    0.2201221  43.02  0.002943165    1.550    0.355
         8  -9.9977    175.2676    250.4272   1.1035329071e+02   3.8546961179e+00    0.2063118   0.07550422  40.69  0.001131846    2.040    0.510
         9 -10.8342    169.0743    249.1467   1.1116421477e+02   4.8919439675e+00    0.2179966    0.1816445  10.66 0.0004017961    1.468    0.319
        10 -12.2043    170.6021    243.9118   1.1034472345e+02   5.2533107825e+00    0.3707764    0.2141013  40.51  0.001986765    1.302    0.232
        11 -11.7242    143.4316    249.5171   1.1516775811e+02   8.5419638254e+00    0.4122506    0.2568793  74.77  0.002684466    2.343    0.573
        12 -11.7853    142.9876    240.7148   1.1435631081e+02   9.6927931028e+00    0.2757752    0.1443556  44.56   0.00178133    1.434    0.303
        13 -11.5017    115.8167    249.8026   1.1946083923e+02   1.2357226245e+01    0.6174201    0.2526989  42.27  0.003371967    1.897    0.473
        14 -11.4135    109.8541    247.7787   1.2021243507e+02   1.3431481289e+01    0.4080878    0.3397335  71.06  0.003483992    1.221    0.181
        15 -12.4750    134.8918    234.6311   1.1503181897e+02   1.1665879755e+01     1.443798    0.4878578 -54.08  0.007381762    3.820    0.738
        16 -11.8323    125.8630    242.3111   1.1722952331e+02   1.1945013528e+01     0.353722    0.2806768  87.26  0.001065346    1.447    0.309
        17 -11.5352     99.8354    247.8846   1.2176509500e+02   1.4752661302e+01    0.5513793    0.2513302  49.20   0.00360817    1.582    0.368
        18 -12.0609    102.4798    239.9580   1.2072203556e+02   1.5496721908e+01    0.4295981     0.360538 -87.41  0.003654793    1.359    0.264
        19 -11.2769     97.2005    239.2269   1.2149709146e+02   1.6306842333e+01    0.3636082    0.2229364 -66.68  0.001768308    1.947    0.487
        20 -12.7889    107.2095    230.2521   1.1912296117e+02   1.6240684813e+01    0.8621747    0.3535836  48.04   0.00495364    1.853    0.460
        21 -10.7956     84.0770    241.1472   1.2370061721e+02   1.7739822582e+01    0.3076147    0.1745092  52.62  0.001248507    1.280    0.219
        22 -10.5351     84.4694    229.9735   1.2280383479e+02   1.9345471740e+01     0.219522    0.1718373 -62.06   0.00174164    1.687    0.407
        23 -10.7113     91.8736    241.4185   1.2250495742e+02   1.6695991975e+01    0.2215982    0.1872255  46.34  0.001537794    1.387    0.279
        24 -11.5328     87.9873    236.8821   1.2277159845e+02   1.7856990629e+01    0.5246978    0.2124694  53.70  0.003119592    1.928    0.481
        25 -10.2798     81.5220    247.5221   1.2453748478e+02   1.7154276582e+01    0.2580962    0.1325305 -83.51  0.001744186    2.323    0.569
        26  -9.9687     90.8267    250.2172   1.2331286700e+02   1.5603761761e+01    0.2223056    0.1444888  43.34  0.001714957    1.388    0.280
        27 -11.3158     86.6487    248.3324   1.2381419239e+02   1.6395519859e+01    0.2770373     0.209844  37.87 0.0008110396    1.574    0.365
        28  -8.7261     63.3182    250.2952   1.2743771453e+02   1.8967782587e+01   0.07928477   0.06972051  46.03 0.0003390142    1.609    0.378
        29 -10.4625     50.3132    249.7658   1.2931783651e+02   2.0533225754e+01    0.2310047    0.1476493  47.62  0.001463243    1.375    0.273
        30 -12.5261      5.6879    186.5693   1.3332454553e+02   3.5502472862e+01     0.933238    0.4482366 -79.63   0.00369803    1.725    0.420
        31 -12.8007     11.1746    215.3285   1.3364729566e+02   2.9956215636e+01     1.099751    0.4151677  39.96  0.006060044    2.354    0.575
        32 -12.5294     11.0703    206.2640   1.3329089497e+02   3.1504310694e+01    0.9405493    0.4915911  45.68  0.006930841    1.669    0.401
        33 -13.6366     26.9820    247.2158   1.3256459517e+02   2.3398254798e+01     1.302007    0.7335292  42.63   0.01040693    1.687    0.407
        34 -13.8959      7.3543    243.9202   1.3521363992e+02   2.5800210639e+01    0.9985831    0.7222391  61.41  0.009511284    1.266    0.210
        35 -12.2313     44.1407    242.0953   1.2983985016e+02   2.2342405765e+01    0.4396198    0.2178296 -88.72  0.001398229    1.943    0.485
        36 -12.0983     38.5956    237.8239   1.3045627577e+02   2.3590107860e+01    0.5479506    0.1953978 -66.90  0.001322658    3.051    0.672
        37 -12.8506     26.3279    225.9391   1.3175702386e+02   2.6737264647e+01    0.3381798    0.2435926  49.33 0.0007048027    1.420    0.296
        38 -14.0205     32.4625    218.7899   1.3045153196e+02   2.7269215999e+01    0.8487176    0.6321704  72.61  0.007227771    1.126    0.112
        39 -11.5723    178.8711    243.9180   1.0905575372e+02   4.0327166486e+00    0.3102724    0.1500587  42.35  0.001935702    1.534    0.348
        40 -10.7391    159.0027    244.0063   1.1217241785e+02   6.9484283342e+00    0.1634735    0.1215509  45.43  0.000376721    1.021    0.021
        41 -10.5906    244.5066    241.9962   9.8873677585e+01  -5.2501562861e+00    0.1366073   0.09187049 -14.29    0.0010436    1.623    0.384
        42 -10.9364    162.3140    250.2290   1.1232248981e+02   5.7497028737e+00    0.2578729    0.1292139  44.10 0.0006587951    1.457    0.313
        43  -9.1321     53.7418    240.9947   1.2834408081e+02   2.1431104887e+01    0.1330766   0.09490492  68.62 0.0005558783    1.080    0.074
        44 -11.7457    128.9489    235.1756   1.1604954313e+02   1.2457099429e+01    0.3725121     0.174169  57.83  0.001880219    2.166    0.538
        45 -11.4227    116.6803    238.4388   1.1833296360e+02   1.3757447391e+01     0.297506    0.2447087 -11.14  0.001950378    2.216    0.549
        46 -11.3209    122.0460    234.3960   1.1709171701e+02   1.3556318774e+01    0.2818187    0.2119719  54.07  0.001912217    1.008    0.007
        47  -9.9966     66.7375    243.8431   1.2654407693e+02   1.9490476607e+01    0.1967315    0.1419986  29.85  0.001016461    2.068    0.516
        48  -8.9195     70.8014    235.2016   1.2536169636e+02   2.0279626257e+01    0.1213295    0.1022398  62.19 0.0008008607    1.296    0.229
        49  -9.3526     54.8326    235.3320   1.2785562396e+02   2.2161765308e+01    0.1685006   0.08532137  57.74   0.00118765    1.433    0.302
        50 -10.2480    168.7542    233.7413   1.0945496014e+02   6.7139885511e+00    0.2555485    0.1363268  25.87  0.001388374    2.497    0.600
        51 -10.0960    156.7091    232.2041   1.1122296080e+02   8.7301134907e+00    0.1474633    0.1352692 -64.41 0.0004694276    1.408    0.290
        52  -8.7445     78.2413    233.4069   1.2406059573e+02   1.9623437092e+01   0.08231803   0.07737543 -56.61 0.0006921247    1.693    0.409
        53  -9.0003     45.6182    231.3112   1.2905216289e+02   2.3828669711e+01    0.1553595   0.07427842  64.60  0.000923115    1.637    0.389
        54  -9.8697     56.9824    228.5553   1.2711116850e+02   2.2963889506e+01    0.2037682    0.1373349 -82.55  0.001606685    1.480    0.324
        55 -10.5404     70.7573    219.2837   1.2423758570e+02   2.2778419247e+01    0.4300254    0.2416354  81.77  0.002828423    1.786    0.440
        56 -10.7826     79.3200    225.8085   1.2332015216e+02   2.0652703228e+01    0.3336287    0.1828692 -74.07   0.00201613    1.977    0.494
        57  -9.4069     77.1315    220.8067   1.2329360065e+02   2.1724761719e+01    0.1615289    0.1068135  64.58 0.0003966976    1.183    0.154
        58 -10.3022    117.1268    224.5756   1.1694145871e+02   1.5665416455e+01    0.2249006    0.1925083  45.95  0.000926272    1.241    0.194
        59 -10.2932     92.6267    225.9605   1.2114496725e+02   1.8880035550e+01    0.2114065    0.1209368  52.73 0.0008013088    1.336    0.251
        60  -9.9167     51.4937    225.4569   1.2779327225e+02   2.4092077369e+01    0.1628637    0.1207465  69.55 0.0001625885    1.083    0.076
        61  -9.4368     65.0700    224.5538   1.2555150116e+02   2.2632582627e+01    0.1761072    0.1238858 -56.34  0.001301704    2.034    0.508
        62  -9.2437    164.3152    224.0005   1.0899200256e+02   8.6055214705e+00    0.1445272    0.1258389  43.08 0.0003414302    1.111    0.100
        63 -11.2491     98.9735    222.6355   1.1979851182e+02   1.8526036808e+01     0.313675    0.2522348 -74.69  0.001858845    1.426    0.298
        64  -9.9874     87.5073    223.5705   1.2179202731e+02   1.9933472174e+01     0.214598    0.1386481  63.13 0.0009507348    1.246    0.197
        65 -10.8230    142.1998    219.7649   1.1219077933e+02   1.2609439880e+01    0.3050734    0.2429394 -64.09  0.001646236    1.547    0.354
        66 -10.1716    245.5875    220.2869   9.5519498726e+01  -3.5157865907e+00    0.1844498   0.09704677 -30.30  0.001152011    2.191    0.544
        67 -10.7829    113.4082    230.6937   1.1814834247e+02   1.5307001420e+01    0.2334029    0.1843003  71.94  0.001132167    1.200    0.166
        68  -9.8432    110.5563    216.4122   1.1723567756e+02   1.7850337042e+01    0.2513815     0.193711 -20.98  0.001608611    2.497    0.600
        69  -9.0442    250.3354    220.3106   9.4812887980e+01  -4.2082306800e+00     0.115585   0.06408804  18.24 0.0007044086    1.681    0.405
        70  -8.9744     89.7191    219.1304   1.2104471917e+02   2.0337079210e+01    0.1913778   0.08594633  67.77 0.0009536243    2.816    0.645
        71  -9.4449    117.9003    215.0772   1.1583061554e+02   1.6980655351e+01    0.1660219    0.1228266  66.02 0.0004214357    1.224    0.183
        72  -9.5118     88.1252    212.8114   1.2075853561e+02   2.1572244558e+01    0.2077737    0.1290161  87.79 0.0009470034    1.710    0.415
        73 -10.5660     63.3086    207.9734   1.2464295378e+02   2.5591062023e+01    0.5007462    0.2386459 -62.59  0.003054553    2.308    0.567
        74 -10.9369     55.2930    208.2384   1.2603913969e+02   2.6509946336e+01    0.5325653    0.2547768  82.06  0.002657727    2.197    0.545
        75  -8.6941    130.8052    211.3928   1.1317451481e+02   1.5591631771e+01    0.1478553   0.09289312  39.44 0.0002848615    1.455    0.313
        76  -9.4743    112.4602    208.4601   1.1607057967e+02   1.8826620609e+01    0.1827494    0.1320964 -83.31 0.0006067944    1.533    0.348
        77  -9.6909    110.5908    205.5186   1.1608277119e+02   1.9579995197e+01    0.1725487    0.1486591  72.08 7.769584e-05    1.111    0.100
        78  -8.9545    156.1547    208.1938   1.0834317769e+02   1.2044316204e+01    0.1510972    0.1185308  61.03 0.0002805891    1.280    0.219
        79  -8.9094    134.4553    207.5036   1.1206782840e+02   1.5615993439e+01     0.115566   0.09574047  50.02  8.08316e-06    1.056    0.053
        80  -9.5321    248.5383    206.3457   9.2837813734e+01  -2.6379447988e+00    0.3495653    0.1003773  50.68  0.001095726    6.772    0.852
        81  -9.6015     90.9347    204.9907   1.1953594296e+02   2.2489989191e+01    0.3043765     0.134074  32.44  0.001081092    3.229    0.690
        82 -12.3782      4.5682    226.3417   1.3505054642e+02   2.8768310608e+01    0.7299996    0.3934814  56.95  0.005927475    1.297    0.229
        83 -10.4827     22.4070    201.9744   1.3122608388e+02   3.1169371291e+01    0.1973642    0.1447204 -83.85 0.0009860194    1.350    0.259
        84  -9.9778    106.9751    203.8655   1.1655056801e+02   2.0386031847e+01    0.1787051    0.1474426 -85.38 0.0004176128    1.259    0.206
        85 -10.6156     83.8165    201.5756   1.2048242756e+02   2.4050229746e+01    0.1922348    0.1497211  76.86 0.0002583403    1.104    0.094
        86  -9.7242    250.3994    200.7706   9.1617549842e+01  -2.3746717836e+00    0.1575429   0.09388112  -8.44 0.0009564848    1.723    0.420
        87 -10.2173     43.5039    200.2507   1.2752146028e+02   2.9262116304e+01    0.2473233    0.2253897  29.98  0.001567287    1.722    0.419
        88 -11.9574     55.4049    194.0290   1.2495575837e+02   2.9015110888e+01    0.3866579    0.2456252 -60.13  0.001056648    1.878    0.467
        89 -10.7248     31.1582    192.6768   1.2919677365e+02   3.1957154159e+01    0.3081769    0.2032517 -77.87  0.001113316    1.431    0.301
        90 -10.7050     26.6058    193.5357   1.3004694635e+02   3.2264359542e+01    0.5417175    0.1946428 -84.43  0.002910521    2.598    0.615
        91 -10.2298     21.4419    193.7253   1.3095463372e+02   3.2740924495e+01    0.2710365    0.1789395 -79.64 0.0008831815    1.413    0.292
        92 -12.8042     41.4669    206.4871   1.2827410750e+02   2.8389409241e+01     1.452984    0.5345904  71.57  0.007112362    3.152    0.683
        93  -8.3942    103.2744    196.3208   1.1639403806e+02   2.2207165994e+01   0.09843577   0.09250486  -4.59 0.0002863537    1.573    0.364
        94 -10.1656    249.9825    194.4408   9.0587532647e+01  -1.6734912551e+00    0.2153347    0.1763763  12.02  0.001553584    1.109    0.098
        95  -9.0256     78.0717    193.8967   1.2079779149e+02   2.6179305053e+01    0.1355289    0.1209868  65.36            0    1.254    0.202
        96  -9.4677    191.3984    191.5632   9.9703732827e+01   8.4250504664e+00    0.1920728    0.1806824  18.06  0.000619988    1.143    0.125
        97  -8.5781     72.6194    192.7449   1.2169604349e+02   2.7105892852e+01   0.09537563   0.08857159  17.97 0.0006965483    1.662    0.398
        98  -8.7231     38.6318    192.2594   1.2784312019e+02   3.1243539973e+01    0.1326137    0.0848975 -75.33 0.0009325205    1.494    0.330
        99  -8.8361     40.3396    188.6485   1.2728573114e+02   3.1726304337e+01    0.1979722    0.1151789  71.50  0.001316955    1.403    0.287
       100  -8.4577     15.2808    190.3118   1.3184219374e+02   3.3951108019e+01   0.08805886   0.06930185 -71.26 0.0002043863    1.568    0.362
       101 -10.3136    250.2713    187.9308   8.9385867134e+01  -1.0440144442e+00    0.2743068    0.1311969 -19.02  0.001431948    2.236    0.553
       102  -8.8970     77.0456    188.4993   1.2046291026e+02   2.7299612500e+01    0.1566545   0.09833371  46.55 -0.000168923    1.445    0.308
       103 -12.0373    122.3988    245.6744   1.1808156968e+02   1.1989553652e+01     0.725392    0.3592521  63.22  0.003215423    2.315    0.568
       104 -10.0942     83.6358    186.7227   1.1903235555e+02   2.6732076153e+01     0.200139    0.1530792  70.54 0.0003068072    1.081    0.075
       105 -10.5662     71.4693    186.8718   1.2135661776e+02   2.8336229286e+01    0.2470528     0.196779  36.38 8.392603e-05    1.557    0.358
       106 -11.6030     62.0458    186.0799   1.2306121275e+02   2.9680621844e+01    0.2124595    0.1922317 -88.92 0.0004397017    1.328    0.247
       107  -9.4189     24.3233    184.0815   1.2989143267e+02   3.4243417182e+01    0.1584702    0.1304122  62.72 0.0008527171    1.295    0.228
       108  -8.6359     36.3840    182.7825   1.2759592969e+02   3.3256768531e+01    0.1495335    0.0822316 -68.86 0.0009552797    1.760    0.432
       109  -9.1229     30.0498    183.5268   1.2881385769e+02   3.3774878981e+01    0.1485653    0.0881062  47.23 0.0007062363    1.548    0.354
       110  -8.9205     47.2507    179.6500   1.2531353263e+02   3.2662424219e+01     0.136544   0.09889959  37.65 0.0006091564    1.643    0.391
       111  -8.7702    103.0038    176.0145   1.1399689746e+02   2.5907222386e+01    0.1443465    0.1224473  70.74 0.0009576626    1.008    0.008
       112  -9.8741     65.1288    175.6342   1.2148026784e+02   3.1293899628e+01    0.1982689    0.1354432  67.28 0.0004806109    1.241    0.194
       113 -10.7748     73.2323    174.0383   1.1970623614e+02   3.0553787608e+01     0.215694    0.1847806  85.87  0.000396804    1.130    0.115
       114 -10.7232     19.3319    174.2394   1.3020838032e+02   3.6604463124e+01    0.3243215    0.1530059  79.27   0.00194947    1.816    0.449
       115 -11.4711    248.9354    172.3709   8.6690381427e+01   8.7379964062e-01    0.4383714    0.3030574  16.43  0.002694341    1.293    0.227
       116 -11.9912    245.5578    163.6895   8.5514924719e+01   2.4588398201e+00    0.5648078    0.2725911 -36.93  0.002773418    2.282    0.562
       117 -12.0701    246.1572    157.1238   8.4090610111e+01   3.1429458712e+00     1.097593    0.7842927 -69.29  0.005124008    3.426    0.708
       118 -11.8762     10.8935    158.4657   1.3085570261e+02   4.0482880971e+01    0.4801412    0.1885462  84.47  0.001768136    2.321    0.569
       119 -11.2837      2.6830    172.5983   1.3320288605e+02   3.8385288063e+01    0.3902994    0.1636275  76.63  0.002328352    1.954    0.488
       120 -11.2589     13.9860    166.8989   1.3077262522e+02   3.8529673191e+01    0.2988499    0.2324501  31.17  0.002296734    1.775    0.437
       121 -10.7396      4.9668    167.0452   1.3249721399e+02   3.9273421130e+01    0.2149931    0.1913253  52.77  0.001055349    1.494    0.331
       122 -11.2804      8.8336    165.9384   1.3170275236e+02   3.9166788624e+01    0.3059735    0.1614143 -74.95   0.00113701    1.606    0.378
       123 -10.0150     27.6069    171.3808   1.2844761534e+02   3.6366227956e+01    0.2592877    0.1641315 -60.12  0.000818443    1.847    0.458
       124 -10.0524    166.9188    170.1895   1.0053411254e+02   1.5995121757e+01    0.1855118    0.1804104  26.80  0.000350899    1.087    0.080
       125  -8.6915    124.6328    171.4825   1.0903632754e+02   2.3273392244e+01    0.1232131    0.1110399  70.91 -6.729003e-05    1.037    0.036
       126  -9.4890     51.6497    170.9684   1.2370365624e+02   3.3855162967e+01    0.2051842    0.1359193  57.12 0.0005247488    1.314    0.239
       127  -8.7732     95.9421    169.0216   1.1450784440e+02   2.8317777996e+01    0.1455688    0.1208126  66.10            0    1.051    0.049
       128 -11.6262     80.8675    165.9694   1.1722573525e+02   3.1109102779e+01    0.5161936    0.3622666  35.17   0.00138986    1.675    0.403
       129 -10.4104     81.9843    158.3615   1.1602761565e+02   3.2492696554e+01    0.3593027    0.2224077 -67.38 0.0006008649    1.543    0.352
       130 -10.5294     68.3377    166.3042   1.1985243779e+02   3.2731465590e+01    0.2088915    0.1672291  75.51 0.0003300167    1.025    0.025
       131  -8.9656     64.7234    167.2824   1.2070014038e+02   3.2998966847e+01    0.1710683    0.1261697  61.80 0.0003845479    1.182    0.154
       132  -8.5315     38.5667    167.5329   1.2600767616e+02   3.6003876449e+01    0.1154428   0.08414447  78.27 7.811657e-05    1.054    0.051
       133 -10.6287     44.5777    165.2180   1.2460075459e+02   3.5815296599e+01    0.2989489    0.2101705 -41.61  0.001850439    2.308    0.567
       134 -10.5878     30.9327    162.9475   1.2716475611e+02   3.7719450452e+01    0.3288471    0.1770176  65.97  0.001332114    1.619    0.382
       135  -9.4424     37.9676    163.0076   1.2574779781e+02   3.6981365627e+01     0.195085    0.1016637  65.98  0.001131306    1.745    0.427
       136  -9.7507     24.0167    161.7569   1.2846201424e+02   3.8636826476e+01    0.1476869    0.1150145  75.51 0.0003988969    1.104    0.094
       137  -9.0313     43.2802    161.0454   1.2448647119e+02   3.6808770828e+01    0.1614745    0.1173515  86.24 0.0003458139    1.093    0.085
       138  -8.7052    228.3639    155.2398   8.6580050141e+01   6.6227092195e+00    0.1732263    0.1151863 -36.22 0.0004650263    1.619    0.382
       139 -10.8015     32.2954    153.7535   1.2612287076e+02   3.9472286578e+01    0.2721967    0.1916755 -71.57  0.001277408    1.337    0.252
       140 -11.2842     25.2587    155.1580   1.2770835827e+02   3.9868092162e+01    0.4004753    0.1380173  34.84  0.001837829    3.028    0.670
       141 -10.9409    249.5369    151.0671   8.2304952629e+01   3.2786560033e+00    0.3964872    0.2521588 -23.64  0.002216288    1.473    0.321
       142 -13.0510    247.6109    101.0211   7.1096413890e+01   1.0171293951e+01     1.379324    0.6924725 -19.52  0.005918585    2.011    0.503
       143 -12.1565    247.7029    112.9732   7.4000636397e+01   8.5392732025e+00    0.8208593     0.523016   6.41  0.003940365    1.852    0.460
       144 -11.9115    247.7992    142.5249   8.0749102558e+01   4.6558664717e+00    0.6299918     0.437898  29.57   0.00357969    1.365    0.267
       145 -11.7989    150.4376    246.9014   1.1381746171e+02   7.8513737711e+00    0.3400767    0.2818321   6.69  0.002717955    1.681    0.405
       146 -12.3388      9.6746    141.8742   1.2999552851e+02   4.4005245241e+01     0.477913    0.2090848 -69.01 0.0006918106    1.881    0.468
       147 -12.7141      5.8264    141.8399   1.3081804571e+02   4.4314713520e+01    0.4482252    0.4157189 -83.94  0.002900927    1.418    0.295
       148 -10.2904     95.0714    150.2478   1.1203140922e+02   3.2228720038e+01    0.2900586    0.1994396  61.31  0.001053082    1.410    0.291
       149 -10.5784     83.0356    149.4185   1.1457526190e+02   3.4200283416e+01    0.2176755    0.1760861 -73.43 0.0003429574    1.164    0.141
       150 -10.6956     56.6797    147.8254   1.2023347099e+02   3.8033622854e+01    0.4283954    0.2557384  34.17  0.002151891    1.984    0.496
       151 -11.3705     21.7008    149.2145   1.2798295771e+02   4.1434906801e+01    0.4160275    0.1512981  46.65  0.002207398    2.461    0.594
       152 -11.9991     68.2636    144.3166   1.1718828596e+02   3.7325236471e+01    0.6335433    0.3942657  78.03  0.002655875    1.687    0.407
       153  -8.8136     87.1531    151.1824   1.1391695446e+02   3.3229901825e+01    0.1725063    0.1279143  77.63  0.001016017    1.295    0.228
       154 -10.1987    133.1040    140.9434   1.0201408825e+02   2.7614990892e+01    0.2943334    0.2149125 -64.88 0.0009749988    1.482    0.325
       155 -11.3591     59.0969    172.8622   1.2240173132e+02   3.2589262686e+01    0.2702489     0.242643 -48.57 0.0008207691    1.609    0.378
       156 -11.5909     17.0428    140.0248   1.2824984270e+02   4.3787310486e+01    0.3134115     0.180741  58.27  0.001863846    1.590    0.371
       157  -9.6535    107.7252    136.1430   1.0680687802e+02   3.3136442983e+01    0.3297028    0.2237875 -21.67  0.001462038    2.779    0.640
       158  -9.1775     59.5640    136.5032   1.1814896645e+02   4.0135091705e+01    0.1256385    0.1028167 -88.13  6.60514e-05    1.011    0.011
       159  -9.7924     47.2675    135.7591   1.2093873234e+02   4.1744775988e+01    0.1872617    0.1255891 -41.63  0.001062338    2.120    0.528
       160 -11.7657     13.2968    127.7134   1.2806197057e+02   4.6749469866e+01    0.2674896    0.1784952  79.51 0.0007036647    1.229    0.186
       161 -13.1201      3.6964    125.1604   1.3008978049e+02   4.8023422511e+01     1.047952    0.2821019 -71.58  0.001640476    2.627    0.619
       162  -9.0235     94.5095    133.2259   1.0936991982e+02   3.5928665678e+01    0.1743555    0.1188335 -49.71 0.0004727149    1.545    0.353
       163 -10.0656     44.2184    129.9264   1.2094720488e+02   4.3369296514e+01    0.1908415    0.1340837  84.44 0.0005837631    1.252    0.201
       164  -9.4960     41.1589    147.5218   1.2362980238e+02   3.9866533280e+01    0.1733778    0.1404875 -76.19 0.0005872077    1.216    0.177
       165  -9.7328     48.1839    126.0443   1.1948054669e+02   4.3799256856e+01    0.1859352    0.1581388  73.96 0.0003480816    1.151    0.131
       166 -10.6108     12.3148    173.1873   1.3145665431e+02   3.7448175630e+01    0.2512518    0.1310376 -76.20  0.001090835    1.625    0.385
       167 -11.9079     17.0746    122.6334   1.2669606654e+02   4.7559745734e+01    0.3135825    0.1904011  38.77   0.00201043    1.863    0.463
       168  -9.4130    238.4954    121.9992   7.7558974718e+01   9.1679867607e+00    0.2125538    0.1260481 -25.39  0.001024742    1.571    0.364
       169  -9.6063     29.6673    126.6841   1.2407336518e+02   4.5559828036e+01    0.1141504   0.07933789 -51.18 0.0002856483    1.687    0.407
       170 -10.6479    231.9906    116.2327   7.7216392195e+01   1.1312577060e+01    0.2542395    0.1924916 -23.54   0.00071821    1.222    0.182
       171  -9.9650     32.9989    115.1802   1.2187758116e+02   4.7824209791e+01    0.1836844     0.105894 -57.64  0.000720659    1.619    0.383
       172  -9.8669    167.7915    112.9093   8.8225559197e+01   2.5935210650e+01    0.3167652    0.2530863 -89.94      0.00122    1.641    0.391
       173 -12.6545      9.5140    113.3985   1.2766905865e+02   5.0185724196e+01    0.5456703    0.2481045  86.11  0.002698802    2.055    0.513
       174  -9.9630    249.8102    117.7952   7.4834417433e+01   7.4767979302e+00    0.3130173     0.216391 -13.29 0.0006465882    1.348    0.258
       175 -10.8554      2.2746    109.3742   1.2912615133e+02   5.1572537533e+01    0.3003812    0.1286432  85.69   0.00154945    2.154    0.536
       176  -8.9412     29.6395    108.6812   1.2191011129e+02   4.9613119628e+01    0.1212605   0.07909684 -47.09 0.0007043011    1.766    0.434
       177 -10.7311     18.8756    105.8655   1.2442990355e+02   5.1167316214e+01     0.263517    0.1573897  74.06 0.0009211017    1.664    0.399
       178 -12.2877     15.2432    101.1035   1.2484177518e+02   5.2525137330e+01    0.4436197    0.2475928 -59.88  0.001437806    1.551    0.355
       179 -10.9326      2.3315    102.2697   1.2845036751e+02   5.3145843439e+01    0.3314078   0.07475692 -74.08  0.001350477    3.093    0.677
       180  -8.6308     71.7149    100.2760   1.0889033618e+02   4.6733587906e+01    0.1308451    0.0965541  84.32 0.0002007864    1.509    0.338
       181 -10.2855     20.8806     93.8937   1.2231535959e+02   5.3735672539e+01    0.1841454     0.132174 -61.15 0.0004542861    1.246    0.197
       182 -10.2969      1.6984     88.5265   1.2718472288e+02   5.6262309464e+01    0.2213846   0.07856972 -75.27  0.001082712    2.067    0.516
       183 -12.2542      3.8970    151.0520   1.3180605495e+02   4.2558843014e+01    0.5217901    0.3047198  81.48  0.003590407    1.287    0.223
       184 -10.4997      2.0000     77.5144   1.2574818142e+02   5.8726037253e+01    0.2716393   0.04958006 -73.32 0.0009423301    3.996    0.750
       185 -10.1865      2.0000     60.9668   1.2329736116e+02   6.2446874379e+01    0.2027314   0.04969868 -71.06 0.0008062805    2.969    0.663
       186  -9.0806     66.8148    239.7853   1.2627988595e+02   2.0077901080e+01    0.1459761   0.09516498  58.49 0.0005838256    1.086    0.079
       187 -11.5528     59.9516    245.7049   1.2767619538e+02   2.0020514063e+01    0.3543408    0.2034936  52.86  0.001955673    1.248    0.199
       188 -11.0811     73.8506    244.0925   1.2547778451e+02   1.8592760325e+01    0.2577447    0.2016856  78.31  0.002081855    1.235    0.190
