#   1 NUMBER                 Running object number                                     
#   2 MAG_AUTO               Kron-like elliptical aperture magnitude                    [mag]
#   3 X_IMAGE                Object position along x                                    [pixel]
#   4 Y_IMAGE                Object position along y                                    [pixel]
#   5 X_WORLD                Barycenter position along world x axis                     [deg]
#   6 Y_WORLD                Barycenter position along world y axis                     [deg]
#   7 A_WORLD                Profile RMS along major axis (world units)                 [deg]
#   8 B_WORLD                Profile RMS along minor axis (world units)                 [deg]
#   9 THETA_WORLD            Position angle (CCW/world-x)                               [deg]
#  10 FWHM_WORLD             FWHM assuming a gaussian core                              [deg]
#  11 ELONGATION             A_IMAGE/B_IMAGE                                           
#  12 ELLIPTICITY            1 - B_IMAGE/A_IMAGE                                       
         1 -13.8862    248.8636    199.5132   8.4897588946e+01   9.7225166514e-01     3.677001    0.5302945 -28.02   0.01148834    7.974    0.875
         2 -13.3473     21.5969     78.6993   1.1737948596e+02   5.7773757746e+01     2.101998     1.249484  88.95   0.01107665    1.676    0.403
         3 -12.7795     31.0388     61.2433   1.1022107107e+02   6.1240041056e+01     3.327093      0.43445 -64.21  0.008723572    5.672    0.824
         4 -11.9911     12.4920     70.7076   1.1969306615e+02   6.0348932628e+01    0.7745562    0.3449076  48.05  0.003670569    2.566    0.610
         5 -10.8381     32.8105      7.4294   8.8275024732e+01   7.2829432644e+01    0.8035132    0.1371802 -45.70  0.002262085    5.387    0.814
         6 -11.4637    104.2464     10.9511   6.1391283084e+01   5.8112043358e+01    0.4330409    0.2826655  35.01  0.002029957    1.579    0.367
         7 -10.2844     70.6853    183.5793   1.1614117622e+02   2.9190100577e+01    0.5963789     0.263318  47.60  0.003136586    1.905    0.475
         8 -13.6104     75.9836    243.0727   1.1970882154e+02   1.8864984715e+01     4.082886    0.6528837  35.90     0.016504    4.286    0.767
         9 -11.9088     25.4884    162.0232   1.2450493005e+02   3.8330273378e+01     2.404619    0.4123203  53.49  0.007708419    5.775    0.827
        10 -13.7788     96.0562    210.8943   1.1354312265e+02   2.1249036704e+01     3.127326    0.5838919  43.11   0.01204329    3.768    0.735
        11 -13.6308     14.0673    246.1833   1.3018018856e+02   2.4649194670e+01     2.348028    0.1900155  36.24   0.01119235    3.914    0.744
        12 -15.1507     97.4028    182.1533   1.1024483480e+02   2.5935988771e+01     5.492657     3.247979  73.05   0.02850509    2.323    0.570
        13 -13.9140     28.3319    219.0538   1.2685004235e+02   2.7536414753e+01     2.499833      0.25552  43.43   0.01140774    3.434    0.709
        14 -13.8800     49.1884    211.8943   1.2262785521e+02   2.6628083988e+01     3.147404    0.8407642  42.56     0.015967    2.488    0.598
        15 -10.4722      6.3900    159.6373   1.2873602012e+02   4.0410493468e+01    0.6666808    0.2438379  77.23  0.003296913    2.560    0.609
        16  -9.5321      6.9534    119.5035   1.2642847082e+02   4.9078524995e+01    0.3366454     0.170569  64.51  0.001851284    1.807    0.447
        17 -10.1366     31.8521    153.4169   1.2240230910e+02   3.9535795504e+01     0.493451    0.2202583  76.61  0.002386949    2.431    0.589
        18  -9.7774     27.9993    146.9843   1.2285432517e+02   4.1274595182e+01     0.325802    0.1533701  56.30  0.001408898    1.931    0.482
        19 -11.2794     20.4648    137.9862   1.2408935819e+02   4.3902891899e+01     1.115049    0.3589837  70.78  0.003959582    4.453    0.775
        20 -11.8327     11.5727    132.8583   1.2605158032e+02   4.5741082471e+01    0.9295816     0.469796  85.22  0.004466617    1.731    0.422
        21 -10.9590    147.4459    146.5987   9.3726531371e+01   2.4349305979e+01    0.5263386    0.4068064 -73.16  0.002820184    1.801    0.445
        22 -11.4255     75.8752    146.0604   1.1067336048e+02   3.6041264915e+01    0.7810438     0.390884  54.58  0.003668823    2.101    0.524
        23 -15.4054    112.6876    164.6043   1.0455743178e+02   2.6909101342e+01     3.619294     2.949297 -58.87   0.02124704    1.355    0.262
        24  99.0000     38.8007    235.1507   1.2569018899e+02   2.3982494245e+01     1.770529    0.3697526  38.54  0.009130637    2.817    0.645
        25  -9.8885     33.0668    143.8341   1.2132417893e+02   4.1485680315e+01    0.5366511    0.1398952 -74.19  0.002088677    3.500    0.714
        26 -12.5914     58.3489    227.8239   1.2187682136e+02   2.3075294874e+01     1.053269    0.4238974  35.53  0.006251346    2.002    0.501
        27 -13.3707     90.3174    226.0679   1.1594391096e+02   1.9638596921e+01     1.563069    0.7194319  36.43  0.008783266    1.732    0.423
        28 -11.6486     52.0776    131.0168   1.1495063951e+02   4.2353100336e+01     1.556636    0.6355022  43.89  0.007101305    2.288    0.563
        29 -12.2445    164.2997    125.2791   8.5587290068e+01   2.4901704292e+01    0.9723142    0.5080211 -34.17  0.004243603    2.014    0.503
        30 -13.6230    134.5893    121.9766   9.1547272410e+01   3.1360382050e+01     1.772045     1.272019   0.07  0.008241498    2.030    0.507
        31 -12.3727    236.8906    127.3575   7.2958577890e+01   1.0700767610e+01    0.6158273    0.3392144  13.58  0.002870429    2.310    0.567
        32 -10.8810     86.4003    126.6952   1.0489987568e+02   3.8751314879e+01    0.5008266     0.270779  44.68  0.002360414    1.800    0.444
        33 -11.0962     20.1815    121.4160   1.2283783255e+02   4.7671202247e+01     0.906108    0.3808929  84.23  0.004085156    2.517    0.603
        34 -12.5169    109.3313    106.6755   9.4481214587e+01   3.9297838290e+01    0.7207307    0.6707873   7.05  0.004093713    1.183    0.155
        35 -12.2206     22.1649     56.0590   1.1291795146e+02   6.3243364322e+01    0.8993436    0.3060804 -65.57   0.00373125    2.339    0.572
        36 -11.8773     25.8130    106.4333   1.1964859236e+02   5.0725106866e+01     1.218985     1.087225  64.97  0.008313117    1.155    0.134
        37 -13.0232    163.3965     93.8957   7.7897403097e+01   3.0591677238e+01     1.456723    0.7743651 -38.12  0.006102582    1.839    0.456
        38 -11.2490      3.9941    100.4667   1.2593265804e+02   5.3686177038e+01    0.7413181    0.3756343  79.88  0.003958034    1.790    0.441
        39 -13.5077    242.1165    220.1729   8.9130386268e+01  -2.8571958241e-02     1.599584    0.8347062  -3.47   0.01006891    2.039    0.510
        40  -9.2886      4.4322    180.7939   1.2997148748e+02   3.6395704033e+01    0.4443202   0.06538851  53.11  0.001841451    3.939    0.746
        41 -10.4736     57.9713    101.1022   1.0861075448e+02   4.8641279387e+01    0.7218738    0.3872658  84.69   0.00284434    2.968    0.663
        42 -11.8243    127.6265     95.6089   8.6788485425e+01   3.8027229948e+01    0.7347072    0.4394236 -41.10  0.003237592    1.665    0.399
        43 -12.8198     52.3867    176.8992   1.1953428751e+02   3.2614212073e+01     3.508532     2.817346  36.83   0.02478008    1.303    0.233
        44 -10.3273     53.0317     84.5162   1.0694406211e+02   5.3238976956e+01    0.2937354    0.1938161 -63.92  0.001182311    1.357    0.263
        45 -10.3763    132.4114    104.1883   8.7826366187e+01   3.5318282345e+01    0.5600174     0.228832  40.47  0.002026721    2.563    0.610
        46  -9.3500      5.7986    197.3640   1.3023936148e+02   3.3241666353e+01    0.4378756    0.1340959  34.45  0.002449859    2.529    0.605
        47 -11.3070    164.2257     65.1201   6.9204886310e+01   3.5241321995e+01    0.5229195     0.192526 -31.24  0.001760943    2.630    0.620
        48 -11.5905    212.5547     60.3331   5.9744958673e+01   2.4364691506e+01    0.4971581    0.4042576 -87.65  0.002670756    1.539    0.350
        49 -11.0324     38.8168     65.9618   1.0809799638e+02   5.9337079171e+01    0.3737156    0.3092171  77.69  0.002119402    1.326    0.246
        50 -12.4266     10.8162     90.3432   1.2276382074e+02   5.5689770842e+01    0.9270719    0.6030684 -79.61  0.005559545    1.252    0.202
        51  -9.8085    176.5977     48.1988   6.1498246802e+01   3.4682429046e+01     0.220834     0.142169 -12.67 0.0009557111    1.707    0.414
        52 -10.5688    215.6682     40.1592   5.3600545484e+01   2.6110206775e+01    0.3112302   0.09482189 -31.84  0.001104167    2.632    0.620
        53 -11.9761     45.3460     35.2007   9.5396048448e+01   6.5660609213e+01    0.4913948     0.406052 -62.12   0.00287669    1.280    0.218
        54 -12.6150     12.2515    231.1053   1.3007196798e+02   2.7074196173e+01     1.465945    0.2015321  45.97  0.007651305    2.925    0.658
        55 -10.5525     73.4158    116.5707   1.0673305589e+02   4.2942943195e+01    0.5841393    0.2947168 -60.44  0.002674515    1.884    0.469
        56  -9.7359    168.1702     38.3349   5.9607315877e+01   3.8165369818e+01    0.2220392    0.1935315  -9.75  0.001153618    1.149    0.130
        57  -9.0020      2.9180    191.1925   1.3060589220e+02   3.4583678239e+01    0.3074413   0.09952357  36.41  0.001758616    2.341    0.573
