#   1 NUMBER                 Running object number                                     
#   2 MAG_AUTO               Kron-like elliptical aperture magnitude                    [mag]
#   3 X_IMAGE                Object position along x                                    [pixel]
#   4 Y_IMAGE                Object position along y                                    [pixel]
#   5 X_WORLD                Barycenter position along world x axis                     [deg]
#   6 Y_WORLD                Barycenter position along world y axis                     [deg]
#   7 A_WORLD                Profile RMS along major axis (world units)                 [deg]
#   8 B_WORLD                Profile RMS along minor axis (world units)                 [deg]
#   9 THETA_WORLD            Position angle (CCW/world-x)                               [deg]
#  10 FWHM_WORLD             FWHM assuming a gaussian core                              [deg]
#  11 ELONGATION             A_IMAGE/B_IMAGE                                           
#  12 ELLIPTICITY            1 - B_IMAGE/A_IMAGE                                       
         1 -13.9744    214.9573      2.3304   4.5550925338e+01   3.0284702519e+01     2.441896    0.9408916  57.91  0.006359404    2.458    0.593
         2 -14.0206    187.9357     35.0267   5.8709384327e+01   3.3807357776e+01     1.178587      1.05901 -33.43  0.003175322    1.116    0.104
         3 -14.9442    194.3961     26.5272   5.5102365829e+01   3.3134933944e+01     2.292429      1.53245  36.42  0.001389239    1.696    0.410
         4 -12.8096     43.3092      4.3860   8.5535138110e+01   7.0246022947e+01    0.4391108    0.3965552  75.78  0.002936508    1.828    0.453
         5 -13.9167    176.1441     45.5404   6.4038558584e+01   3.5507732880e+01     1.138741    0.9737098 -13.68 0.0008621126    1.227    0.185
         6 -11.2583     58.8613      2.8896   7.7762923990e+01   6.8112215013e+01    0.2077183     0.154701   2.87  0.001075112    1.274    0.215
         7  99.0000     51.0449    205.8654   1.2460382124e+02   2.7863147598e+01    0.4392264    0.2338599 -82.14  0.002832174    1.830    0.454
         8  -9.5403    159.4395    250.4590   1.0977651850e+02   6.2135500918e+00    0.1087031   0.07812294  41.95 8.090641e-05    1.016    0.016
         9 -16.6460     72.5815    148.2416   1.1460251538e+02   3.6396337154e+01     9.776292     4.462985  77.28   0.03313503    4.730    0.789
        10  -9.6241    163.5051    204.1428   1.0339459212e+02   1.1609467755e+01    0.1498597    0.1236695 -48.47 0.0006710765    1.508    0.337
        11  -6.6548     45.4783    204.3430   1.2551008378e+02   2.8766189507e+01    0.1580658   0.08995836 -84.55 0.0004897853    1.647    0.393
        12  -9.5583     43.2670    200.0220   1.2563130906e+02   2.9782773406e+01      0.23468    0.1090808  63.16 0.0002727581    1.835    0.455
        13 -16.5826     77.6713    247.9232   1.2288302972e+02   1.7897563355e+01     7.532529     2.309309  33.75   0.02880318    5.615    0.822
        14 -19.4066     15.2763    136.2719   1.2686741995e+02   4.5116172034e+01     16.74811     1.848067 -76.94   0.04074578    9.800    0.898
        15 -12.1467     37.7795    200.5711   1.2666743456e+02   3.0282475011e+01    0.1777881    0.1282565  68.76 0.0004955847    1.009    0.009
        16  -9.5589    210.0327    199.9601   9.4418386598e+01   4.2433264811e+00    0.1452581    0.1177828  25.99 0.0003364974    1.027    0.027
        17 -12.2163    193.6301    192.9883   9.6179144944e+01   7.9652835891e+00    0.6967572    0.4351777 -49.98  0.003809327    2.199    0.545
        18 -12.0748     72.9051    212.2779   1.2111880226e+02   2.4080617034e+01     0.219939    0.1531909  63.89 0.0002920822    1.120    0.107
        19 -11.1174    154.4073    195.9078   1.0392395151e+02   1.4388866481e+01    0.3357204    0.2141171  70.23  0.001726419    2.280    0.561
        20 -10.5154     82.5112    195.1604   1.1780068646e+02   2.5796722462e+01    0.2574933    0.1903304  40.53  0.001725951    1.384    0.278
        21 -13.1457     69.5504    190.7573   1.1991701231e+02   2.8327604841e+01    0.6460916    0.5509651 -81.67  0.004802089    1.285    0.222
        22 -12.0549     55.9192    211.5429   1.2411637678e+02   2.6306333026e+01    0.4116971    0.1821873  48.86  0.001378821    1.716    0.417
        23 -10.0313     76.6340    207.2537   1.2002141679e+02   2.4453995959e+01    0.3059253    0.2062575 -75.41  0.001418203    1.567    0.362
        24 -11.3357     39.7842    213.0013   1.2704615251e+02   2.7890604733e+01    0.2019936    0.0984951  53.40 0.0007690945    1.525    0.344
        25 -10.7902     44.1343    210.2643   1.2612340516e+02   2.7881870539e+01     0.244304    0.1092384  58.21 0.0006739708    1.761    0.432
        26  -9.8957    166.6209    188.2339   1.0043755052e+02   1.3435807394e+01    0.1607855    0.1202888 -27.65 0.0009478579    1.673    0.402
        27 -11.9003     99.4700    180.6854   1.1280847593e+02   2.6009077155e+01    0.2611552    0.2149386  49.19  0.000588709    1.155    0.135
        28 -10.9920    207.7246    179.4227   9.1313278123e+01   7.2817768150e+00    0.5146798    0.2758414  24.23  0.002405305    2.238    0.553
        29 -10.1221     70.6920    178.9682   1.1855985657e+02   3.0409149535e+01    0.2244168    0.1386571  54.72 0.0007074262    1.373    0.271
        30 -11.5323    195.5308    169.0376   9.1641308594e+01   1.1002688796e+01    0.4055243    0.3432241  71.73 0.0006867078    1.557    0.358
        31 -10.5838    192.4953    163.0017   9.1071309769e+01   1.2487500716e+01    0.2921505    0.1720651 -53.74  0.001350787    2.442    0.591
        32 -11.2137    145.8381    168.6124   1.0139748043e+02   2.0427511049e+01    0.2608197    0.2089404  -3.36  0.001408071    1.736    0.424
        33  -9.9370     37.4689    206.8548   1.2709763963e+02   2.9203527454e+01    0.1387144   0.08941643  58.47 0.0002704818    1.165    0.142
        34 -10.0344    141.7618    158.7206   1.0056345436e+02   2.2965407758e+01    0.1996659    0.1877568 -84.15 0.0003057288    1.138    0.122
        35 -13.1556     97.2081    154.9184   1.0983355768e+02   3.1403926644e+01    0.6823872    0.5558409 -23.02  0.003951091    1.843    0.458
        36 -10.8657    189.5041    155.0801   9.0095040909e+01   1.4302423410e+01    0.3564182    0.2925213  50.22   0.00133654    1.221    0.181
        37 -10.4361    113.2852    151.2663   1.0559303536e+02   2.9511517114e+01    0.2697025    0.1589387 -82.04  0.001172237    2.564    0.610
        38 -12.0521    133.8945    144.8477   9.9768510798e+01   2.7078467173e+01    0.9903292    0.2901199 -55.53  0.002960104    4.783    0.791
        39 -10.3020    174.8966    149.1281   9.1796784276e+01   1.8208820494e+01    0.2097823    0.1881607  69.48 0.0005536604    1.255    0.203
        40 -11.8251    144.6314    146.5859   9.7705719388e+01   2.4689113244e+01    0.4006495    0.2908885  75.73   0.00199726    1.766    0.434
        41 -12.1203    107.8784    140.4745   1.0501459441e+02   3.2646896748e+01    0.4854563     0.319459 -35.61  0.002362403    2.099    0.523
        42 -12.6204     96.0894    140.5486   1.0785417325e+02   3.4573698440e+01    0.2593536     0.251569 -63.14  0.000463561    1.203    0.169
        43 -11.9803    116.1393    130.0340   1.0107450275e+02   3.3378483202e+01    0.5734975    0.3966121  20.28   0.00180577    2.093    0.522
        44 -11.3673    120.1672    124.2468   9.8908743262e+01   3.3846917477e+01    0.5550643    0.3229547 -22.94  0.001901997    4.024    0.752
        45 -11.1094    105.9167    130.6810   1.0371125030e+02   3.5047907983e+01    0.3482156     0.279263 -85.96   0.00119721    1.308    0.235
        46 -11.3381    102.8678    126.6402   1.0370512244e+02   3.6434522507e+01    0.2771807    0.2569526 -18.39 0.0008638574    1.333    0.250
        47 -11.5629    135.3971    121.8374   9.4692039494e+01   3.1376235581e+01    0.6807628    0.1999356 -52.33  0.002000521    4.225    0.763
        48 -10.7307    125.5466    127.3389   9.8244527782e+01   3.2185966650e+01    0.3241359     0.225583  88.67  0.001342277    2.022    0.505
        49 -10.2571    110.4222    119.4622   1.0034600840e+02   3.6654857222e+01    0.2307824    0.2196562  71.71  0.000190777    1.037    0.036
        50 -10.1672    167.8383    112.5712   8.5095177173e+01   2.6221654347e+01    0.2850218    0.2286138 -73.27  0.001004972    1.581    0.367
        51 -11.4201    119.8754    110.7489   9.6000433416e+01   3.6743032608e+01    0.4954364    0.2821492  61.17  0.002038075    2.243    0.554
        52 -10.2716    205.6882    110.1115   7.6928258256e+01   1.8061305135e+01    0.2794372    0.2042066  40.44 0.0006445723    1.341    0.254
        53  -9.2663    100.5756    109.1566   1.0070987665e+02   4.0631413544e+01    0.1789903    0.1288149 -44.73 0.0002552234    1.451    0.311
        54 -10.3857    160.8572    128.1013   9.0277882026e+01   2.4870789535e+01    0.3102189    0.2067651 -56.36   0.00143927    1.777    0.437
        55 -10.7406    158.7687    204.6926   1.0434613570e+02   1.2327492555e+01    0.3765498    0.2239439  73.79  0.001669724    3.486    0.713
        56 -10.7436     41.7868     91.9658   1.1436462390e+02   5.2610162805e+01    0.1871118    0.1761472  76.55 0.0004221213    1.164    0.141
        57 -11.7205    166.9491     67.0993   7.2647298056e+01   3.4536049961e+01    0.5543936    0.3632074 -80.69 0.0006120804    2.543    0.607
        58 -12.4077     63.9270    207.3226   1.2236449595e+02   2.6064922784e+01    0.3892632    0.3414583 -68.27  0.002248387    1.513    0.339
        59 -10.6155    171.9637    238.8887   1.0641000590e+02   5.6922383848e+00    0.2293095    0.1637493  55.81  0.001612634    1.454    0.312
        60  -9.2652     71.9115    229.5309   1.2258573645e+02   2.1389625539e+01    0.1431632   0.07832627  47.67 0.0003537741    1.383    0.277
        61 -13.6759     49.4471    217.5791   1.2564509743e+02   2.6036635004e+01    0.4991158    0.1595796  56.49  0.002568864    2.591    0.614
        62  -9.5377    166.7923     33.7603   6.1823027872e+01   3.9604484109e+01    0.2061716     0.173272 -71.79 0.0004478348    1.327    0.247
        63 -13.0709     59.6782    204.8801   1.2295843333e+02   2.7012880884e+01    0.3746851    0.2971063 -58.00   0.00155942    1.722    0.419
        64  -9.3280     43.1842    221.0825   1.2692143579e+02   2.6158149992e+01    0.1333749    0.1200837  52.11 0.0009879987    1.499    0.333
        65 -11.5877     69.6534    218.7443   1.2219726801e+02   2.3412963006e+01    0.5900131     0.202587  58.62  0.002821248    2.901    0.655
