#   1 NUMBER                 Running object number                                     
#   2 MAG_AUTO               Kron-like elliptical aperture magnitude                    [mag]
#   3 X_IMAGE                Object position along x                                    [pixel]
#   4 Y_IMAGE                Object position along y                                    [pixel]
#   5 X_WORLD                Barycenter position along world x axis                     [deg]
#   6 Y_WORLD                Barycenter position along world y axis                     [deg]
#   7 A_WORLD                Profile RMS along major axis (world units)                 [deg]
#   8 B_WORLD                Profile RMS along minor axis (world units)                 [deg]
#   9 THETA_WORLD            Position angle (CCW/world-x)                               [deg]
#  10 FWHM_WORLD             FWHM assuming a gaussian core                              [deg]
#  11 ELONGATION             A_IMAGE/B_IMAGE                                           
#  12 ELLIPTICITY            1 - B_IMAGE/A_IMAGE                                       
         1 -13.0687    248.4392     16.5551   3.8609783540e+01   2.1938559061e+01     2.861388    0.8192537 -26.06  0.009667812    4.512    0.778
         2 -12.1950    242.8730     24.9299   4.0988225791e+01   2.2160360998e+01    0.7081742    0.4595754 -56.63  0.003943168    1.373    0.272
         3 -12.5130    247.6332     40.4182   4.4128376249e+01   1.9113955969e+01     1.430868    0.3931347 -35.54   0.00531109    2.947    0.661
         4 -11.8937    232.3527     19.5366   4.0680686406e+01   2.5197680006e+01    0.6594126    0.2416429 -37.33  0.002827239    2.332    0.571
         5  -9.7049    140.5628      9.0643   4.9290767435e+01   4.9035223722e+01     0.252223    0.1829678  67.30 0.0003349457    1.293    0.227
         6  -9.4583     18.7097      8.9602   8.9764385306e+01   7.1685403419e+01    0.1836762    0.1258539  -4.79 0.0001880024    1.310    0.237
         7 -10.3159    116.4696      5.2652   5.2517152094e+01   5.5183149987e+01    0.2588875    0.2244572  66.01 0.0005315924    1.188    0.158
         8 -10.2779    111.0016      4.9074   5.3566024859e+01   5.6477469094e+01    0.2547849    0.2119487 -10.93 0.0002837396    1.263    0.208
         9 -10.5244    243.3621      3.4002   3.6068136283e+01   2.4530652859e+01    0.3193377    0.2180264  -9.00  0.001773379    2.153    0.536
        10  -8.5782     64.6175      4.8025   6.6843465392e+01   6.5971477065e+01    0.1605726    0.1054658 -29.65 0.0003700069    1.583    0.368
        11  -9.8192     50.9635      3.4071   7.1423970050e+01   6.8387304092e+01    0.2116558    0.1513545 -15.38 0.0003163447    1.238    0.192
        12  -9.6739     19.0178      4.2882   8.7245004726e+01   7.2351714030e+01     0.158908    0.1189676  -9.90 0.0005721999    1.071    0.066
        13  -8.0923    153.2788      3.3498   4.5320146735e+01   4.6386314249e+01    0.1397404   0.09261231  35.41 0.0007010159    1.643    0.391
        14  -8.4605     55.6751      3.7193   6.9679587623e+01   6.7602155117e+01    0.1264367   0.07831404  14.19 0.0002006407    1.594    0.373
        15  -9.4352    239.3765      1.6801   3.5971739458e+01   2.5597651288e+01    0.2038282    0.1119886 -60.22 0.0009436752    1.644    0.392
        16  -8.6459    121.5293      1.9836   5.0210437194e+01   5.4276606803e+01    0.1801292    0.1301848  -9.73  0.000392958    1.510    0.338
        17  -9.6854     14.9194      1.9632   8.8294814393e+01   7.3077790379e+01    0.1694213    0.1246126 -17.42 0.0003327195    1.016    0.016
        18  -9.0981    229.6350    228.4852   8.7862727758e+01  -6.3508364769e+00     0.170695    0.1448651 -46.66 0.0008806496    1.767    0.434
        19  -9.1989    225.0537    249.2953   9.1967311492e+01  -8.1930662507e+00    0.2517488    0.1862772 -61.71  0.001471474    3.075    0.675
        20  -9.8602    210.6197    249.5217   9.4520093604e+01  -6.1434610153e+00    0.2648049    0.1888146 -17.69  0.001790112    1.532    0.347
        21 -10.7690    193.7344    247.8234   9.7283490627e+01  -3.4130272417e+00    0.4375277    0.3420383 -49.35  0.002979987    1.769    0.435
        22  -9.1049    184.0575    250.4958   9.9401536424e+01  -2.2902222464e+00    0.1846911   0.09397961  38.04  0.001023473    1.562    0.360
        23 -10.2777    167.8439    249.6924   1.0223964336e+02   3.1040456218e-01    0.2674423    0.1603284  29.86 0.0007818383    1.520    0.342
        24 -10.3913    163.5614    247.2305   1.0270513179e+02   1.3239996992e+00    0.3090061     0.149598 -49.24  0.001643342    2.621    0.619
        25  -8.9143    211.6129    226.6560   9.0795403401e+01  -3.3630678993e+00    0.2227226    0.1119784 -31.30  0.001145351    2.217    0.549
        26  -8.6937    207.5047    231.4735   9.2321998460e+01  -3.3725476667e+00    0.1627812    0.1094586 -18.39 0.0006950364    1.651    0.394
        27  -9.9609    246.4939    225.4325   8.4425614017e+01  -8.4200402478e+00    0.4127826    0.2900422  52.97   0.00243013    2.360    0.576
        28  -9.3197    239.8695    220.8875   8.4781760411e+01  -6.9041200676e+00    0.2566862    0.1878037 -32.05  0.001662253    1.534    0.348
        29  -8.6339    240.0123    215.7106   8.3851257492e+01  -6.2641346730e+00    0.3379033    0.1938087 -49.01  0.001676833    2.945    0.660
        30  -8.4944    223.2272    226.2492   8.8628019264e+01  -5.1015776525e+00    0.1691699   0.09382977 -44.85 0.0008859381    2.427    0.588
        31  -9.1646    205.9780    225.2496   9.1601365727e+01  -2.2806996036e+00    0.2664507    0.1495934 -48.73  0.001372257    2.481    0.597
        32  -9.1075    190.5125    225.0302   9.4460233240e+01   2.4592908763e-01    0.1731116    0.1233426 -36.31   0.00103501    1.597    0.374
        33  -9.1597    228.3922    222.2676   8.7035464222e+01  -5.3669187560e+00    0.2280206    0.1878393  71.17  0.001360996    2.321    0.569
        34 -10.3050    247.6790    216.4931   8.2668231163e+01  -7.4906600883e+00    0.4951112    0.2291888 -37.00  0.002565586    2.316    0.568
        35  -9.8973    247.1186    206.4868   8.0962220140e+01  -6.1229244781e+00    0.4152615    0.2022753 -47.26  0.001831034    3.440    0.709
        36  -8.7307    225.4405    231.2275   8.9056099752e+01  -6.0731510177e+00     0.145621    0.1113028 -38.64 0.0009457775    1.670    0.401
        37  -9.1725    219.4985    216.5492   8.7655180052e+01  -3.2186960559e+00    0.2323566    0.1181804 -36.65  0.001190865    2.111    0.526
        38  -9.1562    233.0565    213.1966   8.4628107533e+01  -4.8793181541e+00    0.2548306    0.1528086 -42.37  0.001396187    2.061    0.515
        39  -9.7082    240.6734    208.8187   8.2502285430e+01  -5.4594182352e+00    0.3463873    0.2302488 -54.27  0.001781277    2.818    0.645
        40  -8.4587    217.3062    204.6780   8.5956294464e+01  -1.1664362356e+00    0.1140723    0.1050489  77.14 0.0002843057    1.640    0.390
        41  -8.4383    173.2227    203.9600   9.4399375464e+01   6.5515208359e+00    0.1621415    0.1112189 -44.26 0.0005304745    1.627    0.385
        42  -9.2831     73.1687    210.1560   1.1588418231e+02   2.1642981049e+01    0.1767604     0.119536  65.94 0.0004460592    1.306    0.234
        43  -8.2793    202.2919    203.7056   8.8616154003e+01   1.5118940571e+00    0.1173522    0.1044597  69.04  0.000435154    1.555    0.357
        44  -9.5040    250.1949    200.2670   7.9284278741e+01  -5.7600291236e+00    0.3605389    0.1666669 -30.82  0.001803695    2.053    0.513
        45  -9.3881    242.9877    200.7845   8.0620376162e+01  -4.7296821378e+00    0.2921097    0.1536001 -31.70  0.001373327    1.839    0.456
        46  -9.6407    231.3451    193.1743   8.1240606040e+01  -1.7905598486e+00    0.4389201    0.1415534 -34.30  0.001695143    3.138    0.681
        47  -9.7916    246.9324    193.3558   7.8532972559e+01  -4.3171206820e+00    0.3666361    0.2353003 -47.11  0.001959263    2.157    0.536
        48  -8.9833    243.9980    188.4964   7.8100596091e+01  -3.1673923672e+00    0.2157335    0.1794188 -48.19  0.001263902    1.658    0.397
        49  -9.1334    224.5024    191.8087   8.2223417161e+01  -4.4472306796e-01    0.3146513    0.1219297 -39.07  0.001314727    2.642    0.622
        50  -8.7340    231.3516    178.6809   7.8390987250e+01   4.0025694379e-01    0.2117857     0.110709  51.46 0.0009294504    2.509    0.601
        51  -9.7806    237.1348    186.8163   7.8974623709e+01  -1.8076517251e+00    0.3951823    0.1665025 -35.56  0.001762978    2.295    0.564
        52  -9.2843    235.5655    180.8789   7.8077704951e+01  -6.5663748377e-01    0.2436894     0.185164 -52.62  0.001345771    1.837    0.456
        53  -8.7284    215.3454    187.0780   8.3015041484e+01   1.8699797848e+00    0.1855273    0.1190205 -46.40 0.0009306534    1.851    0.460
        54  -9.4860    249.4464    184.6990   7.6421716618e+01  -3.4930791018e+00     0.399664     0.166377 -39.21  0.001790304    2.440    0.590
        55  -9.9932    247.5258    178.0315   7.5422542672e+01  -2.2188323113e+00    0.4520048     0.165456 -39.72  0.001857053    2.745    0.636
        56  -8.2976    220.3079    186.6645   8.2003026390e+01   1.0677063680e+00    0.1215088    0.1097505 -81.05 0.0007041963    1.675    0.403
        57 -10.1941     77.6353    185.6473   1.1221490147e+02   2.6206484178e+01    0.2391102    0.2225512  77.57 0.0006071294    1.156    0.135
        58  -8.9982    224.0494    183.9317   8.0771880034e+01   8.4597672720e-01    0.2637459    0.1390009 -41.91  0.001237686    2.040    0.510
        59  -9.1960    241.4842    181.0188   7.7063215854e+01  -1.6672610132e+00    0.3011666    0.2198107 -53.63  0.001626726    2.029    0.507
        60  -8.4545    219.2340    178.2208   8.0526379768e+01   2.6049515619e+00    0.2112802    0.1032103 -46.71 0.0008850813    2.479    0.597
        61  -8.2528    197.7121    177.3236   8.4514288795e+01   6.7151605622e+00    0.1305218    0.1140499 -86.79 0.0005325616    1.605    0.377
        62  -8.7748    210.6173    175.8832   8.1690456260e+01   4.5579529292e+00    0.1944953    0.1252929 -47.95 0.0009395385    1.819    0.450
        63  -9.0844    232.6858    174.5047   7.7303263785e+01   8.2005372581e-01    0.2374249      0.11419 -35.03  0.001072583    1.984    0.496
        64  -8.9306    223.5332    173.4825   7.8760704101e+01   2.6024291588e+00    0.2348313    0.1210472 -46.38  0.001020039    2.296    0.564
        65  -9.0567    227.9978    171.5033   7.7533441639e+01   2.1225095920e+00    0.2682097    0.1601532 -51.92 0.0008238897    2.352    0.575
        66  -9.8044    246.4098    169.4469   7.3864699163e+01  -7.5233937635e-01    0.2837507    0.2636646 -82.86  0.001769609    1.627    0.385
        67 -10.3515    237.5275    169.3752   7.5386864866e+01   7.7987093462e-01    0.3307247    0.1982856 -38.24  0.001666649    1.640    0.390
        68  -8.8310    240.4336    164.2206   7.3802950960e+01   1.0804275577e+00    0.1884957    0.1171448 -42.84  0.000941071    1.716    0.417
        69  -9.2405    218.8392    168.5694   7.8617100095e+01   4.2680261050e+00    0.2701242    0.1783313 -50.32  0.001312726    1.872    0.466
        70  -9.3243    212.9951    163.3166   7.8615989601e+01   6.2607743657e+00    0.3276965    0.1852884 -44.51  0.001481866    1.881    0.468
        71  -9.3895    238.9993    140.9472   6.8995515767e+01   5.1035081491e+00    0.2719284    0.2025384 -69.92 0.0009198746    2.145    0.534
        72  -9.5837    245.4738    157.0078   7.1412656390e+01   1.3298886762e+00    0.3625988    0.2379277 -45.07  0.001786317    1.687    0.407
        73  -8.5026    250.6718    158.5697   7.0876467931e+01   1.8540899764e-01    0.2519882    0.1156756 -30.77  0.001024369    2.001    0.500
        74 -10.4978    250.1751    151.2627   6.9398885034e+01   1.4059712815e+00     1.210473    0.2767771 -44.14  0.003038574    6.740    0.852
        75  -9.0510    241.5467    153.0316   7.1223468179e+01   2.6610264781e+00    0.3228376    0.1923792 -37.73  0.001600532    1.571    0.364
        76 -10.1081    244.2377    149.3588   6.9970779635e+01   2.7648430025e+00    0.4921923    0.2857233 -41.58  0.002398584    1.698    0.411
        77 -10.1276    243.5711    140.3202   6.8090761469e+01   4.3496811958e+00    0.5309474    0.2805462 -45.97  0.002369731    2.037    0.509
        78 -10.3126    242.5490    134.7897   6.7019718323e+01   5.4484835736e+00    0.6024562    0.2640445 -47.85  0.002309911    2.742    0.635
        79  -8.5844    205.3570    162.6665   7.9959317371e+01   7.8466070568e+00    0.1408749    0.1169627 -85.70  0.000704261    1.797    0.444
        80  -9.4568    237.6159    158.9367   7.3172344298e+01   2.4199235433e+00    0.2361922    0.2088459 -47.40 0.0009884419    1.364    0.267
        81  -8.6701    231.4824    159.5511   7.4386584013e+01   3.4334802537e+00     0.138531    0.1224371  -7.67 0.0004161158    1.012    0.011
        82  -8.0670      2.6663    159.7096   1.2627212861e+02   4.0217387770e+01    0.1088288   0.07487338 -55.75 0.0002298769    1.632    0.387
        83  -8.7471    226.6401    157.3403   7.4782595366e+01   4.6971734555e+00    0.2023722    0.1716702 -68.84  0.001099589    1.665    0.399
        84  -9.0653    247.1069    162.4085   7.2281172502e+01   2.0541936583e-01    0.3121504    0.1555444 -42.75  0.001420374    2.119    0.528
        85  -9.3089    233.6972    154.0010   7.2794390034e+01   3.9379194920e+00    0.2938886    0.2088248 -56.17  0.001461222    1.919    0.479
        86  -9.0593    205.3629    153.6920   7.8006022579e+01   9.4606099439e+00    0.2202672    0.1377715  68.30 0.0008491485    2.899    0.655
        87  -8.7361    221.3725    152.1527   7.4613125034e+01   6.5819700537e+00    0.2026042    0.1245279 -44.55 0.0009398589    1.702    0.412
        88  -9.4493    229.3823    147.8285   7.2201131998e+01   5.7802029842e+00    0.3282434    0.1959383 -18.29  0.001355287    1.954    0.488
        89  -8.7314    211.6292    151.2032   7.6236736557e+01   8.6595396962e+00    0.2011607    0.1299249 -27.45 0.0005206465    1.568    0.362
        90 -10.5101    235.4216    147.5353   7.1074302939e+01   4.6854160663e+00     0.466087    0.3302669 -52.36  0.001654531    1.731    0.422
        91  -9.5066    230.5892    141.8608   7.0650893811e+01   6.5598995714e+00    0.3677246    0.2191988 -49.41     0.001323    1.944    0.486
        92  -8.7743    215.4573    148.9684   7.5009231768e+01   8.2968767202e+00    0.1985157    0.1201598 -57.38 0.0008077757    2.443    0.591
        93  -9.2309    223.8246    146.7421   7.2959243988e+01   7.0395884536e+00    0.3029966    0.2439188 -65.30  0.001571958    1.694    0.410
        94  -9.1808    207.6288    145.2448   7.5666423346e+01   1.0542466370e+01    0.2104424    0.1329115 -28.67 0.0009484436    1.614    0.380
        95  -8.7400    214.4650    142.9677   7.3838763797e+01   9.5645367442e+00    0.2036998    0.1204066 -57.11  0.000808737    2.469    0.595
        96  -8.8364    182.3977    142.6249   8.0207082991e+01   1.6316091844e+01    0.2884182    0.1302721 -53.82 0.0009262236    3.050    0.672
        97 -10.7852    242.0765     94.0126   5.7573005658e+01   1.2280647461e+01    0.6968656    0.2329894 -36.36  0.002524666    2.580    0.612
        98 -10.1403    249.2872    136.8975   6.6398782922e+01   3.8475396382e+00    0.6525962    0.2038814 -44.82  0.002134567    3.734    0.732
        99 -10.6455    246.9692     86.6441   5.5130099122e+01   1.2439355726e+01    0.5750996    0.4235957  57.65  0.003124402    1.535    0.348
       100  -9.1369    243.0065     82.5412   5.4689639408e+01   1.3925821268e+01    0.2621343    0.1655975 -42.27 0.0008579154    1.395    0.283
       101 -10.6971    249.0373     97.2620   5.7349047850e+01   1.0318990774e+01    0.6395273     0.213805 -32.04  0.002250281    2.881    0.653
       102  -9.3574    247.5412     91.9901   5.6317337426e+01   1.1469796068e+01    0.3014509     0.145618 -40.64 0.0008164701    1.793    0.442
       103 -10.7124    248.2529     76.9686   5.2666081325e+01   1.3683340785e+01    0.8104688    0.2869314 -33.12   0.00304578    2.575    0.612
       104 -10.2060    243.6963     75.5234   5.2911286340e+01   1.4877940985e+01    0.6689916    0.2028773 -31.07  0.002187398    3.401    0.706
       105  -9.7049    247.8602    112.3421   6.1039200249e+01   8.1104520004e+00    0.2927153    0.1892756 -36.14 0.0009552407    1.349    0.259
       106 -10.7927    247.7353    104.8144   5.9305131680e+01   9.3615339553e+00     1.245756    0.3015085 -46.18  0.003219996    5.581    0.821
       107 -10.5171    248.5256    129.7013   6.4908481560e+01   5.1520524824e+00    0.4535688    0.3409953 -55.79  0.002428906    1.610    0.379
       108  -9.9414    249.0471    124.0437   6.3545356335e+01   5.9727160209e+00    0.2922232    0.2509742 -39.55 0.0009502431    1.139    0.122
       109 -10.5699    247.8938    118.8150   6.2528028703e+01   7.0466828078e+00    0.5451326    0.2682173 -44.71  0.002371534    1.984    0.496
       110  -8.8790    224.4367    139.9634   7.1314617636e+01   8.0940407816e+00    0.2247094    0.1313411 -36.44 0.0008907524    1.591    0.372
       111 -10.1281    198.3115    140.2480   7.6355641466e+01   1.3405995628e+01    0.2738125     0.217877  70.82  0.001334661    1.633    0.388
       112  -9.1055    218.8308    138.0959   7.1906124343e+01   9.5484011919e+00    0.2231009    0.1971667 -49.72  0.001225723    1.241    0.194
       113  -8.2548    219.3060    144.6416   7.3315372348e+01   8.2959539140e+00    0.1429927    0.1139246 -67.03 0.0007040382    1.726    0.421
       114  -8.9158    173.3238    138.6694   8.1256190256e+01   1.9055530894e+01    0.1555673    0.1239135 -85.11 0.0003577269    1.701    0.412
       115 -10.0106    234.8723    136.0033   6.8580994965e+01   6.7205038116e+00    0.3713327    0.2734983 -51.42  0.001915502    1.549    0.354
       116  -8.5973    187.6947    136.3038   7.7605517268e+01   1.6431885579e+01    0.1488178    0.1224906 -80.43 0.0004940647    1.599    0.375
       117  -8.8873    225.0659    133.3132   6.9670473702e+01   9.1271259319e+00    0.1980409    0.1866003  -6.22 0.0006449159    1.056    0.053
       118  -8.9055    179.3490    132.6838   7.8514479371e+01   1.8966290176e+01    0.1568414    0.1243569 -85.32 0.0007047589    1.728    0.421
       119  -9.2639    233.8681    129.8008   6.7328910039e+01   7.9687806188e+00    0.1906171    0.1675608 -59.16 0.0008183603    1.333    0.250
       120  -9.6031    198.6397    131.9673   7.4333036732e+01   1.4909050857e+01    0.2217495    0.1894603 -35.97 0.0008092988    1.128    0.114
       121  -8.5462    192.3448    129.6845   7.5054145214e+01   1.6714997932e+01    0.1542643    0.1227729 -80.23  0.000704799    1.716    0.417
       122  -8.7368    186.4919    129.0178   7.6104012849e+01   1.8130386709e+01     0.222551     0.129344 -60.50 0.0008098746    2.551    0.608
       123 -10.2617    240.8083    125.9089   6.5279733092e+01   7.2563263332e+00    0.4804635    0.2477202 -39.80  0.002119955    1.758    0.431
       124  -9.8113    238.6892    121.3357   6.4564074655e+01   8.4405515895e+00    0.2181952    0.1638576 -67.41 0.0008426763    1.818    0.450
       125 -10.0622    200.0803    126.2230   7.2658202167e+01   1.5687277089e+01    0.2961522     0.193301 -61.63  0.001165114    2.115    0.527
       126  -9.1913    227.9279    125.4353   6.7325938840e+01   9.9169502501e+00    0.2823944    0.1874161 -47.26  0.001289824    1.553    0.356
       127  -9.0712    179.9239    125.1681   7.6550638746e+01   2.0354646902e+01    0.2429302    0.2148162 -79.91  0.001219788    1.325    0.245
       128  -9.4041    235.4773    123.1225   6.5507077491e+01   8.7821134515e+00    0.2221527    0.1948242 -55.65 0.0007497135    1.273    0.214
       129  -8.6534    188.3370    123.6567   7.4398722754e+01   1.8777148294e+01    0.1593276    0.1230914 -76.88 0.0007049678    1.769    0.435
       130  -9.1255    220.5123    120.2870   6.7394788366e+01   1.2367766779e+01    0.2760316    0.1323307 -40.48 0.0007604717    1.938    0.484
       131  -9.0951    194.3805    121.2060   7.2555274422e+01   1.7904581742e+01    0.2302529    0.1358707 -48.09 0.0009062851    1.763    0.433
       132  -9.7346    231.5017    120.0596   6.5448411346e+01   1.0112537233e+01    0.2829064    0.1260554 -40.08 0.0008878458    2.043    0.510
       133  -9.3644    242.8752    118.7841   6.3301565432e+01   8.0347509974e+00    0.2742959    0.1607395 -53.33  0.001033194    2.072    0.517
       134  -9.6260     18.6540    118.9246   1.1841547342e+02   4.8481209562e+01    0.2020074    0.1703312  60.12   0.00042763    1.317    0.240
       135 -11.1535    235.0368    114.4108   6.3526464755e+01   1.0350193019e+01    0.7334828     0.209058 -41.74  0.002369991    3.226    0.690
       136  -8.3353    191.6529    115.3192   7.1621395532e+01   1.9653595852e+01     0.158657    0.1227049 -76.77 0.0007048914    1.731    0.422
       137  -9.6298    185.8834    115.0593   7.2736069169e+01   2.1018643968e+01    0.2674066    0.1766577 -63.31  0.001084961    2.046    0.511
       138  -8.6366    168.4452    112.2043   7.5759487817e+01   2.5593020928e+01    0.2266017    0.1459392 -51.76 0.0009429136    1.653    0.395
       139  -9.2176    177.5924    110.7965   7.3380188379e+01   2.3768225051e+01    0.2338141    0.1427489 -49.04 0.0009574736    1.699    0.411
       140  -9.2616    218.5705    109.3237   6.5055235397e+01   1.4733746737e+01    0.2792021    0.1316567 -40.27 0.0009455413    1.953    0.488
       141 -10.9265    242.7143    106.9027   6.0544086844e+01   1.0034686399e+01    0.6431957    0.2189521 -43.79  0.002273669    2.818    0.645
       142  -8.9834    173.4343    114.1888   7.5170380249e+01   2.4043555834e+01    0.2306274    0.1436899 -51.72 0.0009441073    1.729    0.422
       143  -9.3132    212.2824    115.3981   6.7679327863e+01   1.5022630012e+01    0.2530499    0.1694943 -53.23 0.0006010469    1.664    0.399
       144 -10.1906    205.7064    105.4778   6.6389470728e+01   1.8302377765e+01    0.3199404    0.2198023 -59.01  0.001120126    1.734    0.423
       145  -9.0605    189.5561    104.5086   6.9240577993e+01   2.2212280374e+01    0.1549324    0.1477544 -39.74 0.0001232694    1.017    0.017
       146  -9.2366    229.5093    102.9682   6.1660110114e+01   1.3461796910e+01    0.2330042    0.1326052 -35.67 0.0009336235    1.593    0.372
       147  -8.3347    218.6464    104.3233   6.3797860433e+01   1.5600461792e+01    0.1545411    0.1134599 -68.75 0.0007047076    1.759    0.432
       148  -8.6033    195.3083    103.6347   6.7877588354e+01   2.1037291092e+01    0.1621575    0.1186435 -67.95 0.0007038005    1.750    0.429
       149  -8.9303    166.8983    100.5467   7.2968580492e+01   2.8316171701e+01    0.2798444    0.1808009 -43.83 0.0009717749    1.517    0.341
       150 -10.7519    213.9352     97.5825   6.2903200943e+01   1.7845353245e+01    0.6149272    0.3561983 -77.56  0.001911508    4.326    0.769
       151  -9.7040    195.0432     97.5408   6.6320472828e+01   2.2233704327e+01    0.3211448    0.2081239 -53.04  0.001383556    1.681    0.405
       152  -9.1271    183.8663     96.5376   6.8251954932e+01   2.5070967320e+01    0.3356687    0.1921868 -52.31  0.001318588    1.966    0.491
       153  -9.9059    235.1742     94.9096   5.8809590585e+01   1.3598718685e+01    0.3934055    0.2330929 -60.03  0.001301146    2.204    0.546
       154  -9.6594    231.2839     90.5478   5.8328382936e+01   1.5166491832e+01      0.29997    0.2267363 -43.44  0.001087921    1.207    0.172
       155  -9.4765    207.1250     94.7091   6.3350330546e+01   1.9919395790e+01    0.2578034    0.1559871 -69.37 0.0009452998    2.759    0.638
       156  -9.6261    189.8356     93.5627   6.6257182997e+01   2.4204508918e+01     0.292155     0.193895 -68.49  0.001179066    2.128    0.530
       157  -8.4800    160.3048    100.6424   7.4493924443e+01   2.9843543006e+01    0.1647395    0.1249631 -74.41 0.0004579876    1.721    0.419
       158  -8.7527    225.0000     92.9316   5.9896427551e+01   1.6156316687e+01    0.2430548   0.07776919 -35.29 0.0006072735    2.862    0.651
       159  -9.1205    202.8479     98.1220   6.5012314991e+01   2.0300268010e+01    0.2442326    0.2022377 -62.88  0.001104537    1.321    0.243
       160 -10.1930     24.9674     90.3898   1.1209053802e+02   5.4758922013e+01    0.2393408    0.1889738 -52.31 0.0004566364    1.112    0.101
       161  -9.0457    236.5063     89.9085   5.7392787852e+01   1.4135444108e+01     0.223706    0.1288617 -35.41  0.001021638    1.556    0.358
       162  -8.5488    226.2565     87.6473   5.8374839737e+01   1.6763459044e+01    0.1509242    0.1029871 -57.58  0.000696471    1.606    0.377
       163  -9.5677     30.2085     86.8205   1.0963698878e+02   5.5169474654e+01    0.1841333    0.1249612 -44.54 0.0005885378    1.336    0.251
       164  -8.7488    206.0000     84.9503   6.0978723580e+01   2.1897105753e+01    0.2547798   0.08229434 -35.31 0.0008007826    2.931    0.659
       165  -8.7591    170.6183     83.8155   6.7433703280e+01   3.0663977527e+01    0.2306393     0.138837 -47.27 0.0009419225    1.699    0.411
       166  -8.6894    222.5418     83.5276   5.7907646161e+01   1.8288819351e+01    0.1478883    0.1333892 -49.24 0.0002516715    1.039    0.037
       167  -9.5991    159.1633     82.0698   6.9428682441e+01   3.3774124889e+01    0.3527164    0.1919717 -51.09  0.001340308    2.074    0.518
       168  -8.4866    239.3460     81.1488   5.4855708595e+01   1.4934222297e+01    0.2115024    0.1107648 -43.36 0.0009325696    1.709    0.415
       169  -8.8279    210.0264     81.2177   5.9311268259e+01   2.1583736176e+01     0.234147    0.1500203 -53.37 0.0009450709    1.650    0.394
       170  -8.5808     31.9390     82.0000   1.0802552373e+02   5.6137513437e+01    0.1780975   0.07487918  23.24 0.0007943963    2.887    0.654
       171  -9.0908    201.2118     78.0778   5.9958569172e+01   2.4223005744e+01    0.2609934    0.1557535 -56.10  0.001012678    1.939    0.484
       172  -8.6195    189.0000     77.9621   6.2112033909e+01   2.7216252546e+01    0.2552085   0.08522375 -35.22 0.0007027604    2.905    0.656
       173  -9.0428    174.5833     77.3170   6.4727870127e+01   3.0879466893e+01    0.3097534    0.1409485 -40.54  0.001134258    2.120    0.528
       174  -9.5336    184.0093     77.0625   6.2798534242e+01   2.8600284640e+01    0.2539191      0.18248 -65.55  0.001120996    1.673    0.402
       175  -9.0026    230.3712     81.3136   5.6172196525e+01   1.6884010425e+01    0.4179207    0.1644149 -53.14   0.00132938    3.612    0.723
       176  -9.0157    210.7552     71.7304   5.6680588003e+01   2.2986296541e+01    0.2454316   0.09885766 -44.33 0.0008809683    2.387    0.581
       177  -8.6877    163.4709     71.9458   6.5449493566e+01   3.4581274161e+01    0.2421785    0.1502571 -37.21  0.001001762    1.586    0.370
       178 -10.8325    175.6392    246.4409   1.0038089134e+02  -4.4562003437e-01    0.4284726    0.2506091 -47.78  0.002510173    2.186    0.542
       179  -9.9292    177.7715    242.2449   9.9410075985e+01  -1.9257511519e-01    0.3161166    0.2346511 -71.49  0.001595595    2.244    0.554
       180  -8.8717    218.4239    248.2219   9.2957502777e+01  -7.1217429614e+00    0.1358098    0.1087011 -38.82 0.0009486715    1.690    0.408
       181 -11.1227    246.6065     32.9261   4.2491926170e+01   2.0324582475e+01    0.5801784    0.3792489 -88.08   0.00259918    1.611    0.379
       182 -11.0267    249.5788     62.7176   4.9137784756e+01   1.5551321442e+01     1.018806    0.2989277 -30.84  0.003405327    3.485    0.713
       183  -9.8347    250.5044     56.0369   4.7466407284e+01   1.6323497049e+01    0.5627056    0.1069735 -39.47  0.001789745    3.714    0.731
       184  -8.7337    218.5207     68.9866   5.4775507897e+01   2.1585254213e+01    0.2220612    0.1015622 -52.54 0.0008090466    2.536    0.606
       185  -9.1403    203.3661     67.8731   5.6822598773e+01   2.5395736480e+01    0.4564109      0.15041 -29.07  0.001373148    3.610    0.723
       186  -9.0220    156.9983     69.9646   6.6252774376e+01   3.6526299360e+01    0.2523867      0.18776 -68.72 0.0007709863    1.689    0.408
       187  -8.9131    102.1741     69.0468   8.0375695980e+01   4.9045487062e+01    0.2407855    0.1715111 -65.90    0.0010811    1.941    0.485
       188  -8.8470    212.4810     66.4667   5.5017184417e+01   2.3418441449e+01    0.2831349    0.1130084 -43.81  0.001035244    2.368    0.578
       189  -8.4824      8.3269     67.2784   1.1349040682e+02   6.1110074096e+01    0.1240054   0.06861294 -41.56  0.000356258    1.593    0.372
       190  -8.2258    187.6486     69.2969   5.9910031371e+01   2.9031702427e+01    0.1593445    0.1156735 -72.14 0.0003334502    1.687    0.407
       191  -9.2667    111.9994     64.4950   7.5920832043e+01   4.7922970210e+01    0.2026841    0.1357752  73.99 0.0008100209    2.494    0.599
       192 -11.2947    193.2188     58.0463   5.5749184261e+01   2.9459721526e+01    0.6184319    0.3580613 -32.94  0.002701654    1.709    0.415
       193  -9.5074    242.3604     61.1483   4.9621761486e+01   1.7348701381e+01    0.2095154    0.1053619 -43.66 0.0009400267    1.740    0.425
       194 -10.7833    243.5016     56.3478   4.8334822325e+01   1.7800078914e+01    0.3733898    0.2224279  63.36  0.001866475    1.812    0.448
       195  -9.5901    226.5949     56.7429   5.0511197086e+01   2.1572156108e+01     0.208049    0.1165235 -43.67  0.000948453    1.617    0.382
       196  -9.3141    131.4806     54.9692   6.7395879218e+01   4.5259932618e+01    0.2234752    0.1191605 -54.53 0.0008102148    2.654    0.623
       197  -9.1079    157.9776     61.7819   6.3494195632e+01   3.7698030963e+01    0.2943518     0.189297 -49.75  0.001275502    1.680    0.405
       198 -10.2265    219.9790     48.0930   4.9153750414e+01   2.4387676227e+01    0.4100491    0.1782356 -49.61  0.001614628    2.343    0.573
       199  -9.0924     95.5082     46.9936   7.4657891753e+01   5.4403616763e+01    0.2234647    0.1337581 -34.64  0.001040848    1.614    0.380
       200 -12.3911    233.5266     36.3168   4.4611338124e+01   2.2826424847e+01    0.8129126    0.3145804 -48.29  0.003286249    2.428    0.588
       201  -9.0091    125.4964     42.1302   6.4388722991e+01   4.8684681371e+01    0.2189645    0.1427183 -29.30  0.001022704    1.560    0.359
       202  -9.1637    168.6089     36.8577   5.3600265625e+01   3.8772512158e+01    0.2149907    0.1240569 -43.15 0.0009416246    1.775    0.437
       203  -8.9944    149.4739     34.0983   5.6237305725e+01   4.3982179501e+01    0.2088685    0.1435135 -28.28 0.0003747301    1.517    0.341
       204  -8.5567    173.6420     40.3043   5.3802802281e+01   3.7021366152e+01    0.1557695    0.1085253 -70.21 0.0007039483    1.721    0.419
       205 -10.0544    126.5095     31.0169   6.0092498543e+01   4.9996641664e+01    0.4321691    0.2245105 -47.61  0.001772167    2.405    0.584
       206  -9.4080     42.0808     27.6792   8.6924092203e+01   6.6191884152e+01    0.1695568    0.1378823  -8.59 0.0004355878    1.080    0.074
       207  -9.3473     30.3424     27.8408   9.2353958992e+01   6.7466059321e+01    0.2038024    0.1576299  -4.82 0.0009397073    1.219    0.180
       208  -8.6927      1.2459     27.0075   1.0626748921e+02   6.9790585734e+01    0.1452041    0.0741028 -54.27 0.0003587061    1.512    0.338
       209  -9.4624    187.1317    246.8958   9.8346530814e+01  -2.2835094603e+00    0.2400607    0.1575047 -28.12  0.001485504    1.852    0.460
       210  -8.4763    172.3174     24.6744   4.9227090207e+01   3.9361086271e+01    0.1495236    0.1019895 -65.55 0.0002854439    1.674    0.403
       211  -8.6477    118.4358     24.4621   5.9550067384e+01   5.2711817567e+01    0.1394631    0.1269741  27.73  9.10925e-05    1.013    0.012
       212  -9.3434    136.7982     24.7759   5.5567048044e+01   4.8291014733e+01    0.2349025     0.184553  -4.49 0.0004802454    1.409    0.290
       213  -9.1607     84.9563     21.6949   6.7770635750e+01   6.0227096250e+01    0.1821388    0.1618854  15.67   0.00058396    1.060    0.057
       214  -8.4915    155.5462     16.5180   4.9287490596e+01   4.4538660924e+01    0.1381395    0.1288498  74.44 0.0004929368    1.034    0.033
       215  -9.0281     23.5764     15.2865   9.0223299658e+01   7.0233061301e+01    0.1591942   0.08684149 -32.85 0.0004355403    1.482    0.325
       216  -8.9267      8.7473     14.9934   9.7889791335e+01   7.1516261696e+01    0.1420924   0.07610276 -45.51 0.0003432756    1.484    0.326
       217  -8.6207      2.5465     15.5660   1.0148934073e+02   7.1812105253e+01    0.1133485   0.08063314 -33.43 6.494453e-05    1.020    0.020
       218  -9.7742     29.9743     12.9156   8.5890662859e+01   6.9936018195e+01    0.1786711    0.1366188 -13.10 0.0003494404    1.027    0.026
       219  -8.5220     80.4602     12.4680   6.5100522131e+01   6.2210486949e+01    0.1266845    0.1142023   9.83  6.14111e-05    1.112    0.101
       220  -8.4942     89.3333     10.6587   6.1567651155e+01   6.0639812224e+01    0.1245839     0.102537 -62.12 0.0007051156    1.753    0.430
       221  -8.5533     38.7316     10.6714   8.0571264105e+01   6.9211232132e+01    0.1225692   0.07631088  -8.01 0.0002452406    1.578    0.366
       222  -8.8923    232.4945    247.0752   9.0347753135e+01  -8.9834027421e+00     0.148952    0.1040758 -25.81 0.0009865998    1.561    0.359
       223  -9.8483    147.3726    247.1128   1.0567729905e+02   3.8636421995e+00    0.2418466    0.1239244  51.32 0.0009067876    1.853    0.460
       224  -9.5543    250.2355    245.4088   8.7092477804e+01  -1.1205085842e+01    0.1860986    0.1328017 -13.01 0.0006678095    1.318    0.241
       225  -9.5630    202.4617    242.1494   9.4882306890e+01  -4.0046926971e+00    0.2349216    0.2022797 -76.05  0.001566368    1.985    0.496
       226  -8.8095    239.9717    240.0579   8.7963806852e+01  -9.2240117647e+00    0.1496616     0.136046  39.91 0.0006535223    1.657    0.397
       227  -9.5395    230.1785    236.5712   8.9091010195e+01  -7.4274540694e+00    0.2768115    0.1985123 -50.93  0.001419631    2.363    0.577
       228 -10.9027    204.0168    233.1086   9.3217243929e+01  -3.0496149762e+00     0.411756    0.3126151 -78.67 0.0005643344    2.921    0.658
       229 -10.4506    189.7029    234.2862   9.6040240250e+01  -9.5755408628e-01    0.2981722    0.2700411 -75.16  0.002042482    1.603    0.376
       230  -8.8295    243.8205    236.1286   8.6671502612e+01  -9.3063784538e+00    0.1606141    0.1374712  10.77 0.0007092408    1.269    0.212
       231  -9.4982    216.9732    234.5204   9.1095159199e+01  -5.2222993146e+00    0.2463079    0.1945312  20.38  0.001397479    1.025    0.025
       232  -9.8721    216.2602    229.7854   9.0461747408e+01  -4.5003827913e+00    0.3560154    0.1663805 -26.39  0.001734143    2.600    0.615
       233  -9.6806    235.4625    228.7122   8.6880173210e+01  -7.2355063240e+00    0.3184917    0.1747681 -36.59  0.001819655    2.049    0.512
