#   1 NUMBER                 Running object number                                     
#   2 MAG_AUTO               Kron-like elliptical aperture magnitude                    [mag]
#   3 X_IMAGE                Object position along x                                    [pixel]
#   4 Y_IMAGE                Object position along y                                    [pixel]
#   5 X_WORLD                Barycenter position along world x axis                     [deg]
#   6 Y_WORLD                Barycenter position along world y axis                     [deg]
#   7 A_WORLD                Profile RMS along major axis (world units)                 [deg]
#   8 B_WORLD                Profile RMS along minor axis (world units)                 [deg]
#   9 THETA_WORLD            Position angle (CCW/world-x)                               [deg]
#  10 FWHM_WORLD             FWHM assuming a gaussian core                              [deg]
#  11 ELONGATION             A_IMAGE/B_IMAGE                                           
#  12 ELLIPTICITY            1 - B_IMAGE/A_IMAGE                                       
         1 -12.2143    179.3609     19.1354   2.8983680844e+02   6.5107729412e+00   0.09357466   0.02767609 -60.05   0.00680439    3.082    0.676
         2 -16.3150    203.1561     59.7503   2.8980857256e+02   5.9040996764e+00    0.4571265    0.3150094  61.85    0.0473955    1.735    0.424
         3 -14.9039    248.5114      6.3418   2.8897266471e+02   6.2566125220e+00   0.06082303   0.02353123 -48.26  0.004881642    2.585    0.613
         4 -16.2628    247.6452     20.9048   2.8906973647e+02   6.0937954687e+00    0.1701817   0.06829759 -50.23  0.007118639    2.400    0.583
         5 -11.3403    135.0101     19.8599   2.9034694893e+02   6.7593899701e+00    0.0333773   0.01384839  36.00  0.002836613    2.324    0.570
         6 -10.4408    143.4410      7.8504   2.9017894687e+02   6.8491339901e+00   0.03135624   0.01740732 -49.90   0.00303329    1.758    0.431
         7  -9.3554    144.0000      3.0150   2.9014364708e+02   6.9016701090e+00   0.01675404  0.008507466 -58.99  0.001418198    1.873    0.466
         8 -16.0353    233.8917      9.2650   2.8915655562e+02   6.3079366631e+00    0.1979204   0.08673643 -43.30   0.01058626    2.551    0.608
         9 -10.1319    125.5919     14.6262   2.9042314302e+02   6.8742832415e+00   0.01572903   0.01386538 -68.40  0.001184739    1.128    0.114
        10 -11.6107    119.1684      9.9653   2.9046860067e+02   6.9652206378e+00   0.03268868   0.02510963  -3.67  0.002771388    1.526    0.345
        11  -8.4780    172.0066      3.7317   2.8982848446e+02   6.7310842433e+00   0.02362253  0.007478023 -61.64  0.001735457    3.006    0.667
        12  -8.8897    135.5201      5.5094   2.9025532876e+02   6.9220023348e+00    0.0115165   0.01052387 -49.19 0.0006513173    1.077    0.071
        13  -8.8064     79.9072      2.3083   2.9087120545e+02   7.2804290816e+00   0.01435568  0.008807817 -65.32  0.001105544    1.633    0.388
        14  -9.7380    228.9677    173.4797   2.9019365934e+02   4.4409989524e+00   0.01556388  0.007973723  45.98  0.001398379    2.130    0.530
        15 -10.4098    223.7570    171.9990   2.9024408226e+02   4.4882873698e+00   0.02177297   0.01373764  57.81  0.002130279    1.920    0.479
        16  -8.7247    218.3951    169.5929   2.9029071893e+02   4.5471418429e+00   0.01910941  0.006349031  45.72  0.001300848    3.712    0.731
        17 -11.4123     49.0906    168.7097   2.9221366269e+02   5.5350892093e+00   0.02433376   0.01906261 -13.66  0.001118815    1.481    0.325
        18 -12.0392     56.6833    163.1771   2.9209426623e+02   5.5553865912e+00   0.04307657   0.03778189  39.55  0.003075444    1.158    0.137
        19 -11.8319     61.8046    158.6643   2.9200908622e+02   5.5780990400e+00   0.03631206   0.02900805  76.34  0.001756577    1.427    0.299
        20  -8.8057     36.4884    163.5215   2.9232657575e+02   5.6676090689e+00  0.006522402   0.00632359 -45.53  0.000132227    1.023    0.022
        21  -8.9736     62.2425    247.6117   2.9253132915e+02   4.5465671521e+00   0.01161199   0.00942216 -44.55 0.0004350123    1.235    0.190
        22  -8.3426     40.0836    226.1446   2.9265661969e+02   4.9223939802e+00  0.009924461  0.008447333 -31.33 0.0003154658    1.236    0.191
        23 -10.2879      1.5814    196.3224   2.9291885486e+02   5.4886606560e+00   0.01903293  0.006318518 -63.59  0.001400177    3.000    0.667
        24 -14.2022    249.5361     26.5098   2.8908178291e+02   6.0181833825e+00    0.0323183   0.01558268 -62.09  0.001318396    2.019    0.505
        25  -9.4724    140.3907    104.8714   2.9079307600e+02   5.7465308375e+00   0.01083362  0.008930789  46.05 0.0004622189    1.250    0.200
        26 -10.9891      5.1069    207.1320   2.9294261849e+02   5.3433407510e+00    0.0301978   0.01856641  39.06  0.003074275    1.637    0.389
        27  -9.8230    133.1234     97.0416   2.9082923863e+02   5.8790293474e+00   0.01200268  0.009917625  65.65 0.0004849371    1.330    0.248
        28 -10.0696    124.9445    102.8930   2.9095736824e+02   5.8586882528e+00   0.02003341  0.008307143  37.19   0.00168907    2.343    0.573
        29 -11.3054     69.3647    146.0661   2.9184805516e+02   5.6802650353e+00   0.04238373    0.0315599  71.79  0.003331288    1.599    0.375
        30  -9.3845    133.7041    147.2758   2.9112187559e+02   5.2950418204e+00   0.02341178  0.009280733 -70.95  0.001715487    3.212    0.689
        31  -9.2217    128.8446    141.9286   2.9114541744e+02   5.3849374945e+00   0.01017477  0.009293678  19.36 0.0003220727    1.127    0.113
        32  -9.8224    146.3878    100.6000   2.9069925293e+02   5.7612024626e+00    0.0140275    0.0123288 -13.22 0.0008832938    1.229    0.186
        33 -10.6424    162.6808     95.1862   2.9048128424e+02   5.7294673776e+00    0.0177255   0.01252223 -14.49  0.001831401    1.780    0.438
        34 -11.5886    169.0233     85.5530   2.9035152497e+02   5.8040190444e+00   0.03505752   0.02007445 -46.82  0.003038314    1.756    0.431
        35 -10.7975    155.5779     94.3104   2.9055700005e+02   5.7806969246e+00   0.02026896   0.01377198 -12.11  0.002026211    1.927    0.481
        36 -10.7276    221.3112    133.3521   2.9004146187e+02   4.9489310474e+00   0.02953918   0.01105765 -59.49  0.002382617    2.482    0.597
        37  -9.7506    139.3643     90.5223   2.9071921169e+02   5.9182668882e+00    0.0136937   0.01285296  69.28 0.0006065253    1.103    0.094
        38 -10.7434    152.5708     84.5294   2.9053291394e+02   5.9110918799e+00   0.01635628   0.01299435 -74.57 0.0006999341    1.306    0.234
        39 -10.4302    159.6567     83.4999   2.9044600917e+02   5.8819686486e+00   0.02065635   0.01255333 -51.49  0.002086911    1.593    0.372
        40  -8.7032    125.0074     75.6905   2.9079445151e+02   6.1726358778e+00  0.009279981  0.008490009  35.90 0.0004273362    1.110    0.099
        41 -11.0541    216.6341    130.3914   2.9007700863e+02   5.0102390214e+00   0.01878562   0.01299819  51.92 0.0008540183    1.585    0.369
        42 -11.7260    211.2142    135.2498   2.9016765823e+02   4.9855245575e+00   0.03271666   0.02147205  31.97  0.003444316    1.525    0.344
        43 -10.7893    149.5032     62.4771   2.9043624958e+02   6.1835440045e+00   0.02018471   0.00985123 -70.28  0.001260627    2.307    0.567
        44 -10.8487    181.9422    135.4728   2.9050215835e+02   5.1524826741e+00   0.01619056   0.01241403 -72.16   0.00142701    1.344    0.256
        45  -9.8738    155.1639     66.5872   2.9039625525e+02   6.1033097807e+00   0.01336218  0.008947589 -53.56  0.001409565    1.441    0.306
        46  -9.7554     99.9010     62.6516   2.9100310689e+02   6.4683287106e+00   0.01538665   0.00861708  11.21  0.001374876    2.310    0.567
        47 -10.8866    116.1283     60.1949   2.9080328592e+02   6.4029512293e+00   0.02692963   0.01437236 -44.11  0.002500163    1.968    0.492
        48 -10.7980    135.0534    128.1714   2.9099274950e+02   5.5080961204e+00   0.02771905    0.0119604 -64.07  0.002335035    2.322    0.569
        49 -10.9706    113.7777     53.9010   2.9079254631e+02   6.4892265761e+00   0.02450333   0.01338854  14.10  0.002202104    2.275    0.561
        50  -8.1091     71.6740     47.7977   2.9123675135e+02   6.8028041964e+00   0.00949604  0.006082131 -76.28 0.0007767098    1.761    0.432
        51 -10.8062    160.1404    128.5088   2.9070893208e+02   5.3591317396e+00    0.0185485   0.01409784 -62.38   0.00208793    1.288    0.224
        52 -11.1201    128.7172     22.4615   2.9043430630e+02   6.7657875915e+00   0.02827713   0.01243563  38.45  0.002450515    2.244    0.554
        53  -8.7488    124.0168    206.0002   2.9158134112e+02   4.6719137722e+00  0.009030415   0.00892774 -81.23            0    1.016    0.016
        54 -10.1833    135.2557     16.5618   2.9032443182e+02   6.7960245804e+00   0.01556834    0.0108923  14.36  0.001446392    1.593    0.372
        55  -8.8987    159.7548     17.1516   2.9004848404e+02   6.6473258779e+00   0.01327575  0.009142341 -39.88  0.001086581    1.536    0.349
        56  -8.7924    125.9632    126.8017   2.9108819136e+02   5.5764581259e+00   0.01093133  0.008979364 -61.65 0.0002992012    1.190    0.160
        57  -9.8598    183.6104    195.3553   2.9083979672e+02   4.4507147586e+00   0.01115587   0.01086002  71.41 0.0002669362    1.046    0.044
        58  -9.0846    192.2040    193.6097   2.9073164650e+02   4.4211879036e+00   0.01398373  0.007297757  78.57 0.0009467896    4.215    0.763
        59 -12.7396     21.1990    187.3425   2.9264208353e+02   5.4799057944e+00   0.04457527   0.04370569 -56.13  0.003810992    1.004    0.004
        60  -8.4811    223.9414    192.2758   2.9036278074e+02   4.2529372816e+00  0.008983211  0.008738522  33.43 0.0008270615    1.047    0.045
        61 -10.8900      3.5275    188.1728   2.9284844554e+02   5.5717903831e+00   0.02438611   0.01519704 -75.81  0.002406697    1.811    0.448
        62 -10.3114    176.0405    115.7797   2.9045193889e+02   5.4142015028e+00   0.01404122   0.01098649 -76.96  0.000838814    1.350    0.259
        63  -9.8479    215.8579    182.8951   2.9039882239e+02   4.4081288978e+00   0.01053921  0.008852087 -29.44 0.0008147488    1.268    0.211
        64 -10.4403    221.4735    177.4193   2.9030234504e+02   4.4388861533e+00   0.02152974   0.01253143  35.43  0.002134973    1.704    0.413
        65 -11.1734    168.5047    114.4756   2.9052999457e+02   5.4728949206e+00   0.02096902   0.01808408  62.22 0.0007190895    1.239    0.193
        66 -10.7742    134.8624    111.2994   2.9089440452e+02   5.7042101761e+00   0.03801442  0.007726587 -61.30  0.002312404    4.386    0.772
