#   1 NUMBER                 Running object number                                     
#   2 MAG_AUTO               Kron-like elliptical aperture magnitude                    [mag]
#   3 X_IMAGE                Object position along x                                    [pixel]
#   4 Y_IMAGE                Object position along y                                    [pixel]
#   5 X_WORLD                Barycenter position along world x axis                     [deg]
#   6 Y_WORLD                Barycenter position along world y axis                     [deg]
#   7 A_WORLD                Profile RMS along major axis (world units)                 [deg]
#   8 B_WORLD                Profile RMS along minor axis (world units)                 [deg]
#   9 THETA_WORLD            Position angle (CCW/world-x)                               [deg]
#  10 FWHM_WORLD             FWHM assuming a gaussian core                              [deg]
#  11 ELONGATION             A_IMAGE/B_IMAGE                                           
#  12 ELLIPTICITY            1 - B_IMAGE/A_IMAGE                                       
         1  -8.9024     19.4004     19.6558   2.9179274058e+02   7.4386213276e+00     0.018507  0.008988696 -56.60 0.0008485395    2.014    0.503
         2  -8.2739     96.8116     16.8760   2.9085971911e+02   6.9981570732e+00   0.01755081  0.008778537   5.87  0.001272684    3.421    0.708
         3  -7.7861    188.9983     14.6494   2.8975690267e+02   6.4585375504e+00   0.01181237   0.00699487 -61.78   0.00114076    1.725    0.420
         4  -8.5135    146.2385     14.3116   2.9025977417e+02   6.7248451338e+00     0.010798  0.009500196 -13.00 0.0004216493    1.207    0.171
         5  -9.3555     79.9059     12.1191   2.9103062798e+02   7.1559658476e+00   0.02794709    0.0157329  83.46  0.002104535    3.234    0.691
         6 -10.2360     50.3772     11.7155   2.9137759324e+02   7.3408388787e+00   0.01726878   0.01348314  67.03  0.001892685    1.482    0.325
         7  -9.3346     74.6544     16.3395   2.9111853506e+02   7.1397167538e+00   0.01514425   0.01385657  51.35  0.001035564    1.117    0.104
         8  -9.2576     40.4440      7.6207   2.9147018435e+02   7.4482908253e+00   0.01575001  0.009526211  43.72  0.000971875    1.685    0.406
         9  -7.5072    155.5171      7.4284   2.9010804621e+02   6.7467185121e+00  0.006689411  0.006336104  -9.17 0.0001374024    1.073    0.068
        10  -9.7317     14.2503      3.1477   2.9175305497e+02   7.6590219636e+00    0.0251156   0.01308905 -42.99  0.002248176    2.094    0.522
        11  -8.1308     57.3030      5.7332   2.9125909543e+02   7.3670937793e+00   0.01038102  0.006552244  31.85 0.0001821988    1.523    0.343
        12 -10.5127     60.0853      2.8553   2.9120858896e+02   7.3830651051e+00   0.01213247   0.01157147  45.16 0.0002614219    1.053    0.051
        13  -8.8238    106.0571      3.8397   2.9067070140e+02   7.0908494561e+00   0.01176373  0.006830248  51.01 0.0005872909    1.963    0.491
        14  -7.6394      6.3675      6.3109   2.9186570852e+02   7.6707473999e+00  0.007196116  0.004990538 -22.18 6.618557e-05    1.763    0.433
        15  -8.4739     75.4865      3.5218   2.9103039574e+02   7.2813991129e+00  0.006617679  0.006466524  14.25 0.0001827413    1.005    0.005
        16  -7.7819    115.8171      1.3627   2.9054014155e+02   7.0594602746e+00  0.009400649  0.006318551  14.07 0.0009381156    1.633    0.388
        17  -8.3016     39.4995      1.7375   2.9144545666e+02   7.5214112830e+00   0.01234864  0.005694846  27.37 0.0007778687    2.122    0.529
        18  -8.0867    154.1888    240.6180   2.9154526576e+02   4.0816832560e+00  0.009488634  0.006366717  11.75 0.0005836555    1.678    0.404
        19  -8.7681    248.5972    250.2576   2.9049254927e+02   3.3934422807e+00   0.01749562   0.01010672  19.63  0.001639843    1.858    0.462
        20  -9.3059    248.7818    246.0401   2.9046471821e+02   3.4406411822e+00   0.01284826  0.008549084 -48.36  0.000792229    1.523    0.344
        21 -10.1493    233.7292    249.5875   2.9066335402e+02   3.4921707074e+00   0.02086013   0.01272541  14.59  0.001986932    1.862    0.463
        22  -8.9429    226.4359    250.1730   2.9075271778e+02   3.5301149933e+00   0.01134231  0.008812824  12.40 0.0005901409    1.359    0.264
        23 -10.1449    211.9418    245.8774   2.9089715936e+02   3.6680842397e+00   0.01526864   0.01175719  16.35  0.001090891    1.342    0.255
        24  -8.7623    183.5323    249.4854   2.9125352113e+02   3.8005505703e+00   0.01328739   0.01047186  -7.56 0.0008647497    1.443    0.307
        25  -8.5521    180.5407    249.4891   2.9128876924e+02   3.8188058436e+00   0.01179218  0.007992531 -35.25 0.0008375227    1.652    0.395
        26  -8.3894    152.9059    250.5318   2.9162056190e+02   3.9758029889e+00   0.01012058  0.006491615  26.50 0.0005501428    1.534    0.348
        27  -8.0713    148.8313    250.1914   2.9166649345e+02   4.0046083954e+00  0.009648338  0.007813486 -20.25  0.001071353    1.370    0.270
        28  -7.3670     25.6688    250.3086   2.9311886341e+02   4.7542032795e+00   0.00707012  0.004954271  59.53 0.0004252671    1.666    0.400
        29  -9.2781    248.0684    237.9869   2.9042410215e+02   3.5372958337e+00   0.01545772   0.00720045 -46.55  0.001313645    2.244    0.554
        30  -7.8903    234.3184    239.3058   2.9059387838e+02   3.6064054501e+00   0.00696809  0.005032779 -24.08 0.0004957598    1.631    0.387
        31  -9.8642    202.1150    249.1720   2.9103284907e+02   3.6904556400e+00   0.01857548   0.01216604  -2.46  0.001598584    2.000    0.500
        32  -8.3267    186.9689    239.3106   2.9115123309e+02   3.8962075111e+00  0.009475001  0.008603549  16.86  0.000462343    1.095    0.087
        33 -10.0216    188.8320    233.2160   2.9109224919e+02   3.9546987336e+00    0.0306591   0.01656625 -64.58  0.002836769    1.947    0.486
        34  -7.5361     78.3217    238.3188   2.9242549727e+02   4.5712301048e+00  0.007054882  0.005010498 -25.09 0.0002446386    1.668    0.400
        35  -8.0856    194.8462    236.8997   2.9104382611e+02   3.8756522103e+00   0.01036892  0.008686151 -32.55 0.0006164861    1.259    0.206
        36  -8.8716    159.8174    235.4866   2.9144779326e+02   4.1061345569e+00   0.01554274   0.01027175  -5.59  0.001481666    1.995    0.499
        37  -7.5588    244.0306    235.0215   2.9045355073e+02   3.5960159809e+00  0.007878109  0.007683419  18.85 0.0004544412    1.004    0.004
        38  -7.3884    216.6727    235.6450   2.9077925456e+02   3.7564287751e+00  0.007269811  0.004942661 -26.76 0.0007045919    1.774    0.436
        39  -9.0375    178.3841    234.9915   2.9122608381e+02   3.9982621291e+00   0.01775109    0.0107946  37.03  0.001478245    1.588    0.370
        40  -7.6068    204.5335    234.5045   2.9091521035e+02   3.8438239120e+00  0.006705473  0.006386079 -15.13 6.371448e-05    1.066    0.062
        41  -8.2684    130.7638    234.4543   2.9178386908e+02   4.2955386164e+00  0.008997119  0.006478644   9.69 0.0005030797    1.541    0.351
        42  -8.2074    248.9404    233.0136   2.9038357530e+02   3.5889468160e+00   0.01085144  0.007701953 -26.90 0.0005374993    1.650    0.394
        43  -7.6640    170.9865    232.9697   2.9130093147e+02   4.0667008171e+00   0.00807035  0.007586216  24.46 0.0004529131    1.042    0.040
        44  -7.6213    100.4291    233.5252   2.9213580040e+02   4.4914072576e+00  0.006560575  0.006470935   9.40  0.000217566    1.010    0.009
        45  -7.6756    153.4957    232.4891   2.9150406682e+02   4.1791685458e+00  0.006640987   0.00646651   0.61 0.0001006821    1.024    0.023
        46  -7.0261    213.3156    231.3108   2.9079240598e+02   3.8266730297e+00   0.00698465  0.005025639 -24.71 0.0007032129    1.636    0.389
        47  -7.9269    134.5164    231.5146   2.9172179986e+02   4.3063412071e+00  0.006673786  0.006427903  -9.56 7.457599e-05    1.047    0.044
        48  -8.7001    241.7150    229.8752   2.9044946873e+02   3.6691824345e+00   0.01071741  0.007641437 -41.89 0.0006239454    1.470    0.320
        49  -7.7429    151.8165    227.7657   2.9149516371e+02   4.2436199564e+00   0.01148353  0.006408609 -25.06 0.0009328024    2.694    0.629
        50  -7.3461     91.4488    233.5268   2.9224168498e+02   4.5461767960e+00  0.006613501  0.006447328  40.52 0.0001355429    1.026    0.026
        51  -7.2264    196.2600    227.6673   2.9097104425e+02   3.9728664196e+00  0.006727924  0.005075764  67.77 0.0005469402    1.571    0.364
        52  -8.0506    115.5028    231.4207   2.9194533731e+02   4.4235496610e+00  0.006647047   0.00637837   0.17 0.0001550846    1.045    0.043
        53  -7.8895    109.3229    227.2931   2.9199314960e+02   4.5086434651e+00  0.006916207  0.005046885 -22.70 0.0003234976    1.614    0.380
        54  -8.0969    184.6282    226.1898   2.9109904245e+02   4.0609992329e+00  0.009488558  0.005915032 -50.53 0.0008230914    1.609    0.379
        55  -7.9353    167.9609    225.0731   2.9128858607e+02   4.1757800462e+00   0.01065187  0.007738417 -24.41 0.0005586875    1.613    0.380
        56  -7.4073    218.3358    224.3062   2.9069069709e+02   3.8762341740e+00  0.007046138  0.005033687 -23.06 0.0003962068    1.671    0.402
        57  -8.8883    184.3948    234.8092   2.9115418774e+02   3.9635788622e+00   0.01144429   0.00895478 -28.13 0.0008107341    1.410    0.291
        58  -8.1419    127.6895    224.3707   2.9175889839e+02   4.4300162123e+00   0.01128692  0.008396098  11.07 0.0006662175    1.455    0.313
        59  -7.8434    249.3498    222.9161   2.9031728577e+02   3.7021543038e+00  0.009805397  0.005643967 -49.24  0.000499825    1.752    0.429
        60  -8.0318    206.9188    221.8431   2.9081011594e+02   3.9743910053e+00   0.01051376  0.008894598 -24.43 0.0007067827    1.269    0.212
        61  -7.5947    174.9961    221.4922   2.9118394010e+02   4.1738142642e+00  0.009196367  0.005723953  -8.44 0.0004890409    2.307    0.566
        62  -7.5587     92.6641    221.2791   2.9215309334e+02   4.6793262057e+00  0.006978454  0.004916894  56.86 0.0003231304    1.613    0.380
        63  -7.8351    242.5972    220.1235   2.9037972335e+02   3.7755409259e+00  0.009640339  0.005761867 -47.35 0.0008665671    1.710    0.415
        64  -7.5224    225.6348    218.6942   2.9057063081e+02   3.8958587028e+00  0.007164902  0.005018226 -21.69   0.00070371    1.744    0.426
        65  -7.5049    194.6648    218.6574   2.9093503178e+02   4.0859476883e+00   0.00724196  0.004968479 -25.70 0.0007050413    1.762    0.432
        66  -7.8998    170.4665    217.7497   2.9121455254e+02   4.2444519077e+00  0.009574363  0.005938156 -47.51 0.0009374573    1.645    0.392
        67  -7.8057    150.9085    216.3856   2.9143672568e+02   4.3797211508e+00  0.009025515  0.006329997   9.31 0.0003720486    1.609    0.378
        68  -7.7281    248.6008    215.1895   2.9027904437e+02   3.7952917695e+00  0.009258528   0.00597779 -49.07 0.0004597295    1.565    0.361
        69  -7.6122    211.5141    215.5059   2.9071745141e+02   4.0189086683e+00  0.006656872  0.006449289  -5.79 0.0008102431    1.035    0.034
        70  -7.8571    204.7048    215.4509   2.9079729222e+02   4.0612420020e+00  0.008738731  0.006475388  10.03 0.0004739116    1.475    0.322
        71  -7.9300    180.3444    215.3112   2.9108335339e+02   4.2119769413e+00  0.007112122  0.005023476 -23.08 0.0004706717    1.704    0.413
        72  -7.8469    144.4698    215.0553   2.9150453017e+02   4.4343486488e+00  0.009748309  0.006614686 -62.02 0.0004895722    1.506    0.336
        73  -8.0635    112.2836    212.3826   2.9186775315e+02   4.6616709263e+00  0.007202274   0.00486132 -30.90 0.0007010059    1.731    0.422
        74  -8.4215    187.2086    210.1881   2.9097133178e+02   4.2287163804e+00   0.01599855  0.009815227 -20.92  0.001431536    2.282    0.562
        75  -8.1312    170.6118    210.6607   2.9116973802e+02   4.3248737057e+00    0.0102901  0.007368452 -29.29 0.0007737225    1.601    0.375
        76  -7.4408    155.2987    211.7116   2.9135657914e+02   4.4064941470e+00  0.006798695  0.004999382  59.92 0.0002497451    1.556    0.358
        77  -8.0025    100.2699    210.7102   2.9199927727e+02   4.7542065758e+00   0.01352169  0.008102003  -4.11  0.001160437    2.474    0.596
        78  -7.6422    107.8101    209.3824   2.9190229437e+02   4.7234152830e+00  0.009276302  0.006369856  12.26 0.0006098076    1.614    0.380
        79  -7.6775     77.9867    209.4401   2.9225440397e+02   4.9047305960e+00  0.009909349  0.006438315  27.19  0.000440482    1.508    0.337
        80  -7.4103    119.7448    215.3217   2.9179762059e+02   4.5823767645e+00  0.006653094  0.005071404  67.63 0.0002540156    1.542    0.352
        81  -7.5418    163.4879    207.4375   2.9123408485e+02   4.4054304011e+00  0.006670147   0.00638698  -6.23 0.0001025472    1.053    0.051
        82  -8.3808    247.8346    205.8741   2.9023131560e+02   3.9067454192e+00   0.01059854  0.008989305 -22.77 0.0007561518    1.268    0.212
        83  -7.3274    213.5416    206.4428   2.9063841373e+02   4.1103969262e+00  0.006674145  0.006368602 -11.18 0.0001436339    1.062    0.058
        84  -9.3358    123.9936    206.0003   2.9169091724e+02   4.6633811748e+00  0.009417025  0.009131506  31.65  0.001163377    1.017    0.017
        85  -8.0167    139.7635    205.1401   2.9149975817e+02   4.5768735594e+00  0.009608834  0.007619679 -28.50 0.0007137778    1.380    0.275
        86  -7.8383     87.8496    204.4085   2.9210753481e+02   4.9023215072e+00  0.009525367    0.0063811   8.57 0.0009346835    1.739    0.425
        87  -8.0764    175.4252    202.2111   2.9106163090e+02   4.3923313214e+00  0.009076112  0.006590923 -79.59 0.0005665771    1.591    0.372
        88  -7.6072     97.8025    202.2063   2.9197676540e+02   4.8668607127e+00   0.01068806  0.005445388  14.06 0.0008680925    2.502    0.600
        89  -8.6192    250.5564    197.7892   2.9015002993e+02   3.9827111771e+00   0.01413585  0.005741179 -54.61  0.001154023    2.361    0.576
        90  -8.3946    243.5624    197.3130   2.9022942645e+02   4.0310553292e+00    0.0173193   0.00692648 -50.67  0.001395647    2.459    0.593
        91  -8.4913    230.3705    198.0685   2.9038929236e+02   4.1032703608e+00   0.01450738  0.009441598   4.68 0.0008256694    1.907    0.476
        92  -8.0219    150.9577    198.3171   2.9132631730e+02   4.5867006561e+00  0.009629106  0.008177218  18.23 0.0005196247    1.181    0.153
        93  -8.5019    202.7103    195.5469   2.9069963030e+02   4.3016795018e+00   0.01740643  0.008491003 -38.81  0.001433627    2.511    0.602
        94  -7.5505    181.3135    195.3096   2.9095025553e+02   4.4354397562e+00  0.006969755  0.005027491 -24.77 0.0007028815    1.629    0.386
        95  -7.1880    195.7016    194.2996   2.9077459308e+02   4.3589131805e+00  0.006841218   0.00501621  61.03  0.000456638    1.577    0.366
        96  -7.8178    232.5146    190.0288   2.9031507205e+02   4.1822810246e+00   0.01017015  0.006560147 -59.94 0.0007831315    1.566    0.361
        97  -7.2806    224.7104    195.6508   2.9044119692e+02   4.1656791800e+00  0.007072348  0.004943626 -29.10  0.000702608    1.665    0.399
        98  -7.2413    191.3698    189.3082   2.9079523868e+02   4.4426824946e+00  0.007197442   0.00501082 -21.76  0.000703493    1.762    0.432
        99  -8.1402    243.5219    187.4339   2.9016969747e+02   4.1445245419e+00   0.01189172  0.005516489 -49.64 0.0005071409    2.159    0.537
       100  -7.7774    173.3763    187.7725   2.9099792068e+02   4.5704742659e+00  0.009064917  0.006072584 -51.61 0.0003746029    1.496    0.332
       101  -7.4357    138.3084    188.7075   2.9141702532e+02   4.7742992021e+00  0.006875108  0.004990298  59.60 0.0003103087    1.583    0.368
       102  -8.1595    238.1183    185.1249   2.9021922481e+02   4.2041272585e+00   0.01435631  0.006911521 -38.95  0.001167085    2.554    0.608
       103  -8.8110    230.2867    184.8757   2.9030989797e+02   4.2550073903e+00   0.01199073  0.009599679  14.73 0.0003801844    1.290    0.225
       104  -8.5651    250.0443    182.3960   2.9006222811e+02   4.1622540545e+00   0.01247517  0.008772875 -39.81 0.0005560729    1.516    0.340
       105  -7.4672    190.2884    183.3395   2.9077163729e+02   4.5177514138e+00  0.007018265  0.004960963 -28.74  0.000252076    1.640    0.390
       106  -7.3924    217.6898    181.6767   2.9043872874e+02   4.3689080443e+00  0.007030203  0.005005958 -26.01 0.0007037868    1.652    0.395
       107  -7.4260    199.6428    180.7047   2.9064537795e+02   4.4906556946e+00  0.007073484  0.005039989 -21.01 0.0007032604    1.697    0.411
       108  -7.9058    182.6425    180.2318   2.9084281203e+02   4.6002190630e+00  0.009595654  0.005805303 -50.18 0.0005317925    1.660    0.397
       109  -8.2530    242.3896    176.3839   2.9011566380e+02   4.2781092793e+00   0.01339481  0.005848146 -55.60   0.00112891    2.214    0.548
       110  -9.3609    246.2004    167.1765   2.9001466047e+02   4.3602451290e+00    0.0140553   0.01055096  16.78 0.0005349833    1.383    0.277
       111  -7.9058    237.2742    167.0239   2.9011880709e+02   4.4167608117e+00  0.009187419  0.008682338 -30.68 0.0004903074    1.077    0.071
       112  -7.7629    160.4737    163.4654   2.9100205511e+02   4.9282490517e+00  0.006682597  0.006402849 -11.07 0.0002095388    1.055    0.052
       113  -7.7303    187.6399    154.6758   2.9062822977e+02   4.8626566531e+00  0.007247571  0.004991718 -23.35 0.0007042977    1.780    0.438
       114  -8.4254     65.1911    141.9873   2.9199591882e+02   5.7569033930e+00   0.01120071   0.00753731  77.17  0.001069117    2.018    0.505
       115  -7.7978    248.3227    134.1880   2.8978837457e+02   4.7252059061e+00   0.01403137  0.005106432 -53.68  0.001088246    2.606    0.616
       116  -7.9656    241.5273    132.4561   2.8985781037e+02   4.7867759695e+00   0.01249257  0.005353843 -49.77   0.00102785    2.329    0.571
       117  -8.2383    232.1924    128.3284   2.8994254753e+02   4.8913856731e+00   0.01378068  0.008042539 -37.76  0.001275623    1.974    0.493
       118  -8.0450    193.0304    126.7583   2.9039445023e+02   5.1496727296e+00  0.009011343  0.005527042  28.31 0.0008775726    1.587    0.370
       119  -7.5779    240.3078    122.3493   2.8981046105e+02   4.9100594364e+00  0.007151351  0.004957608 -27.66 0.0005695085    1.708    0.414
       120  -7.9774    248.0036    116.9904   2.8968710775e+02   4.9241781310e+00   0.01134615   0.00765432 -30.11  0.001126353    1.748    0.428
       121  -8.5122    219.7212    113.4492   2.8999862479e+02   5.1384362574e+00    0.0185292  0.009884383  11.37  0.001550494    2.482    0.597
       122  -7.6880    133.3548    107.3197   2.9097993399e+02   5.7381382356e+00  0.007200893  0.005002431 -23.26 0.0002870651    1.753    0.429
       123  -8.7192      4.8737    106.6577   2.9249407362e+02   6.5295351999e+00   0.01057273  0.008227488  -0.23 0.0006602646    1.444    0.308
       124  -8.0124    190.3941    105.7718   2.9029746159e+02   5.4063837033e+00   0.01006336  0.005843884 -49.97 0.0009583784    1.729    0.422
       125  -7.8458    241.7828    105.4436   2.8968982514e+02   5.0946601877e+00  0.009238816  0.006458555   9.38  0.000474456    1.620    0.383
       126  -8.0887     22.7095     91.8950   2.9219344780e+02   6.5904060875e+00  0.009058888  0.008498009 -66.36 0.0003912631    1.097    0.088
       127  -7.6351    242.3074     91.3807   2.8959770665e+02   5.2525030525e+00  0.007296195  0.004885367 -28.90 0.0006940291    1.789    0.441
       128  -9.2894      2.8552     90.7470   2.9242127870e+02   6.7243238924e+00   0.01323144  0.008698258  75.11  0.001243042    2.110    0.526
       129  -7.5223    212.3074     84.6783   2.8991025628e+02   5.5135742544e+00  0.006983042  0.005018514  62.15 0.0004662866    1.642    0.391
       130  -9.1100      2.8783     80.7098   2.9235999515e+02   6.8393046335e+00   0.01178171  0.008674911 -49.07 0.0003500451    1.372    0.271
       131  -8.2916    184.1661     77.8405   2.9020034956e+02   5.7646502825e+00   0.01002232  0.009176975  65.78 0.0006284386    1.154    0.133
       132  -8.0388    167.9779     75.5065   2.9037710721e+02   5.8906866496e+00  0.009513306   0.00576137  -6.63 0.0008093651    2.458    0.593
       133  -7.4737    102.5944     70.1484   2.9111658052e+02   6.3524577500e+00  0.009444145  0.005925392 -48.71 0.0005709179    1.613    0.380
       134  -8.1269     36.3713     67.8230   2.9188538789e+02   6.7832787008e+00  0.009446062   0.00592612 -50.80 0.0005866793    1.597    0.374
       135  -7.8007     24.5795     61.0272   2.9198350613e+02   6.9329941092e+00  0.009964432  0.006572851 -63.61 0.0003696297    1.565    0.361
       136  -8.4455      1.3878     59.2055   2.9224684270e+02   7.0949436471e+00  0.009094481  0.006486189 -79.83 0.0003537135    1.636    0.389
       137  -7.1670    105.3301     56.2905   2.9099969608e+02   6.4945545134e+00  0.006930027  0.005048931 -21.87 0.0002859675    1.624    0.384
       138  -9.0633     33.0519     57.6289   2.9186257311e+02   6.9203643967e+00    0.0113511  0.009371377 -49.83 0.0003796075    1.224    0.183
       139  -7.6931    170.3063     53.3658   2.9021434707e+02   6.1300482902e+00  0.007224276  0.004918769 -28.47 0.0007036985    1.746    0.427
       140  -8.7895     95.0169     52.6079   2.9109912718e+02   6.5998118473e+00   0.01208329  0.009989755 -69.91 0.0005832366    1.273    0.214
       141  -8.1701     44.1442     51.8142   2.9169591774e+02   6.9194343292e+00  0.009996885  0.008585312  50.83 0.0003192374    1.201    0.167
       142  -9.4036     95.7996     45.3815   2.9104576885e+02   6.6778316434e+00   0.01487431   0.01330393 -43.48  0.001372018    1.136    0.120
       143  -7.6089     74.4103     45.5044   2.9129943883e+02   6.8071077205e+00  0.006675575  0.006312035 -23.68 0.0001238232    1.077    0.072
       144  -7.5534     54.4673     44.4539   2.9152892504e+02   6.9408489700e+00  0.006607667  0.006446654  24.87 9.650514e-05    1.007    0.007
       145  -7.4959      5.0094     44.3424   2.9211351579e+02   7.2433008439e+00   0.01198078  0.003450241  45.20 0.0007050895    4.456    0.776
       146  -8.2451     76.9955     39.9989   2.9123527273e+02   6.8544044157e+00   0.01000827  0.009636941  -5.24 0.0004612559    1.043    0.041
       147  -7.6632     41.4254     39.8215   2.9165498710e+02   7.0734444531e+00  0.009410359  0.005989859 -48.83 0.0006080017    1.588    0.370
       148  -8.5558     21.1181     40.0569   2.9189674682e+02   7.1944252170e+00  0.009769071  0.009381623  58.60 0.0003804541    1.069    0.065
       149  -9.5565     52.0132     38.4764   2.9152150846e+02   7.0243117917e+00    0.0115609   0.00960171 -60.24 0.0002357937    1.226    0.184
       150  -7.6809    185.5284     37.5299   2.8993785914e+02   6.2179633965e+00  0.006664302  0.006413295  45.40 8.488006e-05    1.044    0.042
       151  -7.9390     92.4064     36.5212   2.9103179909e+02   6.8000860537e+00   0.01016795  0.007774942 -27.73 0.0005700423    1.461    0.315
       152  -8.4269     95.0549     33.6735   2.9098309527e+02   6.8165169403e+00   0.01073123  0.008792361 -40.69 0.0003449037    1.260    0.206
       153  -7.2715     73.3328     37.3296   2.9126230521e+02   6.9073538768e+00  0.007159236  0.004988275 -25.05 0.0007051966    1.721    0.419
       154  -7.4448    124.7326     34.6804   2.9063842245e+02   6.6233959564e+00  0.006810949  0.004958354 -29.52 0.0003425825    1.559    0.358
       155  -8.7146     18.0062     32.4836   2.9188743586e+02   7.3001445853e+00   0.01016006  0.006428903  28.57 0.0005548684    1.536    0.349
       156  -8.8159      4.5349     34.0038   2.9205617376e+02   7.3646638002e+00    0.0198578  0.008744746  14.52  0.001437486    3.268    0.694
       157 -10.4547      8.9359     32.4200   2.9199442375e+02   7.3560523137e+00   0.02709927   0.02344538  65.11  0.003183805    1.255    0.203
       158  -9.0435      9.5919     27.4813   2.9195656686e+02   7.4086479166e+00   0.01049448  0.008764715   9.00 -0.0001580472    1.249    0.199
       159  -9.0961     21.4053     31.3526   2.9184030611e+02   7.2924167936e+00   0.01744265   0.01085998  89.93  0.001103942    2.299    0.565
       160  -7.7014    164.2810     31.6471   2.9015269542e+02   6.4157253122e+00  0.006937535  0.005055746  66.39 0.0007014524    1.655    0.396
       161  -7.9130    162.5931     28.1784   2.9015141382e+02   6.4657943417e+00  0.009513821  0.005975815 -49.53 0.0004803428    1.605    0.377
       162  -8.8115     91.5090     25.0290   2.9097223524e+02   6.9372113151e+00   0.01196971  0.009580771  26.16 0.0003809591    1.225    0.184
       163  -9.0837      3.3051     23.8018   2.9200858571e+02   7.4890293648e+00   0.01672517    0.0109783  66.87   0.00160161    2.008    0.502
       164  -7.7599    144.7819     23.6124   2.9033386640e+02   6.6273003460e+00  0.009255571  0.005882927  38.51 0.0003370755    1.533    0.348
       165  -7.7375    137.0506     21.9796   2.9041522830e+02   6.6933813252e+00  0.008053266  0.007491065  25.98 0.0004549044    1.052    0.049
       166  -7.4511    128.2197     22.0254   2.9051986637e+02   6.7469615751e+00  0.008686259  0.005459819 -61.03  0.000316201    1.617    0.381
       167  -9.1592     84.6906     21.6103   2.9103199844e+02   7.0180395892e+00   0.01175246   0.01088685  75.66 0.0004982014    1.149    0.130
       168  -7.9070     59.5400     22.5246   2.9133512950e+02   7.1611467989e+00  0.006610952  0.006454046   1.67 0.0001203971    1.018    0.018
       169  -9.8198    192.6991    248.3518   2.9113870721e+02   3.7574730843e+00   0.01988422   0.01385837 -37.47  0.001427995    1.561    0.359
       170  -7.9628    161.5110     18.8823   2.9010732872e+02   6.5788506708e+00  0.009676098  0.006550247 -59.26 0.0005077819    1.492    0.330
       171  -8.4103     15.8586     19.3737   2.9183295567e+02   7.4634048325e+00  0.009397971  0.006294039   9.73 0.0004369525    1.715    0.417
       172  -7.6998    151.8043     18.1699   2.9021762165e+02   6.6465486663e+00  0.008954866  0.007508504 -24.40 0.0002621021    1.286    0.223
       173  -8.7935    144.4598    248.5432   2.9170798889e+02   4.0502270874e+00   0.01938709  0.007497852 -36.76  0.001208725    4.455    0.776
       174  -7.7185    174.4274     16.4226   2.8993975813e+02   6.5277300497e+00   0.00655221  0.006398987  20.65 6.979726e-05    1.002    0.002
       175  -9.7544    218.0106    248.9901   2.9084466384e+02   3.5952521209e+00   0.02186184    0.0125538 -23.54  0.001848837    2.579    0.612
       176  -9.7980    156.8727    245.7045   2.9154453126e+02   4.0069305097e+00    0.0225654   0.01185115 -38.07  0.001610777    2.285    0.562
       177  -9.7571    212.2812    250.1606   2.9091920435e+02   3.6169035883e+00   0.01885591  0.009952654  44.74  0.001704777    1.980    0.495
       178  -9.5925    171.8183    245.7008   2.9136847401e+02   3.9155964335e+00   0.01568606  0.009236015   5.95  0.001070615    2.268    0.559
       179  -8.0777    151.0382     12.7355   2.9019342864e+02   6.7134522030e+00  0.009205142  0.008483881  25.57 0.0004100745    1.062    0.058
       180  -7.6794    130.2606     12.6202   2.9043824016e+02   6.8421367482e+00  0.006901579  0.005057586  69.97   0.00069772    1.672    0.402
       181  -9.3247    164.7471    246.0937   2.9145414227e+02   3.9543271796e+00   0.01197286  0.009666788  15.69 0.0004290568    1.269    0.212
       182  -8.0590     28.4603     12.5690   2.9164225448e+02   7.4646340681e+00  0.006668867  0.006335191 -10.43 5.221586e-05    1.067    0.063
       183  -7.7885    136.3962    245.7764   2.9178620332e+02   4.1312325443e+00   0.00945999  0.005932644 -49.36 0.0007618357    1.609    0.378
       184  -8.1581    187.9392    250.5346   2.9120800879e+02   3.7615620321e+00   0.01028197  0.006489833  26.56  0.001019676    1.559    0.358
       185  -8.3250    219.4402    244.2846   2.9079922833e+02   3.6404416270e+00  0.008751439   0.00662516 -78.29 0.0006348612    1.487    0.327
       186  -8.3395    150.5296    244.4711   2.9161176583e+02   4.0598484731e+00   0.00662461  0.006461336   3.03 7.068589e-05    1.020    0.019
       187  -9.2613    186.8878    245.5777   2.9119027176e+02   3.8248358111e+00   0.01678912  0.008989522 -53.95   0.00156464    1.840    0.456
       188  -8.8618    168.9800    241.6621   2.9137737252e+02   3.9792735065e+00  0.009776367  0.008472272  24.09 0.0006701743    1.135    0.119
       189  -8.4998    146.8794    242.4442   2.9164246564e+02   4.1054087257e+00   0.01010459  0.006394967  28.86 0.0005018621    1.534    0.348
       190  -7.7009    113.8292    242.4089   2.9203171350e+02   4.3076793513e+00  0.009359965  0.006389853   9.02 0.0006877795    1.680    0.405
       191  -7.7892    201.5865    240.1516   2.9098423950e+02   3.7971136328e+00  0.009479879  0.005859373 -47.57 0.0004745463    1.650    0.394
