#   1 NUMBER                 Running object number                                     
#   2 MAG_AUTO               Kron-like elliptical aperture magnitude                    [mag]
#   3 X_IMAGE                Object position along x                                    [pixel]
#   4 Y_IMAGE                Object position along y                                    [pixel]
#   5 X_WORLD                Barycenter position along world x axis                     [deg]
#   6 Y_WORLD                Barycenter position along world y axis                     [deg]
#   7 A_WORLD                Profile RMS along major axis (world units)                 [deg]
#   8 B_WORLD                Profile RMS along minor axis (world units)                 [deg]
#   9 THETA_WORLD            Position angle (CCW/world-x)                               [deg]
#  10 FWHM_WORLD             FWHM assuming a gaussian core                              [deg]
#  11 ELONGATION             A_IMAGE/B_IMAGE                                           
#  12 ELLIPTICITY            1 - B_IMAGE/A_IMAGE                                       
         1  -8.4447      7.2966     15.4386   1.1649705980e+02   6.9767269653e+01    0.1552163    0.1183442 -50.29  0.001086924    1.717    0.418
         2  -9.2765    233.5798     10.7207   6.0376694642e+01   2.5982425870e+01    0.2642275    0.1500211 -33.34  0.001411513    1.930    0.482
         3  -8.4183     55.7767     10.1374   9.4161959026e+01   6.5108064528e+01    0.1630531    0.1401874  -4.63 0.0005699293    1.229    0.186
         4  -8.0294     47.4645     10.2484   9.7275900590e+01   6.6274080187e+01    0.1444145   0.09694756 -32.85 0.0009360167    1.613    0.380
         5  -8.0290     28.1427     10.1692   1.0504997756e+02   6.8628269246e+01    0.1354957    0.1138968 -16.61 0.0004358166    1.338    0.253
         6  -8.5619     90.8457      9.0973   8.2775211464e+01   5.9210452845e+01    0.1687675    0.1674786 -69.31 0.0007477665    1.349    0.259
         7  -7.6743    101.1748      8.1309   7.9752645172e+01   5.7249526491e+01    0.1499903    0.1466661 -69.24 0.0005896915    1.316    0.240
         8  -8.3320     33.6652      5.6333   1.0071561469e+02   6.8553110823e+01     0.192077    0.1175711 -44.67  0.001149493    2.492    0.599
         9  -8.6184     79.0662      3.6451   8.3895874484e+01   6.1906395014e+01    0.2110746    0.1511687 -34.06  0.001083245    1.696    0.410
        10  -7.6205     44.6640      3.3260   9.5282735234e+01   6.7408549902e+01   0.09399752   0.08884417 -31.09 0.0007051526    1.720    0.419
        11  -7.5979    115.2999      2.6346   7.4566087435e+01   5.4741467593e+01    0.1197566   0.09415391 -65.63 0.0007033811    1.729    0.422
        12  -8.2727     62.2162      1.5970   8.8248736232e+01   6.4970926528e+01    0.1564667    0.1307604  38.74 0.0005165777    1.359    0.264
        13  -7.6215     39.2996      1.6519   9.6615375664e+01   6.8293694877e+01   0.09391692   0.08414931 -28.97 0.0007037051    1.685    0.407
        14  -8.7010     10.2604    245.6530   1.5085811509e+02   2.2809449663e+01    0.1966681   0.09246403  85.43 0.0008510686    1.725    0.420
        15  -8.0560    191.9700    249.9895   1.1918793528e+02  -5.2487151718e+00     0.193666    0.1436637  65.68  0.001131037    1.837    0.456
        16  -8.3828     93.9362    249.4772   1.3724204806e+02   1.1204138697e+01    0.2276682     0.140678  80.94  0.001317056    1.714    0.417
        17  -8.7587    139.8088    244.7456   1.2824666173e+02   4.5273154649e+00    0.2298748    0.1535934  83.25   0.00117054    2.045    0.511
        18  -7.9823     67.5904    245.2396   1.4148047544e+02   1.5855571352e+01    0.1477523   0.09941871 -66.57 0.0009504944    1.632    0.387
        19  -9.4589    248.5424    242.4616   1.0772326654e+02  -1.3240336846e+01    0.2530982    0.1998207 -36.50 0.0009494903    1.603    0.376
        20  -9.1465    247.9400    235.0468   1.0655034189e+02  -1.2219553408e+01     0.325238    0.2214615 -41.81   0.00139607    1.861    0.463
        21  -8.5387    201.9950    243.4279   1.1630940660e+02  -5.9964087174e+00    0.2073495    0.1752391 -63.67 0.0008451905    1.683    0.406
        22  -8.8046    169.3444    243.6295   1.2249178560e+02  -4.1498015490e-01    0.2304979    0.1934393  64.78 0.0006945055    1.299    0.230
        23  -8.4578     77.6769    243.1776   1.3952341349e+02   1.4797685888e+01    0.2816418    0.1324834  66.91  0.001376293    2.287    0.563
        24  -9.7745    160.3941    240.6458   1.2376710216e+02   1.6327946358e+00    0.4214452    0.2674016 -83.12  0.001953825    2.964    0.663
        25  -7.9698    153.3917    242.2221   1.2532851744e+02   2.5988811473e+00     0.159613    0.1209307 -73.23 0.0004944343    1.667    0.400
        26  -8.5942    146.7970    240.3512   1.2633112668e+02   4.0653619877e+00    0.3738258     0.206728  71.12  0.001469262    3.211    0.689
        27  -8.2975     88.4312    242.1075   1.3748794548e+02   1.3393519259e+01    0.1675348    0.1091059 -76.85 0.0005456678    1.573    0.364
        28  -8.5208    241.3624    239.0174   1.0839892005e+02  -1.1733734193e+01    0.3778407    0.1820577 -19.48  0.001778401    2.755    0.637
        29  -8.0211    214.4447    241.4893   1.1368900516e+02  -7.7935848546e+00    0.1245267    0.1032977  24.10 0.0003163097    1.013    0.013
        30  -8.9097    194.2563    239.7221   1.1717270470e+02  -4.1391338877e+00    0.2093725    0.1730505  49.01 0.0005700476    1.240    0.194
        31  -8.8656    136.2203    239.4330   1.2823332383e+02   6.0617867974e+00    0.2959839     0.172125  65.74  0.001453942    2.063    0.515
        32  -7.9909    209.1376    238.8205   1.1423472092e+02  -6.5373438645e+00    0.1784207    0.1570891  48.77 0.0005957353    1.308    0.236
        33  -8.6514    129.2162    238.8796   1.2950087688e+02   7.3637203934e+00    0.2517822    0.1683706  77.28  0.001366149    1.787    0.441
        34  -9.3969    231.1651    236.9312   1.0986957688e+02  -9.8747534668e+00    0.2985593    0.2057714 -48.34  0.001204885    2.023    0.506
        35  -8.1448     25.3616    237.1381   1.4797544645e+02   2.2747433047e+01    0.1637319   0.07730395  88.53 0.0009442517    1.873    0.466
        36  -9.8050    214.8323    233.2014   1.1223547353e+02  -6.6866367554e+00    0.5218655    0.3751654 -88.98  0.002382598    3.588    0.721
        37  -8.9293    203.3018    234.9253   1.1468767811e+02  -4.9797978058e+00    0.2767909    0.2104583 -73.54  0.001307706    2.250    0.556
        38  -9.6905    175.7630    233.4316   1.1972177552e+02   8.9994502196e-02    0.4451789    0.2362975 -58.26  0.002045933    2.737    0.635
        39  -8.1449    170.1495    235.5150   1.2112996465e+02   7.4996970354e-01    0.2091286     0.147685 -78.60 0.0007623562    2.211    0.548
        40  -8.8164    123.0227    234.6166   1.3014390392e+02   9.1932125706e+00    0.2699932    0.1733625 -84.30  0.001200679    1.990    0.497
        41  -8.6595      9.0980    235.7733   1.5049417466e+02   2.4765559321e+01    0.2322511   0.06840912  56.24  0.001174652    2.727    0.633
        42  -9.3669    108.9085    234.5672   1.3284498808e+02   1.1564714384e+01     0.429582    0.2014937  56.59   0.00112107    2.048    0.512
        43  -8.2941     99.6709    234.3299   1.3457088782e+02   1.3105927295e+01    0.2156928    0.1395469 -86.24 0.0008373095    1.683    0.406
        44  -8.8800     78.8438    234.4519   1.3846519404e+02   1.6285208731e+01    0.2487962    0.1539458 -81.55 0.0008560971    1.604    0.377
        45  -8.9576     68.4542    232.4710   1.4016953181e+02   1.8171339465e+01    0.4572021    0.1844357  69.58  0.001751276    3.823    0.738
        46  -7.7143     53.7377    234.6629   1.4299146681e+02   1.9750879638e+01    0.1002219   0.08519978 -63.72 0.0002183701    1.584    0.369
        47  -8.3548    194.7440    233.0422   1.1600349105e+02  -3.2104755955e+00    0.1855071    0.1662018  57.23 0.0006462712    1.280    0.219
        48  -9.0162    141.2285    230.9783   1.2610904178e+02   6.6898125609e+00    0.5577413    0.2298041  59.37  0.001906904    3.917    0.745
        49  -8.4021    132.6748    233.0750   1.2807100465e+02   7.8128414598e+00    0.1971692     0.151624  85.07 0.0007878157    1.441    0.306
        50  -8.3317     92.8943    232.5571   1.3565130226e+02   1.4516250296e+01    0.2701854    0.1393565  83.50  0.001184582    2.852    0.649
        51  -9.2409    186.6953    230.9326   1.1720675670e+02  -1.4572618465e+00    0.3335769    0.2482952  85.04  0.001568582    2.218    0.549
        52  -9.3126    183.0482    240.0936   1.1935585320e+02  -2.2531760841e+00    0.3656105    0.2456689  67.26  0.001616458    2.174    0.540
        53  -8.8119      1.6456    231.0768   1.5140366444e+02   2.6401670512e+01    0.2211326   0.09162403  87.30 0.0008916951    2.022    0.505
        54  -8.9986    236.1025    230.5610   1.0787353464e+02  -9.7974010740e+00    0.2482451     0.189873 -31.27 0.0008323636    1.422    0.297
        55  -9.3078    246.6303    229.0675   1.0572780345e+02  -1.1240960230e+01    0.3340242    0.1953988 -33.19  0.001272949    1.762    0.432
        56  -9.0877    151.5173    229.0353   1.2380111636e+02   5.1992015708e+00    0.2899666    0.2081429 -88.80  0.001536786    1.905    0.475
        57  -9.2893    148.6879    224.6755   1.2371372351e+02   6.4958820806e+00    0.3385538    0.2393324  87.53  0.001158701    1.929    0.482
        58  -8.1064    229.9299    228.9753   1.0871634152e+02  -8.5854267533e+00    0.1742403    0.1567414  73.37 0.0006876411    1.688    0.408
        59  -8.7248    162.5354    228.1355   1.2148843674e+02   3.3647075512e+00    0.3117134    0.1836913  61.56 0.0008852913    2.102    0.524
        60  -8.7453    128.0321    227.4867   1.2822541584e+02   9.6563654614e+00    0.3006988    0.1833938  65.23  0.001045221    1.799    0.444
        61  -8.1586    223.4766    226.5020   1.0946957028e+02  -7.1676185846e+00    0.3013311    0.1536151 -23.00  0.001061697    2.570    0.611
        62  -9.2334    225.5184    221.6304   1.0822441199e+02  -6.7986402896e+00    0.2682601    0.2341594   3.53   0.00104188    1.070    0.066
        63  -8.6797    206.0003    225.9047   1.1265348907e+02  -4.0835008061e+00    0.2471105    0.1928356 -53.52 0.0009480493    1.661    0.398
        64  -7.8101     57.9975    237.0000   1.4244273076e+02   1.8732624390e+01    0.1834472   0.05746548  40.87 0.0008046384    2.958    0.662
        65  -8.0038     49.1480    227.1039   1.4316502403e+02   2.1833990405e+01    0.1716687    0.1074151  76.12 0.0009534261    1.342    0.255
        66  -8.0261    199.7822    226.1810   1.1389159947e+02  -3.0312035376e+00    0.1854115    0.1663495 -72.27 0.0007587061    1.488    0.328
        67  -8.9678     94.6136    224.6858   1.3442748974e+02   1.5788095465e+01    0.4701042    0.2074027  63.53  0.001915668    2.905    0.656
        68  -8.7200    180.7373    224.4113   1.1730163355e+02   6.8441171426e-01    0.2374527    0.1967398  76.78 0.0007049664    1.533    0.348
        69  -8.8561    104.7906    223.6799   1.3231645113e+02   1.4342516596e+01    0.3384212    0.2020901  82.44  0.001653411    2.107    0.525
        70  -8.7443    216.4617    223.0972   1.1017958960e+02  -5.4734584834e+00    0.2722395    0.2082275 -54.76  0.001078343    1.789    0.441
        71  -8.6620    172.9651    223.1152   1.1862597392e+02   2.3281953977e+00    0.2492873    0.1905077 -79.87 0.0008372909    1.839    0.456
        72  -8.0465    114.0206    224.0343   1.3053858800e+02   1.2730361570e+01    0.2139195    0.1393892  74.08 0.0007487313    1.693    0.409
        73  -7.7376     38.2826    224.6479   1.4488873282e+02   2.3674523729e+01    0.1238055   0.06638327  73.37 0.0003478919    1.656    0.396
        74  -7.6692    233.2764    223.3555   1.0710637789e+02  -8.3376166372e+00    0.1299965   0.08754515   2.77 0.0004506099    1.651    0.394
        75  -9.3451    192.6292    221.3479   1.1445181119e+02  -9.7277670464e-01    0.3700355    0.2844358 -69.17 0.0009881192    1.879    0.468
        76  -7.8290    140.4951    222.9841   1.2510421145e+02   8.2904068614e+00    0.1739444    0.1126678 -89.11 0.0008060625    2.306    0.566
        77  -8.9028    239.0073    221.4055   1.0571336317e+02  -8.9924509193e+00    0.2164291    0.1739113 -29.88 0.0004780485    1.334    0.250
        78  -9.1528    159.9442    221.0334   1.2089397993e+02   5.0959126440e+00    0.5026678    0.2438213  60.22  0.001501414    3.054    0.673
        79  -9.1831    120.3792    219.2190   1.2862087998e+02   1.2583488828e+01    0.4269473    0.2296042  73.54  0.001706499    3.022    0.669
        80  -8.5863     82.6596    220.4305   1.3625993431e+02   1.8498539538e+01    0.3289867    0.1709816  74.37  0.001365959    2.383    0.580
        81  -8.3248     72.9812    220.9590   1.3817958534e+02   1.9823835090e+01    0.2086745    0.1216155  72.89 0.0006761306    1.700    0.412
        82  -7.7464     27.6168    221.2315   1.4649222542e+02   2.5600722153e+01    0.1549578   0.08529469 -69.93 0.0009519017    1.669    0.401
        83  -8.0549      6.3183    221.6625   1.5011978530e+02   2.7759171303e+01    0.1178624   0.05696816  70.87 0.0007049119    1.705    0.413
        84  -8.2239    202.8074    220.1000   1.1225636417e+02  -2.6075212859e+00      0.18843     0.176886  56.33 0.0006242119    1.251    0.201
        85  -8.8587    248.7732    218.1212   1.0336626959e+02  -1.0087094436e+01    0.3732722    0.2559116  69.83  0.001654114    3.879    0.742
        86  -8.5663    210.0385    218.8707   1.1064812492e+02  -3.7012193369e+00    0.2146741    0.1694109 -55.66 0.0006619352    1.669    0.401
        87  -9.2657    132.8931    215.9537   1.2560775727e+02   1.1007458015e+01    0.4958108    0.2888042  80.83  0.001998299    3.026    0.669
        88  -8.2719     61.9856    217.3259   1.3990082298e+02   2.2117775438e+01    0.2303618    0.1349542  78.59 0.0006511634    1.659    0.397
        89  -8.8734     51.7678    217.3800   1.4182638026e+02   2.3466361179e+01    0.2847597    0.1580129  76.64  0.001172712    1.729    0.422
        90  -8.8652    169.4595    215.9973   1.1815407730e+02   4.2328086187e+00    0.3508294    0.2564614 -50.39  0.001061619    1.549    0.354
        91  -8.7786    142.8874    216.4745   1.2364136624e+02   9.0877831494e+00    0.2472165      0.18345 -82.65 0.0007948668    1.646    0.392
        92  -7.7628    111.9669    217.4821   1.3008398198e+02   1.4376626456e+01    0.2000379   0.09269693  59.93 0.0008098757    2.525    0.604
        93  -8.1526     18.5039    216.0172   1.4769782977e+02   2.7641894065e+01    0.1713446   0.08727285 -80.63 0.0009114092    1.594    0.372
        94  -8.7405    232.3292    214.5424   1.0567230738e+02  -6.8964423508e+00    0.2642699    0.2006661 -33.79   0.00104765    1.392    0.282
        95  -8.3530    185.8146    214.5425   1.1461893181e+02   1.4275325925e+00    0.2390339    0.1837309 -71.40  0.001022304    1.819    0.450
        96  -8.3767    154.4093    215.2817   1.2109775138e+02   7.1810485235e+00    0.2308121     0.154575  62.46 0.0008434244    1.651    0.394
        97  -9.4318    214.1110    212.3044   1.0867898214e+02  -3.3865148006e+00    0.3856285     0.270311  61.30  0.001705804    1.995    0.499
        98  -8.6916     93.1675    214.0985   1.3343767933e+02   1.8167238286e+01     0.314667     0.170882  62.62  0.001046377    1.888    0.470
        99  -9.4053     73.1748    212.1188   1.3718733893e+02   2.1625488811e+01    0.5988097    0.2317535  63.54  0.002147927    3.874    0.742
       100  -8.2420    224.8255    212.5759   1.0670068783e+02  -5.3162270766e+00    0.2404695      0.16883 -51.71  0.001052566    1.887    0.470
       101  -8.7007    161.7321    212.5211   1.1914696089e+02   6.3225215416e+00    0.2521304    0.2143028  83.17 0.0007662483    1.351    0.260
       102  -9.0280    204.3031    210.8582   1.1030904733e+02  -1.3747124172e+00    0.2977898    0.2389316 -64.62 0.0006775018    1.709    0.415
       103  -9.4887    175.6157    210.2558   1.1592481571e+02   4.1070347884e+00    0.4514576     0.310007  88.13  0.001660987    2.598    0.615
       104  -9.6627    174.1867    204.4220   1.1518727308e+02   5.4514476489e+00    0.3162796    0.2323029  44.92 0.0002189232    1.246    0.198
       105  -8.8383    148.1392    210.7149   1.2165294391e+02   9.2233467157e+00    0.2992685    0.2106288 -87.31  0.001108802    1.943    0.485
       106  -7.6649    106.3557    212.6844   1.3058084095e+02   1.6300937016e+01     0.144492   0.09037396  70.66 0.0007045184    1.744    0.427
       107  -7.6134    243.2650    211.6775   1.0314955538e+02  -8.2888274949e+00    0.1100786    0.1025951 -63.76 0.0002409553    1.560    0.359
       108  -8.4733    192.2867    210.5626   1.1262367660e+02   9.0384178656e-01    0.2281525    0.1671297 -55.94 0.0006061114    1.687    0.407
       109  -8.8623    116.3562    210.6078   1.2823544775e+02   1.5015715677e+01    0.3281647    0.1954389  68.10  0.001028696    1.963    0.491
       110  -8.5291     85.9880    209.9843   1.3437890298e+02   2.0154204199e+01     0.331935    0.1728878  72.21  0.001461315    2.454    0.592
       111  -8.6964      7.8204    211.6155   1.4924020766e+02   2.9609627179e+01    0.1463797   0.07764981  55.27 0.0005307209    1.646    0.392
       112  -7.7032    179.3230    217.6657   1.1645278372e+02   2.0960878496e+00    0.1350831    0.1043832  74.30 0.0007050564    1.708    0.415
       113  -8.1029     32.1521    210.0347   1.4480819183e+02   2.7373480240e+01    0.2048805   0.09939115  79.55 0.0008771871    2.052    0.513
       114  -8.2273    126.6302    208.5738   1.2579904586e+02   1.3609527941e+01    0.2188936    0.1567974 -89.95 0.0006159276    1.638    0.390
       115  -9.3592    246.3503    207.3130   1.0177256694e+02  -8.1545735075e+00    0.2688206    0.2095422 -22.97 0.0005874599    1.222    0.182
       116  -9.4700    250.0980    202.0511   1.0009899666e+02  -7.9901279802e+00    0.3862182     0.200126 -29.96    0.0012017    1.894    0.472
       117  -7.9157    156.4377    208.2453   1.1952438357e+02   8.1335326125e+00    0.1797791    0.1345326 -68.63 0.0007385593    1.596    0.374
       118  -8.3674    139.2122    208.0935   1.2309251379e+02   1.1403426830e+01    0.2686247    0.1636528  66.26 0.0009473346    2.023    0.506
       119  -9.2178    236.6533    207.8908   1.0363285125e+02  -6.6281774514e+00    0.4378735    0.2528673 -42.87  0.001482277    1.935    0.483
       120  -9.2498     99.3211    206.0541   1.3113885879e+02   1.8856406515e+01    0.3974138     0.236171  89.46  0.001519587    2.127    0.530
       121  -8.5293     56.5752    205.6494   1.3976032313e+02   2.5299634549e+01    0.3174439    0.1580887  68.97  0.001296209    2.179    0.541
       122  -9.4233    194.8984    203.7082   1.1084856066e+02   1.6031120773e+00    0.4038516    0.3399121 -53.86  0.001386698    1.384    0.278
       123  -9.3134    192.4702    197.3681   1.1014452554e+02   3.2012622689e+00    0.4551386       0.3124 -51.06  0.001474706    1.663    0.399
       124  -9.0746    183.8169    204.0143   1.1314163500e+02   3.6695987603e+00    0.3276202    0.2449661  73.82 0.0009094107    1.845    0.458
       125  -8.6578    131.4215    204.3762   1.2414387619e+02   1.3594326700e+01    0.3126191     0.190833  74.98  0.001146553    2.341    0.573
       126  -8.2337    109.0516    205.0700   1.2896902540e+02   1.7429626745e+01    0.2259367    0.1483774  78.48 0.0009534254    1.753    0.430
       127  -9.6679    163.7463    202.9359   1.1708972231e+02   7.7515580164e+00    0.4053034    0.2952325  73.66 0.0008909779    1.762    0.432
       128  -8.4942    211.0529    202.1908   1.0737538883e+02  -1.1731904666e+00    0.2343397     0.180941 -72.48 0.0006537035    2.024    0.506
       129  -7.7229     41.3136    202.9865   1.4246615173e+02   2.7789171704e+01    0.2009653   0.07796375  87.44 0.0007042986    4.221    0.763
       130  -9.1438    242.9772    200.9310   1.0115118939e+02  -6.6394915692e+00    0.2747516    0.1778181 -42.34 0.0008095703    1.697    0.411
       131  -8.1767    228.0614    201.9347   1.0408242564e+02  -4.2165007190e+00    0.2255169    0.1524348   3.30  0.001135097    1.799    0.444
       132  -8.8132    140.6567    201.2789   1.2168187241e+02   1.2505942554e+01     0.349829    0.2330204  79.43  0.001319678    2.070    0.517
       133  -8.6304     80.0140    201.2913   1.3452929397e+02   2.2926942129e+01    0.3166365    0.1768821  80.95   0.00146336    2.202    0.546
       134  -8.2807     48.5745    202.3109   1.4099081860e+02   2.7044765740e+01    0.1980585    0.1138517  75.70 0.0009349867    1.677    0.404
       135  -7.7275     10.3001    202.6702   1.4819886237e+02   3.1196411982e+01    0.1193346   0.06260361  72.96 0.0003545576    1.644    0.392
       136  -7.8495    221.8787    201.3507   1.0513475364e+02  -3.0164320470e+00    0.1801227    0.1643441 -31.27 0.0007212588    1.202    0.168
       137  -9.1114    237.0019    198.1557   1.0169507078e+02  -5.1872044836e+00    0.4250888    0.1829566 -34.10  0.001833298    2.354    0.575
       138  -9.4915    149.4878    198.5521   1.1933655629e+02   1.1373342840e+01    0.4764196    0.3091695  88.22  0.001519443    2.534    0.605
       139  -9.0029    123.9328    199.2442   1.2493167519e+02   1.6030715130e+01    0.3230422    0.2215875 -87.94  0.001149535    1.788    0.441
       140  -9.3012    112.8535    198.5510   1.2720511373e+02   1.8156615209e+01    0.4507553     0.265456  74.59  0.001748722    2.309    0.567
       141  -8.4975    177.0572    199.0651   1.1362180963e+02   5.8960892252e+00    0.2117538    0.1987187  55.42 0.0004671535    1.081    0.075
       142  -9.0270     88.6188    198.5984   1.3238131542e+02   2.2186567184e+01    0.3322302    0.2084598  80.30  0.001572472    1.780    0.438
       143  -8.0801    202.1710    197.8232   1.0828503820e+02   1.2499398019e+00     0.197938    0.1877109  70.55 0.0005035878    1.236    0.191
       144  -9.2547     61.5472    197.0334   1.3782821060e+02   2.6500125892e+01     0.447607    0.2113454  70.63  0.001563248    2.761    0.638
       145  -8.7462     12.5792    197.3530   1.4739779843e+02   3.2084235541e+01    0.2941493    0.1073744  89.59  0.001294677    2.994    0.666
       146  -8.6844    215.8739    195.8538   1.0521748359e+02  -1.0001415651e+00    0.2846329    0.1884364 -53.66  0.000722292    1.937    0.484
       147  -7.9430     53.9252    196.9252   1.3936771498e+02   2.7531565331e+01    0.2723316    0.1114334  70.15 0.0009574752    4.120    0.757
       148  -8.2751    132.9597    195.7650   1.2241963040e+02   1.5096355842e+01    0.2458891    0.1768185 -75.78 0.0006370232    1.597    0.374
       149  -9.7084    245.7389    193.7874   9.9257954598e+01  -6.0078893632e+00    0.2929309    0.2556792 -62.59   0.00144044    1.615    0.381
       150  -8.8527    224.3062    193.8039   1.0320194099e+02  -2.2160821679e+00    0.3141783    0.1958626 -48.25  0.001226763    1.880    0.468
       151  -8.8978    185.2286    194.8458   1.1114300460e+02   5.0824599241e+00    0.2665049    0.2327573  80.57  0.000722941    1.379    0.275
       152  -8.9339    161.0133    194.4825   1.1615409198e+02   9.9410736087e+00    0.3339329    0.2287326  70.08 0.0009641428    1.896    0.472
       153  -9.0478     43.9986    193.5375   1.4101366746e+02   2.9509929738e+01    0.4431652    0.1930194  69.33  0.001889937    2.956    0.662
       154  -8.7651     76.9529    193.7731   1.3421933704e+02   2.5033994801e+01    0.2459456    0.1698407 -83.75 0.0005069941    1.366    0.268
       155  -8.4829    231.0454    194.6625   1.0210739258e+02  -3.5786150713e+00     0.219496    0.1846508 -44.22 0.0007176669    1.359    0.264
       156  -8.6303    198.8932    191.7088   1.0775337367e+02   2.9752582708e+00    0.2562762    0.2057894 -50.60 0.0006364723    1.395    0.283
       157  -8.0935    179.0919    191.6394   1.1180359788e+02   6.9065059092e+00    0.2429671    0.1933295 -57.56 0.0007276188    1.421    0.296
       158  -8.5726    172.4917    191.8845   1.1323629585e+02   8.1757052871e+00    0.2712265    0.2176662  74.79 0.0008724867    1.502    0.334
       159  -9.1924    139.6007    190.6820   1.2010430895e+02   1.4905352159e+01    0.3892173    0.2635421  84.12  0.001149675    2.059    0.514
       160  -7.5433    205.2979    191.6935   1.0647046093e+02   1.7323615898e+00    0.1328737    0.1133999  86.19 0.0002748701    1.590    0.371
       161 -10.3214     92.1158    188.7032   1.3025080804e+02   2.3816353708e+01     0.914396     0.289854  52.44  0.003011089    3.767    0.735
       162  -8.9923     21.8132    191.1208   1.4515843888e+02   3.2494503973e+01    0.3824243    0.1215159  59.79   0.00150156    3.950    0.747
       163  -8.8881    148.6009    189.1464   1.1786212847e+02   1.3475879577e+01    0.2977591    0.1796557 -64.18  0.001093016    2.028    0.507
       164  -8.9329    129.3464    188.7801   1.2203209641e+02   1.7263673566e+01    0.3254941    0.2236181  82.00  0.000985599    1.858    0.462
       165  -8.2654    237.1444    188.6343   9.9782463802e+01  -3.6899408193e+00    0.2202961    0.1734019 -40.70 0.0006256462    1.352    0.261
       166  -9.1608    216.5706    187.3394   1.0339208410e+02   3.3226901428e-01    0.3861257     0.250839 -34.66  0.001442045    1.561    0.360
       167  -9.1863    155.9184    187.6757   1.1599742137e+02   1.2331487179e+01    0.3588044    0.2417424 -69.72 0.0009715456    1.907    0.476
       168  -9.8639    120.9736    186.7949   1.2355480696e+02   1.9252206692e+01     0.594375    0.3051007 -73.98  0.002181869    3.059    0.673
       169  -8.5409     34.2231    188.1686   1.4244209688e+02   3.1817541102e+01    0.2951177    0.1403456  78.29  0.001326266    2.415    0.586
       170  -8.4778    230.6784    187.3602   1.0071825490e+02  -2.3110103710e+00    0.2384346    0.1608882 -45.96 0.0006785427    1.640    0.390
       171  -8.8124    191.6946    187.5325   1.0839279130e+02   5.1693473874e+00    0.3233886    0.2388268  86.02  0.001156915    2.157    0.536
       172  -8.7927    164.8339    186.7973   1.1390279693e+02   1.0723145137e+01    0.2985473     0.232769 -77.22 0.0006358835    1.594    0.373
       173  -9.1243     54.6540    186.8278   1.3808807068e+02   2.9671887536e+01    0.4123016    0.2090024  79.00  0.001850132    2.477    0.596
       174  -9.1906    109.5406    186.1277   1.2599621228e+02   2.1454135816e+01    0.3873003     0.244094  75.91  0.001185578    2.006    0.502
       175  -8.9032    249.3527    185.4134   9.6945936843e+01  -5.3131255052e+00    0.2609492    0.1852545 -45.65  0.001322613    1.585    0.369
       176  -8.6202    183.0483    185.2403   1.0973051437e+02   7.3462772935e+00    0.2957264    0.2022518 -56.54 0.0007319368    1.708    0.415
       177  -8.8240    210.2056    184.3902   1.0403786577e+02   2.0831248584e+00    0.2477755    0.2201725 -50.05 0.0004800781    1.258    0.205
       178  -9.0513     66.7429    184.6111   1.3523228345e+02   2.8554777759e+01    0.3800734     0.211411  69.03  0.001119031    2.029    0.507
       179  -8.5845    224.0973    183.7440   1.0122085801e+02  -4.7415963101e-01    0.2260433    0.1837038 -47.58 0.0005105721    1.375    0.273
       180  -7.9661    197.1553    183.5550   1.0648109111e+02   4.8217495718e+00    0.2319062    0.2001212 -70.41 0.0007645307    1.418    0.295
       181  -9.1693    174.2973    183.2718   1.1119042655e+02   9.5124157216e+00    0.3765965    0.2488219 -61.00  0.001121614    1.861    0.463
       182  -8.8415    240.4301    181.7235   9.7785302602e+01  -3.1477954245e+00    0.3446122    0.1184461 -42.34  0.001275781    2.959    0.662
       183  -9.0040     44.3632    182.3766   1.3975058536e+02   3.1939988097e+01    0.3343851    0.1814269  78.27 0.0009275597    2.003    0.501
       184  -7.9687     19.4847    182.9838   1.4490184617e+02   3.4488874540e+01    0.1753309   0.07729357  82.55 0.0008101945    2.531    0.605
       185  -8.0473      1.8473    183.6518   1.4836879011e+02   3.5947863993e+01    0.1475039   0.08271552  52.07 0.0009418642    1.742    0.426
       186  -8.6660    235.2855    181.4835   9.8671720392e+01  -2.1734639035e+00    0.2273879    0.1608075 -54.07 0.0007893462    1.799    0.444
       187  -9.2123    147.4936    180.6393   1.1653078339e+02   1.5490928765e+01    0.3708109    0.2661577 -82.31  0.001049866    1.820    0.451
       188  -9.6385     25.6956    179.2840   1.4330618768e+02   3.4682498999e+01    0.6177774    0.2463152  82.18  0.002350937    3.872    0.742
       189  -7.8590     90.6289    181.7207   1.2954837108e+02   2.5631934440e+01    0.1282288    0.1111183 -16.13 0.0007010929    1.693    0.409
       190  -8.8485    202.7681    184.8843   1.0561605555e+02   3.4568975198e+00    0.2408669    0.1966161 -61.89 0.0006024331    1.501    0.334
       191  -8.5897    137.5579    179.3593   1.1851838667e+02   1.7733624329e+01    0.3154106    0.2169772  83.82  0.001001441    1.981    0.495
       192  -9.4257    191.4805    178.3055   1.0657565096e+02   6.9699016669e+00    0.3387673    0.2867981  76.48 0.0004321952    1.440    0.305
       193  -8.2588    169.2956    178.6803   1.1135417882e+02   1.1465575844e+01    0.2626754    0.1809161 -60.66 0.0007773298    1.697    0.411
       194  -8.9963     35.7948    176.5448   1.4092195718e+02   3.4226806119e+01    0.5113375    0.2059713  84.23  0.001725439    4.671    0.786
       195  -9.5950    248.6823    176.9125   9.5331884883e+01  -3.8314683624e+00    0.4649191    0.2933847 -51.62  0.002159029    1.999    0.500
       196  -8.6904    250.4915    172.9434   9.4197344739e+01  -3.5035458934e+00    0.2406435    0.1933119 -18.65 0.0007508426    1.151    0.131
       197  -8.4575    231.2401    177.2961   9.8553666852e+01  -7.1205257497e-01    0.2638782    0.1740899 -45.73 0.0005260145    1.619    0.382
       198  -8.4451    204.9971    177.2775   1.0361089902e+02   4.4164601847e+00    0.3108661     0.194229 -49.36 0.0009565444    1.765    0.433
       199  -8.6321    129.3122    177.5929   1.2006332241e+02   1.9720291044e+01    0.3133455    0.2235615  83.05  0.001057032    1.738    0.425
       200  -8.3615    217.6224    177.1837   1.0110793238e+02   1.9238852030e+00    0.2138544    0.1749219 -54.48 0.0006553892    1.419    0.295
       201  -9.2766    183.3563    175.6348   1.0772525947e+02   9.1689352700e+00    0.5194967    0.2802586 -36.20  0.001902616    2.078    0.519
       202  -9.3705    104.5993    174.9362   1.2527745848e+02   2.4846851438e+01    0.5970684    0.3158338  68.13  0.002031163    2.901    0.655
       203  -8.4090     98.0050    177.3396   1.2719150273e+02   2.5421643639e+01    0.1986804    0.1758786  62.74 0.0007889873    1.104    0.094
       204  -8.7690     89.0694    176.8088   1.2915221612e+02   2.7005358154e+01    0.2970704    0.1856753  81.78 0.0009937775    1.963    0.491
       205  -9.9711     57.2141    173.2266   1.3585808164e+02   3.2430660520e+01    0.7702967    0.3521579  85.61  0.002674873    4.060    0.754
       206  -8.7580     12.9716    176.7820   1.4565163654e+02   3.6453996151e+01    0.2578532    0.1219474  71.35  0.001335835    2.228    0.551
       207  -9.3543    158.8918    175.1103   1.1292145624e+02   1.4352596236e+01    0.4131552    0.2875417  82.48  0.001213716    2.116    0.527
       208 -10.6816     75.9708    169.5406   1.3105968299e+02   3.0698097462e+01     1.381126    0.4693812 -67.21    0.0048219    3.272    0.694
       209  -9.5593     81.6279    154.8588   1.2733262282e+02   3.3300278401e+01    0.4928956    0.3154723 -89.93  0.001510927    1.920    0.479
       210  -8.5762    224.4062    174.2213   9.9191493844e+01   1.1290031830e+00    0.1969821    0.1291547 -48.29 0.0004902651    1.676    0.403
       211  -9.4779    175.7135    172.3041   1.0866845901e+02   1.1435023013e+01     0.358966    0.2520204 -46.28 0.0008306086    1.475    0.322
       212  -8.1173    143.1324    172.8840   1.1602396904e+02   1.8043825149e+01     0.232379    0.1940547  82.12 0.0006445248    1.298    0.229
       213  -8.8320    134.7457    171.8797   1.1774994689e+02   1.9934968110e+01    0.2727064    0.2005079 -78.59 0.0007651992    1.598    0.374
       214  -9.5952    121.4245    170.5173   1.2058222128e+02   2.2809141020e+01    0.4503186    0.2901039 -80.30  0.001044667    2.039    0.510
       215  -9.1259     44.9215    170.9790   1.3830922481e+02   3.4455920749e+01    0.3681064    0.1949174  83.84   0.00136286    2.207    0.547
       216  -9.0350    230.3799    169.2904   9.7032911911e+01   8.4301746802e-01    0.4280808    0.2196933 -50.05   0.00177145    2.337    0.572
       217  -8.5351    205.8185    170.4527   1.0201178756e+02   5.5286828911e+00    0.2826734    0.1852755 -56.38 0.0007965257    1.875    0.467
       218  -8.5919    198.5433    170.3341   1.0345692156e+02   7.0516214110e+00    0.2997294    0.2280425 -75.85 0.0009819661    1.862    0.463
       219  -8.3641    237.1909    169.7098   9.5875388381e+01  -5.2839482605e-01    0.2311873    0.1795939 -44.95 0.0006641673    1.349    0.259
       220  -9.2148    167.4345    168.8507   1.0975557079e+02   1.3891048646e+01    0.4196513    0.2752339  73.96  0.001323924    2.324    0.570
       221  -8.5985    149.9632    169.6118   1.1382241850e+02   1.7369949047e+01    0.2833146    0.2084197 -73.40 0.0008917461    1.633    0.388
       222  -7.9540    244.6256    169.1915   9.4439178830e+01  -1.8223538953e+00    0.2047731    0.1631005 -48.35 0.0006151203    1.388    0.280
       223  -8.2201    211.5172    168.2520   1.0041176683e+02   4.7771356744e+00    0.2728631    0.1382448 -45.46 0.0007060517    2.043    0.511
       224  -8.8198    111.6997    167.4687   1.2230743166e+02   2.5304320002e+01    0.3915206    0.2451857  89.81  0.001191357    2.316    0.568
       225  -8.2222     88.6777    168.7643   1.2796740109e+02   2.8930569197e+01    0.2715794    0.1542763 -83.58  0.001131093    2.327    0.570
       226  -8.2824    218.9018    168.5335   9.9036556021e+01   3.2343844886e+00    0.2081953    0.1401101  47.50  0.000602886    1.538    0.350
       227  -8.6784     13.0070    167.4932   1.4480106179e+02   3.8490767348e+01    0.2456781    0.1003043  73.93  0.001026078    3.374    0.704
       228  -9.1047    191.8759    166.5864   1.0403119723e+02   9.1798626524e+00     0.314607    0.2147834 -52.43 0.0006304046    1.600    0.375
       229  -8.7106    185.1356    166.6184   1.0545436861e+02   1.0600750314e+01    0.3060933    0.2316668 -75.28 0.0009169117    1.777    0.437
       230 -10.0587     95.1558    162.6327   1.2539115632e+02   2.9308204787e+01    0.9054661     0.534359 -88.42  0.003099683    2.475    0.596
       231  -9.1440     20.5699    166.3344   1.4309039102e+02   3.8064113891e+01    0.3402396     0.172991  69.19   0.00115889    2.153    0.535
       232 -10.0188    136.8421    164.4191   1.1580027913e+02   2.1186730711e+01    0.6677265    0.3735634  63.04  0.002398407    2.405    0.584
       233  -7.8182    250.7044    165.3419   9.2573378376e+01  -2.2849890267e+00    0.1313696    0.1058511 -63.83 0.0005740366    1.661    0.398
       234  -8.3597    240.0395    164.4367   9.4245951269e+01  -1.5727080160e-01    0.2500406    0.1819262 -48.93 0.0005614088    1.495    0.331
       235  -8.3529    233.9861    165.0320   9.5463623220e+01   8.9547852576e-01    0.2128643    0.1726034 -70.34 0.0007022563    1.682    0.405
       236  -8.7670    159.5490    164.3971   1.1058019557e+02   1.6501694032e+01    0.3145937    0.2449846  78.18 0.0008194341    1.558    0.358
       237  -9.8044     33.3394    163.2582   1.3996308202e+02   3.7498908080e+01    0.4973119    0.2301082  63.89  0.002265914    2.696    0.629
       238  -9.0733    246.0123    163.0273   9.2894522781e+01  -1.0350166491e+00    0.2668083    0.1793694 -34.93 0.0004855844    1.378    0.274
       239  -8.7173    212.9676    163.7118   9.9148456100e+01   5.3293000779e+00    0.2727442     0.207296 -47.71 0.0006469146    1.373    0.272
       240  -8.3534     57.0672    164.1468   1.3466850314e+02   3.4550830510e+01    0.3709387    0.1895824  15.26  0.001308056    5.037    0.801
       241  -8.7114     60.5796    160.2752   1.3329161273e+02   3.5001765948e+01    0.3205182    0.1865181  88.45   0.00111284    2.047    0.512
       242  -8.7517    204.9429    162.7220   1.0052224158e+02   7.1829850390e+00    0.2747887    0.2131723 -50.14 0.0006154695    1.363    0.266
       243  -9.2553      3.5063    162.3700   1.4631069288e+02   4.0404600202e+01     0.359719    0.1634379  60.15  0.001928351    2.368    0.578
       244  -9.2891    177.4886    160.8853   1.0585695627e+02   1.3410096221e+01    0.3457599    0.2855428 -70.90  0.001076526    1.401    0.286
       245  -8.9515    151.6977    161.0399   1.1165933702e+02   1.8884934331e+01    0.3393948     0.249486 -71.88 0.0008232842    1.628    0.386
       246  -8.3892    242.2113    159.8184   9.2874067014e+01   2.2955471002e-01    0.1867955    0.1515035  -4.92 0.0003741558    1.300    0.231
       247  -8.6765    227.3628    159.1602   9.5413802858e+01   3.2450836667e+00    0.3084965    0.2034308 -50.78 0.0008602523    1.675    0.403
       248  -9.6903    250.2016    157.8969   9.1081791484e+01  -9.3982610470e-01     0.338533    0.1808802 -36.02 0.0009600972    1.720    0.419
       249  -8.2530    237.1770    159.0040   9.3591404844e+01   1.3382234631e+00    0.2265618    0.1528118 -57.77  0.001061618    1.915    0.478
       250  -8.6176    196.6536    158.2179   1.0121627572e+02   9.8204747122e+00     0.252379    0.2268286 -76.86 0.0006369827    1.271    0.213
       251  -9.2503    167.6552    157.5094   1.0728340542e+02   1.6245222616e+01    0.4023034    0.2944102 -84.83  0.001159328    1.922    0.480
       252  -8.4564    128.2159    159.1000   1.1676689766e+02   2.4107527200e+01    0.2854229    0.1850113  69.00 0.0007814353    1.987    0.497
       253  -9.5629    105.6783    157.9911   1.2199700434e+02   2.8587515722e+01    0.4972179    0.3036209  71.10  0.001049191    2.260    0.558
       254  -8.3312    188.1250    157.7408   1.0288816543e+02   1.1755532975e+01     0.255995     0.204743 -55.94 0.0005163719    1.342    0.255
       255  -8.5900    218.0010    156.6349   9.6624449710e+01   5.6162862446e+00    0.2804336     0.195301 -53.76 0.0009890188    1.622    0.383
       256  -8.8319    157.6204    156.0361   1.0922819694e+02   1.8724836225e+01    0.4181541    0.2250072 -50.70  0.001671387    1.918    0.479
       257  -9.2478     49.6033    155.3150   1.3518564245e+02   3.7527513694e+01    0.3694058    0.2132564  77.03  0.001305441    2.119    0.528
       258  -8.1789    204.8104    155.5468   9.8966626994e+01   8.5983800823e+00    0.2360601    0.1756392 -46.97 0.0004328627    1.368    0.269
       259  -9.3137    119.1914    154.9779   1.1811243026e+02   2.6804406105e+01    0.4145782    0.2545742 -70.99  0.001186882    1.996    0.499
       260  -9.4777    243.1627    149.8897   9.0558578314e+01   1.7785738115e+00    0.3049391    0.2869971 -55.79  0.001814265    1.173    0.148
       261  -9.4411    241.9102    154.3796   9.1753200895e+01   1.2341480257e+00    0.4026617    0.2761928  83.92  0.001635134    2.858    0.650
       262  -8.8529    237.2467    150.4452   9.1713348408e+01   2.8419882779e+00    0.3310066    0.1859644  45.92  0.001500818    1.885    0.470
       263  -8.5145    144.7798    155.0796   1.1199900886e+02   2.1655681846e+01    0.2456576    0.2058753  87.12  0.001048709    1.327    0.246
       264  -9.6262    132.7414    152.8349   1.1438488521e+02   2.4638020038e+01    0.4553214     0.328169  83.91  0.001194677    1.817    0.450
       265  -9.1804    133.5076    148.0614   1.1317505937e+02   2.5572945703e+01    0.3920554     0.254923 -46.28   0.00168794    1.557    0.358
       266  -9.6426     67.9919    153.7068   1.3049331636e+02   3.5552795060e+01    0.5124609     0.297098  83.55  0.001816691    2.377    0.579
       267  -8.0395    232.8073    153.9779   9.3282944515e+01   3.0922983695e+00    0.2282059    0.1581176 -60.93 0.0006234411    1.901    0.474
       268 -10.3473    149.0830    145.0241   1.0876439366e+02   2.2990526856e+01    0.6658774    0.4325733 -83.64  0.001991443    2.613    0.617
       269  -9.4854     20.0156    152.5782   1.4173538149e+02   4.1211118586e+01    0.2272112     0.137733  89.40 0.0006873073    1.518    0.341
       270  -7.4823      9.3396    153.3097   1.4420240702e+02   4.1945072158e+01     0.115147   0.07365707 -50.95 0.0007044437    1.689    0.408
       271  -9.0536    189.3952    150.2718   1.0094381711e+02   1.2996569204e+01    0.4013111    0.2393629 -58.21 0.0008983871    2.093    0.522
       272  -7.4073    176.2873    152.6108   1.0428761234e+02   1.5399648821e+01    0.1605883    0.1218684 -81.01 0.0007007578    1.758    0.431
       273  -9.7193     29.1691    150.5185   1.3937860699e+02   4.0832246795e+01    0.4292198     0.209977  78.22  0.001898336    2.822    0.646
       274  -8.8984      2.8834    150.6976   1.4536123084e+02   4.3018075102e+01    0.3146335    0.1222831 -73.96  0.001608552    1.951    0.487
       275  -8.1855    250.2153    141.2217   8.7474285015e+01   1.9254523267e+00    0.1875873    0.1827371   9.10 0.0005604111    1.108    0.098
       276  -9.6009    248.9074    149.4154   8.9476598272e+01   7.5610764875e-01     0.394207    0.1848137 -40.78 0.0008566631    1.960    0.490
       277  -9.0074    247.0181    144.0070   8.8615549715e+01   2.0597914273e+00    0.2990239    0.1878766 -30.63 0.0004722644    1.540    0.351
       278  -8.2458    182.1547    151.0981   1.0267256346e+02   1.4423335078e+01    0.2415883    0.1887089 -84.72 0.0008965543    1.681    0.405
       279  -8.2064    162.6612    150.5942   1.0687429107e+02   1.8818353290e+01    0.2621021    0.1876284 -68.57 0.0008618817    1.714    0.416
       280  -8.8711     98.3102    150.6969   1.2242778951e+02   3.1586134360e+01    0.3073944    0.2192133  86.99 0.0009964326    1.679    0.404
       281  -8.3706    212.9840    149.9579   9.6101595189e+01   7.9328883443e+00    0.2249428    0.1816648 -78.59 0.0004993774    1.615    0.381
       282  -9.8096     40.1794    148.3198   1.3646790224e+02   4.0218653231e+01    0.4580417    0.2305616  66.65  0.002039042    2.729    0.634
       283  -8.6020    198.9028    148.8461   9.8649733058e+01   1.1194193690e+01    0.2706435     0.191962 -68.33 0.0005558033    1.900    0.474
       284 -10.0945     89.1340    146.2697   1.2389535205e+02   3.4157222802e+01    0.6847783     0.382491 -85.36  0.002518626    3.061    0.673
       285  -8.2253     50.6570    149.6993   1.3411869998e+02   3.8715839376e+01    0.1280083   0.09345052 -39.63 0.0004677268    1.676    0.403
       286  -9.0041    233.2562    147.6504   9.1805496547e+01   4.1441704242e+00    0.2697754    0.1824299 -38.56 0.0005615738    1.391    0.281
       287 -10.4240    106.7899    143.7053   1.1889290869e+02   3.1743032723e+01    0.9050726    0.5583913 -73.69  0.002205772    2.037    0.509
       288  -9.0833     78.0263    146.9537   1.2684134681e+02   3.5715469050e+01    0.3230567    0.2080591 -84.30 0.0009636392    1.827    0.453
       289 -10.3093     54.6870    144.1702   1.3226901840e+02   3.9529570543e+01     0.855809    0.4523661  88.08  0.003245221    2.879    0.653
       290  -9.0543     57.1950    135.6229   1.3020649792e+02   4.1231981752e+01    0.2660057    0.1425498  24.41  0.001222021    2.533    0.605
       291  -8.5021    223.1251    146.9726   9.3502157438e+01   6.3549584584e+00    0.2232322    0.2052748 -32.96 0.0004800837    1.040    0.038
       292  -8.1862    206.7836    146.5816   9.6550020231e+01   9.9199837046e+00    0.2295317    0.1821088 -48.87 0.0006028377    1.278    0.218
       293  -8.4228    175.3785    146.3049   1.0305213087e+02   1.6928981155e+01    0.2994498    0.2188567 -87.88 0.0008350084    1.967    0.492
       294 -10.1463    138.9762    143.7004   1.1088365264e+02   2.5434814095e+01    0.9010012    0.3390255 -50.58  0.002879765    2.699    0.629
       295 -10.3197    132.4876    131.4371   1.0964976415e+02   2.9573828591e+01    0.8417622    0.5203979 -77.88  0.002228567    2.776    0.640
       296  -9.2186     13.3848    146.2491   1.4254019477e+02   4.3200378803e+01    0.3337133    0.1742136  67.28  0.001237717    2.233    0.552
       297  -8.4384    240.1641    145.1969   9.0046011220e+01   3.1980327562e+00    0.2406193    0.1858084 -38.71 0.0004058755    1.205    0.170
       298  -9.2870    242.7437    143.0274   8.9123325559e+01   3.0712169655e+00    0.2042288    0.1682658 -36.95 0.0004887383    1.120    0.107
       299 -11.0708     68.8564    140.7245   1.2807237821e+02   3.8504599671e+01    0.9198455     0.426235 -60.24  0.004032604    1.912    0.477
       300  -9.9912     73.0402    129.0809   1.2477048897e+02   4.0666390716e+01     0.541799    0.2621884 -61.90  0.001843121    1.959    0.489
       301  -9.5624      2.9896    142.4631   1.4451239901e+02   4.4830816183e+01    0.4444947    0.1894036  87.69  0.001622231    2.723    0.633
       302  -8.0476    194.3795    144.1301   9.8494301058e+01   1.3138052840e+01    0.2182102    0.1393192 -53.52 0.0004237545    1.716    0.417
       303  -8.7190    165.5780    144.1688   1.0474753829e+02   1.9566369151e+01    0.2731506    0.2178053  53.31 0.0006225079    1.260    0.206
       304  -7.7173    230.7020    142.7002   9.1156719428e+01   5.5686419855e+00    0.1438615    0.1120916   2.12 0.0002132165    1.577    0.366
       305  -8.4782    181.9157    141.6677   1.0055104292e+02   1.6436483954e+01    0.3029586    0.2014086 -61.82 0.0007256006    1.841    0.457
       306  -7.6901    238.5008    140.5362   8.9298707988e+01   4.3654370767e+00    0.1427932    0.1323775 -30.63 8.956199e-05    1.005    0.005
       307  -9.7885     23.6819    138.3450   1.3913572376e+02   4.4124418396e+01     0.479598    0.2394581  68.75  0.002124672    2.781    0.640
       308  -9.8011    125.0010    142.6551   1.1408370917e+02   2.8528697198e+01    0.5498408    0.3469309 -79.37  0.001536579    2.423    0.587
       309  -8.7335    172.4457    138.4620   1.0186889193e+02   1.9249459037e+01     0.336812    0.2316305 -83.75 0.0008651286    2.297    0.565
       310  -7.6007    235.0232    138.5228   8.9451769095e+01   5.4390786092e+00    0.1803969    0.1291744  85.73 0.0005937622    2.192    0.544
       311  -7.5727    218.6807    138.7084   9.2451173419e+01   8.8550162749e+00    0.1486663    0.1166224   7.19 0.0002992337    1.604    0.376
       312  -8.4102    207.2743    137.9274   9.4454606024e+01   1.1503140437e+01    0.2341185    0.1992361 -66.15 0.0009802866    1.304    0.233
       313  -8.6027    197.6035    137.3811   9.6256172147e+01   1.3773481071e+01    0.3414998    0.2148562 -58.50  0.001285006    1.926    0.481
       314  -9.1091    151.2278    136.1368   1.0619529230e+02   2.4498788560e+01    0.4629439    0.2527992  30.54  0.001654165    2.567    0.610
       315  -9.5693     39.3343    136.1843   1.3491464270e+02   4.3126476013e+01     0.300188    0.2058207  81.61  0.000795251    1.589    0.371
       316  -8.8247    250.7234    130.1800   8.4961521199e+01   3.7507065083e+00    0.4148777    0.1188435 -35.36  0.001303862    3.537    0.717
       317  -9.1403    248.3667    135.2772   8.6470161988e+01   3.3248378793e+00    0.4589997    0.2174438 -45.21 0.0007011766    2.021    0.505
       318  -8.3659    246.7948    130.2270   8.5605301118e+01   4.5268565677e+00    0.2065494    0.1646579 -36.91 0.0005733685    1.142    0.124
       319  -7.3836    192.4989    136.5196   9.7099797703e+01   1.5100860665e+01    0.1533745    0.1503001 -67.36 0.0001106962    1.024    0.023
       320  -8.4983    162.3742    136.2832   1.0362726207e+02   2.1988365171e+01    0.2622508    0.2269467  56.70 0.0006597642    1.163    0.140
       321  -9.2065    112.7662    133.4201   1.1513601767e+02   3.3043250431e+01    0.3927886    0.2750901  87.21  0.000942115    1.995    0.499
       322 -10.4406     83.4085    132.8811   1.2275247079e+02   3.8230142374e+01    0.6039146     0.338856 -69.34  0.001321281    2.007    0.502
       323  -8.9502     84.6648    123.3338   1.2039884347e+02   4.0271707586e+01    0.5230435     0.336496 -11.86  0.002080299    3.018    0.669
       324  -8.1060    237.4844    133.9889   8.8003939558e+01   5.7529569735e+00    0.2225694    0.1321125 -41.30  0.001013035    1.561    0.359
       325  -8.2447    231.2475    134.0157   8.9092796991e+01   7.0487591494e+00    0.2067099    0.1796378 -39.30 0.0003811963    1.079    0.074
       326  -8.5610    179.3274    133.8143   9.9246496808e+01   1.8662410366e+01    0.2997986    0.2271134 -65.90 0.0009720086    1.538    0.350
       327  -9.3381    143.0948    131.6612   1.0708364553e+02   2.7268656995e+01    0.4103879     0.257972 -63.73  0.000659762    1.944    0.486
       328 -10.4745     98.1546    130.2666   1.1827088376e+02   3.6425353050e+01    0.7222321    0.2905461 -55.82  0.001703801    2.428    0.588
       329  -8.8104    100.3591    120.0043   1.1534154097e+02   3.8418976224e+01     0.485122    0.2882545  15.71  0.001783327    3.154    0.683
       330  -9.9069     12.8526    129.2771   1.4063628065e+02   4.7058148709e+01    0.4463337    0.2315317  79.10  0.001908768    2.483    0.597
       331  -8.3258    220.6135    130.2238   9.0126885028e+01   1.0040929155e+01    0.2068757    0.1381216 -29.94 0.0004483995    1.569    0.363
       332  -7.9264    204.5161    130.0662   9.3140412795e+01   1.3662890745e+01    0.2327745    0.1467653 -42.98  0.000691291    1.542    0.351
       333  -8.2145    192.6817    130.0412   9.5512144181e+01   1.6370939718e+01    0.2229712    0.1909745 -42.03 0.0005037651    1.151    0.131
       334  -9.2979    168.2182    129.2150   1.0058776804e+02   2.2180430218e+01    0.3959606    0.3342336 -61.75  0.001247668    1.239    0.193
       335  -9.7093    152.8136    128.1856   1.0390153996e+02   2.5897253269e+01    0.6857146    0.3071246 -48.85  0.001257609    2.275    0.560
       336  -8.0377      1.6385    130.2944   1.4350928357e+02   4.7614644222e+01    0.1155817     0.072777  72.97 0.0007030891    1.705    0.414
       337  -8.1899    211.4525    129.2057   9.1596592404e+01   1.2266504003e+01    0.2163723     0.136501 -52.27 0.0004924531    1.684    0.406
       338 -10.7316     44.9230    123.5943   1.3138258706e+02   4.5455669340e+01     1.005268    0.5284248  82.63  0.003822598    3.749    0.733
       339 -10.8252     59.7494    123.4750   1.2729841989e+02   4.3757445676e+01     1.079306    0.4825295 -68.79  0.003913648    2.519    0.603
       340 -10.1436    117.8665    125.0370   1.1186461529e+02   3.3993249971e+01    0.5966174    0.4063417 -71.32  0.001933509    1.825    0.452
       341  -8.1079    228.5684    125.7086   8.7652582355e+01   9.1518654635e+00    0.2066279    0.1307084 -48.97 0.0006542697    1.572    0.364
       342  -9.1140    179.2172    125.0232   9.7125552659e+01   2.0516615339e+01    0.3586705    0.2842381  84.53 0.0009146926    1.546    0.353
       343 -10.1941     28.3577    122.4056   1.3565368848e+02   4.7350128789e+01    0.7086486    0.3466281  84.11  0.002777229    3.759    0.734
       344  -8.6791     27.7873    113.7426   1.3440548329e+02   4.9362192222e+01    0.2529435    0.1471878  18.46  0.001393399    2.286    0.563
       345  -8.1596    188.5241    124.0591   9.4914241553e+01   1.8544407352e+01    0.2364607    0.1514604 -43.77 0.0005966416    1.537    0.349
       346  -9.7350    158.8593    121.8240   1.0089690220e+02   2.5905836854e+01    0.4419543     0.310183 -82.37  0.001115393    2.103    0.524
       347  -7.8413    203.3436    122.2076   9.1478149398e+01   1.5472344980e+01    0.2262301     0.134058 -49.68 0.0005450984    1.731    0.422
       348  -8.0442    195.1898    122.2074   9.3093698158e+01   1.7362942051e+01    0.2525254    0.1083083 -48.69 0.0005413211    2.487    0.598
       349  -8.7891    172.0160    121.7600   9.7889117387e+01   2.2874514964e+01    0.2641471    0.2264698 -50.78 0.0004386451    1.162    0.139
       350  -9.7258     70.8554    119.7812   1.2346602524e+02   4.3145161231e+01     0.385846    0.2612384 -80.87  0.001041725    1.800    0.445
       351 -10.1227    141.5548    117.9287   1.0406428529e+02   3.0641368254e+01    0.7187413    0.3381075 -53.99  0.001568088    2.419    0.587
       352  -9.9453    130.5747    118.3501   1.0693285616e+02   3.2913767204e+01    0.5306296    0.3006687 -57.19  0.001535911    1.974    0.493
       353  -9.5456      2.8484    117.5023   1.4166207935e+02   5.0358038051e+01      0.39034    0.2081295  75.63  0.001988257    2.431    0.589
       354  -7.6753    231.5249    117.9869   8.5349578387e+01   9.9279415385e+00    0.2108103    0.1142543 -58.01 0.0006986203    2.398    0.583
       355 -10.0639    109.1402    114.1090   1.1151890108e+02   3.8152029394e+01    0.5623018    0.3477501 -66.62  0.001477638    2.058    0.514
       356  -9.2090    108.8027    107.8146   1.1001090133e+02   3.9617460020e+01     0.437638    0.2879658   5.39  0.001693729    2.770    0.639
       357  -8.4209    185.6151    115.8483   9.3474532069e+01   2.0886418994e+01    0.2259001    0.1415593 -51.98 0.0004577882    1.678    0.404
       358  -9.4231    249.6597    114.8144   8.1703083442e+01   6.6502934898e+00    0.3233413    0.2312542 -62.52  0.001634699    1.573    0.364
       359  -8.2196    193.0822    115.3033   9.1808237738e+01   1.9228585820e+01    0.2146115      0.20315  85.99 0.0004830394    1.073    0.068
       360  -8.6291    167.1670    114.6391   9.7162863101e+01   2.5493727255e+01     0.267229    0.2149812 -54.64  0.000702541    1.270    0.212
       361 -10.1731     92.6200    112.3629   1.1565730834e+02   4.1499301263e+01     0.595681     0.322841 -64.27  0.001391621    2.262    0.558
       362  -8.9418     93.9361    104.5403   1.1333732846e+02   4.3026067510e+01    0.4083449    0.2202117  22.58  0.001544915    2.915    0.657
       363  -9.9774     78.8344    112.4507   1.1958913004e+02   4.3676041608e+01    0.5977618    0.3908798 -87.07  0.002606694    2.397    0.583
       364  -8.7512     78.2233    105.3751   1.1809418189e+02   4.5365378595e+01    0.3448677    0.2402084 -11.70  0.001152865    2.072    0.517
       365  -8.3080    235.7845    114.5986   8.3853727863e+01   9.6173262835e+00    0.1967649    0.1409248  69.34 0.0009502756    1.653    0.395
       366 -10.6119    133.6740    109.3759   1.0382518520e+02   3.4216214558e+01    0.7257614    0.3576427 -52.17  0.002135281    2.179    0.541
       367 -10.3657    121.9313    111.9108   1.0753420975e+02   3.6129573507e+01    0.5682644    0.3737119 -48.68  0.001109119    1.484    0.326
       368  -9.6789     14.2469    111.6217   1.3780578392e+02   5.0899613069e+01    0.3245173    0.1968094  72.13  0.001168066    2.162    0.538
       369  -8.6700    174.7758    111.7953   9.4747435623e+01   2.4279739509e+01    0.3161893    0.2078273 -52.19 0.0007398119    1.591    0.371
       370  -8.8225    159.4013    111.8715   9.8218960003e+01   2.7887146358e+01    0.2958161    0.2414449 -82.13 0.0006867978    1.452    0.311
       371 -10.2351     66.5391    110.0974   1.2259935904e+02   4.5958086449e+01    0.5868713    0.3418218 -63.92  0.001971375    1.720    0.418
       372  -8.5746     42.5242    109.7525   1.2950012739e+02   4.8873465608e+01     0.281728    0.1741409  -5.50  0.001374914    2.626    0.619
       373  -9.3251    248.5731    108.9802   8.0556378914e+01   7.8913096694e+00    0.3071489    0.2341726 -71.49  0.001138952    1.512    0.339
       374 -10.3304    248.3223    103.4420   7.9343955425e+01   8.9032994722e+00    0.4367465     0.327756 -45.39  0.002341195    1.196    0.164
       375  -8.1412    189.3574    108.1680   9.0757871586e+01   2.1520459622e+01    0.2265939    0.1381541 -50.21 0.0004814657    1.690    0.408
       376  -8.3808      5.9573    109.0000   1.3968157845e+02   5.2029845692e+01    0.1527809   0.06806837  20.19 0.0008043831    2.956    0.662
       377  -9.8028    139.8695    104.1686   1.0087193996e+02   3.3963830305e+01    0.5501031    0.2722397 -46.51  0.001537121    2.022    0.505
       378 -10.5731     45.5863    102.4779   1.2712867245e+02   5.0185481381e+01    0.6846871    0.4117452  79.60  0.002984158    3.110    0.678
       379 -10.6079     22.9895    102.7986   1.3387991141e+02   5.2196204797e+01    0.6768177    0.3843703  78.29   0.00257249    2.914    0.657
       380  -8.8837    166.7733    104.4170   9.4579343504e+01   2.7679947300e+01    0.3508866     0.214697 -50.66 0.0007561063    1.709    0.415
       381  -9.6117    150.5841    103.0276   9.7946249383e+01   3.1768051290e+01    0.4708446    0.2996431 -61.16   0.00120153    1.957    0.489
       382 -10.7953    108.9376     98.9439   1.0762054706e+02   4.1516765397e+01    0.9402171    0.5604553  71.73   0.00174242    3.550    0.718
       383  -9.2785    107.7106     92.6255   1.0621848540e+02   4.3081808444e+01    0.5854636    0.2714336  29.73  0.002007791    3.212    0.689
       384  -8.8025      6.9573    103.4438   1.3858144464e+02   5.3179145342e+01    0.2170063    0.1376663 -84.51 0.0008213103    1.590    0.371
       385 -10.1340    128.5100    102.0798   1.0320177684e+02   3.6881230101e+01    0.3846708     0.302837  87.25  0.001062468    1.657    0.397
       386  -8.2017    175.4344    102.2600   9.2117774442e+01   2.6033031619e+01    0.2184116      0.14534 -52.12 0.0005058552    1.572    0.364
       387  -8.3817    159.8166    101.1121   9.5267826666e+01   2.9998321095e+01    0.2461585    0.2072134 -74.97 0.0005572299    1.336    0.251
       388  -9.2584     81.9697     99.8549   1.1562108815e+02   4.6014586382e+01    0.3554934    0.2325331 -68.96 0.0009153014    1.922    0.480
       389  -9.3949     94.9011     96.9282   1.1106445228e+02   4.4516717601e+01    0.3603525    0.2358928 -54.79 0.0006178445    1.546    0.353
       390 -10.2865     64.0323     95.9132   1.2003532891e+02   4.9449284648e+01    0.5434938    0.3706059  88.63  0.001657592    2.428    0.588
       391  -8.3893    150.8869     95.8403   9.5909771498e+01   3.3154418280e+01    0.3860152    0.2236076 -14.29  0.001199869    3.753    0.734
       392  -8.5219    176.6405     93.4724   8.9524405398e+01   2.7444273426e+01    0.3131998    0.2208208 -65.39 0.0008933687    1.709    0.415
       393  -8.3270    164.8924     94.1566   9.2234953265e+01   3.0162333212e+01    0.2406047    0.2058562 -75.58 0.0004665765    1.289    0.224
       394  -9.4561    138.9609     92.0846   9.7759884047e+01   3.6640826018e+01    0.4858584    0.3219002 -63.31  0.001409462    1.961    0.490
       395  -7.6591    188.4760     93.5610   8.7153816377e+01   2.4535816576e+01     0.153937    0.1474176 -83.18 0.0001482085    1.013    0.013
       396 -10.5101    123.7078     91.2647   1.0145492913e+02   4.0137084707e+01    0.5474494    0.4687621  21.17  0.001360767    1.272    0.214
       397  -9.5280      5.5172     92.3676   1.3722431008e+02   5.5647119735e+01    0.3210721    0.2012012  59.26  0.001529499    2.222    0.550
       398  -7.9269    157.8939     91.8397   9.3170525773e+01   3.2288944881e+01    0.2173413    0.1826513 -72.88 0.0004705829    1.337    0.252
       399  -9.4833     34.7046     89.7945   1.2774494264e+02   5.4032197739e+01    0.4388664    0.2407292 -74.92  0.001977132    2.379    0.580
       400  -8.2870     35.3865     82.8087   1.2594215609e+02   5.5449103180e+01    0.2711153   0.09335532 -53.88  0.001185548    2.258    0.557
       401  -8.8870     23.1689     90.1926   1.3144308578e+02   5.4920769948e+01    0.2099923    0.1897809 -30.09 0.0009364816    1.206    0.171
       402  -8.1068    151.0814     89.2823   9.4032919970e+01   3.4397306263e+01    0.2123047    0.2004741  68.98 0.0004474104    1.070    0.066
       403  -9.9778     86.3177     86.7394   1.1080571466e+02   4.8111699773e+01    0.4598084    0.3465346 -80.95  0.001181324    1.956    0.489
       404  -9.0039     86.3479     81.3103   1.0924436392e+02   4.9210531684e+01    0.3985078    0.2245305  20.37  0.001653444    2.577    0.612
       405  -9.1072     66.2919     87.4171   1.1717282541e+02   5.0968506268e+01    0.5925438    0.2411074  20.51  0.001846413    5.277    0.811
       406  -7.6827    188.4642     87.4953   8.5559341069e+01   2.5659636110e+01    0.1550498    0.1449909 -78.19 7.530128e-05    1.048    0.046
       407  -9.9022     48.3823     84.0860   1.2203026282e+02   5.3865020490e+01     0.536007    0.3323904 -71.29  0.002173852    2.097    0.523
       408  -7.5567    179.3046     85.6794   8.6878494042e+01   2.8246462032e+01    0.1592378    0.1187216 -74.89 0.0006616106    1.633    0.388
       409  -9.8717    104.7724     83.3497   1.0438840278e+02   4.5526062555e+01    0.4613747    0.3417756 -79.64  0.001095665    2.076    0.518
       410  -8.8601    105.0035     77.4864   1.0257382390e+02   4.6624348230e+01    0.3000805    0.2000525  14.07  0.001206405    2.088    0.521
       411  -8.4524    158.0166     84.0142   9.0950439199e+01   3.3748011837e+01    0.2314114    0.2208367 -77.39 0.0004328959    1.067    0.063
       412  -8.9805     46.4939     92.5535   1.2466448122e+02   5.2267008064e+01    0.3469201    0.2099435   9.14  0.001763915    2.304    0.566
       413  -7.6841    185.2607     82.9846   8.4977753932e+01   2.7265294554e+01    0.1968775    0.1315386 -39.51 0.0006528306    1.502    0.334
       414  -7.4443    170.3669     83.6862   8.8173004176e+01   3.0808244509e+01    0.1635639    0.1199835 -80.50 0.0007038128    1.769    0.435
       415  -9.2500      9.9367     81.1295   1.3382191440e+02   5.7746041169e+01    0.3202693    0.1937753  70.49  0.001708363    2.830    0.647
       416  -9.6897     24.5732     80.2581   1.2889364546e+02   5.6905757428e+01    0.4243095     0.240261 -78.15  0.001575948    2.488    0.598
       417  -8.7062    150.2874     80.4572   9.1699770520e+01   3.6251085058e+01    0.3670961    0.2116049 -54.83 0.0009964881    2.110    0.526
       418  -9.2154    119.3015     80.1978   9.9407289555e+01   4.3239764884e+01    0.3563462    0.2465987 -60.77   0.00103804    1.827    0.453
       419  -8.9427     74.3533     80.1142   1.1262461148e+02   5.1331943676e+01    0.3650315    0.2222051 -64.35  0.001653303    2.271    0.560
       420  -7.8672    249.6689     80.6778   7.4024648696e+01   1.2449890744e+01    0.1321399     0.110389  13.09 0.0006135126    1.698    0.411
       421  -8.2123    166.7165     79.7365   8.7844359890e+01   3.2419925580e+01    0.2568203    0.1833582 -34.85 0.0006080233    1.458    0.314
       422  -9.3422     65.3985     78.2231   1.1495022490e+02   5.2983539617e+01    0.3017069    0.2120842 -56.46  0.001255573    1.478    0.323
       423  -9.9218     63.4095     73.6619   1.1429617339e+02   5.4159705212e+01    0.4997157    0.2407123 -56.09  0.001589819    2.335    0.572
       424  -7.8102    184.2542     78.3627   8.3929379230e+01   2.8334137939e+01    0.1488579    0.1210687   7.40 0.0005153869    1.622    0.384
       425  -9.4659    128.1545     75.4999   9.5656375158e+01   4.2223360440e+01    0.3865948    0.2634139 -59.31 0.0007809861    1.849    0.459
       426  -9.1626    140.5397     82.5776   9.4641242528e+01   3.8127107758e+01    0.4436008    0.2558895 -52.74  0.001118276    2.005    0.501
       427  -8.7470    140.3952     75.2231   9.2511776828e+01   3.9517524290e+01    0.2795863    0.2171473 -68.69 0.0006259854    1.600    0.375
       428  -9.6825     82.4143     72.8466   1.0794259109e+02   5.1511989137e+01    0.4015525    0.2884049 -69.50  0.001171943    2.083    0.520
       429  -8.4429    163.4728     73.4717   8.6760366847e+01   3.4322961989e+01    0.2620155    0.1972206 -73.09 0.0007010089    1.636    0.389
       430  -8.8566    150.8611     73.8433   8.9643355007e+01   3.7307846173e+01    0.2302085    0.2051543  22.25 0.0008482834    1.213    0.176
       431  -8.9546    115.7220     72.8285   9.8144447922e+01   4.5360433321e+01    0.2788173    0.1922645 -47.94 0.0008017344    1.537    0.349
       432  -9.5078    105.9475     71.9838   1.0061675927e+02   4.7475104216e+01      0.38094    0.1964713 -47.47 0.0009607058    2.063    0.515
       433  -9.4011     95.1369     71.2931   1.0356583897e+02   4.9629150164e+01     0.440386    0.2507906 -55.26  0.001050916    2.246    0.555
       434  -9.6275     97.3223     61.1554   9.9680532819e+01   5.1043936167e+01     0.581916    0.3494688 -19.89  0.002160684    2.061    0.515
       435  -8.2403     42.5288     72.9559   1.2109392809e+02   5.6769620525e+01    0.1885571    0.1077516 -53.88 0.0005333598    1.560    0.359
       436  -7.9479    175.2737     72.6004   8.4098676991e+01   3.1561752714e+01    0.2053613    0.1378585  48.41 0.0004126967    1.488    0.328
       437  -9.5028     51.4553     69.7040   1.1715729864e+02   5.6431262157e+01    0.4156843    0.2386524 -65.54  0.001576453    2.532    0.605
       438  -8.8896     28.0431     70.9875   1.2554028386e+02   5.8515181545e+01    0.3112535    0.1483801 -26.23  0.001456348    2.725    0.633
       439  -8.3308     32.0313     68.2812   1.2346675582e+02   5.8708319761e+01    0.1920154    0.1350466 -31.70 0.0007165559    1.273    0.214
       440  -8.0128    187.6840     70.9331   8.1287647314e+01   2.8755827554e+01     0.204866    0.1844892 -52.30 0.0003803607    1.110    0.099
       441  -7.9541    170.3194     71.3195   8.4731204835e+01   3.3008146418e+01    0.1540439    0.1184039  21.72 0.0007042637    1.664    0.399
       442  -8.8057     16.7214     70.3915   1.2928626966e+02   5.9496919688e+01    0.2174998    0.1715843  84.60  0.001025746    1.765    0.433
       443  -7.6864    157.2059     69.9835   8.7101642088e+01   3.6451926171e+01    0.1979565    0.1207236 -36.93 0.0003845722    1.687    0.407
       444  -8.9572    147.0731     68.3488   8.8885463400e+01   3.9161571343e+01    0.2783251    0.2126251 -48.34 0.0005258423    1.385    0.278
       445  -9.2005    138.7976     66.4013   9.0239554029e+01   4.1429214202e+01    0.3239287    0.2056963 -46.86  0.001040287    1.697    0.411
       446  -8.9397    121.5648     66.0787   9.4473855010e+01   4.5329698108e+01    0.3020105    0.2337922 -65.58  0.000759617    1.681    0.405
       447  -8.4359     82.7457     65.8620   1.0566718263e+02   5.2763803863e+01    0.2364449    0.1406466  -7.13 0.0009525244    2.859    0.650
       448  -7.1699    163.6838     65.6794   8.4481088266e+01   3.5591372665e+01    0.1530363    0.1161587  22.44  0.000704104    1.659    0.397
       449  -9.5134    110.3089     63.2865   9.6636698429e+01   4.8156234745e+01    0.4761236    0.2559773 -39.84   0.00174727    1.863    0.463
       450  -8.8566     64.5019     63.6031   1.1090533814e+02   5.5932861429e+01    0.3798645    0.2111104 -13.27  0.001576015    2.997    0.666
       451  -8.8465     37.2895     64.0041   1.2045704499e+02   5.9050691291e+01    0.2786655    0.1926465 -74.88 0.0008669969    2.207    0.547
       452  -8.2396    158.2443     61.9380   8.4526302199e+01   3.7534456334e+01    0.1981518    0.1951114 -29.40 0.0003039581    1.067    0.063
       453  -9.6887     73.2625     59.5761   1.0670053653e+02   5.5392281916e+01    0.3849017    0.2169599 -50.30   0.00124277    1.976    0.494
       454  -9.6821    243.2204     59.0863   6.9997962790e+01   1.7295464636e+01    0.2522049    0.2022834  73.38 0.0003666246    1.254    0.202
       455  -7.7647    164.3702     59.8015   8.2643730924e+01   3.6370757544e+01    0.1938823    0.1438221 -20.80 0.0004572846    1.578    0.366
       456  -8.2255     88.8655     59.7674   1.0178444076e+02   5.2808257354e+01    0.1701086    0.1610349 -62.67 0.0004861783    1.307    0.235
       457  -8.5825    147.1023     59.1047   8.6095288921e+01   4.0676549524e+01    0.2198301    0.1954838  24.10 0.0004709214    1.185    0.156
       458  -9.1607    129.7675     58.1945   8.9888947356e+01   4.4838785727e+01    0.3430133    0.2446736  40.96 0.0009678869    1.367    0.268
       459  -9.9109     23.4351     56.5026   1.2336249702e+02   6.1697172473e+01    0.3932227    0.2592351 -80.10  0.002114818    2.730    0.634
       460  -9.2181      7.5011     56.9771   1.2935009587e+02   6.2702507629e+01    0.2905639    0.1746384 -70.26  0.001130152    1.923    0.480
       461  -9.3942    119.1911     55.7911   9.1810073677e+01   4.7542533089e+01     0.430082    0.2422946 -47.44  0.001698966    2.066    0.516
       462  -9.5713     54.3059     55.6672   1.1189826546e+02   5.8709718358e+01    0.3273813    0.2034101 -54.12  0.001348585    1.858    0.462
       463  -8.3351    139.8661     56.1461   8.6830580170e+01   4.2848441484e+01    0.2177232      0.19319 -62.18 0.0004477267    1.262    0.208
       464  -8.8482     44.1929     55.6117   1.1549425867e+02   5.9904295802e+01    0.2240486    0.1762428 -63.72 0.0007668687    1.676    0.403
       465  -8.7666    105.6325     53.1856   9.4634123959e+01   5.0758105723e+01     0.284425    0.2169647 -57.48 0.0007764067    1.706    0.414
       466  -7.6285    127.6273     52.2991   8.8534935690e+01   4.6238036404e+01    0.1432881    0.1132069 -83.30 0.0007029069    1.745    0.427
       467  -9.6158     92.3527     50.6501   9.7651032191e+01   5.3692162542e+01    0.3681269     0.230962 -46.93  0.001002726    1.841    0.457
       468  -8.4913     75.3670     51.7379   1.0338748894e+02   5.6407856553e+01    0.3729856    0.1644145  24.20  0.001360218    3.689    0.729
       469  -8.0967    144.7723     49.3694   8.3626722147e+01   4.2713921818e+01    0.2562235    0.1652545 -44.59 0.0006025305    1.687    0.407
       470  -8.1061    149.9935     48.9440   8.2376860277e+01   4.1526193359e+01    0.1687712    0.1657354  41.78 0.0003592702    1.048    0.046
       471  -8.2932    129.9153     49.1487   8.6962643764e+01   4.6195159845e+01    0.2078144    0.1927571 -80.33 0.0004573111    1.246    0.198
       472  -8.8221    120.8853     47.6208   8.8693597439e+01   4.8423103346e+01    0.2512536    0.2249985 -13.84 0.0005517954    1.135    0.119
       473  -8.6871    112.1443     47.2509   9.0847739304e+01   5.0338869354e+01     0.249529    0.1957355 -39.02 0.0006445884    1.364    0.267
       474  -9.1367     82.0072     46.4181   9.9388963526e+01   5.6173988121e+01    0.2685589    0.1794786 -34.86 0.0006366342    1.454    0.312
       475  -8.7410     44.9295     44.7114   1.1165890959e+02   6.1719730754e+01    0.2177587    0.1556983 -42.74 0.0005611143    1.358    0.263
       476  -9.3987     16.6059     44.5315   1.2249456252e+02   6.4395030076e+01     0.226157    0.1692171 -52.86 0.0009375894    1.360    0.265
       477  -8.7553    133.0095     43.5833   8.4439407982e+01   4.6286332953e+01    0.2531721    0.1931534 -53.08 0.0007704957    1.548    0.354
       478  -8.7014     92.7520     43.0497   9.4882146836e+01   5.4775786857e+01    0.2549728    0.1761907  -8.98  0.001135831    1.596    0.374
       479  -8.9957     58.0860     42.5102   1.0608093923e+02   6.0434440537e+01    0.2892143    0.1679157 -51.90  0.001452839    2.293    0.564
       480  -9.3373     69.6173     41.6378   1.0175244530e+02   5.8906477619e+01    0.3065352     0.232755 -54.08  0.001003077    1.826    0.452
       481  -9.5038      5.1683     42.0708   1.2629382028e+02   6.5577545869e+01     0.273758    0.1742086 -69.04   0.00141725    2.061    0.515
       482  -9.0799    105.9728     41.1094   9.0416122278e+01   5.2488348843e+01    0.2970563    0.1863594 -39.89 0.0006889623    1.729    0.422
       483  -8.3827    140.1691     41.2435   8.2089016628e+01   4.4943315598e+01    0.1894205     0.162753 -66.41 0.0007731242    1.357    0.263
       484  -8.4790     36.9477     41.0134   1.1341502504e+02   6.3205105230e+01    0.1799413    0.1455271 -25.62 0.0005722206    1.072    0.067
       485  -9.0685     95.4302     37.8729   9.2248702873e+01   5.5007763440e+01    0.2259012    0.2072368 -69.00 0.0008224281    1.476    0.323
       486  -8.5197     80.7114     36.9370   9.6387245089e+01   5.7798290215e+01    0.1794042    0.1510248 -18.64 0.0004715058    1.144    0.126
       487  -9.3768     26.0017     35.4324   1.1580261626e+02   6.5178997797e+01    0.2582533    0.1738469 -51.07 0.0009124074    1.643    0.391
       488  -9.7713    139.0645     35.0490   8.0361097284e+01   4.6011931593e+01     0.338414     0.198769 -26.11 0.0008324413    1.884    0.469
       489  -8.1246    133.4305     36.2561   8.1974380640e+01   4.7168165872e+01    0.1825811    0.1288154 -41.77 0.0005590896    1.570    0.363
       490  -8.2006    125.9748     35.7104   8.3497397509e+01   4.8932916554e+01    0.1902207    0.1629011  48.45 0.0003738938    1.092    0.084
       491  -8.6672    111.6337     34.3586   8.6562106656e+01   5.2223997429e+01    0.2794485    0.1859913 -47.79 0.0007941621    1.878    0.467
       492  -8.6184    119.0691     33.5139   8.4407656687e+01   5.0738625342e+01    0.2463738    0.1788252 -43.55 0.0006679064    1.590    0.371
       493  -8.5653     88.5648     33.7726   9.2790269617e+01   5.6843235503e+01     0.248167    0.1210767 -27.14  0.001156664    2.121    0.529
       494  -9.1131     48.4963     33.3543   1.0624412108e+02   6.3091557828e+01    0.2307386    0.1897753 -38.10 0.0007322261    1.394    0.283
       495  -8.6957     60.6271     32.7687   1.0158286877e+02   6.1548924126e+01    0.2001636     0.176914 -48.76 0.0007208913    1.578    0.366
       496  -8.6422     72.1965     31.3234   9.7053782933e+01   5.9987411919e+01    0.2010733    0.1880584 -75.66 0.0006235316    1.643    0.391
       497  -8.9447     12.9093     30.5393   1.1951967631e+02   6.7034787978e+01    0.2297423    0.1399327 -52.70  0.001028117    1.712    0.416
       498  -8.4648    101.4441     29.6254   8.7583199862e+01   5.4908306854e+01    0.2156949    0.1771829 -43.34 0.0007751342    1.464    0.317
       499  -8.3534     42.1636     30.1677   1.0746141076e+02   6.4330192500e+01     0.145021    0.1282689 -24.52 0.0004801688    1.315    0.240
       500  -8.8946     81.4040     27.6163   9.2675940512e+01   5.8922623991e+01    0.2320008    0.2016973 -64.61 0.0007228921    1.759    0.432
       501  -8.7395      3.4625     27.8230   1.2263526993e+02   6.8102244253e+01     0.169677    0.1538979 -45.48 0.0007786189    1.457    0.314
       502  -8.9511     91.7865     26.2976   8.9065955747e+01   5.7192051918e+01    0.3105369    0.1696715 -38.19  0.001067362    2.047    0.512
       503  -7.7561    145.7070     26.3259   7.6269196352e+01   4.5488828148e+01      0.13478    0.1027875 -70.83 0.0004924101    1.620    0.383
       504  -8.2209    104.4724     22.9658   8.4368601443e+01   5.5078175730e+01    0.1810697    0.1240332 -24.31 0.0004391758    1.533    0.347
       505  -7.8493     34.1885     23.1315   1.0790207185e+02   6.6245503479e+01    0.1388469    0.1241678 -12.22 0.0004771882    1.346    0.257
       506  -9.0515     63.4620     21.1698   9.6040237724e+01   6.2671943652e+01    0.2552177    0.1933853 -39.08 0.0009436755    1.621    0.383
       507  -8.8724     48.4518     21.8647   1.0177490508e+02   6.4714540568e+01    0.1884785     0.171389 -23.09 0.0007389625    1.425    0.298
       508  -8.1810     19.6038     21.7823   1.1349013810e+02   6.7861839326e+01     0.143415   0.09017416 -45.35  0.000775643    1.649    0.394
       509  -7.7283    120.6940     21.3239   7.9858730096e+01   5.1802372806e+01    0.1259245    0.1023592 -71.64 0.0003638066    1.644    0.392
       510  -8.9423     74.1622     19.6917   9.1878309226e+01   6.1126349656e+01    0.2434679    0.1739832 -44.00 0.0007702206    1.869    0.465
       511  -8.2417     87.9750     17.9175   8.6983526655e+01   5.8866585270e+01    0.1728032    0.1534125 -64.05 0.0005070355    1.649    0.393
       512  -8.0689     38.8577     18.3868   1.0409516749e+02   6.6366373267e+01    0.1549113    0.1207731 -19.43 0.0006309187    1.165    0.141
       513  -8.2864    112.6242     17.1836   8.0281830784e+01   5.3989577379e+01    0.1668545    0.1179564  -3.02 0.0003518189    1.569    0.363
       514  -7.9690     30.1638     16.2356   1.0676967979e+02   6.7626286317e+01    0.1373025    0.1201404 -18.66 0.0008442083    1.390    0.281
       515  -8.3827    218.9155    248.5953   1.1402343891e+02  -9.4750413509e+00    0.2038876    0.1617032 -56.70 0.0007983121    1.930    0.482
       516  -9.2218    175.8089    247.6266   1.2185353592e+02  -2.1531618396e+00    0.3079932    0.2532051 -89.78  0.001034409    1.666    0.400
       517  -7.7717     83.4999     11.4517   8.5749444279e+01   6.0366443658e+01    0.1221838    0.1025102  21.88 4.319226e-05    1.036    0.035
       518  -8.8205    156.2655    248.3725   1.2563010047e+02   1.0975805874e+00    0.2534707    0.1659099  78.75 0.0008255579    2.394    0.582
       519  -8.8962    132.2717    247.8586   1.3005532298e+02   5.2809978959e+00    0.2722722    0.1761036  77.55  0.000734099    1.971    0.493
       520  -8.2792    113.1300    248.6062   1.3368047018e+02   8.3233125386e+00    0.2033773    0.1478582 -88.56 0.0007484609    1.481    0.325
       521  -9.1757    104.0518    247.0857   1.3517024855e+02   1.0051369774e+01     0.405506    0.1996265 -79.82  0.001719684    2.986    0.665
       522  -8.5024    242.8896    247.3524   1.0953721555e+02  -1.3006173989e+01    0.2324524    0.1506065 -39.41  0.001057163    1.906    0.475
       523  -7.9678     17.1614     14.1714   1.1154201511e+02   6.9164375966e+01    0.1318764    0.1107584 -19.11 0.0005435421    1.310    0.237
       524  -8.6219    232.9073    247.0373   1.1125206242e+02  -1.1462389439e+01    0.2376728    0.2125755  55.28  0.001131939    1.600    0.375
       525  -9.0370    211.2131    246.8709   1.1515288401e+02  -8.0029405503e+00    0.2527885    0.2029987 -76.67 0.0009447625    2.203    0.546
       526 -10.0815    224.1887    244.4415   1.1239255626e+02  -9.7666317282e+00    0.4263907    0.2491034 -49.01  0.001973383    2.499    0.600
       527  -9.1324    147.1437    246.1401   1.2704613577e+02   3.0323927514e+00    0.2951903    0.1993196  80.90  0.001164269    2.070    0.517
       528  -8.8785    120.0038    245.2075   1.3201947072e+02   7.7931510993e+00     0.319492    0.1824003  80.49  0.001508693    2.625    0.619
