#   1 NUMBER                 Running object number                                     
#   2 MAG_AUTO               Kron-like elliptical aperture magnitude                    [mag]
#   3 X_IMAGE                Object position along x                                    [pixel]
#   4 Y_IMAGE                Object position along y                                    [pixel]
#   5 X_WORLD                Barycenter position along world x axis                     [deg]
#   6 Y_WORLD                Barycenter position along world y axis                     [deg]
#   7 A_WORLD                Profile RMS along major axis (world units)                 [deg]
#   8 B_WORLD                Profile RMS along minor axis (world units)                 [deg]
#   9 THETA_WORLD            Position angle (CCW/world-x)                               [deg]
#  10 FWHM_WORLD             FWHM assuming a gaussian core                              [deg]
#  11 ELONGATION             A_IMAGE/B_IMAGE                                           
#  12 ELLIPTICITY            1 - B_IMAGE/A_IMAGE                                       
         1 -11.9210    248.5599     71.1096   3.5593545671e+02   1.9105302370e+01     1.668615     0.472149 -54.04  0.006022268    4.934    0.797
         2  -9.9804      3.0488      3.3287   4.0418798957e+01   7.9238435126e+01    0.2254664    0.1847972 -49.86  0.001496884    1.427    0.299
         3  -8.4075    240.1721    239.3719   2.5727016170e+01  -3.0417682642e+00     0.122304    0.0804965  23.00 0.0004459966    1.679    0.404
         4  -9.4232      3.1395    249.8661   7.5511779789e+01   1.8864883317e+01    0.1984116    0.1182276  46.24  0.001248585    1.264    0.209
         5  -8.3787     51.7861    236.1593   6.3610322257e+01   1.7175552241e+01    0.1652978    0.1401239  -2.49 0.0006919357    1.347    0.257
         6  -8.4052    139.5903    234.2771   4.3139950741e+01   7.6647323133e+00    0.1516516    0.1052174 -30.89 0.0003600527    1.478    0.323
         7 -11.1289      6.7163    207.6175   7.3347799372e+01   2.7568975659e+01    0.5772549    0.1984149  53.59  0.002428584    2.480    0.597
         8 -10.7528     11.7945    206.2318   7.1963846981e+01   2.7485668268e+01    0.3283812    0.2481728 -64.34  0.001789095    1.494    0.331
         9  -8.4032    208.2334    200.2437   2.4908984658e+01   5.2737768657e+00    0.1376604    0.1256271 -11.58 0.0003744815    1.324    0.245
        10 -10.2534    192.2479    193.4438   2.6576629998e+01   8.2048960081e+00     0.752815    0.3678172 -58.08  0.002903634    4.528    0.779
        11  -8.0147    249.6029    202.2997   1.8933258659e+01   7.7680374768e-01   0.08766463   0.07913237 -44.98 0.0002005175    1.814    0.449
        12  -8.7337    181.1141    194.6215   2.8831625959e+01   9.3920044039e+00    0.3473564    0.1957252 -62.42   0.00146386    3.740    0.733
        13  -8.7686     69.0231    195.7919   5.5556055264e+01   2.4102153908e+01    0.2892582    0.1994889 -13.44 0.0008777489    1.901    0.474
        14  -7.6190    177.4843    197.4797   2.9995436203e+01   9.3650351174e+00    0.1222034     0.106832  -9.90 0.0003741504    1.084    0.077
        15  -9.7060    237.9091    186.5667   1.8083797821e+01   4.0503712374e+00     0.266534    0.1736542  21.05  0.001215479    1.699    0.412
        16  -9.5403    225.8514    185.0761   1.9612821458e+01   5.5665800206e+00    0.2771603    0.1893416 -36.39  0.001493149    1.280    0.219
        17 -10.6078      7.1304    184.3659   7.2252370489e+01   3.3151048687e+01    0.2390588    0.2119185 -71.32 0.0008073015    1.229    0.186
        18 -11.0356    198.8753    178.3297   2.2830984050e+01   9.8463471680e+00    0.7734036    0.4066746  52.62  0.003372024    3.721    0.731
        19 -10.6190    209.8959    176.5561   2.0671699601e+01   8.7412842452e+00    0.4928427    0.2590701 -43.85  0.001687761    1.761    0.432
        20 -11.0525    204.4066    174.7510   2.1262403366e+01   9.7214547652e+00    0.5023539    0.3333645 -48.90  0.001917415    1.647    0.393
        21 -10.0890    207.6432    171.2433   2.0107073642e+01   9.8734253537e+00    0.2416731    0.1766677 -46.58  0.001331967    1.444    0.307
        22 -10.8499    222.4676    176.6861   1.8712810100e+01   7.2028412137e+00    0.4197258    0.2672812 -25.69  0.002674451    1.326    0.246
        23 -10.8132    227.2888    170.3535   1.6901993920e+01   7.5869851243e+00    0.4074029    0.2489846 -51.25  0.001239168    1.991    0.498
        24 -10.7630    230.5461    167.4525   1.5926805044e+01   7.6348059186e+00    0.4668434    0.2087862 -48.76   0.00231804    2.562    0.610
        25  -9.8591    189.2274    177.7447   2.4438747319e+01   1.1206592623e+01    0.3340118    0.2918023 -67.07  0.001415275    1.624    0.384
        26  -9.5624    188.1519    171.2674   2.3477672339e+01   1.2466156153e+01    0.2495418    0.2021537 -10.75 0.0008073684    1.158    0.137
        27 -11.9096    248.2498    106.1646   2.5968829623e+00   1.4347637993e+01    0.8944218     0.679009  16.97  0.003699431    1.981    0.495
        28 -12.3860    243.0480     94.5315   9.2915208896e-01   1.6733194298e+01     1.052197    0.6272803 -27.75  0.005535648    1.709    0.415
        29 -11.4711    235.0276     92.3434   1.3273211708e+00   1.8253121715e+01    0.5153797    0.3181782 -18.19   0.00189862    2.313    0.568
        30 -12.4964    240.4044    164.3634   1.4021313239e+01   6.9394181400e+00     1.044435    0.6059361 -52.66  0.006055261    2.268    0.559
        31 -11.8597    247.6476    123.9469   5.9429875043e+00   1.1895959589e+01     1.155306     0.460059 -37.54  0.006119231    1.897    0.473
        32 -10.8587    226.0945    148.0296   1.3096734442e+01   1.1138528109e+01    0.3274846    0.2307505 -37.17 0.0007425941    1.142    0.124
        33 -12.6636    236.3953    145.8644   1.1301797057e+01   1.0137340551e+01     1.368784    0.9912311  81.21  0.007991059    2.955    0.662
        34 -13.3163    241.9726    136.1588   8.8362841965e+00   1.0860265631e+01     1.890539     1.099123  39.96  0.006777858    2.227    0.551
        35 -10.9065    233.9884    118.0605   6.4409129282e+00   1.4623959744e+01    0.3466424    0.3188882  34.60  0.001959048    1.391    0.281
        36 -11.1535    231.2700    114.0421   5.9957096793e+00   1.5620049210e+01    0.4064559    0.3215874   1.50 0.0008159409    1.675    0.403
        37  -8.8867    239.0192    175.9904   1.6181246190e+01   5.4266377322e+00    0.1583434    0.1281628 -53.68  0.001136657    1.733    0.423
        38  -9.4919    173.0617    169.8748   2.6081487499e+01   1.4855616965e+01    0.4520128    0.3034778  43.44  0.002464256    1.723    0.419
        39 -10.9145    172.5419    162.7124   2.4849693414e+01   1.6259408990e+01    0.7390599    0.5311621 -77.20   0.00359386    2.498    0.600
        40 -10.9592    180.4894    169.0057   2.4487615522e+01   1.3941369085e+01    0.7131935    0.3004951 -43.06  0.003198463    2.152    0.535
        41 -10.6789    179.6680    163.9754   2.3711014364e+01   1.4966418556e+01    0.4507528    0.3218326 -59.62  0.001127335    1.790    0.441
        42 -10.4891    234.3621    152.2364   1.2716364891e+01   9.4422035614e+00    0.2786882    0.2263255 -45.41  0.000643871    1.313    0.238
        43  -8.7138    164.8284    168.2546   2.7440043996e+01   1.6375411903e+01     0.227524    0.1738122 -52.31 0.0009658432    1.416    0.294
        44  -9.1573      2.4988    167.5114   7.2834228834e+01   3.7799820945e+01    0.1370606    0.1208129  66.60 -3.972178e-05    1.008    0.008
        45  -8.6224    214.0710    166.0267   1.8148333136e+01   9.8827819080e+00    0.1803216    0.1455343 -29.38 0.0004362211    1.060    0.057
        46 -10.6446      3.1920    155.2261   7.1984987145e+01   4.1010340417e+01    0.4268094    0.1962951  72.60  0.001771894    2.185    0.542
        47 -10.6710    239.3638    119.3818   6.0524372151e+00   1.3672817029e+01    0.4312071     0.273018 -35.33 0.0007071792    1.244    0.196
        48  -8.9209    135.1628    154.5322   3.1426475619e+01   2.3888775326e+01    0.2964012    0.2040806 -51.63  0.001454191    1.458    0.314
        49  -9.9086    134.2480    149.4808   3.0640545906e+01   2.5141698228e+01    0.9378259    0.2366931 -53.99  0.002473854    5.059    0.802
        50  -8.5851    210.5268    153.0015   1.6325809392e+01   1.2447762962e+01    0.1931202    0.1015246 -39.24  0.001028239    1.581    0.367
        51  -9.7771    198.8751    151.0175   1.7830870966e+01   1.4430548720e+01    0.2896553    0.1567467 -40.50 0.0007327968    1.582    0.368
        52 -10.8857    235.8755    111.6338   4.9874777827e+00   1.5308927758e+01    0.4217249    0.2618016 -45.16 0.0007906006    1.295    0.228
        53  -8.4402    175.3981    149.2199   2.1675604366e+01   1.8336106575e+01    0.1875488    0.1174929 -50.85 0.0008049397    1.621    0.383
        54  -8.4000    212.3078    148.3139   1.5171953044e+01   1.2962986290e+01    0.1226148    0.0846043 -14.08 0.0003632443    1.626    0.385
        55  -9.7638    190.6417    142.1015   1.7483680722e+01   1.7221530060e+01    0.4392157    0.1931546 -51.00  0.001861423    2.498    0.600
        56  -8.7441     68.1948    143.8022   4.8604621016e+01   3.7352494273e+01    0.5247803    0.1738731  49.34  0.001442325    4.179    0.761
        57  -9.8925      2.3319    141.5196   7.1480665657e+01   4.4781355067e+01     0.259951    0.1208092 -81.78  0.001090605    1.991    0.498
        58  -8.2678     65.1040    131.9133   4.7543161640e+01   4.0974081613e+01    0.1962475     0.176657 -15.49            0    1.239    0.193
        59  -8.0957    168.6308    128.2133   1.8605916537e+01   2.3457126486e+01    0.1906323    0.1193398 -35.78 0.0002503704    1.544    0.352
        60  -8.5685    161.0150    128.2703   2.0129510874e+01   2.4813463709e+01    0.2473996    0.1497101 -74.55 0.0008957107    3.497    0.714
        61 -10.5600    218.6798    123.9396   9.5470447838e+00   1.5958454811e+01    0.2869188    0.2149357 -31.72  0.001039234    1.161    0.139
        62 -11.9691    219.5723    116.7880   8.0110823949e+00   1.6951659331e+01    0.5852239     0.550685  31.14  0.003713016    1.313    0.238
        63  -9.5068    173.9557    118.2331   1.5407262379e+01   2.4379316350e+01    0.5565007    0.1822124 -34.38  0.001689727    4.246    0.764
        64  -9.7610    131.9085    117.2977   2.4109792245e+01   3.2609641600e+01    0.4990325     0.297705 -51.45  0.001503394    1.651    0.394
        65 -10.1999    202.4087    116.1107   1.0271608890e+01   1.9797523909e+01    0.3245323    0.2248876  64.53  0.001846835    1.904    0.475
        66 -10.1598    196.7607    116.0087   1.1102344763e+01   2.0760694572e+01    0.4046353    0.1889747  52.82  0.001885062    2.602    0.616
        67  -9.7217    186.3528    115.1208   1.2570103589e+01   2.2716438485e+01    0.2206885    0.2122127 -36.68 0.0003566162    1.109    0.098
        68  -9.5911    179.4368    115.0904   1.3733751603e+01   2.3959453408e+01     0.234315    0.2001775  64.90 0.0005281688    1.356    0.263
        69 -10.5892    205.7000    110.8940   8.7036366968e+00   2.0112999531e+01    0.4601767    0.2971309 -64.80  0.002446638    1.977    0.494
        70  -9.5612     48.1707    111.1401   4.9906855358e+01   4.8971186772e+01    0.4075994    0.2662885 -47.89   0.00128402    1.556    0.358
        71 -10.8377     40.6697    108.3667   5.2453530172e+01   5.0676528531e+01    0.8191866    0.5566285  50.87  0.003766131    1.556    0.357
        72  -9.7816     31.2789    106.9735   5.6200350948e+01   5.2113454702e+01    0.4615161    0.2404878  20.53 0.0009031364    2.017    0.504
        73 -11.6570      2.5222    106.9781   6.8782703917e+01   5.4326078792e+01    0.8491554    0.3636129 -86.56  0.003333118    2.316    0.568
        74  -9.5722    187.5180    107.8922   1.0789631966e+01   2.3772905688e+01     0.313918    0.1187114 -35.82  0.001214023    2.655    0.623
        75  -9.9646    177.8263    107.5560   1.2315516807e+01   2.5613339129e+01    0.3213175    0.2778157 -41.57 0.0007901068    1.055    0.053
        76  -9.7237    159.6818    108.2710   1.5813038871e+01   2.8961263135e+01    0.2587238    0.2266631 -58.40 0.0005410079    1.096    0.088
        77  -8.9977    134.6950    106.6782   2.0823425303e+01   3.4308817089e+01    0.3553043    0.1696612 -45.99  0.001404719    2.007    0.502
        78  -9.4978    203.4542    106.4903   8.0918732227e+00   2.1211721956e+01    0.3236335    0.2041415 -32.83  0.001548162    1.491    0.329
        79  -7.8471     95.4067    104.8446   3.1183394869e+01   4.2684465879e+01     0.193556    0.1454874 -41.41 0.0003268001    1.395    0.283
        80  -8.2302    181.6974    102.6629   1.0551173911e+01   2.5755404272e+01    0.1310905    0.1037514  -8.64  0.000205398    1.666    0.400
        81  -8.2406    137.1434     96.8290   1.7721388293e+01   3.5817279783e+01    0.1853782    0.1693054 -17.59 0.0002636716    1.255    0.203
        82  -9.1392    169.0474    110.8840   1.4640749919e+01   2.6658941084e+01    0.2519883    0.1862735 -41.38 0.0008530881    1.232    0.188
        83  -8.6410    213.1366     86.8925   2.6530479796e+00   2.2638822448e+01    0.1965016    0.1364324 -54.69 0.0005517326    1.283    0.221
        84  -8.5337    175.3237     74.7883   4.8997043059e+00   3.1733231421e+01    0.2370037    0.1620134 -47.23 0.0008364719    1.285    0.222
        85  -9.3005    172.8195     83.6422   7.4772757250e+00   3.0779963628e+01    0.4138509    0.1787788 -37.00  0.001155906    2.223    0.550
        86  -9.1486    174.3631     79.2111   6.1414109088e+00   3.1206589145e+01    0.4195392    0.1536345 -42.88 0.0009403501    2.367    0.578
        87 -10.6944    239.4453     82.4981   3.5894978408e+02   1.8963132778e+01    0.3082884    0.2220226 -28.00  0.001871146    1.439    0.305
        88 -10.1485    243.6936     81.8174   3.5841888182e+02   1.8405612136e+01    0.2146315    0.1761488   4.55  0.001475828    1.833    0.454
        89 -11.5401    242.4458     74.9255   3.5719387517e+02   1.9535880659e+01    0.4573997    0.4457873  23.14  0.002547812    1.436    0.303
        90  -9.7873     45.1935    236.2143   6.5198964007e+01   1.7829453413e+01    0.2125441    0.1977683 -33.31 0.0003615154    1.313    0.239
        91 -10.7918    237.7826     58.3425   3.5431676993e+02   2.2481631536e+01    0.3690235    0.2035256 -69.55  0.001607406    2.029    0.507
        92  -8.4661      2.3084     81.3061   6.6012889665e+01   6.1340894890e+01    0.1494948   0.08975787 -42.17 0.0004367249    1.611    0.379
        93  -9.9145    231.6526     78.0353   3.5881496349e+02   2.0822695033e+01    0.3073878    0.2007656 -19.06  0.001302418    2.080    0.519
        94  -8.8048    184.4603     77.5216   4.2423145550e+00   2.9439424016e+01     0.254741    0.1871128 -20.81 0.0008542451    1.719    0.418
        95  -9.0229    181.1503     76.1567   4.3834649429e+00   3.0321742615e+01    0.2285517    0.1823481  84.42 0.0002463855    1.345    0.257
        96  -9.5342    238.1104     67.1292   3.5603798859e+02   2.1270682407e+01    0.1638358    0.1361288 -36.66 0.0004754713    1.252    0.201
        97 -10.5734    233.5494     65.8511   3.5617804188e+02   2.2186888334e+01    0.4373636    0.1763869 -33.87  0.002171736    2.206    0.547
        98  -9.0702     12.6920     60.2050   5.6166879796e+01   6.6185043604e+01    0.2628526    0.1615706 -53.80  0.001298531    1.485    0.327
        99  -8.7741    246.9781     59.2267   3.5377802449e+02   2.0891285622e+01    0.1474739    0.1138407 -51.89 0.0002130416    1.070    0.065
       100  -8.0567    219.6824     54.6313   3.5507095373e+02   2.6081500741e+01    0.1081364   0.09109374  -1.34 0.0007036689    1.785    0.440
       101 -10.1641    227.1142     48.7092   3.5320274789e+02   2.5534046359e+01    0.3211545    0.1821295 -39.60  0.001958138    1.418    0.295
       102  -9.3124    150.0217     45.5569   8.7535643284e-01   4.1809202492e+01     0.278479     0.202539 -23.21  0.001036401    1.697    0.411
       103  -7.8886     93.0008     39.0323   1.0433303093e+01   5.6451818953e+01    0.1610022    0.1522026  81.51 0.0009323799    1.032    0.031
       104  -9.3326    216.9361     36.5123   3.5140032788e+02   2.8898734913e+01    0.1586227    0.1066989  82.53 0.0008521865    1.573    0.364
       105  -8.1538    207.9748     36.0313   3.5198715947e+02   3.0655829623e+01    0.1522314    0.1425396   3.86 0.0003441062    1.551    0.355
       106  -8.0379     77.4132     36.5285   1.4203586203e+01   6.0482482762e+01    0.1394129    0.1309313  66.89 0.0001857249    1.029    0.028
       107  -8.1096    198.0000     24.0352   3.5001345081e+02   3.4063298334e+01    0.1943913   0.05897241 -32.34 0.0008073309    2.976    0.664
       108  -7.6026     93.5140     22.5409   3.6242462569e+00   5.8587418227e+01    0.1382062    0.1228704  80.00 0.0001053401    1.034    0.032
       109  -9.3509    206.2270     18.8699   3.4825869837e+02   3.3008364353e+01    0.1886067    0.1214403 -60.47 0.0006661256    1.225    0.184
       110  -9.0898      4.3457     19.3259   4.8503472950e+01   7.6117665230e+01      0.13814   0.08128712 -24.29 0.0005089099    1.745    0.427
       111  -8.9434    192.2303     16.7781   3.4871818091e+02   3.6061174214e+01    0.1685391    0.1303724  37.68  0.001052782    1.991    0.498
