#   1 NUMBER                 Running object number                                     
#   2 MAG_AUTO               Kron-like elliptical aperture magnitude                    [mag]
#   3 X_IMAGE                Object position along x                                    [pixel]
#   4 Y_IMAGE                Object position along y                                    [pixel]
#   5 X_WORLD                Barycenter position along world x axis                     [deg]
#   6 Y_WORLD                Barycenter position along world y axis                     [deg]
#   7 A_WORLD                Profile RMS along major axis (world units)                 [deg]
#   8 B_WORLD                Profile RMS along minor axis (world units)                 [deg]
#   9 THETA_WORLD            Position angle (CCW/world-x)                               [deg]
#  10 FWHM_WORLD             FWHM assuming a gaussian core                              [deg]
#  11 ELONGATION             A_IMAGE/B_IMAGE                                           
#  12 ELLIPTICITY            1 - B_IMAGE/A_IMAGE                                       
         1 -12.5268    200.7626     36.5423   4.7062292173e+01   3.0531025992e+01     1.099269     1.007704  55.22  0.004477155    1.191    0.161
         2 -12.4313    212.4597     24.4395   4.2513950432e+01   2.9198110822e+01    0.9996611    0.7870637  26.85   0.00556213    1.743    0.426
         3  -9.2236     16.4985      7.4866   8.8720744857e+01   7.2228370208e+01    0.1154709   0.08486731 -16.86 6.239224e-06    1.018    0.018
         4 -10.1753    237.1078      2.0430   3.5042184755e+01   2.6000408759e+01    0.5984398     0.204473  75.30  0.002591635    2.745    0.636
         5  -9.7164    163.9460    225.1870   9.7776740371e+01   4.3322488005e+00    0.2129517    0.1730126 -73.73  0.001277671    1.684    0.406
         6 -13.2154     47.2185    221.9428   1.2079757722e+02   2.2615156299e+01     1.676306     1.449201  57.93  0.008909154    1.259    0.206
         7 -13.0208     85.3611    229.5811   1.1407776062e+02   1.6067969032e+01     2.432625     1.447976  58.18  0.006567216    1.473    0.321
         8 -13.0969     52.1617    194.0243   1.1739886491e+02   2.7837992939e+01      2.05957     1.235038  58.28   0.01162905    1.502    0.334
         9  -9.8833    102.0019    170.5066   1.0284160228e+02   2.5941454021e+01    0.4410834    0.1291552  39.57  0.001465754    3.222    0.690
        10  -9.4539     95.8239    168.5844   1.0403919293e+02   2.7403655086e+01    0.3116384    0.2434548  71.78  0.001665183    1.299    0.230
        11 -10.8466     87.5033    156.1817   1.0408968797e+02   3.1655001800e+01    0.5701852    0.4247508 -17.12  0.001262891    2.079    0.519
        12 -11.0678     81.2913    162.6677   1.0671294291e+02   3.1063591950e+01    0.7351517    0.4600067  62.66 0.0005534951    1.751    0.429
        13 -11.8853     69.0748    158.5027   1.0916902981e+02   3.3812786208e+01    0.6362895    0.4600116 -30.98  0.001472535    1.965    0.491
        14 -11.9132     68.5805    144.3141   1.0709669710e+02   3.7311707837e+01    0.8155874    0.5479798  76.80  0.002974367    1.722    0.419
        15  -7.6737     71.2993    185.6678   1.1225375273e+02   2.7185272063e+01    0.1399634   0.08807334  71.12  0.000390879    1.648    0.393
        16 -15.6206      8.9695    240.8320   1.2867747261e+02   2.3211064052e+01     14.40035     1.899323 -78.37   0.01161025    7.072    0.859
        17  -8.3370     38.9976    146.5118   1.1525915353e+02   4.0342962247e+01    0.1775332    0.1262063  36.73  0.001023897    1.567    0.362
        18  -8.8631    134.0000    145.0033   9.0003323763e+01   2.5908278502e+01    0.2545096   0.08697631 -49.41 0.0008029214    2.946    0.661
        19  -8.2950     93.7733    219.1785   1.1129978716e+02   1.6835853573e+01    0.1910913    0.1419185  66.07 0.0005239047    1.219    0.180
        20  -8.7082     83.2165    142.8870   1.0289495475e+02   3.5527661998e+01    0.2185175    0.1801355  88.91 0.0004779489    1.226    0.184
        21  -9.4191    101.9327    140.7048   9.7423508707e+01   3.2973160633e+01    0.4924036    0.2927742 -31.30  0.001933135    2.521    0.603
        22 -10.6522     89.2402    140.7305   1.0085859488e+02   3.5101544251e+01    0.2868394    0.2652807 -46.42 0.0004967722    1.158    0.137
        23  -7.3318    159.6814    163.3162   8.7764458288e+01   1.6728448073e+01     0.149961    0.1190967  81.58 0.0007039625    1.655    0.396
        24  -9.7491     25.5281    137.3986   1.1767443664e+02   4.3825062595e+01    0.2920545    0.1300624  38.01  0.001429761    2.367    0.577
        25 -13.9803     61.7186    247.1827   1.2000637937e+02   1.6047324745e+01     6.518147     2.074061  29.89  0.005175599    7.707    0.870
        26 -10.3989     57.0839    129.1614   1.0774650295e+02   4.2518374920e+01    0.3646167    0.2823438 -68.29  0.001567928    1.142    0.124
        27  -8.4369    106.1168    130.7215   9.4173356446e+01   3.4613049704e+01    0.2693203    0.2073263 -68.36  0.001306993    1.356    0.262
        28  -9.3019     98.3422    126.9865   9.5509133143e+01   3.6895360041e+01    0.2789433    0.2426691 -21.67 0.0007196045    1.340    0.254
        29  -9.0340    111.3884    130.8866   9.2770924240e+01   3.3598254219e+01    0.3001521    0.2091502  19.48 0.0008307694    1.922    0.480
        30  -8.2610    113.4647    207.4884   1.0572290546e+02   1.6061589105e+01    0.1349953    0.1152546  59.85 -4.348158e-05    1.039    0.037
        31  -8.3630    107.8331    119.5084   9.1111161763e+01   3.6954551479e+01    0.2122503    0.1520907  39.24 0.0004440863    1.453    0.312
        32  -8.0409     99.5050    180.9976   1.0508357036e+02   2.3975326440e+01    0.1968134    0.1333771 -63.21 0.0004584599    1.497    0.332
        33  -8.8523    192.5188    193.5233   8.6664413543e+01   4.6726077370e+00    0.3319097    0.2130012 -75.40   0.00117491    4.513    0.778
        34  -8.3786    168.7967    113.6141   7.4042653351e+01   2.5176952780e+01    0.2264973    0.1500898  60.91 0.0009453325    1.738    0.424
        35 -10.2478     67.4072    177.6971   1.1217342966e+02   2.9531791379e+01    0.4075584    0.2658455 -41.04  0.001757939    2.112    0.527
        36  -8.2597    205.3520    110.1591   6.5674055271e+01   1.7442465291e+01    0.2074591    0.1877852  34.08 0.0007516082    1.171    0.146
        37  -8.0268     52.3350    110.3411   1.0570681182e+02   4.7679100285e+01    0.1450802   0.09426747 -35.53 0.0007050956    1.757    0.431
        38 -10.5289     21.5947    108.5290   1.1494411191e+02   5.1062956928e+01     0.309074    0.1758024 -71.41  0.001664149    1.463    0.317
        39  -8.8777     42.3755    104.8620   1.0779231122e+02   5.0089903840e+01    0.2389076    0.2002624   9.82  0.001444444    1.443    0.307
        40  -8.6431     32.9519     99.5201   1.0983374229e+02   5.2269396413e+01     0.171177     0.131435  22.26  0.001022061    1.560    0.359
        41  -8.4574     41.4982     91.9464   1.0544958654e+02   5.3244180916e+01    0.2001506    0.1123913 -58.17 0.0003967591    1.494    0.331
        42 -14.5763      7.4195    204.2164   1.2716978543e+02   3.0442519122e+01     4.085068     1.113666 -79.31  0.006402723    3.127    0.680
        43 -11.0229    186.6372     48.3168   5.2362032988e+01   3.2438897056e+01    0.5570801    0.3221365 -52.58  0.002434374    1.857    0.462
        44  -8.9301    143.3522     48.4734   6.0579995518e+01   4.3336921010e+01    0.2901663    0.2348361 -67.86 0.0008070701    1.453    0.312
        45 -11.3457    191.5615     43.5257   5.0257817848e+01   3.1880131860e+01    0.4985085    0.4211677  87.69  0.001358617    1.153    0.133
        46  -8.6693    171.3797    239.9142   9.8466703673e+01   8.0916963622e-01    0.2117038    0.1200857 -56.25  0.001096371    2.555    0.609
        47 -11.4803     12.9714    189.3973   1.2520422258e+02   3.3047459204e+01    0.3897915    0.2645227  79.41 0.0003932745    1.148    0.129
        48  -8.0913    146.0176     42.7299   5.8108570471e+01   4.3518754295e+01    0.2108977    0.1769698  58.00 0.0004656723    1.138    0.121
        49 -10.3616     72.2117    172.5276   1.1036435605e+02   3.0063682828e+01    0.3150907    0.2661814 -46.73 0.0008276546    1.412    0.292
        50 -12.3773     42.2213    204.7774   1.2042789190e+02   2.6719017641e+01    0.7343247    0.6280987  73.42  0.001546048    1.147    0.128
