#   1 NUMBER                 Running object number                                     
#   2 MAG_AUTO               Kron-like elliptical aperture magnitude                    [mag]
#   3 X_IMAGE                Object position along x                                    [pixel]
#   4 Y_IMAGE                Object position along y                                    [pixel]
#   5 X_WORLD                Barycenter position along world x axis                     [deg]
#   6 Y_WORLD                Barycenter position along world y axis                     [deg]
#   7 A_WORLD                Profile RMS along major axis (world units)                 [deg]
#   8 B_WORLD                Profile RMS along minor axis (world units)                 [deg]
#   9 THETA_WORLD            Position angle (CCW/world-x)                               [deg]
#  10 FWHM_WORLD             FWHM assuming a gaussian core                              [deg]
#  11 ELONGATION             A_IMAGE/B_IMAGE                                           
#  12 ELLIPTICITY            1 - B_IMAGE/A_IMAGE                                       
         1 -12.1165     51.2516     35.0145   1.0679867571e+02   6.4293602237e+01     1.167862    0.8352955  -9.49    0.0067466    1.429    0.300
         2 -12.7107     31.7855     86.9174   1.2982398672e+02   5.5753792603e+01     2.023589     1.593665  77.52  0.009275732    1.480    0.324
         3 -12.4398     38.0085     47.0154   1.1687712873e+02   6.3685489466e+01     1.179365     0.882913  68.97    0.0066352    2.297    0.565
         4 -12.2506     58.0636     69.3733   1.1608564060e+02   5.6776391745e+01     1.462378     1.258952 -52.86  0.005664752    1.126    0.112
         5 -12.1319    123.6731     68.3905   9.4717849828e+01   4.5010512151e+01      2.47046    0.9254398 -40.80  0.008542744    2.650    0.623
         6 -11.9438    162.7730     25.3430   7.1774386157e+01   4.1718286964e+01     3.121134    0.5428187  63.45  0.008296676    4.702    0.787
         7 -12.4208    163.6687     11.2868   6.7143322543e+01   4.2993558847e+01     1.322573     1.088341  26.22  0.007441718    1.388    0.279
         8 -10.9378    106.8969     30.1843   8.5500900423e+01   5.4905670413e+01     1.159345    0.4387118  46.04  0.004467379    2.459    0.593
         9 -11.1883     89.0989     34.1676   9.2412993947e+01   5.8095061520e+01    0.7889677     0.563008 -18.69  0.002327173    1.418    0.295
        10 -11.9979    130.3597     20.2413   7.6020638658e+01   5.0574507097e+01     1.224836    0.4645767  56.17  0.003083432    2.261    0.558
        11 -11.7467    148.5700     15.7290   7.0968702462e+01   4.6456460918e+01    0.9907834    0.5657614 -14.35  0.004505251    2.111    0.526
        12 -12.6305     92.2488     17.0253   8.4190497042e+01   5.9701105976e+01    0.6723703    0.4026226   2.48  0.003190126    2.093    0.522
        13 -11.6093    113.5010      9.1036   7.5376795984e+01   5.5780714214e+01     1.270111    0.6430627  52.42  0.005982076    1.699    0.411
        14 -12.3880     71.4133     30.9437   9.7155574144e+01   6.1847938697e+01     2.425861     1.407511  45.76   0.01235883    1.850    0.460
        15 -12.3113     68.2555     20.6323   9.3763319946e+01   6.3867175268e+01     1.213328    0.4893897  31.45   0.00397883    3.129    0.680
        16 -12.2814    112.1980     21.7874   8.0771736579e+01   5.4748342446e+01    0.8055974    0.6469684 -88.81  0.004358933    1.625    0.385
        17 -12.2669    121.6790     15.4095   7.6051321415e+01   5.3210000038e+01      1.70453    0.2387002  57.36  0.004783819    4.568    0.781
        18 -11.3243    123.5410     10.2520   7.3672147909e+01   5.3271644555e+01     0.364606    0.2646004  61.17  0.000549501    1.270    0.212
        19 -13.3507     99.8623      6.5618   7.7566499509e+01   5.9138684662e+01    0.7400671    0.3965971 -32.37  0.000869685    2.014    0.504
        20 -11.9949     93.2851      8.5112   8.0153450654e+01   6.0388767069e+01    0.6341952    0.3418167  43.08  0.002622294    1.646    0.392
        21  99.0000     30.9437     12.4356   1.0597080234e+02   7.0414175163e+01     1.041493    0.3188264 -30.78  0.003871625    4.092    0.756
        22 -13.5082      6.5897     11.4154   1.1853374249e+02   7.2809298975e+01     1.477221    0.7060472 -41.84   0.00870806    1.581    0.367
        23 -12.2146     19.0462     13.6478   1.1269136945e+02   7.1450396809e+01    0.5495205    0.4258896 -15.83  0.003779724    1.070    0.065
        24 -10.4955     25.9768      5.3446   1.0489419976e+02   7.1992053707e+01    0.6091663    0.2819656 -24.25  0.003185372    2.186    0.542
        25 -12.1928     29.6202     25.5534   1.1258576699e+02   6.8469168827e+01      1.15973    0.4530784 -37.64  0.005577737    2.226    0.551
        26 -11.4201     69.2348      4.3885   8.5627963749e+01   6.5614512498e+01    0.7215363    0.3883807  35.81  0.003822148    1.699    0.411
        27 -12.0379     57.2573      3.9866   8.9828882750e+01   6.7769658170e+01    0.7469389     0.426577  54.78  0.003963625    2.269    0.559
        28 -12.3277     41.7168     17.0868   1.0307810087e+02   6.8408955681e+01     1.363061    0.5449058 -35.89  0.006552234    2.248    0.555
        29 -11.5047     50.3567     11.0996   9.6305364360e+01   6.8020503102e+01     0.524076    0.3817321  23.60  0.002717486    1.276    0.216
        30 -12.8114     20.3618     42.8462   1.2320869519e+02   6.6105613872e+01    0.5724841    0.4191886 -82.20 0.0007319176    1.962    0.490
        31  -9.6246    221.8154     11.3905   6.0566161606e+01   2.8147145303e+01    0.4433602    0.3033157 -72.46  0.001335506    1.370    0.270
        32 -10.1652    190.2664      8.4570   6.2942891197e+01   3.6370866371e+01    0.4798113    0.2064534  55.16  0.001306005    2.209    0.547
        33 -11.4263    215.4414     21.9280   6.3848888866e+01   2.8530527015e+01    0.9463169     0.585746 -23.06  0.004681916    1.848    0.459
        34 -10.0503    196.8089      3.5028   6.0889841821e+01   3.5182416883e+01    0.7326469    0.3165134 -47.90  0.003163999    2.309    0.567
        35 -11.5981    204.1766      6.5497   6.0978845442e+01   3.3020423152e+01    0.5017728      0.39543  55.17  0.000293745    1.352    0.260
        36 -11.7366    209.7066      3.7992   5.9746042958e+01   3.1911915069e+01    0.5944552    0.3138635  84.80 0.0008703287    1.818    0.450
        37 -11.0814    212.1503     13.9098   6.2115642227e+01   3.0252760292e+01    0.9398341    0.4709587 -47.01  0.004382382    1.890    0.471
        38 -10.4423    185.9313     14.5286   6.5177222365e+01   3.6868478120e+01    0.5371412    0.3565606  49.39  0.001418435    1.565    0.361
        39 -11.2967    184.8364     25.6542   6.8556217162e+01   3.5911323833e+01    0.8029406     0.488478  17.03  0.002629644    2.705    0.630
        40 -12.3791    135.7565      5.3306   6.9527134929e+01   5.0699965362e+01     1.595397    0.6768808  74.02  0.006227805    2.593    0.614
        41 -10.1913    230.8863     18.8049   6.1558196013e+01   2.5136284754e+01    0.5684006    0.3936038 -26.73  0.003127328    1.582    0.368
        42 -10.9632    222.6790      2.1940   5.8241928097e+01   2.8896576732e+01    0.5215416    0.2886897  87.63  0.001917266    1.711    0.415
        43  -9.9860    229.8266      3.5417   5.8000341433e+01   2.7052777877e+01    0.4597052    0.2625871  39.47  0.002175239    2.646    0.622
        44 -10.7789    245.0998     19.7743   6.0548659209e+01   2.1715624183e+01    0.4758631    0.3305514 -89.53  0.001961441    1.376    0.273
        45  -9.6606    239.6814     18.6474   6.0744942760e+01   2.3089894886e+01    0.3262465    0.2477048 -41.09  0.001370407    1.259    0.206
        46 -11.5097    232.6725     11.0555   5.9548663518e+01   2.5582961682e+01    0.7887302    0.3828543 -80.22 0.0006852482    2.328    0.570
        47 -11.0054    202.5174     18.9627   6.4469615321e+01   3.2119844426e+01    0.5024253    0.4295194  45.52  0.001655968    1.329    0.248
        48 -10.7929     54.3819     17.8920   9.7931608601e+01   6.6501765735e+01    0.4492956    0.2901137  -7.47  0.002527854    1.622    0.384
        49  -9.1281    241.9914      1.6478   5.6672077595e+01   2.4422603413e+01    0.2194408    0.1389614 -87.30  0.001242823    1.443    0.307
        50 -10.6502    243.0529     12.3506   5.9015105453e+01   2.3029732459e+01    0.4724879    0.2974895 -31.16  0.002614164    1.620    0.383
        51 -11.0181    247.6472      6.1928   5.7288998569e+01   2.2664009852e+01     0.633504    0.3540508 -52.99   0.00236163    1.537    0.349
        52  -9.3580    171.3238      1.2691   6.3032957874e+01   4.1934600273e+01    0.3439651    0.1230223  76.39  0.001257405    2.785    0.641
        53  -9.2962    180.6850      8.1138   6.3948123393e+01   3.8878836991e+01    0.4277372    0.2487853 -25.89  0.001365797    1.884    0.469
        54  -9.8977    173.7365      8.7388   6.4992677659e+01   4.0622168108e+01    0.2740573      0.21488 -52.57 0.0006796137    1.319    0.242
        55 -10.2704    175.3095      4.4039   6.3496103698e+01   4.0622433088e+01    0.7047922     0.162829  63.67  0.002372636    3.209    0.688
        56 -11.0804     78.3025      7.1211   8.3950293406e+01   6.3606521805e+01    0.6485229     0.426174   1.21  0.003145879    1.584    0.369
        57  -8.5140    189.4839      1.4524   6.1068659477e+01   3.7241991305e+01    0.1351695    0.1180479  79.70 4.741155e-05    1.053    0.050
        58 -10.3202    109.6781     37.8323   8.7715167332e+01   5.3225255906e+01    0.3924805    0.2189029 -37.36 0.0007700308    1.844    0.458
        59  -8.9541    184.1899    250.3918   1.1980204837e+02  -1.2241334832e+00    0.1729338   0.08863833  45.83 0.0009508124    1.677    0.404
        60  -8.4758    173.6671    250.6677   1.2172232520e+02   4.0146507554e-01    0.1187781   0.08036055  17.24 0.0007052211    1.728    0.421
        61  -8.7987    161.8035    250.3889   1.2382555755e+02   2.3237264138e+00    0.1758385   0.09011045  34.31 0.0009243779    1.713    0.416
        62  -8.6102    152.3168    250.3204   1.2553556862e+02   3.8419924869e+00    0.1140507   0.08325036  18.79  0.000704138    1.660    0.398
        63  -9.1449     95.5610    130.7179   1.1941446566e+02   3.7096493816e+01     0.276676     0.132394 -51.99 0.0009897012    2.015    0.504
        64 -10.6654     65.0132    130.2490   1.2773660123e+02   4.1876388350e+01    0.3459473    0.2738819  61.81  0.001975215    1.296    0.228
        65 -10.5114     38.9244    127.0338   1.3447387188e+02   4.5716947409e+01    0.2793488    0.2209141  -8.02  0.001673018    1.796    0.443
        66 -10.8780     48.2420    125.3664   1.3161618469e+02   4.5108678616e+01    0.3894529    0.2700048 -68.06  0.002202467    1.249    0.199
        67  -9.2918     75.8704    102.3653   1.1885037849e+02   4.6914029120e+01    0.3105301    0.1815736 -60.48    0.0014295    1.659    0.397
        68  -9.3971     81.4783    102.2052   1.1708629189e+02   4.6080993695e+01    0.3757956    0.2173886  32.72  0.001411841    1.950    0.487
        69 -11.1542     67.4974    123.0115   1.2572727095e+02   4.3259513621e+01    0.7172617    0.3328577 -42.01  0.002837457    2.736    0.635
        70 -10.1962     64.8176    114.4864   1.2485552824e+02   4.5645894244e+01    0.6050813    0.1995348  46.76  0.002092131    3.678    0.728
        71 -10.7629     67.4949    107.8966   1.2267953162e+02   4.6835308702e+01    0.7079663    0.3680616 -37.62  0.002946561    2.462    0.594
        72 -10.3183     74.0245    108.1969   1.2075846849e+02   4.5831403085e+01    0.3617837    0.2815059  36.89 0.0009400754    1.402    0.286
        73 -10.1855     86.9421    100.5133   1.1499761611e+02   4.5576827265e+01    0.4959053    0.3621554 -31.46  0.001378087    1.564    0.361
        74  -9.6688     91.5415     96.9829   1.1268531586e+02   4.5589429878e+01    0.4195234    0.3115449  67.15  0.002036767    1.686    0.407
        75  -9.6776     92.1405    120.9656   1.1828929128e+02   3.9962386429e+01    0.4505791    0.2409833 -43.22  0.001887309    2.034    0.508
        76 -10.9098     19.2639     73.7144   1.3154957380e+02   5.9707875402e+01     1.308545    0.6591232 -26.26  0.006436364    2.629    0.620
        77 -10.3297     48.7289     25.9874   1.0404549969e+02   6.6117607813e+01    0.4766857    0.2586349  27.14  0.002514738    1.962    0.490
        78 -11.5343     26.8432     51.9227   1.2314710681e+02   6.3767160878e+01    0.5888104     0.253705 -33.28  0.002677596    2.603    0.616
        79 -10.3774     56.5263     48.2571   1.0974083840e+02   6.1205541725e+01    0.6950822    0.6439724 -82.54  0.004452253    1.449    0.310
        80  -8.9293    235.5077    249.5255   1.1078121509e+02  -8.8543480837e+00    0.1134553   0.08457851  20.86 2.784675e-05    1.028    0.027
        81  -8.9052      7.9816     50.2301   1.3069755163e+02   6.5431171923e+01    0.4699093    0.2875946  54.60   0.00269415    2.527    0.604
        82 -11.4327      5.4514     99.6860   1.4045757999e+02   5.4742181996e+01    0.6329808    0.4942321 -35.53  0.004206567    1.480    0.324
        83 -11.7062     53.4755     87.8864   1.2264042991e+02   5.3278525772e+01     1.346506    0.7939906 -44.70  0.005975903    1.581    0.367
        84  -9.0709      3.5010    246.0167   1.5094953641e+02   2.4489518389e+01    0.1196817   0.06611597 -61.98 0.0008097496    2.491    0.599
        85 -10.6290     68.4094     76.0508   1.1437532850e+02   5.3919200449e+01     1.079108    0.4485187 -46.81  0.004438016    2.164    0.538
        86 -11.7833      4.2928     80.3829   1.3808814758e+02   5.9142318082e+01      1.06121    0.3107258 -66.53  0.004763999    2.431    0.589
        87 -11.6705     16.5566     62.0789   1.3002117350e+02   6.2421106961e+01     1.003084     0.539992   7.58  0.005531222    2.402    0.584
        88 -10.7345     13.2071     56.5610   1.3005986489e+02   6.3806471989e+01    0.2476522    0.2046184  24.94  0.001312541    1.492    0.330
        89 -11.1352      3.2349     89.4759   1.3978838625e+02   5.7168380946e+01    0.5529318    0.2741383 -63.37  0.002597281    1.507    0.336
        90 -11.7223     12.6948     88.2780   1.3651439612e+02   5.6888629350e+01    0.5341516    0.3503068  58.08  0.002355548    1.855    0.461
        91 -10.0183    142.0819    243.7324   1.2662332437e+02   6.4454286276e+00    0.2673241    0.1726259  34.81 0.0007004522    1.411    0.291
        92 -11.5651      4.6734    117.3606   1.4272818079e+02   5.0771092382e+01    0.5843647    0.2609406 -75.24 0.0005529507    1.745    0.427
        93 -12.8498     15.7214    103.4106   1.3783522648e+02   5.3233215385e+01      1.31576      1.02584 -24.13  0.008718438    1.606    0.378
        94 -12.2565     39.4993     63.4587   1.2135863801e+02   6.0193184544e+01     0.909352    0.7786272 -21.58  0.005052582    1.172    0.146
        95 -12.1274     80.0460     76.2102   1.1047280243e+02   5.2079364262e+01      2.39329     1.251108 -62.20  0.003531973    2.645    0.622
        96 -10.3510    104.6419    116.4595   1.1375102961e+02   3.8786347973e+01    0.6406507    0.4686135  70.49  0.003013649    1.670    0.401
        97  -9.7604     97.8645    114.7500   1.1525582298e+02   4.0414360307e+01     0.353459    0.2861832  31.99  0.001282674    1.361    0.265
        98  -9.7325     41.5209    118.4803   1.3243957222e+02   4.7468166396e+01    0.2081012    0.1792287  73.83 0.0006142465    1.183    0.155
        99  -9.4712     39.1968    115.4335   1.3262911304e+02   4.8425081794e+01     0.237667    0.1593526 -84.23 0.0006906023    1.459    0.315
       100  -8.9906    118.6632    115.6827   1.0971920734e+02   3.6240840812e+01    0.1541075    0.1230649  -5.18 0.0007048567    1.700    0.412
       101 -10.2995    132.8948    111.6567   1.0494286435e+02   3.4143281751e+01    0.5402519     0.449977 -55.00  0.002564229    1.215    0.177
       102  -9.7615    133.7639    103.6823   1.0259865574e+02   3.5664679417e+01    0.5342116    0.2883016 -43.32  0.002129156    1.853    0.460
       103  -9.5053    211.1164    240.7029   1.1363814302e+02  -4.2302526561e+00    0.2090979    0.1604822 -11.99  0.001009828    1.413    0.293
       104  -9.2712    194.7123    112.2466   9.1077250783e+01   1.9703215554e+01    0.2506192     0.116217  41.85 0.0006107843    2.376    0.579
       105  -9.1007     92.7752    111.3528   1.1591677810e+02   4.2092714365e+01    0.3629482    0.2391824  28.49  0.001674263    1.813    0.448
       106  -9.1417     34.8050    109.3257   1.3294470644e+02   5.0289704390e+01    0.3558076    0.2338593  73.64  0.001939225    1.776    0.437
       107  -9.8319    105.7327    109.4317   1.1172903562e+02   4.0186020277e+01    0.3606535    0.3082512  27.90  0.001880049    1.296    0.228
       108  -9.6045    120.3911    109.0596   1.0757340149e+02   3.7363544461e+01     0.289625    0.2284444  55.26 0.0009007168    1.315    0.240
       109  -8.9103     53.4665    105.2038   1.2644815394e+02   4.9272638488e+01    0.3362654    0.1236738 -64.16  0.001291637    2.597    0.615
       110  -8.5106     97.7236    103.8728   1.1262975365e+02   4.2932667744e+01    0.2831099    0.1868103  68.27  0.001206907    2.130    0.531
       111 -10.4844    114.6774    100.3282   1.0682613870e+02   4.0456914648e+01    0.6386718    0.4363431  84.32  0.002573733    2.390    0.582
       112 -10.7777    117.6831     98.3293   1.0543971249e+02   4.0272961353e+01    0.7102557    0.4882479  79.72  0.002218156    2.264    0.558
       113  -8.7530     60.1275    109.8340   1.2533150769e+02   4.7360353887e+01    0.1841046    0.1504924 -40.73  0.000547033    1.293    0.227
       114  -9.4972    151.0645     99.9370   9.7256482725e+01   3.2477465919e+01    0.3389944    0.2314495 -48.69  0.001489896    1.502    0.334
       115  -8.8911    140.9514    101.2734   1.0010595520e+02   3.4552465361e+01     0.222442     0.208787  50.08  0.001150672    1.064    0.060
       116 -10.0124    158.9436     96.7272   9.4515804137e+01   3.1238363130e+01    0.4479936    0.3756088  57.88  0.001729287    1.205    0.170
       117  -9.6325    188.0216     93.0069   8.7333423375e+01   2.4824604842e+01    0.4962337    0.2087053 -43.62  0.001751071    2.380    0.580
       118  -9.9901     89.7808     77.9685   1.0783012733e+02   5.0039223026e+01    0.5363166    0.2899139  31.47  0.002256586    2.183    0.542
       119 -11.5648    120.1836     86.4752   1.0133797384e+02   4.2246605732e+01    0.7991245    0.7621227 -71.97  0.002306172    1.094    0.086
       120 -11.5433     97.0452     62.0621   1.0035158337e+02   5.1841577309e+01     1.005896    0.6860028  -8.51  0.002942668    2.009    0.502
       121 -10.8957    105.9205     53.6618   9.4681319047e+01   5.1537955730e+01    0.6828365     0.348143  39.20  0.002831409    2.059    0.514
       122  -9.4060    154.8983     34.9975   7.6309027143e+01   4.2576733110e+01    0.5184852    0.3155764  15.07  0.002069651    2.583    0.613
       123 -10.3496    114.7801     51.3627   9.1316260208e+01   4.9992483014e+01     1.011315     0.711347  45.65  0.004972207    1.388    0.280
       124  -9.7901     13.0836    238.4206   1.4912815173e+02   2.4856837821e+01    0.2084505    0.1222874 -66.71  0.001470452    2.019    0.505
       125  -9.8494    126.7969     63.9019   9.2403493840e+01   4.5105660470e+01    0.3159499    0.2078263  41.88 0.0003496615    1.535    0.348
       126 -10.6695    102.3072     70.7380   1.0162785665e+02   4.9135650536e+01    0.6562125    0.3931325 -57.90  0.002275667    2.133    0.531
       127 -11.8624    109.3129     66.8660   9.8255424865e+01   4.8442271036e+01     1.526868    0.9588945 -17.18  0.006320185    2.225    0.551
       128 -10.8441    130.5754     40.4366   8.3330295673e+01   4.7967917479e+01     1.054331    0.5073944 -16.99   0.00377902    3.023    0.669
       129 -10.8563    135.1908     34.2180   8.0056752897e+01   4.7684895202e+01    0.3865485    0.2925427  46.70 0.0004500214    1.246    0.198
       130 -11.6236    141.7731     40.6351   8.0865139539e+01   4.5168009839e+01     0.803784    0.6277331  59.97   0.00394266    1.234    0.190
       131 -11.8033    106.4022     86.6596   1.0533402025e+02   4.5067504760e+01     1.115301    0.8751123  12.32  0.005437401    1.585    0.369
       132 -11.8550    100.4881     79.2066   1.0486452137e+02   4.7786912749e+01    0.9096962     0.710333 -72.38  0.004479296    1.620    0.383
       133  -9.1222    194.1778     90.2492   8.5418164210e+01   2.3803403975e+01    0.2719477    0.2147955 -20.22  0.001090185    1.401    0.286
       134  -9.5429     74.3466     88.8385   1.1593666514e+02   5.0228304169e+01    0.3253183    0.2495289  19.59  0.001683364    1.534    0.348
       135  -8.8918     76.8827     84.7929   1.1400814295e+02   5.0735284469e+01    0.2890993     0.190308 -61.89 0.0008214919    1.625    0.385
       136  -8.2537     69.5009     89.5140   1.1769813101e+02   5.0793499645e+01     0.139043     0.126437 -50.99 0.0008105302    1.003    0.003
       137 -10.0640    162.0218     87.8616   9.1304210197e+01   3.2194627787e+01    0.3291753    0.2457784 -67.74 0.0006864324    1.637    0.389
       138  -9.9942    161.3036     82.1374   8.9798995124e+01   3.3438717747e+01    0.6387693     0.459031 -80.91  0.002711946    1.932    0.482
       139 -10.0990    152.9299     87.4010   9.3245880882e+01   3.4504965588e+01    0.3626789    0.2878036  40.19 0.0008461379    1.299    0.230
       140  -9.3104    146.1359     86.5943   9.4628177823e+01   3.6296887729e+01    0.3235622    0.2153371 -20.19  0.001328602    1.952    0.488
       141  -9.2723    238.0750     86.1815   7.7235253124e+01   1.4138457285e+01    0.2186913    0.1968703   5.11  0.001249029    1.263    0.208
       142 -10.7824    134.4324     80.9105   9.5844658815e+01   4.0162773423e+01     0.751553    0.5804418 -33.47  0.003605655    1.329    0.248
       143 -10.5011    138.5402     74.8742   9.2937473308e+01   4.0343885099e+01    0.6968073    0.2106783 -42.63  0.002097612    3.330    0.700
       144 -10.7497    144.3061     76.8552   9.2136986940e+01   3.8590723281e+01    0.8359948    0.4933319  -8.25  0.002698973    3.571    0.720
       145 -10.3791    150.0068     75.4068   9.0340228724e+01   3.7466594275e+01    0.7661484    0.4757326 -20.37  0.003066586    2.104    0.525
       146  -9.2042    155.1108     71.3195   8.7921993284e+01   3.6932096699e+01    0.3508085    0.2423822 -27.97  0.001084785    1.566    0.362
       147 -10.5272    152.1903     66.9741   8.7225988181e+01   3.8418971326e+01    0.8377796    0.2899688  47.95  0.002644651    2.849    0.649
       148 -11.1376    140.8493     68.6772   9.0411931178e+01   4.0917541115e+01    0.7804484    0.6417561 -86.64  0.002814746    1.475    0.322
       149 -10.1568    132.1236     68.2276   9.2442694540e+01   4.3084872323e+01    0.5331864     0.352414  75.79  0.001969453    2.192    0.544
       150 -10.1900    217.7214     79.6508   7.8608956414e+01   1.9866194878e+01    0.7321327    0.3524107 -16.11  0.002239672    4.166    0.760
       151  -8.9912    206.5554     91.2610   8.3462577028e+01   2.0619598277e+01    0.3053259     0.135607 -39.83  0.001146674    2.134    0.531
       152 -10.1354     36.7809     75.7012   1.2557740164e+02   5.7813585947e+01    0.2554568    0.1952808 -44.27 0.0004949634    1.156    0.135
       153  -9.1542    192.8473     74.0944   8.1232005361e+01   2.6896025020e+01    0.2460867    0.2025262 -60.48  0.001074934    1.259    0.205
       154  -9.6877    214.9396     71.8923   7.7016979177e+01   2.1768610464e+01    0.3754112    0.2342849 -21.48  0.001167507    1.886    0.470
       155 -10.4458    250.2387     67.0802   7.1084380036e+01   1.4330794331e+01    0.5663199    0.1891852 -29.53  0.001999286    3.131    0.681
       156 -10.4564    188.6635     48.9988   7.4797937184e+01   3.1858775945e+01    0.8805218     0.523188  -3.56  0.003323116    2.913    0.657
       157 -11.9601    164.2764     62.9206   8.3381062334e+01   3.6036284872e+01     1.274186    0.9795972   2.85  0.005707348    1.684    0.406
       158  -9.9428    164.7718     57.1387   8.1495992500e+01   3.6835981345e+01    0.3020557    0.2656592 -64.06 0.0007840891    1.191    0.160
       159 -10.3590    178.0362     60.5079   7.9992617205e+01   3.2880513976e+01    0.7788837    0.3666778  41.26  0.001718608    2.628    0.619
       160 -12.1117    174.0964     57.3244   7.9766789040e+01   3.4396739693e+01     1.239447    0.8741685 -24.06  0.001561028    1.571    0.363
       161  -9.0453    189.0129     64.9585   7.9328957931e+01   2.9353008874e+01    0.2351846      0.21553 -72.98 0.0005829391    1.085    0.079
       162  -8.9949    135.5143     63.4567   9.0030609101e+01   4.3124079393e+01    0.2971865     0.149904 -36.20 0.0005769719    2.008    0.502
       163  -9.9073     12.3248    232.4926   1.4898923287e+02   2.5990281762e+01    0.2560982     0.110436  75.58  0.001543368    1.943    0.485
       164  -9.2321     24.5177    235.4837   1.4709962940e+02   2.4183331938e+01    0.1075871   0.07568784  69.18 0.0001094686    1.019    0.019
       165  -8.9829    174.6732    238.6863   1.1993282311e+02   1.8742685790e+00    0.1219485   0.08441681  16.94 0.0007042947    1.668    0.400
       166 -11.6635     87.5526     58.4968   1.0217601422e+02   5.4309473132e+01     1.507768    0.8256653  22.48  0.004205011    2.769    0.639
       167 -12.0626     85.9855     51.8913   1.0032619409e+02   5.5801435820e+01     1.261423    0.7649701   9.16  0.004222295    2.762    0.638
       168  -9.1838    136.6709    227.1638   1.2560159906e+02   9.9671287070e+00    0.2845757     0.100299 -43.68   0.00110854    4.199    0.762
       169  -8.5751     52.3259    224.3406   1.4149579398e+02   2.3005284865e+01    0.0976276   0.08896349 -46.11  0.000705131    1.732    0.423
       170  -8.7315     40.9422    221.5206   1.4338732876e+02   2.4916650272e+01    0.1283867     0.100919   5.30 0.0008086351    2.509    0.601
       171  -8.8479     26.3337    212.3264   1.4547312879e+02   2.8324758427e+01   0.09711011   0.08150122 -57.13 0.0007051455    1.715    0.417
       172 -10.1651    124.0036    206.0058   1.2533224286e+02   1.5865352351e+01    0.1893078    0.1603688  55.27  0.001167775    1.002    0.002
       173  -8.1484    244.5236    204.5307   1.0177936560e+02  -4.9517454656e+00    0.1252937   0.09902137   9.63 0.0002519396    1.040    0.038
       174  -8.9849    234.0000    201.0336   1.0295929323e+02  -2.8004083020e+00    0.1948677   0.06798255 -34.88 0.0002350891    2.972    0.664
       175 -10.7009     26.9164    191.6608   1.4397807832e+02   3.2430816377e+01    0.3729065    0.2355856 -89.68  0.001890613    1.305    0.234
       176 -11.4727     17.1078    186.2569   1.4557073864e+02   3.4533767168e+01    0.4844729    0.3130427  39.09   0.00226258    1.661    0.398
       177 -10.7345      6.3946    186.1631   1.4769082904e+02   3.5528498659e+01     0.404919    0.1536755  56.81  0.002102844    2.252    0.556
       178  -9.7702     38.8329    177.3120   1.4030380701e+02   3.4213103038e+01     0.393335    0.1471608 -68.65  0.001854271    2.330    0.571
       179  -9.2034      1.5010    177.9211   1.4818452250e+02   3.7652654516e+01    0.1695749   0.08521766 -83.26   0.00102516    1.567    0.362
       180 -10.1184      3.1541     57.5265   1.3435682924e+02   6.4158231266e+01     0.423831    0.2471147 -79.78   0.00248563    1.816    0.449
       181  -9.4381    219.2660     60.8370   7.3501820337e+01   2.2404361531e+01    0.3515627    0.2317344  51.10 0.0005442958    1.621    0.383
       182 -10.1922    222.5706     57.1956   7.2112439438e+01   2.2137282974e+01    0.3874184    0.2886946 -72.93  0.001239449    1.427    0.299
       183  -9.5011    149.2362     59.3046   8.5447415277e+01   4.0448195698e+01    0.4932259    0.2106148 -36.78  0.001667524    2.341    0.573
       184 -10.1179    157.9191     50.6464   8.0817045855e+01   3.9599488513e+01    0.5424964    0.4740287  51.66  0.002646156    1.111    0.100
       185 -11.5880    140.4913     51.6531   8.4906392362e+01   4.3855856801e+01      1.07091    0.3766767  48.53  0.003123676    2.711    0.631
       186  -9.5847    152.8273     56.3790   8.3718820694e+01   4.0013734111e+01    0.3354639    0.2618981 -27.12 0.0004467565    1.355    0.262
       187 -10.6336    149.8826     51.9814   8.2923958401e+01   4.1449317095e+01    0.5658875    0.4463075  14.94  0.002087465    1.526    0.345
       188 -10.4801    201.2003     57.4619   7.5231429347e+01   2.7401249043e+01    0.5417905    0.4172021  13.39   0.00248998    1.748    0.428
       189  -9.6071    158.5944     58.6424   8.3220078449e+01   3.8183307066e+01    0.4240508    0.3080369  12.62  0.001850221    1.869    0.465
       190  -8.8147    202.3878     68.7740   7.8150252156e+01   2.5359179010e+01    0.2073826    0.1443106 -22.47 0.0009475166    1.619    0.382
       191 -11.5749     33.9091     58.5788   1.2217661357e+02   6.1765266419e+01    0.5397227    0.3782847 -49.29  0.002658086    1.186    0.157
       192  -8.6884    242.6721     55.3181   6.9167112628e+01   1.7689590608e+01    0.1472741   0.09273327 -62.50 0.0007046465    1.681    0.405
       193  -9.7497    237.5363     52.4585   6.9066835826e+01   1.9266564495e+01    0.2300606    0.1773956  -2.59 0.0008917142    1.747    0.428
       194  -8.9063    192.9380     53.9435   7.5536279566e+01   3.0035174721e+01    0.2350051    0.1678961 -70.06 0.0004247261    1.588    0.370
       195  -8.7496    212.9944     50.4719   7.1636563386e+01   2.5452368438e+01    0.2128628     0.136439  63.12 0.0006425504    1.550    0.355
       196  -8.6831     64.9612     50.3530   1.0725259463e+02   5.9602427823e+01    0.2431551    0.1194948  44.24  0.001088572    2.371    0.578
       197  -8.2134     79.6937    177.3166   1.3113040008e+02   2.8925064154e+01    0.1394421   0.08909966  71.21 0.0007028103    1.628    0.386
       198  -9.8975     62.7737    167.9663   1.3386086576e+02   3.3383808600e+01    0.2932134    0.1996424  86.36  0.001015845    1.412    0.292
       199 -11.3248     37.3385     27.3749   1.0972629616e+02   6.7324399316e+01    0.3631718    0.2415647  21.90  0.001363022    1.576    0.366
       200  -9.4722     11.7230     41.6288   1.2673915908e+02   6.6948956566e+01    0.4817502    0.2930485 -35.01  0.003035595    1.426    0.299
       201  -8.9599     27.5453    167.7559   1.4193084187e+02   3.7502424314e+01    0.2384063   0.09262159 -69.65  0.001157487    2.156    0.536
       202  -9.0578      9.2798    167.5839   1.4591409864e+02   3.9210185891e+01     0.171596    0.1176995  25.36 0.0008486565    1.931    0.482
       203 -10.2882     24.0372     34.1266   1.1858467975e+02   6.7470861391e+01    0.3036917    0.2010781 -60.35   0.00124276    1.704    0.413
       204  -9.4422     13.6258    165.1048   1.4479139892e+02   3.9378823700e+01    0.2203699    0.1467674  52.50  0.001371109    1.435    0.303
       205 -10.8368     18.8480     26.0649   1.1806800483e+02   6.9370549505e+01    0.3030752    0.2355037  16.53 0.0002519081    1.443    0.307
       206 -10.4050      2.5825    159.7138   1.4681886897e+02   4.1451219288e+01    0.5632782    0.1998911 -84.36  0.002712745    2.394    0.582
       207 -10.7248     16.6852    158.7821   1.4360456547e+02   4.0505956473e+01    0.4077953    0.2560803 -41.98  0.002373323    2.280    0.561
       208 -11.9334     19.6613    147.8464   1.4192979493e+02   4.2702036688e+01    0.6666841    0.4977657 -65.30  0.002991188    1.296    0.228
       209  -8.5489     55.6567    155.6888   1.3401508520e+02   3.7103692170e+01    0.1248052   0.09697722 -39.06 0.0007045818    1.701    0.412
       210  -8.7206     83.1860    154.6116   1.2700525085e+02   3.3526759527e+01    0.1813872    0.1330334  28.39 0.0005282701    1.645    0.392
       211 -11.0823     15.4911     31.2981   1.2165555108e+02   6.8678967942e+01    0.4108922    0.2557267 -49.02  0.001430453    1.316    0.240
       212 -11.5878      5.4536     26.9880   1.2515187472e+02   7.0136308792e+01      0.46782    0.2959287   4.70  0.003136444    1.762    0.432
       213 -11.1988     13.3758     25.1292   1.2046261534e+02   6.9960386183e+01    0.4133926    0.2226372 -22.39  0.001996273    1.895    0.472
       214 -10.8775    221.2048     45.4987   6.9274733952e+01   2.4118164823e+01    0.4619715     0.353719 -62.26  0.002482021    1.261    0.207
       215 -10.3338    191.9797     38.7739   7.1349249763e+01   3.2409491778e+01    0.5978218    0.4101728   3.17  0.001837524    2.140    0.533
       216 -10.2408    194.6176     30.8732   6.8734844698e+01   3.2739859783e+01    0.3924428    0.3228337   5.79  0.001210101    1.544    0.352
       217 -10.6009     34.8428    150.4578   1.3850451635e+02   4.0670424833e+01    0.3534432    0.2612445  69.32  0.002221908    1.252    0.201
       218 -10.7818     39.0269    146.0942   1.3695810309e+02   4.1242870261e+01    0.4689046    0.3058088 -77.34  0.001409161    1.313    0.238
       219 -10.2850    210.2900     32.9516   6.7319355835e+01   2.8479769919e+01    0.5052995    0.4225465 -14.33  0.001897479    1.424    0.298
       220  -8.8234     52.9618    151.5171   1.3414016335e+02   3.8401173651e+01    0.1819791    0.1241544  39.38  0.001022714    1.561    0.359
       221 -10.1846     67.2497    148.5856   1.3010747390e+02   3.7243137988e+01    0.3054194    0.2031311 -84.66  0.001257044    1.520    0.342
       222 -10.9121    203.0349     37.8168   6.9551411821e+01   2.9691927736e+01    0.5951185    0.3895948  45.58  0.002568787    1.721    0.419
       223 -10.6174    200.9955     32.8669   6.8455558214e+01   3.0849843638e+01    0.5341105    0.3063522 -55.23  0.001954659    1.837    0.456
       224  -9.4433      1.0000    145.0611   1.4612529407e+02   4.4781996419e+01    0.3113455    0.1192029 -78.67  0.001099772    2.041    0.510
       225  -9.6685      5.0650    147.1831   1.4533955408e+02   4.4020595178e+01     0.229304    0.1917088 -40.04  0.001584517    1.612    0.380
       226  -8.7463    200.4047     45.6334   7.2072117198e+01   2.9309408958e+01    0.2710254    0.1275023 -37.09 0.0007893745    2.028    0.507
       227  -9.1064    152.7576     45.5370   8.0205174663e+01   4.1679605626e+01    0.2672253    0.2078254 -32.30 0.0007163547    1.338    0.252
       228 -10.5456    106.3785     44.5681   9.1205224871e+01   5.2933999266e+01     0.519857    0.3904658  55.07  0.001166728    1.407    0.289
       229 -10.0730    231.6823     44.1213   6.7687021908e+01   2.1781257349e+01    0.4658453    0.2558759  33.11  0.001819309    3.258    0.693
       230  -9.4882    234.9665     39.4889   6.6184667502e+01   2.1620518885e+01    0.2823353    0.1784995  55.50  0.001431044    1.714    0.417
       231  -9.1927    215.3878     41.8105   6.9036648391e+01   2.6050896959e+01    0.2997796    0.2141298  25.26  0.001438431    1.991    0.498
       232  -9.7147    196.7383     42.7720   7.1797795506e+01   3.0643372682e+01    0.3933021    0.1998307 -29.18  0.001207495    2.060    0.515
       233 -10.6828    118.3947     41.8923   8.6893938647e+01   5.0649984179e+01    0.5377707    0.3950094 -44.03  0.002218541    1.479    0.324
       234  -9.0399    114.1252     36.8123   8.6120468433e+01   5.2367195227e+01    0.2435174    0.2042465  49.09 0.0006838161    1.159    0.137
       235  -8.7510    125.7707     28.0693   7.9937097183e+01   5.0781009795e+01    0.2122341    0.1627602 -44.38 0.0003300879    1.449    0.310
       236 -10.2929    124.9093     37.3230   8.3564618820e+01   4.9772723860e+01    0.3862703    0.3250895   7.27 0.0008810445    1.270    0.213
       237  -9.8437    125.5283     32.6907   8.1710005737e+01   5.0250085874e+01    0.3553061    0.2387812 -13.19 0.0009437482    1.715    0.417
       238  -8.8108    249.1679     44.2190   6.5836867555e+01   1.7741356428e+01     0.219061    0.1359209  27.79 0.0009576968    2.900    0.655
       239  -8.8270    167.0824     43.8254   7.6901461810e+01   3.8216052146e+01    0.2405792    0.2016428 -74.96  0.001239089    1.278    0.217
       240 -10.2920    147.9488     35.0803   7.7682637265e+01   4.4353673412e+01    0.6335107    0.2468144  56.63  0.002359464    2.291    0.564
       241  -8.1583      1.5263     44.4601   1.3207675833e+02   6.6938842842e+01    0.1168138   0.08378585 -47.43 6.964813e-05    1.071    0.066
       242  -9.9552    206.9713     44.5129   7.0851753697e+01   2.7794174850e+01    0.5084127    0.3624786 -64.29  0.002534859    1.455    0.313
       243  -9.6281     77.2035     41.4477   9.9376171591e+01   5.9175373073e+01    0.2630692    0.2380573  50.52 0.0008912568    1.326    0.246
       244 -10.2307    180.3986     38.9247   7.3144968082e+01   3.5405542766e+01    0.4876824     0.342609 -54.67  0.001847285    1.498    0.333
       245 -10.5089    161.7699     39.1804   7.6395416356e+01   4.0239353853e+01    0.5537422    0.2966416 -22.74  0.002278149    2.166    0.538
       246  -9.3106    173.0704     38.5514   7.4222026964e+01   3.7372502556e+01    0.3723256    0.2349578 -78.45  0.001079578    2.084    0.520
       247  -9.5540    168.5833     36.3513   7.4295263545e+01   3.8836999960e+01      0.36558    0.2457811 -43.18  0.001722779    1.534    0.348
       248  -8.5451    222.0108     35.9392   6.6726558477e+01   2.5189993994e+01    0.2119268    0.1643429  34.82   0.00101462    1.650    0.394
       249 -10.9914    237.8306     32.5041   6.4198654625e+01   2.1846437197e+01    0.7022305    0.3615872  61.91  0.003355601    1.966    0.491
       250 -10.4399    246.5867     33.1061   6.3498482175e+01   1.9759156953e+01     0.408875    0.2394427  56.46 0.0005159158    1.890    0.471
       251  -9.8217      6.8741    142.6598   1.4454179420e+02   4.4897438339e+01    0.3989411    0.2490123  60.86  0.002262915    1.540    0.351
       252  -8.7938     60.4961    147.5371   1.3168338998e+02   3.8386308421e+01    0.1328604    0.1156777 -86.88 0.0001754112    1.024    0.024
       253 -11.0196    177.2472     29.6857   7.0850913898e+01   3.7410960443e+01    0.5234007    0.4274806 -22.29  0.001624136    1.360    0.265
       254  -8.8954     97.8436    141.0027   1.2085327502e+02   3.4305955198e+01    0.2450117    0.1615318  89.77 0.0009910852    2.003    0.501
       255 -10.6323    226.5210     28.5629   6.4377096145e+01   2.5021852582e+01    0.6256008    0.2931228 -48.80  0.002771939    2.007    0.502
       256 -10.1073     21.5719    138.6778   1.4053197350e+02   4.4630730208e+01    0.3399025    0.2030685 -33.10  0.001787779    2.603    0.616
       257  -9.8164     46.9990    137.1869   1.3372865655e+02   4.2454703241e+01    0.4840683     0.185656  55.88  0.001806205    3.569    0.720
       258 -10.1173     54.4828    137.5668   1.3178901720e+02   4.1486905539e+01    0.3424904    0.1584067 -55.52  0.001567225    2.003    0.501
       259 -11.2616     55.6009    129.2811   1.3018739083e+02   4.3313252705e+01     1.209948    0.2609124 -56.36  0.004011696    3.633    0.725
       260  -9.8476    241.2605     23.8141   6.1815912425e+01   2.2117101838e+01    0.3219194    0.2126784 -58.67 0.0006633372    1.367    0.269
       261  -9.9808     12.8760    117.4080   1.4046747629e+02   5.0212095968e+01    0.3620574    0.2148838  69.80  0.001707153    1.811    0.448
       262  -8.9800     27.8773    115.9019   1.3600526959e+02   4.9377655038e+01    0.1830443    0.1358483 -60.29 0.0003286922    1.199    0.166
       263  -9.4253     17.5061    122.9265   1.3983829359e+02   4.8596206993e+01    0.3132844    0.1537947 -82.03  0.001077191    1.833    0.454
       264  -8.9700    193.6099     24.3211   6.7014990839e+01   3.3790121697e+01    0.2500758    0.1689831  31.44 0.0008534545    1.952    0.488
       265  -9.7686     98.0502     22.2279   8.4733469909e+01   5.7853708700e+01    0.2342672     0.219055  25.45 0.0005816795    1.082    0.076
       266  -8.1962    194.0000     15.9046   6.4603663443e+01   3.4636985639e+01    0.2081373   0.07883112 -26.12 0.0007865813    2.834    0.647
       267  -9.3785     19.5404    118.8483   1.3877796131e+02   4.9381520495e+01    0.3623064    0.2090142 -88.39  0.001738647    1.651    0.394
       268  -9.3518    197.6828     16.8495   6.4440762267e+01   3.3588721370e+01    0.2845784    0.1853463  77.88 0.0006837932    1.436    0.304
       269  -9.6247    177.7795     19.9620   6.7839364690e+01   3.8404375656e+01    0.2940887     0.221564 -35.86  0.001047423    1.390    0.281
       270 -10.8865     25.1414    128.0478   1.3838115097e+02   4.6781144859e+01     0.621556     0.354153  22.26  0.003420518    2.263    0.558
       271  -8.0227     61.5031     15.9387   9.4133604780e+01   6.5631999783e+01    0.1585085    0.1119876 -25.15 0.0003981912    1.332    0.249
       272  -9.0334    178.5348     14.9899   6.6249208641e+01   3.8743057369e+01    0.2692385    0.1673709  53.67 0.0007258439    1.551    0.355
       273  -9.5486     28.1560    120.8546   1.3661755675e+02   4.8194953564e+01    0.4153746     0.161935 -73.44  0.001091112    2.291    0.564
       274 -10.3878      3.5621    135.2780   1.4471932828e+02   4.6789250698e+01    0.4198353    0.2729625  86.83  0.002107285    1.266    0.210
       275  -9.7931      9.2269    134.9411   1.4327629012e+02   4.6465848308e+01    0.2118337    0.1889435  41.97 0.0007079865    1.382    0.276
       276 -11.6221     13.5198    129.7787   1.4166451196e+02   4.7324015838e+01     0.731134    0.3896306  85.10  0.003954898    1.825    0.452
       277  -8.9815     98.5187    135.4861   1.1959008281e+02   3.5473281844e+01     0.144996    0.1358066 -86.91 2.247601e-05    1.010    0.010
       278  -8.5142    231.7138    133.9973   8.9557038272e+01   7.7667314028e+00    0.1950338    0.1679231 -19.37 0.0003257091    1.090    0.083
       279  -9.0550     23.3943    133.8941   1.3953643581e+02   4.5576412905e+01    0.2064647    0.1501877  51.32  0.001312812    1.444    0.307
       280 -10.8798     72.4222    128.7626   1.2540906351e+02   4.1202043515e+01    0.6135364    0.3058629 -54.78  0.002308594    1.852    0.460
       281  -9.6796     71.2241     54.5322   1.0643913076e+02   5.7850799253e+01    0.8912191     0.620234   0.64  0.002988984    1.822    0.451
       282  -8.7958     37.6096     33.3982   1.1206681751e+02   6.6256892598e+01    0.2046676    0.1079923  13.53 0.0008344395    2.450    0.592
       283  -9.3356     45.8819    132.4255   1.3334565069e+02   4.3702792719e+01    0.2742645    0.1373302 -53.12  0.001125019    1.923    0.480
