#   1 NUMBER                 Running object number                                     
#   2 MAG_AUTO               Kron-like elliptical aperture magnitude                    [mag]
#   3 X_IMAGE                Object position along x                                    [pixel]
#   4 Y_IMAGE                Object position along y                                    [pixel]
#   5 X_WORLD                Barycenter position along world x axis                     [deg]
#   6 Y_WORLD                Barycenter position along world y axis                     [deg]
#   7 A_WORLD                Profile RMS along major axis (world units)                 [deg]
#   8 B_WORLD                Profile RMS along minor axis (world units)                 [deg]
#   9 THETA_WORLD            Position angle (CCW/world-x)                               [deg]
#  10 FWHM_WORLD             FWHM assuming a gaussian core                              [deg]
#  11 ELONGATION             A_IMAGE/B_IMAGE                                           
#  12 ELLIPTICITY            1 - B_IMAGE/A_IMAGE                                       
         1 -11.4899     80.0331     23.4773   2.9109849262e+02   7.0251147559e+00   0.03641174   0.01961672   7.54  0.002997757    2.657    0.624
         2  -8.8981     27.3003     23.0072   2.9171964906e+02   7.3521392571e+00    0.0314411    0.0152477 -30.49  0.002326997    3.330    0.700
         3  -9.5873    127.8121     16.3727   2.9049012544e+02   6.8141786376e+00     0.018856   0.01132513 -41.21  0.001159097    1.812    0.448
         4  -9.9483    134.3771     13.2866   2.9039366519e+02   6.8092849636e+00   0.02002569   0.01314048 -27.12  0.001952335    1.880    0.468
         5  -8.6850    104.1472     15.6951   2.9076575405e+02   6.9668092670e+00   0.02371201  0.009228226 -34.74   0.00136715    5.325    0.812
         6  -9.6886     79.3269     12.8982   2.9104223720e+02   7.1505816666e+00   0.02942409   0.01858047   7.20  0.002803174    1.950    0.487
         7  -9.0806     74.4837     13.4854   2.9110312406e+02   7.1734423997e+00   0.01792373   0.01220889 -28.27  0.001460099    1.744    0.427
         8  -9.2732     70.5245      9.6124   2.9112631599e+02   7.2419713165e+00   0.02119899    0.0166213  -8.87  0.002245353    1.456    0.313
         9  -9.4793     64.3856     14.0207   2.9122587945e+02   7.2289707010e+00   0.02046943   0.01358321 -29.42  0.001316322    1.801    0.445
        10  -8.5152     96.7058     12.7555   2.9083579268e+02   7.0459859561e+00   0.01934273   0.01130448 -35.60  0.001528975    2.035    0.509
        11  -7.9409    147.9323     13.1125   2.9023242738e+02   6.7281843840e+00   0.01899631  0.005829826 -43.21  0.001161795    4.422    0.774
        12  -9.0387    125.1282     10.5104   2.9048600277e+02   6.8977293998e+00    0.0121689  0.009243388 -49.62 0.0003731063    1.330    0.248
        13  -9.1889    108.6398     10.8594   2.9068307362e+02   6.9946859060e+00   0.01400848  0.009565716  35.70  0.001465277    1.416    0.294
        14  -9.2845    155.8399      8.5297   2.9011097216e+02   6.7321345186e+00   0.02262015   0.00936611 -69.42  0.001700485    3.045    0.672
        15  -8.1059    142.0148     10.1664   2.9028432405e+02   6.7981878875e+00   0.01123088   0.00747667 -10.70 0.0008261299    1.990    0.498
        16  -9.5228     32.7624      6.9061   2.9155676832e+02   7.5032815048e+00   0.02147988   0.01631149  89.90  0.002310689    1.576    0.365
        17  -9.1069     40.5422      6.6615   2.9146316716e+02   7.4586768791e+00    0.0200947    0.0127134 -29.76  0.001922326    1.941    0.485
        18  -9.6450     46.7154      6.4235   2.9138863492e+02   7.4237681921e+00   0.01285248   0.01206997 -86.67 0.0002533838    1.123    0.110
        19  -8.4199      2.7176      1.5917   2.9188016365e+02   7.7469785904e+00   0.01083256  0.009349991 -24.95 0.0005704045    1.227    0.185
        20 -10.5898      7.0201      5.5279   2.9185320434e+02   7.6757465490e+00   0.02837777    0.0161741   7.58 0.0008495072    2.341    0.573
        21  -8.6719     15.3627      2.3312   2.9173489997e+02   7.6616026639e+00   0.01664242   0.01088559  47.53  0.001682641    1.612    0.380
        22  -8.9342    130.7893      6.0625   2.9039188466e+02   6.9139606258e+00    0.0138787   0.01051696 -17.35 0.0009662861    1.541    0.351
        23  -7.6914    134.4209      3.4757   2.9033313682e+02   6.9213130287e+00   0.01042709  0.007779172 -30.15 0.0006889123    1.497    0.332
        24  -9.0794    119.1948      6.7776   2.9053331923e+02   6.9767976783e+00   0.01207277    0.0107226 -29.58 0.0002316369    1.171    0.146
        25  -8.2185    100.8271      6.4665   2.9074861207e+02   7.0927789245e+00    0.0127471  0.009507793 -49.08  0.000879599    1.356    0.262
        26  -9.3027     76.5774      6.9936   2.9103869847e+02   7.2349875386e+00   0.01621263  0.008911473  16.39  0.001445802    2.099    0.523
        27  -7.8667     76.1488      3.6215   2.9102316825e+02   7.2762130668e+00   0.01192991  0.008336966   1.78 0.0007121803    1.716    0.417
        28  -8.9111    111.0504      4.5253   2.9061584538e+02   7.0524419552e+00   0.01157252  0.009040263 -45.24 0.0004908707    1.308    0.235
        29  -8.8018    110.2232      1.5867   2.9060765752e+02   7.0911410019e+00   0.01316415  0.008560066  22.52 0.0009050197    1.560    0.359
        30  -7.9044     91.1745      4.8760   2.9085306427e+02   7.1700203064e+00  0.009109092  0.007668929 -24.97 0.0004020917    1.276    0.216
        31  -8.5155    143.0691      2.1847   2.9022303331e+02   6.8830731029e+00   0.01057438  0.009440018 -50.66 0.0003688477    1.135    0.119
        32  -8.3490     85.5787      3.2003   2.9090902199e+02   7.2234131980e+00  0.009417533  0.006001065 -49.08 0.0005089947    1.585    0.369
        33  -8.3819     56.3408      3.0947   2.9125437226e+02   7.4031733617e+00    0.0152028  0.009991597   4.02  0.001472858    1.879    0.468
        34  -8.4595    105.2637      1.7715   2.9066743898e+02   7.1193782630e+00   0.01335587  0.009287669  13.17   0.00087122    1.572    0.364
        35  -7.5327    159.5176      1.4956   2.9002448108e+02   6.7900618766e+00  0.006625152  0.006466992  30.82  0.000810379    1.013    0.013
        36  -7.7305     94.2415    103.1827   2.9141664399e+02   6.0247503435e+00   0.01489456  0.005530853  19.59  0.001004731    3.552    0.718
        37  -9.9746    192.1891    248.7970   2.9114741713e+02   3.7554880460e+00   0.02718535   0.01275835  59.10  0.001885744    3.803    0.737
        38 -10.2902    244.9276     98.5915   2.8961091725e+02   5.1538177997e+00   0.02638775   0.01529066 -89.38  0.002210749    2.724    0.633
        39  -7.2768    129.3666     97.3077   2.9096597352e+02   5.8773399538e+00   0.00718104  0.005012788 -21.83 0.0007036957    1.752    0.429
        40  -7.3576    150.3497     96.3425   2.9071236409e+02   5.7599303341e+00  0.007301762  0.004960159 -24.96 0.0007043429    1.803    0.445
        41  -9.7400     16.1780     95.1805   2.9229066267e+02   6.5924604500e+00   0.02275864   0.01747534  -8.26   0.00164459    1.508    0.337
        42  -9.2533     12.4722     93.7722   2.9232592595e+02   6.6311548160e+00   0.01559848   0.01163474 -24.80  0.001003706    1.539    0.350
        43  -8.7156     43.6496     92.6022   2.9195014834e+02   6.4547830778e+00   0.01783033   0.01151827  -5.08  0.001669577    2.084    0.520
        44  -7.8384    109.2564     91.4520   2.9116778108e+02   6.0674978900e+00   0.01312109  0.006712553  20.60  0.001139004    2.129    0.530
        45  -7.9962     96.4186     90.6773   2.9131472600e+02   6.1548534005e+00   0.01558588   0.00912928 -19.02  0.001313115    2.597    0.615
        46 -10.0242     37.6861     80.7992   2.9194883408e+02   6.6264779429e+00    0.0342514   0.01885938  -2.67  0.002671589    3.093    0.677
        47  -8.7744      2.3079     83.1772   2.9238174286e+02   6.8144736090e+00   0.01944793  0.008001966 -43.95  0.001510977    2.747    0.636
        48  -6.9001    127.0234     83.6712   2.9091046991e+02   6.0480105278e+00   0.01088153  0.005494758  -0.72 0.0007036523    4.220    0.763
        49  -8.6644     87.5830     79.1130   2.9134865131e+02   6.3414293405e+00   0.02468929   0.01305989 -12.67  0.001721381    3.919    0.745
        50  -7.9035    249.3516     79.6940   2.8944329053e+02   5.3430213977e+00  0.007166756  0.004920391  58.70 0.0007042077    1.709    0.415
        51  -8.7272     49.4751     77.1821   2.9178740187e+02   6.5961182932e+00   0.02471136   0.01401796   6.09  0.002121218    2.439    0.590
        52  -9.7179      8.1479     77.4672   2.9227793998e+02   6.8444559109e+00   0.02254466   0.01473514 -25.16  0.001747497    1.923    0.480
        53  -7.5190    213.4584     78.5582   2.8985928522e+02   5.5766068254e+00  0.006600715  0.006438374  19.02 0.0001320434    1.004    0.004
        54  -7.7657    184.4945     77.9927   2.9019740524e+02   5.7608911152e+00   0.00979503  0.006666382 -63.75 0.0004912592    1.519    0.342
        55  -7.4629    119.7964     76.3713   2.9095129752e+02   6.1759141165e+00  0.009498526   0.00632551  11.46 0.0009351265    1.703    0.413
        56  -7.3118    105.5380     76.4555   2.9112026688e+02   6.2621616359e+00  0.006620948  0.006438949   0.51 0.0008076315    1.025    0.024
        57  -8.4624     74.8425     74.3350   2.9147012614e+02   6.4740118826e+00   0.01413778   0.01045937  -5.32 0.0007956459    1.603    0.376
        58  -8.7288     24.0316     73.9396   2.9206858513e+02   6.7882805452e+00   0.01650214  0.009823893 -43.79  0.001591105    1.774    0.436
        59 -10.1361     25.6491     69.5597   2.9202279530e+02   6.8286564446e+00   0.03795602   0.01836542  16.66  0.003110743    2.530    0.605
        60  -7.3173    129.3391     69.3115   2.9079549193e+02   6.1984229736e+00   0.00708875   0.00502352 -23.33  0.000704559    1.692    0.409
        61  -7.2673    116.6796     68.6438   2.9094096895e+02   6.2835553031e+00  0.007243996  0.004939191 -27.22 0.0003384169    1.758    0.431
        62  -8.1459    105.4563     67.6942   2.9106778993e+02   6.3630892695e+00   0.01548876   0.00914955 -19.07  0.001318682    2.541    0.606
        63  -8.5341     83.7149     64.2041   2.9130347673e+02   6.5359695665e+00    0.0168803   0.01139028  -9.56  0.001640101    1.929    0.482
        64  -8.0145     15.7017     64.0880   2.9210717633e+02   6.9519262675e+00   0.01090599  0.009115499 -26.74   0.00124501    1.283    0.220
        65  -8.1270     18.9536     61.4921   2.9205290044e+02   6.9619036407e+00   0.01266525   0.00673286  19.50  0.001120072    2.065    0.516
        66  -9.9445     62.3233     61.1425   2.9153774529e+02   6.7016533617e+00   0.04562512   0.01876433  15.69   0.00273095    3.613    0.723
        67  -8.3310     95.6083     60.6916   2.9114145914e+02   6.5035570797e+00   0.01302119  0.005962115 -56.21  0.001121525    2.124    0.529
        68  -9.2407     33.1558     59.6332   2.9187355121e+02   6.8967556702e+00   0.01382328  0.007302726 -51.54  0.001273138    1.877    0.467
        69  -7.7037    111.0756     58.2385   2.9094368354e+02   6.4370883410e+00   0.00914141  0.008509804   4.89 0.0004798576    1.085    0.078
        70  -7.7479     49.5136     58.5252   2.9167329768e+02   6.8097797913e+00  0.006622581  0.006464289   7.66 1.061455e-05    1.013    0.013
        71  -8.3875     39.1398     57.6188   2.9179048994e+02   6.8833947800e+00   0.01412382  0.008056464  -1.77  0.001151609    2.745    0.636
        72  -9.8767     75.0938     50.0928   2.9131934662e+02   6.7503529476e+00   0.01565351   0.01479436  -3.14 0.0003040773    1.071    0.066
        73  -8.2437    118.5270     51.2016   2.9081266976e+02   6.4721272837e+00   0.01171582  0.008827086  25.39 0.0005297138    1.308    0.235
        74  -9.5481     45.5029     48.8555   2.9166181083e+02   6.9450631443e+00   0.01856246   0.01354787  -6.08 0.0009926101    1.645    0.392
        75  -8.0502    106.7350     48.7329   2.9093695918e+02   6.5725613308e+00   0.01296417  0.008670564  -8.84  0.001242873    1.964    0.491
        76  -9.6103      6.1097     35.0032   2.9204361796e+02   7.3436373660e+00   0.03676837   0.01756931 -39.52  0.002965521    2.535    0.605
        77  -8.5221      2.7910     45.0173   2.9214388314e+02   7.2490510166e+00    0.0137148   0.00789431 -51.10  0.001317179    1.732    0.423
        78  -9.3752     11.6187     46.5374   2.9204865110e+02   7.1779521224e+00   0.03254868   0.01861681 -11.59  0.001648301    2.899    0.655
        79  -8.4073      6.5243     47.5609   2.9211518009e+02   7.1972014337e+00   0.01434714  0.008903944  34.14 0.0005986419    1.547    0.354
        80  -9.4347     57.1989     41.6890   2.9147974894e+02   6.9558707069e+00   0.02129533   0.01155664 -33.60  0.001833214    2.383    0.580
        81  -7.3545    143.0003     44.3106   2.9048143552e+02   6.4011908303e+00   0.01075508  0.005442592  -0.26 0.0007027159    4.128    0.758
        82  -9.0241    250.3928     42.5599   2.8920383532e+02   5.7616482633e+00   0.01145417  0.008613933 -59.87  0.001250343    1.350    0.259
        83  -7.5844    123.8388     40.1505   2.9068240411e+02   6.5662141489e+00  0.009508845  0.007702883 -24.70 0.0007833915    1.354    0.262
        84 -10.1006     90.7780     38.2707   2.9106173518e+02   6.7899964012e+00   0.02943238   0.01405856  30.11  0.002604846    1.995    0.499
        85  -9.3704     67.2285     37.9909   2.9133854497e+02   6.9370447626e+00   0.01540441    0.0118832  -7.38  0.001668847    1.495    0.331
        86  -8.9924     70.8523     34.9462   2.9127710090e+02   6.9498056887e+00   0.01296561      0.00813 -45.79  0.001286596    1.646    0.392
        87  -8.0296    105.7595     36.9214   2.9087636792e+02   6.7138467405e+00   0.01412197  0.008287744 -10.83  0.001168314    2.702    0.630
        88  -7.3401     96.2979     46.6328   2.9104751578e+02   6.6604485786e+00   0.00709697  0.005021292  65.34 0.0007031537    1.728    0.421
        89  -9.0118     56.1935     35.3676   2.9145308760e+02   7.0344359452e+00   0.01625501   0.01093283 -19.53 0.0008579695    1.898    0.473
        90  -9.4329     38.4649     35.5285   2.9166384775e+02   7.1406768712e+00   0.02258389   0.01248319   9.64  0.001577538    2.391    0.582
        91  -8.9943     23.0431     35.7799   2.9184790122e+02   7.2317198072e+00   0.01448051   0.01023077  31.96 0.0006384435    1.369    0.269
        92  -9.1977     21.9882     32.0730   2.9183779696e+02   7.2806143145e+00   0.01281935   0.01142057 -89.10 0.0003208932    1.218    0.179
        93  -7.9620    250.1820     31.6128   2.8913929861e+02   5.8881901050e+00   0.00940502  0.006385315  12.73 0.0009408739    1.639    0.390
        94  -7.4679    109.6591     31.3306   2.9079611951e+02   6.7540290066e+00  0.007207206  0.004948094  60.64 0.0004892071    1.745    0.427
        95  -9.2032      1.7153     28.4073   2.9205546773e+02   7.4459303038e+00   0.02867479  0.008421652 -59.24  0.002036513    3.210    0.689
        96  -9.4686     61.2191     27.5164   2.9134572662e+02   7.0937210009e+00   0.02050244   0.01077334 -33.66  0.001148178    2.524    0.604
        97  -9.4100     42.1689     27.6627   2.9157204765e+02   7.2082248062e+00   0.01775954   0.01219077 -79.67  0.001128274    1.733    0.423
        98  -7.4317    152.3259     27.3355   2.9026751626e+02   6.5384198910e+00   0.00715799  0.004984532 -25.70 0.0007051484    1.718    0.418
        99  -9.1333    206.2864    249.1631   2.9098369546e+02   3.6650292760e+00   0.01388813  0.007735267  51.36  0.001244749    2.092    0.522
       100  -9.0627    177.7387    241.3578   2.9127236839e+02   3.9291972166e+00   0.01318138   0.00855124 -65.73 0.0008027903    1.620    0.383
       101  -7.8568     32.5160     20.4875   2.9164253976e+02   7.3492369499e+00   0.01021209  0.005830874  39.53 0.0002369335    1.714    0.417
       102  -7.9870    156.4786     25.4413   2.9020688432e+02   6.5346384210e+00  0.006615808  0.006434068  18.53 0.0004842697    1.007    0.007
       103  -8.9416    144.8465     23.1532   2.9033029522e+02   6.6321615998e+00   0.01045539   0.01027021  76.66 0.0003474869    1.050    0.047
       104  -7.9165    128.8406     22.8202   2.9051738767e+02   6.7340575605e+00   0.01060826  0.008830593 -25.10   0.00062383    1.298    0.230
       105  -8.4181     46.1973     20.7106   2.9148196108e+02   7.2633063044e+00   0.01331248   0.00900239 -60.05 0.0006896224    1.497    0.332
       106  -8.4523    140.2784     19.9940   2.9036494821e+02   6.6963322374e+00   0.01336743  0.009664544  10.38 0.0009121501    1.525    0.344
       107  -8.5319     93.0087     20.1180   2.9092450108e+02   6.9842854733e+00   0.01256863  0.009010553 -61.58  0.001341025    1.424    0.298
       108  -8.5017      9.3403     19.7340   2.9191233279e+02   7.4989311819e+00   0.01288074   0.01108751  -8.35 0.0007120701    1.245    0.197
       109  -7.9330    161.3163     19.3124   2.9011225942e+02   6.5751224368e+00  0.006990321  0.005023057 -24.67 0.0006174531    1.641    0.391
       110  -7.6825    146.9816     18.9988   2.9027966335e+02   6.6666333356e+00   0.01061925  0.007665174 -24.22  0.000569923    1.632    0.387
       111  -8.1230    112.0763     19.1532   2.9069313547e+02   6.8786940648e+00   0.01004039  0.008643166 -19.01 0.0002895885    1.245    0.197
       112  -8.4735      4.9933     18.7073   2.9195755099e+02   7.5371260028e+00  0.009350349  0.008608342  28.23 0.0002786148    1.062    0.059
       113 -10.6867    175.3412    246.8463   2.9133394414e+02   3.8809142262e+00   0.02164049   0.01767615  32.71  0.002482699    1.191    0.161
       114  -9.0172    158.3471    248.1433   2.9154197031e+02   3.9699438544e+00   0.01415759  0.005210638 -53.72  0.001104136    2.580    0.612
       115  -9.3279     68.4977    245.3114   2.9258367111e+02   4.5508468359e+00   0.01215322   0.01093093 -12.85 0.0003352239    1.165    0.142
       116  -7.9499      2.9351    234.8124   2.9329331928e+02   5.0702802681e+00  0.009935805  0.008738654 -13.60  0.000420557    1.208    0.172
       117  -9.4641    187.6875    233.6523   2.9110837945e+02   3.9566986633e+00   0.01306827   0.01155036  62.18 0.0009388051    1.204    0.170
       118  -7.1679     60.6900    230.2660   2.9258463323e+02   4.7711116725e+00  0.006775015   0.00493324  56.79 0.0001450538    1.538    0.350
       119  -8.5511     46.2466    224.4516   2.9271977888e+02   4.9258194124e+00    0.0108038   0.01021106 -77.81 0.0002366045    1.101    0.092
       120  -8.0949     11.3659    207.2814   2.9302739519e+02   5.3351301999e+00   0.00702345    0.0050372 -19.50  0.000568258    1.685    0.407
       121  -7.2103     64.6919    201.2372   2.9236150970e+02   5.0799359080e+00  0.006648958  0.004849969  53.45 0.0001565596    1.492    0.330
       122  -7.1640    189.2496    176.6631   2.9074321892e+02   4.6006738884e+00  0.006676998  0.005079915  69.64 0.0002975901    1.562    0.360
       123  -7.3513    107.4960    151.5049   2.9155428352e+02   5.3894639021e+00  0.006670376  0.006437664  -8.36 0.0001459107    1.043    0.041
       124  -7.6991    133.8094    147.3913   2.9121870862e+02   5.2757894757e+00  0.009551738   0.00640473  12.34 0.0009470411    1.670    0.401
       125  -9.1728     67.3388    144.7047   2.9198706798e+02   5.7126236344e+00   0.02368201   0.01508425  51.62  0.002040253    1.748    0.428
       126  -7.7190    202.7448    139.6396   2.9035852150e+02   4.9424410259e+00  0.009821741  0.005737807  37.66 0.0007566515    1.655    0.396
       127  -7.2368    133.5181    138.5381   2.9116823624e+02   5.3791206869e+00  0.006630963  0.006455378  31.76 0.0002500159    1.015    0.015
       128  -7.2506    107.6930    137.6008   2.9146735415e+02   5.5477736456e+00  0.007381408  0.004830061 -29.57 0.0002684687    1.842    0.457
       129  -7.4061    197.8160    127.2223   2.9034086551e+02   5.1150049566e+00  0.008824054  0.007528874 -23.14  0.000363847    1.256    0.204
       130  -7.6057    152.9335    124.8689   2.9085584456e+02   5.4170499211e+00   0.01144063  0.007530311 -12.30  0.001074974    2.037    0.509
       131  -7.1533    132.6611    124.6740   2.9109389592e+02   5.5433742588e+00  0.007170368  0.004999745 -24.48 0.0007051485    1.728    0.421
       132  -8.5192     11.8459    122.0144   2.9250490394e+02   6.3109481678e+00   0.01180696  0.006834565 -36.57  0.001077029    2.031    0.508
       133  -9.8209    243.5266    118.8529   2.8975120202e+02   4.9303449864e+00   0.01445624   0.01305752 -59.47 0.0003302872    1.128    0.114
       134  -7.6284    142.6410    111.7163   2.9089712207e+02   5.6308826448e+00  0.007013111  0.005049459 -19.71 0.0004756381    1.674    0.403
       135  -7.6352     54.1519    111.6102   2.9194164451e+02   6.1727407885e+00  0.008959094  0.006335434   9.06  0.000304426    1.590    0.371
       136  -7.4487     38.8176    109.8165   2.9211197549e+02   6.2867565162e+00   0.01487072  0.003795783 -55.32 0.0009992124    3.448    0.710
       137  -8.6536      2.8245    108.9680   2.9253233422e+02   6.5154837691e+00    0.0195182   0.01058581 -19.01  0.001481501    3.253    0.693
       138  -7.6723    123.9786    107.0079   2.9108873544e+02   5.7990847432e+00   0.01100711  0.007720912 -24.49  0.000579631    1.710    0.415
       139  -7.8451    109.0335    106.7446   2.9126361907e+02   5.8935015158e+00   0.01123193  0.007512023 -13.55  0.001072616    1.964    0.491
       140  -7.9019     31.6897    107.6925   2.9218332021e+02   6.3545290903e+00  0.006941363  0.005019441 -24.98  0.000228029    1.617    0.382
       141  -7.6628    133.9773    106.0341   2.9096474686e+02   5.7490689481e+00   0.01147373  0.007791539 -25.47  0.001132514    1.796    0.443
       142  -9.0934     14.9370    104.8215   2.9236393084e+02   6.4894127207e+00   0.02274109   0.01234982 -18.97  0.001732565    3.243    0.692
       143  -7.3651     65.6656    105.3024   2.9176719763e+02   6.1748874375e+00  0.007061734    0.0049506  58.94 0.0002655868    1.660    0.397
       144  -7.4067     70.2524    104.2105   2.9170634681e+02   6.1594279803e+00   0.01087169  0.004288145  37.87 0.0005006747    2.393    0.582
