#   1 NUMBER                 Running object number                                     
#   2 MAG_AUTO               Kron-like elliptical aperture magnitude                    [mag]
#   3 X_IMAGE                Object position along x                                    [pixel]
#   4 Y_IMAGE                Object position along y                                    [pixel]
#   5 X_WORLD                Barycenter position along world x axis                     [deg]
#   6 Y_WORLD                Barycenter position along world y axis                     [deg]
#   7 A_WORLD                Profile RMS along major axis (world units)                 [deg]
#   8 B_WORLD                Profile RMS along minor axis (world units)                 [deg]
#   9 THETA_WORLD            Position angle (CCW/world-x)                               [deg]
#  10 FWHM_WORLD             FWHM assuming a gaussian core                              [deg]
#  11 ELONGATION             A_IMAGE/B_IMAGE                                           
#  12 ELLIPTICITY            1 - B_IMAGE/A_IMAGE                                       
         1 -17.0348    237.1658    172.4520   9.8018508916e+01   4.4370276991e+00     3.249942     1.475668 -36.36    0.0158924    2.559    0.609
         2 -15.7512    247.6160     88.1491   7.7502914867e+01   1.2859028176e+01     2.182801     0.589027 -27.32  0.007322558    3.244    0.692
         3 -14.6988      4.3687     16.7622   1.2414871903e+02   7.1105279883e+01    0.9488553    0.3676681 -56.18   0.00502487    1.783    0.439
         4 -14.2125    171.5885    236.7694   1.1902040032e+02   7.4089138470e+00    0.6451011    0.3235379  41.30  0.003737384    1.484    0.326
         5 -13.1591    249.9771    244.7782   1.0778236113e+02  -4.3240826731e+00    0.5720693    0.1716061 -25.68  0.003004079    3.951    0.747
         6 -13.6296    144.1375    248.2403   1.2470527592e+02   9.9432760087e+00    0.4656128    0.3172516 -71.16  0.003397446    2.282    0.562
         7  99.0000    135.8599    248.8771   1.2608879703e+02   1.0987353527e+01    0.7173939    0.3623786  48.41  0.004796825    1.541    0.351
         8 -16.1145    100.5262    130.2586   1.1774898911e+02   3.5789421996e+01     1.943879      1.21989 -75.70  0.008028336    2.002    0.500
         9 -14.6372     86.8620    185.2931   1.2844917509e+02   2.7065896591e+01     1.782202    0.9032257  36.58   0.00997357    1.904    0.475
        10 -14.1917     81.8518    201.0246   1.3094402032e+02   2.5004821631e+01     1.153762    0.7175364  50.30  0.006275743    1.309    0.236
        11 -17.1172     79.3405    140.5841   1.2454050621e+02   3.6714806656e+01     4.116664     2.013472 -84.07   0.01646361    3.422    0.708
        12  99.0000     90.4782    235.9652   1.3233791714e+02   1.8557189028e+01     1.932635     1.580272  33.64    0.0129047    1.435    0.303
        13 -19.0683     47.2058    160.9604   1.3414296531e+02   3.6393403685e+01     15.40221     3.216003 -71.82   0.05506276    4.922    0.797
        14 -12.2001     26.9885    233.5263   1.4226915599e+02   2.5858695750e+01    0.2013365    0.1505381  62.05  0.001649932    1.133    0.118
        15 -13.1569    164.2247    243.4135   1.2097351342e+02   7.7112814804e+00    0.4515858    0.1959365  45.23   0.00240242    1.790    0.441
        16 -15.1834    246.6312    201.8514   1.0174324168e+02  -1.4751115774e-01    0.9390562    0.6724111 -16.59  0.006602355    1.451    0.311
        17 -14.8007    189.8506    237.1429   1.1609127543e+02   4.7290731369e+00     1.010183    0.5499951  35.70  0.006138187    1.361    0.265
        18 -14.9057    154.0732    202.2342   1.1769898852e+02   1.4439563091e+01     0.992206    0.5734059  48.60   0.00442276    1.545    0.353
        19 -13.0820    200.2356    197.9937   1.0880234531e+02   7.5614702194e+00    0.3265346    0.2651827  13.90  0.001689504    1.126    0.112
        20 -11.8977    136.5222    213.4566   1.2228603123e+02   1.5518147732e+01    0.3487318    0.1706649  62.78  0.001561968    3.565    0.719
        21 -14.0612    214.9329    187.3674   1.0448754754e+02   6.4192507696e+00    0.7468933    0.3670055  37.26  0.003950674    1.696    0.410
        22 -13.8575    147.9460    182.2587   1.1600019218e+02   1.8419904900e+01     1.003066    0.4210476  49.22  0.004542806    2.325    0.570
        23 -13.0982    144.8548    175.7948   1.1561890321e+02   1.9971619962e+01    0.3741068    0.3530117 -74.91   0.00170862    1.221    0.181
        24 -14.0362    137.7070    186.5716   1.1862120454e+02   1.9393387815e+01    0.7650843    0.4415093  49.98  0.003126143    1.588    0.370
        25 -13.8566    135.9469    178.8671   1.1786002652e+02   2.0929806213e+01    0.5495879    0.4408325  30.81  0.002406074    1.235    0.191
        26 -12.2851    176.5878    176.4120   1.0953479198e+02   1.4435601291e+01    0.2912562    0.2363636  69.33  0.001754605    1.671    0.402
        27 -12.6773     15.7754    174.5770   1.4141761329e+02   3.6743538009e+01    0.4285523    0.1412782  87.69  0.002054096    3.250    0.692
        28 -13.1400    214.2633    170.0730   1.0147372164e+02   8.6636438431e+00    0.5135332    0.2879268  22.45  0.002509193    1.897    0.473
        29 -12.0002    165.8085    168.3378   1.1022301839e+02   1.7556495816e+01    0.2858713    0.1766198 -59.41    0.0014062    2.415    0.586
        30 -14.1929    137.3535    163.2157   1.1513246118e+02   2.3365463091e+01     0.709051    0.5761973 -73.78  0.003123319    1.480    0.324
        31 -14.8948    159.8041    231.6495   1.2037642987e+02   9.7135526374e+00    0.6881618    0.6635574  65.93  0.004521389    1.337    0.252
        32 -13.5400    104.2440    157.8701   1.2139265577e+02   2.9684019009e+01    0.3744071    0.3515208 -20.19  0.001919767    1.312    0.238
        33 -15.5248    212.1202    142.2840   9.6231746244e+01   1.2783870701e+01     1.824159     0.876016 -37.56  0.008188453    2.227    0.551
        34 -14.7970    249.2771    133.4735   8.8018710916e+01   6.8997692750e+00      1.38433    0.3261606 -26.91   0.00449769    4.182    0.761
        35 -14.3286     21.1025    118.5722   1.3615780925e+02   4.7640579479e+01    0.3777546    0.2607696  85.90  0.002527704    1.238    0.192
        36 -14.7064     14.5162    127.1997   1.3854775182e+02   4.6287659880e+01    0.4170751    0.3211458  65.53  0.003089767    1.215    0.177
        37 -14.2991     11.8571    119.0764   1.3851725113e+02   4.8210486167e+01    0.6332443    0.3452318 -47.84  0.003757988    2.177    0.541
        38 -15.3696    237.9829     75.1488   7.5513485063e+01   1.6568677652e+01     1.366745      0.69881 -26.98    0.0060568    1.755    0.430
        39 -15.9409    241.9254    106.6498   8.2932756288e+01   1.1671311083e+01     1.775402    0.9755062 -31.05  0.007719099    1.698    0.411
        40 -15.2634    170.9863    218.2088   1.1682219622e+02   9.6959292247e+00     1.104433     1.008282  54.49  0.006711673    1.312    0.238
        41 -13.3187     15.1630     95.4696   1.3528064379e+02   5.3163110763e+01    0.4715188    0.2708803 -77.21  0.002386485    1.391    0.281
        42 -13.9681    212.6406    235.0616   1.1217050032e+02   1.6531670160e+00    0.4838866    0.3323347   5.27  0.003535229    1.505    0.336
        43 -15.3539    211.3991    215.7930   1.0964827437e+02   3.7834007938e+00     1.394532    0.7541706 -27.15  0.008503235    2.187    0.543
        44 -15.1706     13.0699     66.4944   1.3192760919e+02   5.9810384937e+01     1.206855    0.7132886 -80.19  0.006502183    1.503    0.334
        45 -14.4864      4.5082     62.5958   1.3432088322e+02   6.1145869923e+01    0.8912343    0.3731728 -76.32  0.004577717    1.966    0.491
        46 -13.7246    249.7233     56.4889   6.9055101953e+01   1.6263247012e+01    0.7153376    0.2568068 -26.70  0.002766794    2.383    0.580
