#   1 NUMBER                 Running object number                                     
#   2 MAG_AUTO               Kron-like elliptical aperture magnitude                    [mag]
#   3 X_IMAGE                Object position along x                                    [pixel]
#   4 Y_IMAGE                Object position along y                                    [pixel]
#   5 X_WORLD                Barycenter position along world x axis                     [deg]
#   6 Y_WORLD                Barycenter position along world y axis                     [deg]
#   7 A_WORLD                Profile RMS along major axis (world units)                 [deg]
#   8 B_WORLD                Profile RMS along minor axis (world units)                 [deg]
#   9 THETA_WORLD            Position angle (CCW/world-x)                               [deg]
#  10 FWHM_WORLD             FWHM assuming a gaussian core                              [deg]
#  11 ELONGATION             A_IMAGE/B_IMAGE                                           
#  12 ELLIPTICITY            1 - B_IMAGE/A_IMAGE                                       
         1 -12.6270     39.9441     32.3254   7.7075835748e+01   6.5920685457e+01    0.3617768    0.2565955 -19.44 0.0005288819    1.261    0.207
         2 -11.0569     14.1912     21.2381   8.5599029491e+01   7.0550885542e+01    0.4254797    0.2387171  36.13  0.002417463    2.313    0.568
         3  99.0000     20.2757     18.3542   8.0913776828e+01   7.0393137814e+01    0.5442098     0.189303 -40.89  0.002561772    2.665    0.625
         4 -11.3192     13.4893     15.4881   8.3420473688e+01   7.1501027974e+01    0.3248739    0.2539144 -25.12  0.001613291    1.239    0.193
         5 -11.5090     75.5474     21.7693   5.8247796154e+01   6.1392770161e+01    0.4159301    0.3431031  78.29  0.001394296    1.790    0.441
         6 -10.9726      1.8847     21.0582   9.2666841980e+01   7.1540286204e+01    0.3195778    0.2135703 -25.87  0.002174921    1.131    0.116
         7 -11.7494    234.9201     15.0439   3.0168775843e+01   2.6272152638e+01    0.2411256    0.1726312 -68.30 0.0003302338    1.123    0.110
         8 -11.8933     83.5298     15.1079   5.3012961382e+01   6.0487664409e+01     0.450301    0.2514611  19.86 0.0006213631    2.198    0.545
         9 -10.8475    172.0305     11.9220   3.5310454212e+01   4.0386596713e+01    0.1859658    0.1581458  87.75 0.0003332992    1.015    0.014
        10 -10.9030     39.0112      7.0267   6.5799779121e+01   6.9421663224e+01    0.3635857    0.2294294  51.37  0.002064083    2.218    0.549
        11 -11.7119     30.5252      7.5620   7.0187907690e+01   7.0587063113e+01    0.4316079    0.2642863  22.72  0.002686016    1.388    0.280
        12 -10.1904     28.3632      2.1831   6.8476492362e+01   7.1498069581e+01     0.212307    0.1529846 -21.10  0.001457369    1.397    0.284
        13 -11.5948    207.9536     13.3102   3.1985846607e+01   3.2105702176e+01    0.2023894    0.1717775 -40.00 0.0005637482    1.346    0.257
        14 -10.6659     72.3325     12.8694   5.5535739885e+01   6.2971179194e+01     0.290033    0.2216577 -25.73  0.001814877    1.475    0.322
        15 -10.4202    123.7710      8.0234   4.1147724566e+01   5.2139663434e+01    0.2283726    0.1655598 -50.21 0.0006194514    1.627    0.385
        16 -11.0496    129.2759     11.3295   4.1246521578e+01   5.0559136194e+01    0.3475261    0.1954001  34.76  0.001632231    2.076    0.518
        17  -9.8973    126.0103     10.9920   4.1714130601e+01   5.1357471220e+01    0.1972273    0.1467466  46.11  0.001167017    1.249    0.200
        18 -10.6246    118.2430      9.7712   4.2749534242e+01   5.3278283120e+01    0.2564656    0.2082259  34.39 0.0009561979    1.246    0.198
        19 -10.1277    115.2863      7.6878   4.2611080002e+01   5.4139861432e+01    0.2515552    0.1803713 -89.24 0.0006929406    1.648    0.393
        20 -11.5432     34.8783     12.6986   7.0593448215e+01   6.9361997189e+01    0.2875021    0.2560037   2.24 0.0008820496    1.335    0.251
        21 -10.9368     22.5048      9.2130   7.5266130313e+01   7.1410617535e+01    0.3105702    0.1734653   9.01  0.001602537    1.784    0.439
        22 -10.7237     57.2561      7.5024   5.8401071947e+01   6.6335053119e+01    0.2995501    0.1879656  -8.66 0.0009203829    1.672    0.402
        23 -10.9118     57.9751      2.3725   5.5711012727e+01   6.6678585702e+01     0.520646     0.282688  27.24  0.002362267    1.725    0.420
        24 -10.8219     14.7618      8.7844   7.9439878965e+01   7.2333580923e+01     0.272333     0.145309   8.27 0.0006756912    1.861    0.463
        25 -11.4538    218.1734      7.6367   2.9937565780e+01   3.0512912819e+01    0.1988463     0.133861 -56.00 0.0007634222    1.297    0.229
        26 -10.1798    165.4873      7.5179   3.4937583598e+01   4.2336919601e+01    0.1259761    0.1060702  77.95 -2.946951e-05    1.036    0.034
        27  -9.6521     97.8828      7.1852   4.6134818455e+01   5.8121689892e+01    0.1783481    0.1565987  72.54 0.0003882939    1.241    0.194
        28 -10.4496      2.2925      6.8073   8.6111763253e+01   7.3755496092e+01    0.2069631    0.1274949   3.30 0.0008312022    1.389    0.280
        29 -11.1002    150.4500      5.5056   3.6274487916e+01   4.6059314719e+01      0.29605    0.1895879 -69.13  0.001013674    1.751    0.429
        30 -10.5379    235.5885      5.2215   2.8217774569e+01   2.7199023937e+01    0.1391344    0.1045165 -31.11 0.0009545389    1.635    0.388
        31 -10.4558    104.4285      3.7870   4.3425152777e+01   5.6932481958e+01    0.2682413    0.2089103 -20.17  0.001246401    1.500    0.333
        32 -10.2377     74.9622      3.8109   5.0803127867e+01   6.3269743804e+01    0.2303917    0.1290885  42.04 0.0008311616    1.449    0.310
        33 -10.8005     80.1445      1.6168   4.8395355963e+01   6.2380651030e+01    0.3126627    0.1296494  50.35  0.000995405    1.863    0.463
        34 -10.7109     20.9777      2.1781   7.2428078668e+01   7.2464924506e+01    0.3430603    0.1553692  27.97  0.001690809    1.963    0.490
        35  -9.4362    242.6864      2.3127   2.7221779876e+01   2.6108739742e+01    0.1193955   0.06140848 -64.64 0.0007032082    1.636    0.389
        36  -9.4534      1.0000      1.8310   8.4447520303e+01   7.4568446633e+01    0.1605004   0.05242753 -43.13 0.0007841726    2.817    0.645
        37  -9.9371     70.1212      5.9535   5.3229000406e+01   6.4053448847e+01     0.218178    0.1609263   4.02  0.001371435    1.373    0.272
        38 -10.2340     11.0126      1.3349   7.7797998846e+01   7.3704300561e+01    0.1479959   0.08685781  24.64 0.0003254853    1.568    0.362
        39  -9.3121     22.0704    180.0104   1.1530217564e+02   3.3757344767e+01    0.1530803    0.1339965  80.22  0.000529332    1.053    0.050
        40 -10.8212     27.2579    250.3866   1.1932059614e+02   1.7697581485e+01     0.372194   0.06732972  39.09  0.001526616    3.351    0.702
        41 -11.8273     18.0086    248.8552   1.2098204337e+02   1.8960977963e+01    0.2874125    0.2360469 -32.61  0.002017852    1.944    0.486
        42 -12.0395      3.7152    248.5063   1.2359549836e+02   2.0423419502e+01    0.9213406    0.3896197  81.68  0.005022023    2.230    0.552
        43 -12.1677      4.0809    232.8267   1.2279954621e+02   2.3518367589e+01    0.4005198    0.2589639  83.43  0.002675704    1.284    0.221
        44 -12.8378      9.8846    244.6820   1.2228583735e+02   2.0585885660e+01    0.6511901    0.3392417 -89.18  0.003947312    1.742    0.426
        45 -10.4044      4.4964    167.4845   1.1861447889e+02   3.8234469982e+01    0.1263257    0.1033787 -87.69 0.0008104817    1.001    0.001
        46  -9.4012    226.3527    163.8706   6.2798006736e+01   4.6692283223e+00    0.2004527    0.1108977 -30.51 0.0009351041    1.715    0.417
        47 -10.0244     14.3450    164.2979   1.1581581904e+02   3.8267988985e+01     0.129756   0.08668304 -44.73 0.0003405815    1.674    0.403
        48 -10.5729      4.3798    158.8991   1.1793283375e+02   4.0334138949e+01    0.2166743    0.1729764  74.26 0.0004462247    1.180    0.152
        49 -11.4821      6.3078    153.4032   1.1693178424e+02   4.1553101245e+01    0.5792826    0.2120558  13.86  0.002367057    3.748    0.733
        50  -9.4971     27.3978    147.2365   1.1033442489e+02   4.1448120590e+01    0.1836367    0.1166474 -82.10 0.0004323894    1.503    0.335
        51  -9.5847     23.3485    147.3053   1.1151875559e+02   4.1781264582e+01    0.1390975   0.08903582 -41.32 0.0007041836    1.700    0.412
        52 -10.4546     12.6023    147.2031   1.1457929158e+02   4.2649562569e+01    0.1935268   0.09717854 -62.99  0.000502255    1.647    0.393
        53  -9.6238    236.2388    138.8307   5.5936914964e+01   7.4323491755e+00    0.1848595     0.145611 -14.45 0.0008295582    1.346    0.257
        54  -9.3917     24.5123    138.9868   1.1011998954e+02   4.3790234893e+01    0.2003929   0.07868171 -49.39  0.000808229    2.388    0.581
        55 -10.4510      3.5989    134.2400   1.1579748523e+02   4.6468439704e+01    0.3130351    0.1729807  67.01  0.001326372    2.103    0.525
        56 -10.0775    212.5208    133.9388   5.8890007434e+01   1.2596065122e+01    0.2363552    0.2016354  76.98 0.0006052269    1.486    0.327
        57  -9.8115     96.0125    133.7603   8.7008070327e+01   3.5906628720e+01    0.2133321    0.2076613   4.63 0.0005646165    1.045    0.043
        58  -9.0534     61.6507    130.7012   9.7095115088e+01   4.1940321541e+01    0.1535412    0.1070872 -27.35 0.0006089054    1.686    0.407
        59 -10.9784     12.2795    129.4880   1.1263189232e+02   4.7104952301e+01    0.2637323    0.1551578 -70.30  0.001384421    1.418    0.295
        60 -10.7864     28.4932    128.0962   1.0733057732e+02   4.6212316200e+01    0.2188152    0.2019068  15.46 0.0003501098    1.243    0.195
        61 -11.1324     24.1402    122.0001   1.0780668007e+02   4.8112572238e+01    0.2375346    0.1980641  26.81 0.0002732803    1.374    0.272
        62 -10.7543     17.9542    121.9449   1.0982072692e+02   4.8597122008e+01    0.1938597    0.1800999 -45.93 0.0003491066    1.131    0.116
        63 -11.5751      9.7523    120.6767   1.1229921684e+02   4.9461771027e+01    0.4388444    0.1983308 -73.48  0.002018577    1.928    0.481
        64 -10.5011     69.0407    116.9894   9.1756013847e+01   4.4367243350e+01    0.2240356    0.2061232 -39.93            0    1.019    0.019
        65 -11.3413      1.8939    113.5308   1.1392857736e+02   5.1661760909e+01    0.3673861    0.1385402 -68.61 0.0006770865    2.060    0.515
        66 -10.8687     13.5013    109.0207   1.0938152059e+02   5.2102810464e+01    0.2605095    0.1172358 -73.92  0.001047764    2.111    0.526
        67 -10.5529     45.3364    110.8060   9.8544133034e+01   4.8909946241e+01    0.2336774    0.2171977 -21.29 0.0003626432    1.103    0.093
        68 -10.2484     64.7226    109.7021   9.1525653610e+01   4.6765634502e+01     0.243109     0.182603  23.03  0.000548365    1.423    0.297
        69 -11.3489     55.3183    108.7013   9.4572699660e+01   4.8254631609e+01    0.3830956    0.2404962  -0.28  0.001389934    2.152    0.535
        70 -10.3204     22.4517    109.4864   1.0634284735e+02   5.1360698893e+01    0.1343379    0.1152328 -59.36 4.749289e-05    1.028    0.027
        71 -10.7255      1.4314    104.2870   1.1285948317e+02   5.3928227745e+01    0.2551655   0.09062988 -64.81  0.001124105    2.087    0.521
        72 -10.9954     15.0963    104.4366   1.0808625338e+02   5.3119927334e+01    0.3522176    0.1277294  32.09  0.001481166    3.022    0.669
        73  -9.9234     38.9838    101.9989   9.8957128616e+01   5.1735290375e+01    0.1682706    0.1466627 -45.71 0.0009811313    1.005    0.005
        74  -9.5350    246.6608    101.6977   4.6672087206e+01   1.1883706472e+01    0.1219445   0.09866193  -2.86 0.0004160471    1.671    0.401
        75  -9.5418     91.8784     99.8927   7.9809667638e+01   4.4703882873e+01    0.1876738     0.176772  85.47 0.0009967616    1.237    0.192
        76 -12.0697    125.3489     93.4033   6.7903614878e+01   3.9353255282e+01    0.3301143    0.2890161  79.18 0.0001211241    1.347    0.258
        77 -11.7028      7.6670     91.2183   1.0856570146e+02   5.6733967559e+01    0.3545663    0.2519726  35.43 0.0004295988    1.707    0.414
        78 -12.1499     20.4634     92.9884   1.0402330235e+02   5.5505401863e+01    0.3897737    0.2357772 -33.45 0.0005859736    1.611    0.379
        79 -10.1970     66.4299     91.9003   8.6359725998e+01   5.0713161314e+01    0.2236453    0.1929603  38.47   0.00122003    1.273    0.214
        80 -11.2269     57.8411     91.7368   8.9477478374e+01   5.1957587574e+01    0.2970762    0.2155125 -22.85 0.0007133436    1.446    0.308
        81 -10.3779     43.4762     89.6489   9.4391668121e+01   5.4191460621e+01      0.37521    0.2474046 -84.90 0.0006709485    2.394    0.582
        82 -10.1430     28.9529     92.0260   1.0056338025e+02   5.5059463729e+01    0.2579355    0.1838149   8.50 0.0007738916    1.556    0.358
        83 -11.8000     11.8573     87.1265   1.0620258120e+02   5.7456439136e+01    0.5427737    0.2644646 -86.21  0.001832052    3.258    0.693
        84 -10.4711      6.9937     85.2020   1.0774531485e+02   5.8178228302e+01    0.3024662     0.154973 -53.45 0.0008899983    1.508    0.337
        85 -10.6875      3.8818     95.9471   1.1075746358e+02   5.5808358638e+01    0.2372618    0.1513814 -71.40  0.000933713    1.378    0.274
        86  -9.3033     18.7318     86.3330   1.0333725903e+02   5.7193977525e+01    0.1212714   0.09769747  79.87 0.0001746474    1.587    0.370
        87  -9.6705     55.0515     85.3389   8.8791597143e+01   5.3776631846e+01    0.1867708    0.1756627 -22.31 0.0005762908    1.083    0.077
        88  -9.4725     76.5370     82.9721   8.0130485713e+01   5.1085475192e+01    0.2104272    0.1378895 -43.75 0.0004030007    1.476    0.323
        89  -9.0549     78.9930     94.0000   8.2486263764e+01   4.8269265709e+01    0.2276598   0.08414602  35.34 0.0003946949    2.776    0.640
        90 -10.1819     89.1707     80.3381   7.4949503531e+01   4.9398367648e+01     0.369851    0.2526227  75.75  0.001090342    2.932    0.659
        91  -9.3400    250.3283     80.7091   4.1920530253e+01   1.4519470551e+01     0.128301    0.0828849 -65.35 0.0006430245    1.621    0.383
        92 -11.4129     48.3797     78.9546   8.9605719723e+01   5.6033855909e+01    0.3711235    0.2246783   8.00 0.0009754066    1.973    0.493
        93 -11.8579     55.1792     74.9549   8.5725493469e+01   5.6019295137e+01     0.323674    0.2504745 -23.82  0.001779327    1.217    0.178
        94  -9.2507    141.6924     79.7160   5.9756148038e+01   3.8303094167e+01    0.1493346     0.117128  17.18  0.000215603    1.565    0.361
        95  -9.1083    124.4532     79.3976   6.4019322672e+01   4.2288172667e+01    0.1481944    0.1428069  48.18   0.00014193    1.051    0.049
        96  -9.6029     80.4482     79.3167   7.7624360813e+01   5.1181352316e+01    0.1938144    0.1399609 -54.97 0.0009335265    1.581    0.368
        97  -9.5483     31.3149     79.0375   9.6555413220e+01   5.7843539678e+01    0.1796461    0.1521813 -38.54 0.0006083155    1.026    0.025
        98  -9.1654     23.6714     79.6858   9.9859619190e+01   5.8352692837e+01    0.1427413   0.08124135 -32.85 0.0002472078    1.673    0.402
        99 -10.2764    176.7592     76.9549   5.1656990819e+01   3.0598261547e+01    0.2558196    0.2110727  62.87  0.001369119    1.211    0.174
       100  -9.6814    159.2962     77.3630   5.5171144877e+01   3.4607911687e+01    0.2098586    0.1383438  63.71 0.0005268972    1.611    0.379
       101 -10.8908      6.8832     76.1424   1.0602528064e+02   6.0259451747e+01    0.3331048    0.1770265  47.24  0.001595267    2.776    0.640
       102 -10.2589     42.2696     74.8643   9.0913734860e+01   5.7641566356e+01    0.2964981    0.2466335  47.80  0.001715343    1.534    0.348
       103 -11.3142     15.7794     75.5933   1.0218742984e+02   5.9852253906e+01    0.2983122    0.2255969 -14.10  0.001829063    1.328    0.247
       104 -11.1086     35.3228     73.0728   9.3297104579e+01   5.8772907226e+01    0.5202855    0.3650749  14.39  0.002345219    1.493    0.330
       105  -9.9730    198.2726     72.0860   4.6833481007e+01   2.6490554807e+01     0.187831    0.1767006 -33.22 0.0003292871    1.175    0.149
       106 -12.6820    105.8348     70.9783   6.6671687351e+01   4.7888140153e+01     0.307184    0.2938793  77.85 0.0005379659    1.205    0.170
       107  -9.6954     93.0959     71.9849   7.0988697764e+01   5.0288521141e+01    0.3261571    0.1541234  57.15  0.001064153    3.626    0.724
       108 -10.6446     80.6289     68.5519   7.4093238598e+01   5.3280454424e+01    0.4539261     0.368722  52.29  0.002420136    1.458    0.314
       109 -10.4411     45.6484     69.4357   8.7908035368e+01   5.8400171810e+01    0.2698846    0.2340398 -11.69  0.001448512    1.055    0.052
       110 -10.0276     10.2016     69.9186   1.0326463576e+02   6.1464082975e+01     0.220509    0.1386406 -69.52  0.000794837    1.652    0.395
       111 -11.1293      3.0266     66.9945   1.0573496773e+02   6.2486476345e+01    0.3710147    0.1959354  31.73  0.001981562    2.331    0.571
       112 -10.0339     51.4255     66.2202   8.4506312351e+01   5.8325603347e+01    0.2682383    0.1734259 -17.98 0.0007321684    1.695    0.410
       113 -10.8508     15.2766     63.3333   9.9397527306e+01   6.2569090505e+01    0.4075363    0.2767372 -44.82  0.001896321    1.193    0.162
       114 -12.7628     20.7886     57.8888   9.5357899404e+01   6.3296453775e+01     0.379102    0.2612182 -30.53 0.0007184884    1.227    0.185
       115 -11.7304     96.9462     63.9647   6.7097013888e+01   5.0984291958e+01    0.3066119    0.2364081  31.11 0.0002977598    1.252    0.201
       116 -10.5082     62.5592     61.8901   7.8575988643e+01   5.7570578751e+01    0.3108315    0.2235002 -44.60   0.00165727    1.437    0.304
       117 -10.4469     39.0574     60.7690   8.7998443452e+01   6.0942675017e+01    0.4079527    0.1805626 -26.17  0.001541228    3.165    0.684
       118 -10.8744     11.3242     59.0662   1.0007796522e+02   6.3731238019e+01    0.3850956     0.218199  16.99   0.00214903    1.909    0.476
       119  -9.8111      7.0675     56.2686   1.0132876266e+02   6.4569984683e+01    0.3288723    0.1694621 -13.99 0.0009947909    2.076    0.518
       120  -9.9972     85.3203     58.9731   6.9194065299e+01   5.4149795024e+01    0.1954402    0.1675181 -19.01 0.0002453431    1.147    0.128
       121  -9.4734    109.3745     58.0677   6.1398591134e+01   4.9349946478e+01    0.1899508    0.1811648   4.91 0.0006761343    1.057    0.054
       122  -9.7129     48.7716     58.1527   8.2932541550e+01   6.0262002985e+01    0.1912421    0.1401207 -12.79 0.0007143981    1.324    0.244
       123  -9.8799     71.6680     56.4066   7.3154586275e+01   5.7081489455e+01    0.2062732    0.1960521 -26.98 0.0007155351    1.217    0.179
       124 -10.2290     32.7035     56.1810   8.9347282247e+01   6.2543178759e+01      0.26102    0.1512535 -32.28 0.0007401844    1.567    0.362
       125 -10.0782     96.2778     56.1234   6.4626516971e+01   5.2450671227e+01    0.2281008    0.1740179  -4.25 0.0009321739    1.476    0.322
       126 -11.8619    114.5763     53.1995   5.8345447595e+01   4.8960893673e+01    0.2857315    0.2546895 -11.68  0.000364449    1.181    0.153
       127 -11.4912     87.9960     53.1759   6.6245939284e+01   5.4601723294e+01    0.5160195    0.3436098 -10.83  0.002463261    1.848    0.459
       128  -9.7652    156.0041     53.2236   4.9029491905e+01   3.9235476635e+01    0.3826793    0.1448301 -49.73  0.001295811    3.428    0.708
       129 -10.0331    149.2546     52.1440   5.0021329700e+01   4.1007102527e+01    0.2515097    0.1779423  49.08 0.0007273166    1.364    0.267
       130 -11.3996    105.9750     50.5779   5.9819294376e+01   5.1263064291e+01    0.2739954    0.2122367 -20.52  0.001459034    1.388    0.280
       131  -9.1742     78.3505     52.2747   6.9225444910e+01   5.6592739483e+01    0.1441458    0.0998105  11.09 0.0004546797    1.636    0.389
       132  -9.2284    168.0064     65.7477   5.0278438964e+01   3.4477793867e+01    0.1763003    0.1188993  59.90 0.0001918295    1.446    0.309
       133 -10.7476    120.1547     48.9397   5.5495844218e+01   4.8326159365e+01    0.5025405    0.2723145 -56.10  0.001980663    2.849    0.649
       134 -10.0348     37.5173     49.3010   8.4796554933e+01   6.3327995169e+01    0.3624623     0.207448 -14.22  0.001758266    2.046    0.511
       135  -9.4969     32.6329     51.0158   8.7650614416e+01   6.3551240785e+01    0.1743633    0.1377921 -25.34 0.0003176535    1.061    0.057
       136  -9.7854     58.7646     50.0206   7.5852773090e+01   6.0307179665e+01    0.1895097    0.1557431 -68.97  0.001035957    1.933    0.483
       137  -9.3180     75.9796     49.4629   6.9039175294e+01   5.7488454022e+01    0.1713985     0.121391  65.03 0.0008033563    2.262    0.558
       138 -10.7025      9.7900     48.1138   9.7724169341e+01   6.6064229956e+01    0.2774081     0.206841  -3.06  0.001815384    1.305    0.234
       139 -10.6861    137.1823     47.0626   5.0969940144e+01   4.4606838430e+01    0.3419049      0.21298  59.61 0.0009495476    1.509    0.337
       140  -9.9787     52.7021     48.3021   7.7727293610e+01   6.1515121827e+01    0.2917354    0.1557957  25.21  0.001392156    1.910    0.477
       141 -11.7873     66.7558     52.7856   7.3707598547e+01   5.8544858330e+01    0.4243945    0.2071267  34.42  0.001645669    2.000    0.500
       142  -9.7862     70.2746     46.9020   7.0175833407e+01   5.8923452361e+01    0.3130869    0.1577163  46.24  0.001027952    2.125    0.529
       143 -10.1639     79.0637     45.8162   6.6582583317e+01   5.7491722528e+01    0.1874047     0.178342  35.62 0.0003114654    1.222    0.182
       144 -11.0432     18.5192     44.1416   9.2101882419e+01   6.6191222616e+01    0.3932499    0.3478683  22.00  0.002358688    1.404    0.288
       145  -9.5456     36.5465     45.2370   8.3766733470e+01   6.4181181199e+01    0.1735294    0.1033001 -31.64  0.000385612    1.520    0.342
       146 -10.3482     25.8299     44.0340   8.8447717326e+01   6.5551485631e+01    0.2292885    0.1783647 -65.73  0.001068243    1.866    0.464
       147  -9.4043    152.3857     44.5751   4.7213567945e+01   4.1310253373e+01    0.1356973    0.1256768  82.14 8.247651e-05    1.039    0.037
       148  -9.9896      3.2428     43.5112   9.9651548367e+01   6.7359368548e+01    0.3226826   0.08994021 -36.09   0.00130759    3.113    0.679
       149  -9.7818     69.1236     41.9266   6.8696779904e+01   5.9906077315e+01    0.1818648    0.1745987  18.66 0.0002618765    1.253    0.202
       150 -10.7953     59.5123     41.7885   7.2396520549e+01   6.1552207024e+01    0.3536837    0.1990769  47.70  0.001601504    2.172    0.540
       151  -9.8260     36.0278     41.3320   8.2538482676e+01   6.4931084475e+01    0.1810473    0.1456294  -2.23 0.0005834617    1.070    0.065
       152 -10.0196    170.5191     40.3053   4.2975650799e+01   3.7532420338e+01    0.3259642    0.1694499  75.98  0.001376118    2.133    0.531
       153  -9.7039    139.0558     40.5099   4.8561529696e+01   4.5039612231e+01    0.2084475    0.1273518  60.78 0.0004960018    1.508    0.337
       154 -10.5460    128.2394     38.8923   5.0322190351e+01   4.7813185130e+01    0.2777454    0.1894147 -52.07 0.0009938324    1.739    0.425
       155  -9.4235     99.4576     40.1030   5.7979702318e+01   5.4179308292e+01    0.1888583    0.1351401 -25.22  0.000739312    1.503    0.335
       156  -9.4783     43.0211     40.7905   7.9090381200e+01   6.4143010006e+01    0.1644911   0.09471676  28.75   0.00067306    1.681    0.405
       157  -9.0052    204.7180     39.7045   3.8263288403e+01   2.9713423855e+01    0.1157895    0.0990672  36.25 0.0001996939    1.539    0.350
       158 -11.6952    121.1573     37.0945   5.1327147467e+01   4.9698148804e+01    0.4035977    0.3581021 -37.71  0.001472646    1.247    0.198
       159 -10.6704     22.0787     38.2501   8.8210535437e+01   6.6958965490e+01    0.2062178    0.1531591 -34.17 0.0007781222    1.184    0.156
       160  -9.4824    239.0204     37.4777   3.4298540202e+01   2.2772234971e+01    0.1660321    0.1081591  75.98 0.0009439315    1.528    0.346
       161  -9.7751    229.9111    247.7675   7.7608636372e+01  -9.2042150670e+00    0.1614974     0.124331   5.41 0.0004828104    1.081    0.075
       162  -9.1953     69.3367     36.2804   6.6384806127e+01   6.0702627061e+01    0.1379102   0.09153902  14.15 0.0006049983    1.618    0.382
       163  -9.5533    133.1473     35.0162   4.8045563065e+01   4.7137737369e+01    0.2023484    0.1420701  33.17  0.000348071    1.581    0.368
       164 -10.4279     27.2765     34.5204   8.4143151871e+01   6.7085484514e+01     0.310607    0.1789609  -9.88  0.001231434    1.872    0.466
       165 -10.4744      3.0567     34.8174   9.7018012052e+01   6.9029650724e+01    0.2659986    0.2016406  86.47  0.001531301    2.462    0.594
       166 -11.1207     48.8940     33.2137   7.3390617489e+01   6.4522668564e+01    0.3879942    0.1849616  30.41   0.00186441    2.014    0.503
       167  -9.4594      7.1828     34.1689   9.4559587182e+01   6.8891482785e+01    0.1440605    0.1335933 -27.39 0.0006771478    1.344    0.256
       168 -10.1680    126.9491     31.1125   4.8077964927e+01   4.9070234466e+01    0.3072937    0.1785333 -29.75  0.001507274    1.908    0.476
       169 -10.0598     89.2329     30.4417   5.7386000378e+01   5.7598014090e+01    0.2910768    0.1657149  60.37  0.001362937    2.032    0.508
       170 -10.5189    144.0864     31.0171   4.4718222044e+01   4.5003421875e+01    0.2295511    0.1893925 -46.08 0.0007130743    1.315    0.239
       171 -10.4789     72.9502     31.9783   6.3336926262e+01   6.0631523831e+01    0.2233558    0.1688332  33.82 0.0004147308    1.173    0.148
       172 -10.0779     17.8526     32.2562   8.8123402505e+01   6.8397850093e+01    0.3158168    0.1318604   9.43  0.001374399    3.040    0.671
       173 -11.5863     10.2707     29.8269   9.1287028907e+01   6.9446661784e+01    0.3249387    0.1897473  29.99  0.001922878    2.006    0.502
       174  -9.5030    151.0658     29.5373   4.3075907779e+01   4.3501069646e+01    0.1942062    0.1193519  64.07  0.000350556    1.451    0.311
       175  -9.6386    147.2661     27.6852   4.3171616121e+01   4.4622872708e+01    0.3394168    0.1593559 -36.41  0.001543662    2.248    0.555
       176 -10.1161    135.7414     29.2819   4.5731159563e+01   4.7198115411e+01    0.1878988    0.1666526  71.39 0.0007110142    1.066    0.062
       177  -9.9446     70.0102     27.8721   6.2704116297e+01   6.1715284827e+01    0.2658302    0.1700727 -55.70  0.001241563    2.859    0.650
       178  -9.5059    139.9813     27.0017   4.4239819309e+01   4.6443189952e+01    0.2125711    0.1521353 -76.96  0.001116575    1.674    0.403
       179  -9.0326    123.6938     27.6956   4.7643899419e+01   5.0226313834e+01    0.1386543   0.09316025  33.65 0.0002707958    1.603    0.376
       180  -9.7742    114.0350     26.2634   4.9290814994e+01   5.2627529091e+01    0.2198903    0.1612962 -44.87  0.000656101    1.597    0.374
       181 -10.5791     46.9627     26.9733   7.1572215845e+01   6.5720312165e+01    0.2136496    0.2065151 -81.53  0.001436604    1.684    0.406
       182 -10.3510     35.0242     29.0157   7.8021685722e+01   6.7070847886e+01    0.1990913    0.1476805 -19.25  0.001258679    1.171    0.146
       183  -9.6971    102.9961     25.4839   5.1691619162e+01   5.5209839394e+01    0.2074019    0.1168008  53.81  0.001020294    1.556    0.357
       184  -9.4751     59.3960     25.7084   6.5797538815e+01   6.3890349825e+01    0.1162091    0.1026954  71.92 0.0005565831    1.787    0.441
       185 -10.4033    225.0991    247.3362   7.8424934398e+01  -8.5568843294e+00    0.2186884    0.1559121 -27.32  0.001436728    1.382    0.277
       186  -9.5487    170.8071    247.1385   8.9094133473e+01  -1.1877558123e+00    0.1787986    0.1326943   2.85 0.0007255579    1.331    0.249
       187  -9.5068    116.1327    246.7833   1.0067366416e+02   6.9260658116e+00    0.1640959    0.1440082   2.30  0.001042678    1.285    0.222
       188 -10.3789    229.4669     21.4544   3.1872414727e+01   2.6649964979e+01    0.3295766    0.1577451 -75.10  0.001623669    2.334    0.572
       189  -9.7414    225.6764     22.7016   3.2444309099e+01   2.7287019494e+01    0.1913599    0.1297514  55.17 0.0006844345    1.765    0.434
       190 -10.8982     33.0710    246.8537   1.1798206678e+02   1.7761691422e+01    0.3881882    0.1095577  49.30   0.00169258    2.817    0.645
       191  -9.1181     35.0000     22.9769   7.5375451311e+01   6.7970613350e+01    0.1906705   0.06308503 -38.76 0.0008059264    2.967    0.663
       192  -9.0980    202.3240    240.3154   8.1638832722e+01  -4.5717388861e+00    0.1317418   0.08331004  -1.06 0.0006087561    1.665    0.399
       193  -9.6288      6.3112     20.6846   8.9901993856e+01   7.1292960042e+01     0.215122    0.1278999  -3.94 0.0009671578    1.534    0.348
       194  -9.4226     97.1682     21.8822   5.1870937333e+01   5.6885981916e+01     0.173681    0.1522491  30.29  0.001085268    1.059    0.056
       195  -9.4131    100.8073     21.2079   5.0675355975e+01   5.6157113062e+01    0.2478673      0.13142  40.05  0.001192665    1.761    0.432
       196 -10.6137     54.6807     21.9609   6.6054119874e+01   6.5166443463e+01    0.2231246    0.1543293  30.65 0.0005111011    1.259    0.206
       197  -9.3986    165.1900     20.7892   3.8502820820e+01   4.1093758549e+01     0.172647    0.1421411  45.82 0.0008010248    1.335    0.251
       198  -9.7639    132.0521     20.9678   4.3810190306e+01   4.8976411340e+01    0.2000378    0.1751613  54.84 0.0005421248    1.049    0.047
       199  -9.5398     92.4939     21.4824   5.2985151444e+01   5.7939921629e+01    0.1351023    0.1100944  33.92 -7.45919e-06    1.073    0.068
       200 -10.0793     84.2635     20.8210   5.5103683957e+01   5.9743099654e+01    0.1844627    0.1302457  24.86 0.0005565071    1.365    0.268
       201 -10.1850     45.5564     20.9482   6.9505684620e+01   6.6751069569e+01    0.2153633     0.158459  31.67 0.0005652914    1.300    0.231
       202 -10.1946     30.3581     21.1156   7.6846360103e+01   6.8829858084e+01     0.231344    0.1383308  12.43  0.001323887    1.601    0.375
       203  -9.8459    214.6546     20.3072   3.2904882457e+01   2.9888693340e+01    0.1316744   0.07502921 -68.10  0.000578432    1.697    0.411
       204 -11.0700     38.8388     19.3563   7.1864200038e+01   6.7947556928e+01    0.2990917    0.2225739  49.86  0.001794952    2.021    0.505
       205  -9.5018    120.7518     19.4004   4.5493271851e+01   5.1795124097e+01    0.1839191    0.1038733  51.76 0.0002360936    1.512    0.338
       206  -9.9826     60.3299     18.6728   6.2345396851e+01   6.4592857973e+01    0.3594873     0.125824  43.02   0.00154148    2.476    0.596
       207  -9.0601    141.2785     18.3054   4.1375037544e+01   4.7050961610e+01    0.1295534   0.09048288  38.61 0.0004119636    1.551    0.355
       208  -9.8885     35.9777    240.4577   1.1698019174e+02   1.8724278406e+01    0.1766907    0.1010697  38.00 0.0005925135    1.575    0.365
       209  -9.6992    145.7443     17.0247   4.0275994344e+01   4.6113064027e+01    0.1664315    0.1605979  86.36 0.0003448384    1.125    0.111
       210 -11.7673      6.5317    240.9530   1.2273024645e+02   2.1646031895e+01    0.3115111    0.2535339  77.13  0.002183192    1.123    0.110
       211  -9.5259     89.5101     13.4590   5.0669397815e+01   5.9387344036e+01    0.1858578    0.1492841  46.25 0.0007893973    1.076    0.070
       212  -9.6749     26.8062     16.8138   7.6680642568e+01   6.9873079136e+01    0.1471542    0.1218167  15.88 0.0004197173    1.293    0.226
       213 -11.0526    202.5746     16.0570   3.3086983143e+01   3.2991835456e+01    0.2106938    0.1444019 -85.93 0.0005807041    1.304    0.233
       214 -10.4564     65.7835     15.1606   5.8770374150e+01   6.3990453697e+01    0.2534689    0.2010335  79.40  0.001458024    2.118    0.528
       215  -9.8633    168.7667     14.9539   3.6489567642e+01   4.0851438359e+01    0.1847739    0.1551415  59.82 0.0003149359    1.198    0.165
       216  -9.4387     90.8081    237.0557   1.0505506898e+02   1.2455626919e+01    0.1593695     0.100992 -66.39 0.0008512009    1.772    0.436
       217  -9.9293    154.9789     15.4938   3.8463004195e+01   4.4062987959e+01     0.192724     0.099772 -84.83 0.0008104622    2.639    0.621
       218 -11.2169     25.0873    236.1560   1.1887853425e+02   2.0781152256e+01    0.2111771    0.1316295  46.19 0.0003751781    1.373    0.271
       219  -9.6543    249.2958    233.6115   7.1797163357e+01  -9.5851574873e+00    0.1488472    0.0926932  13.92 0.0006146557    1.452    0.311
       220 -10.9892      1.7931    225.1092   1.2286070106e+02   2.5325378398e+01    0.4517734    0.1337296  53.93  0.001786074    2.837    0.648
       221 -11.6518     10.4804    231.5139   1.2149375103e+02   2.3195629745e+01     0.267779    0.1288566  54.06  0.001009861    1.718    0.418
       222 -12.0827      9.6331    227.6760   1.2145177258e+02   2.4076225316e+01     0.384795    0.2122234  32.70  0.002292175    1.844    0.458
       223  -9.4533      7.4095     14.2853   8.6460249410e+01   7.2222719898e+01    0.1250044   0.06638896 -13.63 0.0005805236    1.807    0.447
       224 -10.2954    193.2170     11.5961   3.2967601310e+01   3.5549741287e+01    0.1727477   0.09730524  64.08 0.0009417381    1.633    0.388
       225  -9.9835    134.5572     11.4868   4.0401384972e+01   4.9297308775e+01      0.12912    0.1107698  65.33 5.913041e-05    1.006    0.006
       226  -9.4641     47.7901    229.8315   1.1372035263e+02   1.9578318982e+01    0.1722182    0.1172748  61.98            0    1.304    0.233
       227  -9.8893     57.0197    229.9470   1.1173947593e+02   1.8434030978e+01    0.1515744    0.1287565  67.69 0.0004232125    1.033    0.031
       228  -9.7372    209.4951    229.5270   7.8431084351e+01  -3.9006239112e+00    0.1291946    0.1040241   1.45  2.62328e-05    1.003    0.003
       229  -8.9289    205.3003    229.6884   7.9282334335e+01  -3.3393253930e+00    0.1101891    0.1028463  51.54 0.0002276736    1.605    0.377
       230 -11.0001    140.2746    228.0747   9.2816090602e+01   6.7906094715e+00     0.300935     0.228198 -70.13  0.001637479    1.760    0.432
       231  -9.6999    223.2548    226.9868   7.5357086585e+01  -5.3841309988e+00    0.1755158    0.1351749 -12.47 0.0003740511    1.094    0.086
       232  -8.9585    114.4738    221.5013   9.7743266827e+01   1.2135634555e+01    0.1366128    0.1243361  33.00 0.0002796614    1.036    0.035
       233  -9.4959      3.6027     10.5146   8.7054729811e+01   7.3102273003e+01    0.1121482   0.08341529 -15.97 0.0001191101    1.053    0.050
       234  -9.6271     99.1095     14.2901   4.8517916690e+01   5.7220594121e+01    0.1799384    0.1448015  50.97 0.0004049744    1.078    0.072
       235 -10.7329      2.5776    219.8312   1.2243577983e+02   2.6375504990e+01    0.2452943    0.1298131  67.70  0.000971776    1.625    0.385
       236  -9.7434    233.1291    219.0760   7.2141537612e+01  -5.4961107255e+00    0.1928127    0.1364242  -6.87 0.0003949396    1.231    0.188
       237 -10.7053      8.3095    218.1143   1.2118175365e+02   2.6236623743e+01     0.207844    0.1882572  88.15  0.001539253    1.231    0.188
       238  -8.8594     85.5538    215.4583   1.0371468973e+02   1.7763795593e+01    0.1333175    0.1233497  53.28 3.075933e-05    1.040    0.038
       239  -9.7257     15.8049    213.1720   1.1931329381e+02   2.6626110940e+01    0.1910853    0.1335963  66.93 0.0008476761    1.211    0.175
       240  -9.0157    249.3418    211.3278   6.7892638701e+01  -6.4228287932e+00    0.1305366   0.07814253  -7.02  0.000705131    1.740    0.425
       241  -9.6150    205.4955    212.4823   7.6223119670e+01  -5.5772897037e-01    0.1344731    0.1122605  -2.00 0.0001744943    1.004    0.004
       242  -9.7628    123.9462    205.9109   9.3172429841e+01   1.3929014597e+01     0.195708    0.1745161   6.77            0    1.175    0.149
       243  -9.1668     10.6801    203.7084   1.1979503347e+02   2.9214982862e+01    0.1121034   0.08620907 -49.52 0.0007011234    1.605    0.377
       244  -9.4723    193.5009    202.4811   7.6823619265e+01   3.0480203704e+00    0.1380991    0.1215465  -0.91 0.0008102072    1.030    0.029
       245 -11.1047      4.0762    200.9053   1.2105222329e+02   3.0414708509e+01    0.3510547      0.10581 -62.27  0.001509276    2.989    0.665
       246  -9.2094     24.4762    195.5252   1.1607247996e+02   2.9823358521e+01    0.1293189    0.1050352  76.42 0.0008090139    1.057    0.054
       247  -9.6337     14.0630    192.7743   1.1827055298e+02   3.1433197237e+01    0.1927208    0.1322454  65.16 0.0006432189    1.315    0.240
       248  -9.8033      5.9831    192.2656   1.2007664795e+02   3.2236636566e+01    0.1692703    0.1422334  82.69  0.001153171    1.053    0.050
       249  -9.6947      1.3191    191.6229   1.2108181874e+02   3.2756485172e+01     0.221044   0.09367804 -85.68  0.000840871    2.091    0.522
       250  -9.0829      7.3190    188.2829   1.1949795439e+02   3.3055849129e+01    0.1157313   0.08540097 -49.61 0.0003423426    1.586    0.369
