#   1 NUMBER                 Running object number                                     
#   2 MAG_AUTO               Kron-like elliptical aperture magnitude                    [mag]
#   3 X_IMAGE                Object position along x                                    [pixel]
#   4 Y_IMAGE                Object position along y                                    [pixel]
#   5 X_WORLD                Barycenter position along world x axis                     [deg]
#   6 Y_WORLD                Barycenter position along world y axis                     [deg]
#   7 A_WORLD                Profile RMS along major axis (world units)                 [deg]
#   8 B_WORLD                Profile RMS along minor axis (world units)                 [deg]
#   9 THETA_WORLD            Position angle (CCW/world-x)                               [deg]
#  10 FWHM_WORLD             FWHM assuming a gaussian core                              [deg]
#  11 ELONGATION             A_IMAGE/B_IMAGE                                           
#  12 ELLIPTICITY            1 - B_IMAGE/A_IMAGE                                       
         1 -14.3579    172.2652     56.3882   4.7767720851e+01   3.4826758456e+01     1.111048    0.9883723   0.12  0.003919362    1.383    0.277
         2 -14.5280    190.8762     30.6849   3.8649734694e+01   3.3958987370e+01     0.967454    0.8004835 -84.47  0.003614152    1.092    0.084
         3 -12.9531    189.8913     14.8615   3.4861665426e+01   3.5934701615e+01    0.4454083    0.2253035 -78.89  0.002106173    2.188    0.543
         4 -12.8496    188.1373    238.3195   8.3792912528e+01  -1.7812269858e-01    0.4296596     0.240022 -37.59  0.001566148    1.858    0.462
         5  -9.5492    164.0418    250.5504   9.0346236621e+01   1.0674332923e+00    0.1761811   0.09879182  27.58 3.581991e-06    1.473    0.321
         6 -19.9971     56.5865    165.4541   1.0457810968e+02   3.3608779462e+01     17.48558     5.363109 -67.78   0.05782931    3.369    0.703
         7 -11.7655    136.9044    218.1799   9.1546204781e+01   1.0281543922e+01    0.5656466    0.1950842 -52.96  0.002168325    3.355    0.702
         8 -10.6023    207.8276    216.9191   7.6600542019e+01   5.0566936036e-01    0.2139104     0.148061 -32.66 0.0009212288    1.400    0.286
         9 -12.4131    185.1884    215.1778   8.0702403471e+01   3.8355820791e+00    0.3601522    0.2557517 -36.71  0.001572447    1.445    0.308
        10 -11.4846    188.0051    211.9788   7.9599991126e+01   3.9677226527e+00    0.2719989    0.2033003 -41.25 0.0008849299    1.484    0.326
        11 -11.2677    197.9594    237.9580   8.1846104060e+01  -1.3574440473e+00    0.1842705    0.1483481   3.63 0.0005093906    1.073    0.068
        12 -11.4463    151.9330    202.2581   8.5625405964e+01   1.1044872094e+01    0.2835697      0.18725 -39.81 0.0007652034    1.566    0.361
        13 -11.4881    163.0414    199.9474   8.2762321108e+01   9.7644009033e+00    0.3860039    0.2014859 -53.11  0.001713248    2.363    0.577
        14 -12.3978    192.5426    193.9572   7.5527096770e+01   6.3483804880e+00     0.888326    0.4521563 -59.11  0.003049834    4.882    0.795
        15 -10.0858    201.2905    199.6434   7.4846641971e+01   4.1215387384e+00    0.1133324    0.1053799 -73.29 0.0007027649    1.684    0.406
        16 -11.8327    149.4712    197.6495   8.5401576703e+01   1.2320033509e+01    0.2639444    0.2042263  21.48 0.0006208599    1.205    0.170
        17 -11.5704     14.5865    197.3205   1.1885697008e+02   3.0201463195e+01    0.1946335    0.1687616 -64.08 0.0005860304    1.285    0.222
        18 -10.8185    169.6203    191.2820   7.9789491771e+01   1.0353702950e+01    0.2345052    0.2225961 -39.96 0.0006624248    1.256    0.204
        19  -9.7295    181.6098    200.2212   7.8864262197e+01   6.8920070359e+00    0.1785879    0.1147373 -29.66 0.0004295459    1.526    0.345
        20 -12.2018    102.8758    235.5648   1.0154379525e+02   1.1773229692e+01    0.3151316    0.2271235  39.02  0.001012844    1.198    0.166
        21 -11.9923    248.8835    169.8575   6.1175189553e+01   2.2548439285e+00    0.2900595     0.200386 -39.19  0.000656386    1.365    0.267
        22  -9.8384    198.0968    169.4331   6.9765553942e+01   9.7870084885e+00    0.3312843    0.1729974 -53.87  0.001376446    2.706    0.630
        23 -11.3118    150.3071    170.0255   8.0119457547e+01   1.7780682174e+01    0.2053333    0.1877987 -27.98 0.0005739337    1.084    0.078
        24 -10.4098     17.5190    162.9877   1.1554211634e+02   3.8220631422e+01    0.3219717    0.1685769  20.92  0.001553216    2.112    0.527
        25 -13.0199    235.0052    156.9157   6.0842603014e+01   6.1861905362e+00      0.59416    0.2561738 -26.83  0.002509589    2.653    0.623
        26 -11.1391    144.1100    218.3185   8.9948428387e+01   9.2015960228e+00    0.2208053    0.1902033 -33.05 0.0006093175    1.246    0.197
        27 -11.1812    244.0852    155.6706   5.9211200158e+01   5.0700419002e+00    0.1694996    0.1433442 -12.79  0.000697607    1.106    0.096
        28  -9.7583    134.4132    235.0384   9.4476448891e+01   7.5617065116e+00    0.2328162    0.1431696 -34.91 0.0008817532    1.887    0.470
        29 -10.0417    156.7598    152.0150   7.4887313271e+01   2.0378938245e+01    0.2119047    0.1987983 -68.60 0.0005468837    1.234    0.190
        30  -9.5675      6.2868    150.5853   1.1772063991e+02   4.2171754022e+01    0.1500819    0.1211404 -20.21 0.0005969357    1.514    0.340
        31 -12.1817    143.1211    144.2661   7.6451940378e+01   2.4605542270e+01    0.7152485    0.2877441 -58.02  0.002060586    4.197    0.762
        32 -11.6276    135.7249    228.8812   9.3347704837e+01   8.4773504541e+00    0.3380238    0.2863311 -37.10  0.001193942    1.311    0.237
        33  -9.8650      7.3410    138.5903   1.1635735093e+02   4.5145383112e+01    0.2046628    0.1688877  19.47  0.001176455    1.389    0.280
        34  -9.9840     13.3329    137.4405   1.1435577763e+02   4.5035493277e+01    0.2073411    0.1339514   3.75 0.0008559697    1.913    0.477
        35 -13.0359    135.9084    129.3759   7.4832208507e+01   2.9279289463e+01     1.218468    0.2617898 -49.05  0.002966565    5.150    0.806
        36 -10.2715    160.8371    128.1140   6.8540784562e+01   2.4526098583e+01    0.2347074    0.2101142 -72.07  0.001242272    1.289    0.224
        37 -11.5313    148.7726    229.0345   9.0513843979e+01   6.6123637042e+00     0.355875    0.2719507 -56.27  0.001451611    1.671    0.402
        38 -11.6500    130.9809    120.2553   7.3883286262e+01   3.2280050891e+01    0.2183129     0.203502  36.82 0.0004492421    1.082    0.076
        39 -10.0028      7.1111    119.7303   1.1449992806e+02   4.9986733944e+01    0.2321015    0.1629332 -25.41 0.0009581876    1.623    0.384
        40 -12.9055    152.9167    220.1064   8.8278859532e+01   7.5962571193e+00    0.8109371    0.3400851 -36.18  0.003327833    2.865    0.651
        41 -11.9248    113.1569    115.4533   7.7595516576e+01   3.6943393275e+01    0.3313926    0.2512988 -66.34  0.001059044    1.559    0.358
        42 -11.9170    144.6797    224.1652   9.0695342334e+01   8.0543778821e+00    0.3214267    0.2497484 -59.69  0.001880477    1.658    0.397
        43 -11.6486    134.6325    105.6381   6.9154303232e+01   3.4648867438e+01    0.5413661    0.1449131 -45.78  0.001524094    3.784    0.736
        44 -10.2033    167.4780    112.3470   6.3276031230e+01   2.6289875043e+01    0.3166148    0.2266551 -71.49  0.001078158    1.937    0.484
        45 -13.4723    119.6622    109.2750   7.4132717886e+01   3.7016798841e+01    0.8393456    0.5384408 -49.11  0.003667791    1.578    0.366
        46 -11.3014    119.5434    234.2005   9.7649853781e+01   9.7640661847e+00    0.2578156    0.1965795 -28.51 0.0009650203    1.519    0.342
        47 -10.2641      7.5248    110.7721   1.1328767811e+02   5.2252418723e+01    0.2428111    0.1696552 -43.69 0.0007364376    1.381    0.276
        48 -10.3949    205.5259    110.1607   5.5715549829e+01   1.9003056585e+01    0.2389629    0.1993156  38.69 0.0006765151    1.351    0.260
        49 -11.6305    175.3786    232.1425   8.5394224425e+01   2.4351663219e+00    0.2149451    0.1633999 -56.13  0.001284433    1.905    0.475
        50 -11.7318     24.0386    105.0187   1.0622766060e+02   5.2582740593e+01    0.3218639    0.2598579 -48.61 0.0008820986    1.130    0.115
        51 -10.3786     13.9367    109.3072   1.1072724824e+02   5.2230877989e+01    0.2676014    0.2076272   9.01  0.001136598    1.464    0.317
        52 -10.7084     18.4647    108.5417   1.0892003338e+02   5.2112002739e+01    0.2828727     0.206307 -10.55 0.0009359088    1.574    0.365
        53 -10.9985    131.5208    224.4776   9.3670099615e+01   9.8816108298e+00    0.2144658    0.1527491 -20.66 2.815785e-05    1.651    0.394
        54 -11.0422    133.2115    220.7060   9.2751520935e+01   1.0343869032e+01    0.2512036    0.1757091 -47.91 0.0009170941    1.591    0.372
        55 -10.6067      6.6017    101.9883   1.1248454402e+02   5.4533938160e+01    0.2259071    0.1929749  -6.27 0.0006800042    1.314    0.239
        56  -9.9657    134.7821     95.7579   6.6425404757e+01   3.6636307347e+01      0.20754    0.1795876 -85.70 0.0005907792    1.358    0.263
        57 -10.6062    128.4884     95.4205   6.7947104602e+01   3.8083133882e+01    0.3358651    0.2550795  18.53  0.001552341    1.622    0.383
        58 -10.5368    149.4754     86.1167   6.0274217414e+01   3.5197887319e+01    0.2716149     0.231111  14.87 0.0007219622    1.387    0.279
        59 -11.6087    127.0196    229.2838   9.5340138949e+01   9.6294785955e+00    0.4817784    0.3818077   6.72  0.002835847    1.275    0.216
        60 -10.0729    181.6624     81.6930   5.2848883662e+01   2.8753431249e+01     0.139296    0.1108064  15.92 0.0007041871    1.678    0.404
        61 -13.4672    159.2790     69.2430   5.3551252742e+01   3.5863434559e+01    0.8812436     0.547139  44.55 0.0008722537    1.741    0.426
        62 -11.9990    191.2960    248.7708   8.4733326515e+01  -2.0783717508e+00    0.2837784    0.1763876   3.52  0.001701441    1.537    0.350
        63 -12.8181    178.5884     48.9718   4.4849291751e+01   3.4416685638e+01    0.4673459    0.4152838 -88.77 0.0008684365    1.062    0.058
        64 -11.8821    142.6113    229.5670   9.1929873466e+01   7.3848843505e+00     0.491314    0.3009717 -55.93  0.001557623    2.056    0.514
        65 -10.3194     13.5716     60.0495   1.0136835728e+02   6.4252247206e+01    0.1896024    0.1759407   8.01 0.0004417921    1.211    0.175
        66 -10.8670    121.9314    223.5974   9.5723011054e+01   1.1416808437e+01    0.2249826    0.1921605 -40.87 0.0005069022    1.303    0.233
        67 -10.3116    130.0670    237.8050   9.5789937953e+01   7.6717921934e+00    0.2551578    0.1739507 -47.02 0.0009633745    1.683    0.406
