#   1 NUMBER                 Running object number                                     
#   2 MAG_AUTO               Kron-like elliptical aperture magnitude                    [mag]
#   3 X_IMAGE                Object position along x                                    [pixel]
#   4 Y_IMAGE                Object position along y                                    [pixel]
#   5 X_WORLD                Barycenter position along world x axis                     [deg]
#   6 Y_WORLD                Barycenter position along world y axis                     [deg]
#   7 A_WORLD                Profile RMS along major axis (world units)                 [deg]
#   8 B_WORLD                Profile RMS along minor axis (world units)                 [deg]
#   9 THETA_WORLD            Position angle (CCW/world-x)                               [deg]
#  10 FWHM_WORLD             FWHM assuming a gaussian core                              [deg]
#  11 ELONGATION             A_IMAGE/B_IMAGE                                           
#  12 ELLIPTICITY            1 - B_IMAGE/A_IMAGE                                       
         1 -12.7070    224.2869     12.9923   4.5766131301e+01   2.7197488127e+01     1.566329    0.8178049 -60.68  0.001379626    2.222    0.550
         2 -10.8802    215.6760      6.1042   4.4803806070e+01   3.0137885342e+01    0.5027118    0.2460707 -39.15  0.001197437    1.962    0.490
         3 -12.7072    244.3310     29.8284   4.8037327314e+01   2.0220406238e+01     3.050076    0.3510366 -35.51  0.008496295    4.672    0.786
         4 -11.7228    245.2558     20.4879   4.5555747053e+01   2.1119587829e+01    0.8710407    0.6193742 -66.66  0.003176783    1.418    0.295
         5 -12.7420    245.3001      4.9976   4.1668673389e+01   2.2834852145e+01     1.289616     1.169023  77.78  0.005661949    1.134    0.119
         6 -11.9206    232.5106      4.3321   4.2648375839e+01   2.6046434031e+01     1.100613    0.5754865 -74.87  0.004670572    2.281    0.562
         7 -11.6515    190.8606     28.4722   5.4575315683e+01   3.4117288245e+01    0.8148873    0.4471923 -25.59  0.003478236    1.891    0.471
         8 -10.7664    194.8876     28.6797   5.4029113329e+01   3.3028705752e+01    0.6681269    0.3655049 -14.93   0.00213911    2.231    0.552
         9 -11.9715    213.9741     28.4253   5.1282822457e+01   2.8054572943e+01    0.8138708    0.4325103 -35.21  0.001155673    1.806    0.446
        10 -10.7544    184.0624     21.4035   5.3411914172e+01   3.6764484739e+01    0.3595046    0.2724626  21.19 0.0004012154    1.528    0.345
        11 -10.4935    165.0927     15.9040   5.4663143737e+01   4.2355186697e+01    0.3604024    0.2715347 -51.25 0.0008946428    1.479    0.324
        12 -10.6090    162.0553      9.8329   5.3101093400e+01   4.3782529469e+01    0.5126591    0.2607976 -20.46  0.001784096    2.106    0.525
        13 -10.4571    183.5379     13.8662   5.1109737827e+01   3.7747465849e+01    0.3515265    0.2157301 -64.06  0.001532554    2.037    0.509
        14 -11.0242    105.6975     13.6009   6.6459822731e+01   5.6742442047e+01    0.2839958    0.2579432 -18.54 0.0003286538    1.163    0.140
        15 -11.1826    126.3745     10.8437   6.0311448324e+01   5.2481112426e+01    0.3711698    0.3046317  46.20 0.0008887083    1.149    0.129
        16  -9.8112    200.9780     10.1723   4.7652101111e+01   3.3543851021e+01    0.2907523     0.219579 -33.55 0.0005045052    1.355    0.262
        17 -10.1345    183.9927      3.7772   4.7876418497e+01   3.8651163832e+01    0.6094989    0.1443629 -41.30  0.001800735    4.439    0.775
        18 -10.7543    155.7151     10.4948   5.4405966398e+01   4.5340050729e+01    0.5428572    0.1977831  56.98  0.002049316    2.349    0.574
        19  -9.9341     56.1243     10.4582   8.0989433913e+01   6.5844540671e+01    0.3746839    0.1828428  32.21  0.001741012    2.212    0.548
        20 -10.3324     15.6016      6.6217   9.6594912003e+01   7.0832378369e+01    0.4366321    0.2081456 -55.11  0.002358606    2.477    0.596
        21  -8.9864     76.9965      7.7493   7.2346897540e+01   6.2928083643e+01    0.1946971    0.1600852   0.74 0.0003695076    1.015    0.014
        22  -9.3851     73.2503      7.2325   7.3346910475e+01   6.3629359665e+01    0.2222525    0.1990118  -6.25 0.0006158958    1.182    0.154
        23 -10.2126    110.2974      5.7599   6.1990265864e+01   5.6627377692e+01    0.4354081    0.2823039  39.24  0.001568919    1.420    0.296
        24  -9.5716    176.3060      5.9542   4.9621909492e+01   4.0459106885e+01    0.1954917    0.1884472 -20.71 0.0006716269    1.108    0.098
        25  -9.3920    203.0847      3.9639   4.5589125708e+01   3.3622794378e+01    0.2127699    0.1940998 -89.43 0.0005159376    1.031    0.030
        26 -10.9775    127.7108      2.0204   5.6546547665e+01   5.3046087828e+01    0.3343837    0.2500013  79.21  0.001061466    1.609    0.379
        27  -9.5616      6.1854      1.8671   9.9091673954e+01   7.2271460242e+01    0.1499531    0.1209369 -38.93 0.0007401708    1.260    0.206
        28  -9.5077    145.2658    201.6064   1.0552187640e+02   1.3925526316e+01     0.270443    0.1905648  82.78 0.0007715294    1.777    0.437
        29  -9.0285    126.8549    250.0680   1.1434854521e+02   9.5521838597e+00    0.1649322    0.1125151  63.01 0.0004885253    1.235    0.190
        30  -9.4642    115.5879    249.6439   1.1608036963e+02   1.1292292678e+01    0.1965783    0.1413372  65.92 0.0007313176    1.152    0.132
        31  -8.5390    100.1842    250.3885   1.1853619529e+02   1.3407307691e+01     0.157023   0.06960486  53.72 0.0009406023    1.690    0.408
        32  -9.4465     26.1953    207.9130   1.2712498408e+02   2.9592800421e+01    0.2075203    0.1545496 -50.22  0.001131767    2.280    0.561
        33  -8.7795    248.9429    208.4801   8.8358347252e+01  -5.4045764583e+00    0.1781013   0.09968874  40.89 0.0004573537    1.541    0.351
        34 -10.5701    228.8300    204.8835   9.1080137971e+01  -1.5743680037e+00    0.3406385    0.1723099 -38.25  0.001772563    2.343    0.573
        35  -8.6382     98.9714    205.7291   1.1451118099e+02   2.0775668706e+01    0.1654954    0.1274233  63.93 0.0004182235    1.046    0.044
        36 -10.5007    123.8911    203.7270   1.0974727209e+02   1.7200912540e+01    0.3370023    0.1975958 -57.89  0.001139074    1.922    0.480
        37 -10.2638    249.9631    202.9834   8.7225975917e+01  -4.9616911849e+00    0.2997753    0.2427408 -40.36  0.001982659    1.692    0.409
        38 -10.6147    250.0000    198.9766   8.6501609549e+01  -4.5123483177e+00    0.3595626    0.1848654 -33.18  0.001929981    2.136    0.532
        39 -10.8189    232.6578    195.0185   8.8687401560e+01  -1.0278680836e+00    0.6462342    0.3119825 -34.99  0.003236467    2.299    0.565
        40 -10.1351    237.5371    189.6966   8.6880536083e+01  -1.2288985528e+00    0.4592188    0.3373984  49.50  0.002482939    1.478    0.323
        41  -9.3545    213.4970    199.1284   9.2732575709e+01   1.8919674977e+00    0.2183929    0.1541741  26.14  0.001279499    1.334    0.250
        42  -9.7997     46.8394    199.1765   1.2309879609e+02   2.8920425231e+01    0.1344318    0.1144522 -88.49 0.0004736906    1.322    0.244
        43 -11.9450     53.4008    194.1128   1.2153907673e+02   2.9091991303e+01    0.4875862    0.2548901  70.50  0.002900227    1.773    0.436
        44  -9.9997    125.0391    183.7214   1.0682232117e+02   2.0591688984e+01    0.3652752     0.232379  80.93  0.001483335    2.032    0.508
        45 -10.6974     45.0816    189.2249   1.2261120924e+02   3.0992347493e+01    0.2966803    0.1315952 -70.60  0.001596289    1.999    0.500
        46  -8.9363    206.6981    190.1500   9.2364302879e+01   4.3874807536e+00    0.2495983    0.1667175  61.61  0.001293002    1.905    0.475
        47  -9.0639    158.4324    189.2433   1.0119123836e+02   1.3624905879e+01    0.1655483    0.1245648 -67.85  0.000574149    1.605    0.377
        48  -9.5641    192.1192    186.0101   9.4291983955e+01   7.7699124625e+00    0.3842946    0.1786338 -47.82  0.001576463    2.667    0.625
        49 -10.4097     61.1852    185.7390   1.1936340709e+02   2.9737395175e+01    0.2794516    0.1582672 -77.56 0.0009456403    1.603    0.376
        50  -9.8466    129.8048    189.7041   1.0675506840e+02   1.8676257165e+01    0.3362615    0.2142172  74.24 0.0008511573    1.898    0.473
        51  -9.1507    185.9051    183.1410   9.4943537997e+01   9.4132238538e+00     0.202411    0.1701509  64.49 0.0006688199    1.304    0.233
        52  -9.0879     11.5041    182.2443   1.2799961821e+02   3.5734146377e+01    0.2118811    0.1050041  75.75  0.001371427    1.658    0.397
        53 -10.6546    246.6866    179.1393   8.3323789437e+01  -1.5351127855e+00     0.481644    0.3549675 -71.75  0.001917521    3.038    0.671
        54  -8.8608    229.8976    177.1457   8.5807342036e+01   1.8274521667e+00    0.1888595    0.1704907  36.23 0.0005943555    1.177    0.151
        55 -10.9474    229.6441    168.2627   8.4087676827e+01   3.1158564336e+00    0.5263686    0.3604068  16.08 0.0006751644    1.593    0.372
        56 -11.4782    221.6798    166.6172   8.5170531847e+01   4.9131283184e+00    0.6540751    0.5878258 -58.97  0.001910961    1.437    0.304
        57  -9.8653     70.4904    172.4798   1.1617692989e+02   3.1162507661e+01    0.3151865    0.2338689  82.81  0.002067431    1.149    0.129
        58  -9.3335     69.6945    169.3149   1.1597012033e+02   3.1910082800e+01    0.2418395      0.16194  55.95 0.0009480256    1.375    0.273
        59 -10.5802     42.8026    172.8825   1.2161537644e+02   3.4442954095e+01    0.3535079    0.2314393  63.88  0.001324762    1.328    0.247
        60  -9.4756    205.4332    181.3134   9.0983342151e+01   5.9150675800e+00    0.2885593    0.2047666  25.53  0.000880777    1.431    0.301
        61  -9.2979    124.1538    172.4044   1.0529863087e+02   2.2892914372e+01    0.1883972    0.1095272  55.64 0.0008666847    1.645    0.392
        62 -10.5700    163.9297    167.3154   9.6347097086e+01   1.6399323798e+01    0.6151751    0.3496585  69.08  0.002431766    2.903    0.655
        63 -10.1376    150.3824    168.5745   9.9312342341e+01   1.8807043187e+01    0.4459202    0.2241505 -53.57  0.001994274    2.228    0.551
        64  -8.4322     50.9556    168.5006   1.1961351777e+02   3.4402601447e+01    0.1575512    0.1052785  45.99  0.001018395    1.549    0.354
        65  -8.7282    110.5457    166.9007   1.0725451187e+02   2.6300822300e+01    0.2244716    0.1612024  68.33  0.000865272    1.364    0.267
        66 -10.3334    190.5232    164.0058   9.0461836251e+01   1.1612558331e+01    0.2527353    0.2455003 -76.30 0.0003516842    1.168    0.144
        67  -9.3195    183.6827    163.5004   9.1694191105e+01   1.3094844532e+01     0.267975    0.2124938 -76.79  0.001406415    1.692    0.409
        68  -9.2274     88.0095    169.7571   1.1231055679e+02   2.9260555239e+01    0.2315242     0.164873 -81.09 0.0006275709    1.321    0.243
        69  -9.1650    106.8042    169.0439   1.0835026834e+02   2.6487029367e+01    0.1992845    0.1532384  79.28 0.0004437642    1.250    0.200
        70  -8.6288    214.2708    158.7626   8.4902451868e+01   7.5927500476e+00     0.228154    0.1685102 -36.66 0.0006237659    1.443    0.307
        71 -11.3351    247.2130    139.7297   7.4970678486e+01   3.7375696154e+00    0.4439797    0.3285997 -48.19  0.001866652    1.647    0.393
        72 -11.6378    248.8211    154.2308   7.7874282985e+01   1.3735137155e+00    0.6630219    0.2982781 -35.86  0.002933005    2.235    0.553
        73  -9.2797    101.1649    156.1482   1.0758411542e+02   3.0035771276e+01     0.186735    0.1739112 -71.41 0.0005454262    1.190    0.160
        74  -9.9854    227.4502    153.6994   8.1442576048e+01   5.6792291820e+00    0.3332216     0.266274  -8.51  0.001127316    1.270    0.212
        75  -9.5037     49.8460    149.2277   1.1773596312e+02   3.8538054030e+01    0.2608077    0.1637674  83.11 0.0008595124    1.516    0.340
        76 -10.5190    232.9837    142.0063   7.7903688658e+01   6.3076933445e+00    0.3239805    0.2327833  79.01  0.001492573    2.350    0.574
        77  -8.8073    181.6726    146.3198   8.8559389869e+01   1.6536950068e+01    0.1454086    0.1152309  89.11 0.0006652274    1.684    0.406
        78  -8.7050    137.4500    144.2804   9.7509014223e+01   2.6041021375e+01    0.1917347    0.1338979 -64.26 0.0009408859    1.566    0.362
        79 -12.0593    239.5509    137.8683   7.5839751436e+01   5.5710441666e+00    0.5827324     0.334388 -36.60  0.002744684    1.743    0.426
        80 -11.5348    234.2480    131.0350   7.5183759989e+01   7.7188526282e+00    0.6270018    0.3439945 -52.67  0.002271504    2.676    0.626
        81  -8.5420     24.5492    139.4751   1.2210038957e+02   4.3161347328e+01    0.1146372   0.08591758 -86.96 0.0001748314    1.012    0.012
        82 -11.2342    207.7145    132.2444   8.0273123705e+01   1.3309619750e+01    0.6230436    0.4732471 -30.41  0.002847637    1.340    0.253
        83  -8.8624    139.9225    133.1540   9.4662223430e+01   2.7827553999e+01    0.2260895    0.1919221  85.98 0.0008224563    1.272    0.214
        84  -8.2047    192.5266    131.5613   8.3067051371e+01   1.6813018033e+01    0.1468881    0.1411415  33.67 5.149677e-05    1.018    0.018
        85  -8.6345     24.9708    130.5248   1.2106466405e+02   4.5025617748e+01    0.1475877     0.106175  45.78 0.0006698928    1.573    0.364
        86  -9.8420    155.0562    128.8076   9.0314437286e+01   2.5576259738e+01    0.3374459    0.3035809   1.27   0.00181564    1.294    0.227
        87  -9.0442    228.9418    127.6623   7.5319434359e+01   9.3867744494e+00    0.2035628    0.1737096  38.90 0.0006294364    1.159    0.137
        88 -10.2129     74.2944    125.8806   1.0878349848e+02   4.0583116772e+01    0.3629775    0.2417273 -61.25  0.001487539    1.335    0.251
        89  -9.0035    171.6001    126.1194   8.6098601514e+01   2.2495696161e+01    0.2376157    0.2059358  64.74 0.0005548668    1.208    0.172
        90  -8.8101    132.2588    122.4583   9.4074350722e+01   3.1580764697e+01    0.2495217    0.1731193 -71.48 0.0007513326    1.761    0.432
        91 -10.0188    119.5622    121.9809   9.6987794102e+01   3.4126110176e+01    0.3912759    0.2624732 -52.54 0.0008570129    1.447    0.309
        92  -9.2629     98.3770    123.0580   1.0236343479e+02   3.7599871795e+01    0.2932744    0.1690853  60.09  0.001329526    2.095    0.523
        93 -10.6999    227.6562    119.4290   7.3580865320e+01   1.0978295837e+01    0.4670251    0.2424523 -47.37  0.001877902    2.276    0.561
        94  -8.6283    139.9630    122.0345   9.2179387557e+01   3.0113878822e+01    0.2396259    0.1805408 -88.63  0.001130189    1.706    0.414
        95  -9.3584     82.5685    121.3787   1.0594100660e+02   4.0413649369e+01    0.2631472    0.1815439 -88.89 0.0007323184    1.657    0.396
        96  -9.1582      4.4335    134.9483   1.2595693290e+02   4.5721467336e+01    0.2190582   0.09159726  53.58  0.001250094    2.442    0.591
        97 -10.8866    250.0693    115.1100   6.8812571433e+01   6.7630650207e+00    0.4606489    0.2571276 -29.52  0.001532932    1.688    0.407
        98 -10.2064    245.0189    111.9901   6.8868704965e+01   8.3143592953e+00    0.4573548    0.2646964 -54.20   0.00185985    2.420    0.587
        99 -10.0200    192.7763    111.6484   7.8165091960e+01   2.0330732059e+01    0.4110907    0.3071399  81.60 0.0008160936    1.822    0.451
       100 -12.0636    184.0527    104.9002   7.8189281440e+01   2.3619102100e+01    0.6103558     0.478678 -83.13 0.0007200592    1.684    0.406
       101  -9.6085    218.6159    111.3232   7.3190396145e+01   1.4348240240e+01    0.3267917    0.1890821 -25.57   0.00137801    1.849    0.459
       102  -9.8462    136.5234    108.9388   8.9853460317e+01   3.3541412648e+01    0.3828145    0.2796243  86.49  0.001053696    1.891    0.471
       103  -9.6373    174.9580    107.1654   8.0682271074e+01   2.5341050839e+01    0.2437664    0.2190353 -38.39 0.0003392553    1.119    0.106
       104  -8.3876    201.9979    107.0585   7.5189798114e+01   1.8966425538e+01    0.1910861    0.1681736 -30.11 0.0008594681    1.129    0.114
       105 -10.7692     47.0954    103.1692   1.1178776002e+02   4.8898061742e+01    0.3795573    0.2221211 -64.56 0.0009660905    1.402    0.287
       106  -9.1492    236.4075    104.3119   6.8382808954e+01   1.1403333662e+01    0.4347223    0.1657322  50.54   0.00159099    2.624    0.619
       107 -10.0513    247.2408     98.1518   6.5134680183e+01   9.9176068579e+00    0.4055264    0.2812226 -85.48  0.001801493    2.341    0.573
       108  -9.5286    215.3465    101.8710   7.1377002443e+01   1.6683293092e+01    0.2427895    0.1813934 -49.91 0.0008629269    1.454    0.312
       109  -8.9685     73.1372    102.3767   1.0462260501e+02   4.5956145450e+01    0.2705704    0.1541649  53.72  0.001315517    2.111    0.526
       110  -9.6890    227.2571     99.1167   6.8595265013e+01   1.4328776918e+01    0.2827594    0.2324725 -41.42 0.0003859631    1.221    0.181
       111 -10.3448    132.0633     98.9913   8.8393545711e+01   3.6528009415e+01    0.3594036    0.2805161 -80.16 0.0008944033    1.598    0.374
       112  -9.3646    119.0036     99.5239   9.1812455871e+01   3.9030791766e+01    0.2363096    0.1903578 -48.32 0.0009981201    1.186    0.157
       113  -8.9822    234.9848     95.5196   6.6402083083e+01   1.3100805789e+01    0.3004835    0.1907717 -47.16  0.001165571    1.685    0.407
       114 -11.0143    149.2053     93.6714   8.2823923983e+01   3.3890738305e+01     0.411281     0.291762 -35.94 0.0002628785    1.426    0.299
       115  -8.9657    114.7033     94.9993   9.1752101302e+01   4.0808651166e+01    0.2090424    0.1891133 -49.98 0.0006582285    1.046    0.044
       116 -10.1153    214.1399     92.8050   6.9222166902e+01   1.8477857427e+01    0.4307467    0.1915391 -41.31  0.001595741    2.234    0.552
       117  -9.6994    213.0543     87.5509   6.8012041833e+01   1.9608217867e+01    0.3927968     0.238188 -38.25  0.001311308    1.603    0.376
       118  -9.1565    210.0246     93.9737   7.0269035933e+01   1.9280028263e+01    0.2215638    0.2191044   4.92 0.0003268477    1.028    0.027
       119  -9.3164    157.8971     92.0903   8.0377697783e+01   3.2208690079e+01    0.3560262    0.2255928 -38.89  0.001055978    1.567    0.362
       120  -8.7358     15.7655     92.8114   1.1858322203e+02   5.3871000766e+01    0.1868589   0.08156672 -42.33 0.0009029286    2.703    0.630
       121 -10.2123    249.0259     90.4405   6.2948962934e+01   1.0674019769e+01    0.2752742    0.2488512 -36.64  0.001564889    1.080    0.074
       122  -9.1241    200.4918     86.2688   6.9937559202e+01   2.2918268957e+01    0.3167497    0.2135358 -45.99  0.001407498    1.536    0.349
       123 -10.8795    196.4745     82.5295   6.9653394363e+01   2.4551862916e+01      0.52933    0.3084407 -44.46 0.0007065003    1.764    0.433
       124  -8.8327    167.6833     84.0882   7.5933033964e+01   3.1390630517e+01    0.2191153    0.1976153 -31.32 0.0005600814    1.106    0.096
       125  -9.5766    119.3021     82.6734   8.7165607302e+01   4.2469417725e+01    0.2651664    0.2179819 -65.92 0.0002963132    1.350    0.259
       126  -9.9785    122.0018     80.2633   8.5758142831e+01   4.2411708840e+01    0.3616663    0.3044522  62.16  0.000704783    1.324    0.245
       127 -10.3651    242.5783     80.1302   6.1293564177e+01   1.3689009072e+01    0.5164268    0.2188475 -42.24  0.001714104    2.311    0.567
       128 -10.6458    147.2834     80.4542   7.9502517146e+01   3.6889420762e+01    0.5455395     0.338343 -30.66   0.00161967    1.718    0.418
       129  -9.1573    145.7042     75.2964   7.8334846004e+01   3.8223549172e+01    0.2298398    0.1995409 -30.65 0.0004685978    1.141    0.123
       130 -10.1350    164.3836     78.8299   7.5120929721e+01   3.3149658957e+01    0.5158914    0.3440548 -84.51  0.001964879    2.571    0.611
       131  -8.5948     16.9790     79.2882   1.1611553981e+02   5.6686291770e+01    0.1552896    0.1234128 -66.58 0.0004787495    1.050    0.047
       132 -10.9286    249.5892     75.3558   5.9071437055e+01   1.2770222391e+01    0.4012987    0.2668436 -39.42 0.0009579107    1.402    0.287
       133  -8.8568    179.0513     77.9768   7.1769644012e+01   2.9690481520e+01    0.2321213     0.227964  77.47 0.0004853751    1.048    0.046
       134  -8.9306    101.3335     76.6817   9.0333895104e+01   4.7079207879e+01    0.1418374    0.1117723 -84.73 0.0007048447    1.695    0.410
       135  -8.0375    225.4702     74.5078   6.2427895306e+01   1.8638636344e+01    0.1494462    0.1424263 -42.10 0.0008096531    1.034    0.033
       136  -9.1060    217.2832     73.4710   6.3466176069e+01   2.0824071031e+01    0.2833385    0.2084294 -31.59 0.0007067367    1.323    0.244
       137  -8.0264    206.3101     74.6435   6.5654607726e+01   2.3388517849e+01    0.1630455    0.1163769 -63.85 0.0007043072    1.732    0.423
       138 -10.5378    174.0732     72.8146   7.1271727639e+01   3.1829715326e+01    0.5370935    0.3452817 -13.03   0.00140464    2.068    0.516
       139 -10.9010    183.1569     71.5947   6.9077867705e+01   2.9753915704e+01    0.4821162    0.3772276 -29.14 0.0007754982    1.288    0.224
       140 -10.3387    185.4640     62.5136   6.5929710406e+01   3.0658674924e+01    0.3743511    0.2786213 -30.63 0.0006311843    1.346    0.257
       141 -11.2002    165.6815     69.2309   7.1958411291e+01   3.4535605151e+01     1.039872    0.3155885 -33.46  0.003083971    3.399    0.706
       142  -9.6382    151.0709     71.8521   7.6022325527e+01   3.7605896171e+01    0.3305131    0.2682313  73.44 0.0008241556    1.438    0.305
       143 -11.8101    206.7945     68.8341   6.3935342339e+01   2.4192801343e+01    0.5412251    0.4233778 -88.07  0.001133011    1.547    0.354
       144  -8.3893    238.4798     69.4749   5.9128915189e+01   1.6240204410e+01    0.1469335     0.136446 -45.54 0.0008093181    1.049    0.047
       145  -9.8961    142.0130     68.4038   7.7095115594e+01   4.0342212888e+01    0.3681599    0.2864868 -72.64  0.001730492    1.670    0.401
       146 -10.7008    249.8829     66.6145   5.6809999260e+01   1.3961872180e+01    0.2703608    0.2379928 -30.52 0.0004584986    1.065    0.061
       147 -10.6659     47.5735     63.0624   1.0299527301e+02   5.7505762847e+01    0.2831558    0.2081336 -59.89 0.0005097009    1.232    0.189
       148  -9.5280    161.5974     61.6036   7.0471027237e+01   3.6846791713e+01    0.3726702      0.23653 -14.79  0.001273744    1.999    0.500
       149 -10.0674    121.9204     61.9058   8.0096785884e+01   4.5952694846e+01    0.3524871    0.2539181 -60.01 0.0009793665    1.716    0.417
       150  -9.0454      8.6969     62.6134   1.1567986532e+02   6.0709782926e+01    0.1552723    0.1349494  49.80 0.0006501296    1.496    0.331
       151 -10.6572    171.0606     59.3162   6.7772387020e+01   3.4851870627e+01    0.5360188     0.350372 -63.37  0.001418662    2.086    0.521
       152 -10.7539    167.2962     50.2574   6.5663669299e+01   3.7238246011e+01    0.5732957    0.2870659 -28.39 0.0005531874    2.069    0.517
       153  -8.6835    112.0621     61.6823   8.2695247542e+01   4.8003908616e+01    0.1945136    0.1844965  35.35 0.0006182599    1.119    0.106
       154 -10.3089     17.3116     59.5039   1.1221486248e+02   6.0822662942e+01    0.3674152     0.303256 -64.72  0.002738521    1.127    0.113
       155  -9.5989    197.9688     58.9722   6.2613517493e+01   2.7990464819e+01    0.3898908    0.2054858 -37.04  0.001197689    1.841    0.457
       156  -9.6291    134.6353     58.9926   7.5875296359e+01   4.3701181038e+01    0.4454686     0.204037 -45.02   0.00167398    2.305    0.566
       157 -11.8947    107.7504     57.0569   8.2372242587e+01   4.9701528462e+01    0.3820117    0.2816613 -27.58 0.0004044767    1.333    0.250
       158  -8.5339     24.4290     60.2704   1.1000347019e+02   6.0161454733e+01    0.1593049   0.09443753 -68.69 0.0009187647    1.552    0.356
       159 -11.5279    215.5576    241.8332   9.9052209103e+01  -3.5762155751e+00    0.6268197    0.5278695  24.84  0.004822385    1.151    0.131
       160  -8.8216    109.4828    246.5186   1.1675796344e+02   1.2636125385e+01    0.1099355   0.07934705  60.29 2.949085e-05    1.014    0.014
       161 -10.6034    176.7559    241.0486   1.0527580965e+02   2.8342448668e+00    0.3416534    0.2957596 -85.67  0.001747699    1.528    0.346
       162  -9.6952     80.0943    241.8204   1.2095688835e+02   1.7456021022e+01    0.3336861    0.1559108 -69.50  0.002105538    2.324    0.570
       163  -9.0246    121.9935    241.2018   1.1426227468e+02   1.1547029439e+01    0.1805614    0.1245892  88.16  0.000751415    1.642    0.391
       164  -8.3408     51.5047    235.4969   1.2489151469e+02   2.2074688632e+01    0.1025202    0.0723113  70.04 -0.0001562104    1.036    0.035
       165 -10.1726    227.3534     56.4989   5.7265733870e+01   2.0857106392e+01    0.4663858    0.2284256 -39.80  0.001069795    1.929    0.482
       166  -8.5986    142.4563     59.4726   7.4129522086e+01   4.1822054879e+01    0.1497883    0.1450716  -9.32 6.981815e-05    1.007    0.007
       167  -9.3816     77.6457     56.4189   9.1233298404e+01   5.5009155351e+01    0.5260869     0.217813 -59.61  0.001554541    5.298    0.811
       168  -9.4040     73.6584     50.3418   9.0521465285e+01   5.6760399379e+01    0.2475776    0.2001578 -53.61 0.0006369281    1.311    0.237
       169 -11.8425    177.6935     53.0928   6.4522601329e+01   3.4138473137e+01    0.5271719    0.3811042 -60.14 0.0006815932    1.642    0.391
       170 -10.1956     51.4753     55.7062   9.9644102231e+01   5.8579920038e+01    0.4263631    0.3035965 -21.79  0.002540403    1.561    0.359
       171 -11.3917    119.8739     49.9062   7.6588095828e+01   4.8499520976e+01    0.6778393    0.4031498  43.92  0.002326935    1.719    0.418
       172  -7.9878     84.6782     51.3180   8.7314539943e+01   5.4873710573e+01    0.1294001    0.1070376 -75.51 0.0007043188    1.666    0.400
       173 -10.2715    225.1195     36.2964   5.2035886719e+01   2.4189190624e+01    0.5282078    0.2589906 -37.02   0.00149131    1.905    0.475
       174 -10.5642    226.3884     29.5989   5.0041841011e+01   2.4716528057e+01    0.5248201    0.3118595 -30.87  0.002437689    1.639    0.390
       175 -10.4882    232.2302     48.1868   5.4338599961e+01   2.0808609457e+01    0.4844154    0.2675454  68.38  0.001326819    1.940    0.485
       176 -10.4086    227.9199     45.2851   5.4129232985e+01   2.2284831085e+01    0.6795614    0.2511427 -45.27  0.002187697    2.814    0.645
       177  -9.2760    202.2061     45.5107   5.7944830038e+01   2.8869224357e+01    0.3507064    0.2319124 -77.28  0.001484896    2.016    0.504
       178 -10.4337    188.7223     44.9675   6.0004421663e+01   3.2474374036e+01    0.3903388    0.2841868 -50.15 0.0005282569    1.459    0.315
       179 -10.1450    188.7062     38.9679   5.8159803437e+01   3.3315618164e+01    0.3068624    0.2873898   3.99 0.0006632801    1.123    0.109
       180 -11.1485    194.2474     37.3235   5.6755431252e+01   3.2080472825e+01     0.598084    0.3996662 -49.54 0.0006370164    1.592    0.372
       181  -9.8846    194.9501     20.9844   5.1682238227e+01   3.3938371127e+01    0.3654442    0.2839356 -26.46 0.0006030031    1.337    0.252
       182  -9.7128    100.4657    232.3550   1.1692125322e+02   1.6097280582e+01    0.2726464     0.140668  61.74   0.00135075    1.712    0.416
       183  -9.5739     26.2510    233.2383   1.2851166709e+02   2.5275684925e+01    0.1413346   0.07662875  68.94 0.0007782381    1.315    0.240
       184 -12.1448    146.4884     39.8337   6.6569319667e+01   4.3995385167e+01    0.6816074    0.4538343 -64.78  0.001288319    2.183    0.542
       185 -10.5736     73.2532     42.7681   8.8026007616e+01   5.8211333643e+01    0.2540084    0.2383604 -27.04 0.0005682269    1.152    0.132
       186  -8.9981    163.3823     42.7280   6.3994607120e+01   3.9360887961e+01     0.251227    0.1893825 -14.11 0.0005331251    1.442    0.306
       187  -8.8938    124.0134     41.5156   7.2525837533e+01   4.8968764481e+01    0.2166367    0.1411213  49.82 0.0006722708    1.559    0.359
       188 -10.5467     96.3658     39.3419   7.9412017815e+01   5.4936202199e+01    0.3042195    0.2415477 -31.25 0.0005103114    1.169    0.144
       189  -9.6402     89.3928     38.1172   8.1085080512e+01   5.6394535058e+01    0.2860236    0.2340804 -82.16  0.001312651    1.929    0.482
       190 -10.1595    173.3176     36.3012   5.9990698695e+01   3.7706646510e+01     0.544215     0.451667  46.30  0.002470438    1.179    0.152
       191 -11.1746    180.0742     36.0323   5.8705334768e+01   3.5978755283e+01     0.514415     0.308289 -37.50 0.0004732138    1.674    0.403
       192 -10.0599    182.6868     32.7178   5.7209802053e+01   3.5731139580e+01     0.307735    0.2303852  35.38 0.0007207313    1.432    0.302
       193 -10.0393    163.3759     36.8041   6.2027320127e+01   4.0203111655e+01    0.4886782    0.3303167 -82.25  0.002072724    2.143    0.533
       194  -9.9806    200.4025     35.3263   5.5202666334e+01   3.0726300700e+01     0.269446    0.2517372  36.07 0.0004703652    1.115    0.103
       195 -10.1445    215.3498     34.0770   5.2705898835e+01   2.6984967177e+01    0.3407571    0.2821724 -15.76 0.0007216949    1.306    0.234
       196 -10.6731    209.3652    223.1578   9.7342791907e+01  -4.3332853339e-01    0.4797425    0.3459219 -55.54  0.002828798    2.112    0.526
       197 -10.3364    208.3203     27.0208   5.1630267515e+01   2.9701326660e+01    0.3192354    0.2629009  33.10 0.0006092552    1.349    0.259
       198  -9.8831    118.0960     29.5819   6.9609047180e+01   5.2033628333e+01    0.2665888    0.2434848  22.92 0.0005759881    1.055    0.052
       199  -9.4259    109.7656     30.0756   7.2012395815e+01   5.3734337815e+01    0.2099306    0.1828589 -43.68 0.0006938294    1.293    0.227
       200  -9.7406    171.2819     28.4258   5.7779195090e+01   3.9267641485e+01    0.3234654    0.2165975 -67.36  0.001417579    1.958    0.489
       201  -9.6105    103.6610     28.3739   7.3044472720e+01   5.5222363452e+01    0.2497029    0.2306305 -78.27 0.0007132121    1.428    0.300
       202  -8.7073    163.8030     27.6795   5.8878931260e+01   4.1298959075e+01    0.2384499    0.1676878  43.05 0.0005081557    1.402    0.287
       203  -9.7113    176.9254     25.4716   5.5850183225e+01   3.8158100737e+01    0.2628528    0.1940269 -44.69 0.0005027669    1.425    0.298
       204  -8.9335     85.5124     26.4641   7.7728276271e+01   5.8910259561e+01    0.2639501    0.1286269  46.15  0.001218368    2.216    0.549
       205  -9.4160    116.4313     24.9109   6.8229464339e+01   5.3034111811e+01    0.2430742     0.191166  37.93 0.0003833184    1.226    0.184
       206  -9.5807    127.3897     23.6152   6.5030021399e+01   5.0748900443e+01    0.2565528    0.2197692 -23.41 0.0007092918    1.172    0.146
       207 -10.4582    153.5389    225.5718   1.0723403028e+02   8.7793470524e+00    0.3789369    0.2836511  50.09  0.002557809    1.057    0.054
       208 -10.3075     73.1709     21.4568   7.9711483873e+01   6.1718811853e+01    0.3358501    0.2858826  85.35  0.001195189    2.007    0.502
       209  -9.4138    157.8811     20.1657   5.7397551031e+01   4.3728261008e+01    0.2238364    0.1969234 -63.85 0.0006994924    1.277    0.217
       210  -9.6412    123.4820     19.4912   6.4365547130e+01   5.2156777032e+01     0.265574     0.241088 -54.14 0.0007392665    1.310    0.237
       211  -9.5179    110.4092     19.5252   6.7651748421e+01   5.5026961862e+01    0.3188134    0.1746138 -16.34 0.0007730515    1.981    0.495
       212  -9.6056     59.2311     17.4092   8.2942372512e+01   6.4407794290e+01    0.2265253    0.1813864 -17.62 0.0004968473    1.020    0.020
       213 -10.0323    150.5234    220.6005   1.0712591186e+02   1.0020640983e+01    0.5103456    0.2400124  48.58  0.002681251    1.722    0.419
       214  -9.2833    247.1874    225.4163   9.1476857626e+01  -6.9138615784e+00    0.1560891   0.09356471  46.21 0.0005384887    1.641    0.390
       215  -9.1606    181.5278    222.9970   1.0206608329e+02   4.3700627039e+00    0.2463544    0.1908955  79.89   0.00121711    1.771    0.435
       216  -9.7119    177.1256    219.0042   1.0226276548e+02   5.6790656045e+00    0.2377636    0.2022377  87.29 0.0008117789    1.490    0.329
       217  -8.5616    219.1605    221.9163   9.5507124320e+01  -1.9466760260e+00    0.1674207    0.1415417  44.91 0.0005842905    1.260    0.206
       218  -9.0159     62.2661    221.0236   1.2220026990e+02   2.3162441724e+01    0.1873466    0.1253926  86.96 0.0006766021    1.277    0.217
       219  -9.9089     61.8454    216.3992   1.2191278889e+02   2.4012193281e+01    0.2970217    0.1698441 -89.80  0.001954469    1.617    0.382
       220 -11.8277     36.0089    215.0845   1.2600314719e+02   2.7284218077e+01    0.5771599    0.3695165  79.76  0.002761716    1.168    0.143
       221 -10.2004    249.5022    217.4608   8.9798604597e+01  -6.4607107392e+00    0.3811652    0.1829509 -39.61  0.001915839    2.796    0.642
       222 -10.0819    119.9673    218.2104   1.1217762766e+02   1.5407693210e+01    0.2623155    0.1895628  69.41 0.0005571796    1.255    0.203
       223  -9.6724     11.6048    216.3930   1.2984253120e+02   2.9563339714e+01    0.2328685     0.146665  49.05  0.001165275    1.553    0.356
       224  -9.6444    221.9979    212.9964   9.3601789920e+01  -1.3730431529e+00    0.2700411    0.1492644 -56.57  0.001152469    4.288    0.767
       225  -7.8792     90.3086    214.6483   1.1695274604e+02   2.0486816545e+01    0.1217329   0.06963152  71.49 0.0007043645    1.716    0.417
       226  -9.1550    234.8094    212.6854   9.1401830109e+01  -3.5208540386e+00    0.2274805    0.1709088  35.50  0.001359839    1.135    0.119
       227  -9.2101    185.3602    210.5422   9.9566318522e+01   5.4112777426e+00     0.224462    0.2202642 -70.26  0.001189919    1.251    0.200
       228 -10.4537    149.8794    206.3494   1.0533833580e+02   1.2344778877e+01    0.4743344    0.3288703 -75.05  0.002751359    1.882    0.469
