#   1 NUMBER                 Running object number                                     
#   2 MAG_AUTO               Kron-like elliptical aperture magnitude                    [mag]
#   3 X_IMAGE                Object position along x                                    [pixel]
#   4 Y_IMAGE                Object position along y                                    [pixel]
#   5 X_WORLD                Barycenter position along world x axis                     [deg]
#   6 Y_WORLD                Barycenter position along world y axis                     [deg]
#   7 A_WORLD                Profile RMS along major axis (world units)                 [deg]
#   8 B_WORLD                Profile RMS along minor axis (world units)                 [deg]
#   9 THETA_WORLD            Position angle (CCW/world-x)                               [deg]
#  10 FWHM_WORLD             FWHM assuming a gaussian core                              [deg]
#  11 ELONGATION             A_IMAGE/B_IMAGE                                           
#  12 ELLIPTICITY            1 - B_IMAGE/A_IMAGE                                       
         1 -11.3334     17.9088     33.1122   1.1004731435e+02   6.6957207965e+01    0.4143915    0.2452868 -37.55  0.002137521    1.443    0.307
         2 -11.6106     61.7698     24.0022   8.8748169395e+01   6.2687075259e+01    0.4657853    0.3333067 -66.63  0.002320783    3.535    0.717
         3 -11.5301      4.0132     18.5139   1.1112273387e+02   7.0238302145e+01    0.3685807     0.252274   6.13  0.002770228    1.322    0.243
         4 -10.9715     10.1891     16.0586   1.0711765253e+02   7.0085507188e+01    0.2991858    0.1959548 -34.10  0.002155176    1.409    0.290
         5 -12.0708    129.3305     23.6634   7.0573752707e+01   4.9368865111e+01    0.4226221    0.2832435 -37.24  0.001672085    1.700    0.412
         6 -11.6677     21.3443     18.3538   1.0279112800e+02   6.8731218823e+01    0.4396499     0.398934  57.79  0.003049275    2.194    0.544
         7  -9.8375     15.2431     14.3615   1.0398145594e+02   6.9851609939e+01    0.1513082    0.1207458 -38.18 0.0007344137    1.668    0.400
         8 -11.4953    107.9725     17.1427   7.3040556536e+01   5.4687242163e+01    0.2828491    0.1811799  51.33 0.0003702271    1.303    0.232
         9 -11.4240     75.9323     15.6455   8.0914406948e+01   6.1154606517e+01    0.3772874    0.2431628   1.82  0.001206863    1.728    0.421
        10 -12.7821     70.4691     14.8821   8.2301661249e+01   6.2204041462e+01    0.5167819    0.2848145  43.88 0.0008383374    1.553    0.356
        11 -10.5415     34.8917     16.1291   9.5893274786e+01   6.7461115153e+01    0.3239587    0.1785053 -13.35  0.001155502    1.876    0.467
        12 -10.2328     59.4461     10.3475   8.4103653029e+01   6.4512175050e+01     0.405942    0.1268291  47.21  0.001811574    2.856    0.650
        13 -10.3513     55.0941     13.1448   8.6768198148e+01   6.4931734660e+01    0.2095222    0.1759927 -26.10 0.0009707279    1.455    0.313
        14  -9.8109     30.4906     13.1212   9.6498447459e+01   6.8355685672e+01    0.1861835    0.1124083 -20.96  0.001218865    1.494    0.330
        15 -10.4411     26.4305     13.9065   9.8622408619e+01   6.8738693252e+01    0.1907701      0.12207   0.62 0.0003153645    1.368    0.269
        16  -9.8922    176.1636     11.7981   6.0015721441e+01   3.9790447299e+01    0.1652736    0.1334623  53.17 0.0006860825    1.336    0.252
        17  -9.9729    118.2288     11.4431   6.9013348082e+01   5.3005623883e+01    0.1836089    0.1732925  83.57 0.0007576633    1.194    0.163
        18 -11.3909    116.1182      4.8393   6.7348162104e+01   5.4017190239e+01    0.4853182    0.2089473 -33.56  0.001790895    2.672    0.626
        19 -10.0291     85.7340     10.4639   7.6196397957e+01   5.9800269294e+01    0.2145616    0.1250483  52.58 0.0005988863    1.500    0.333
        20 -12.1123     81.1564      6.6003   7.5998717185e+01   6.1005802913e+01    0.3644667    0.2893842   7.89 0.0003698847    1.261    0.207
        21 -10.4259     88.9187      7.1651   7.4166567355e+01   5.9462293833e+01    0.3041653    0.1547732  60.30  0.001166581    1.932    0.482
        22  -9.4211    185.9550     10.9676   5.8668576898e+01   3.7628612609e+01    0.1451353    0.1214586 -89.35  0.000384542    1.053    0.050
        23  -9.4682     50.9951     10.9928   8.7362477754e+01   6.5782624365e+01    0.1866193    0.1091842  15.82    0.0008445    1.696    0.410
        24 -12.7097     13.1613      2.6716   9.9844525232e+01   7.1463514278e+01     1.053608    0.5235997  40.53  0.005705641    2.936    0.659
        25 -13.0914     31.7284      2.1118   9.1093792926e+01   6.9379793945e+01    0.2880811    0.1692934  29.83 0.0006110922    1.436    0.303
        26 -11.7266     26.5088      3.5528   9.4015357454e+01   6.9889374891e+01     0.241284    0.1583417  -2.77 0.0006787213    1.273    0.214
        27  -9.5868    155.4809      7.2894   6.1591280447e+01   4.4982156757e+01    0.2130285    0.1176981   1.36 0.0009567333    3.520    0.716
        28  -9.9667    127.3920      8.2093   6.6289305446e+01   5.1267675301e+01    0.1527398     0.111615 -42.48 0.0004020648    1.624    0.384
        29  -9.8936    122.3051      8.0092   6.7159243663e+01   5.2408935945e+01    0.1794006   0.08839035  12.60 0.0007024396    4.108    0.757
        30 -11.3715     74.4483      6.6138   7.7890141061e+01   6.2250674833e+01    0.2973617    0.1862563  -3.49 0.0005970354    1.770    0.435
        31  -9.9676      6.4321      8.1466   1.0564859141e+02   7.1435937919e+01    0.1587262    0.1300256  15.50 0.0005644286    1.515    0.340
        32  -9.9543      2.9200      8.2113   1.0746458900e+02   7.1716057707e+01    0.2008414    0.1046096  10.73 0.0006194255    1.772    0.436
        33 -10.2910    146.0396      7.0172   6.2885888189e+01   4.7166285660e+01    0.1961917    0.1338514 -74.95   0.00061967    1.696    0.410
        34 -10.3574    229.0126      5.7950   5.3512870251e+01   2.8697056664e+01    0.1817649     0.135919 -69.43 0.0002764341    1.120    0.107
        35 -10.3040    101.4542      5.3835   7.0563590959e+01   5.7077943671e+01     0.182741    0.1532564  29.77 0.0003519483    1.148    0.129
        36  -9.9694     59.6539      5.4829   8.2038066412e+01   6.4925472114e+01    0.2327418   0.09392164  46.75   0.00119794    2.124    0.529
        37  -9.5544    166.2428      1.3529   5.8692269162e+01   4.3044672276e+01    0.1739884   0.09603341  79.73 0.0005699905    1.606    0.377
        38 -10.0901      4.0341      1.3551   1.0384545239e+02   7.2467063139e+01    0.1681907   0.07913744  20.25 0.0007146019    1.928    0.481
        39 -11.3801    236.0319    213.5274   9.5109519485e+01  -7.2168425915e+00    0.2982755    0.1847389  35.97  0.001485601    1.676    0.403
        40 -10.3069    247.4825    249.9741   9.9487609532e+01  -1.4321503709e+01    0.2392741    0.1558435   1.43  0.001124334    1.464    0.317
        41 -10.8123    250.3996    245.5991   9.8225915886e+01  -1.4086851946e+01    0.4287488     0.134839 -36.44  0.001880289    3.003    0.667
        42 -10.0814     72.6018    250.1207   1.3438469435e+02   1.2550722601e+01    0.1918688    0.1753638   1.04  0.001258068    1.646    0.393
        43  -9.4787     46.3081    250.3457   1.3945039678e+02   1.6084726396e+01    0.1063158   0.09189683 -48.61 0.0007043881    1.700    0.412
        44 -10.1018      5.3449    235.4011   1.4589053316e+02   2.3874494634e+01    0.2332096    0.1693207  69.17   0.00101076    1.106    0.096
        45 -12.3853     15.8588    238.3466   1.4418674379e+02   2.2166665201e+01     1.012687    0.3196412  34.41  0.004633912    3.298    0.697
        46 -11.9714      5.7963    244.8365   1.4636205431e+02   2.1891685300e+01    0.6203116    0.2807295  77.72  0.003163698    1.958    0.489
        47 -10.8799      1.4464    245.0363   1.4711771687e+02   2.2292211804e+01    0.2318518   0.08625073 -76.84 0.0005466453    2.250    0.556
        48  -9.9114    191.5767    217.2955   1.0452669781e+02  -6.9404685178e-01    0.2398591    0.1772325 -43.85  0.001287265    1.418    0.295
        49  -9.7029    194.5332    215.4897   1.0358650308e+02  -8.6593002172e-01    0.1375334    0.1259699   6.14 2.708899e-06    1.002    0.002
        50 -10.9725      9.8273    217.0858   1.4386651112e+02   2.7351454097e+01    0.2909955    0.1699204  64.50 0.0008748586    1.481    0.325
        51  -9.5447    201.2819    215.8991   1.0228102636e+02  -2.0880502591e+00    0.2238856    0.1467905 -11.98  0.001057434    1.968    0.492
        52 -10.5444     30.9777    215.7228   1.3954995031e+02   2.5407344879e+01    0.2595257     0.163241  43.78  0.001516699    1.576    0.366
        53  -9.5267    250.4733    219.4418   9.3596775376e+01  -1.0239566156e+01    0.1254491     0.101597 -10.29 0.0007306868    1.027    0.027
        54  -9.6618    170.3098    213.3260   1.0832579073e+02   3.8225165811e+00    0.1446752    0.1096192  -3.90 0.0006173868    1.657    0.397
        55 -11.0610     20.9337    212.0109   1.4128277273e+02   2.7349062751e+01    0.3529265    0.1782636  68.56  0.001298921    1.926    0.481
        56 -10.5417    241.3279    211.5066   9.3767860887e+01  -7.6687571232e+00    0.2548164    0.2188318  82.77  0.001511107    1.984    0.496
        57 -10.1608    208.9646    212.0828   1.0002905692e+02  -2.6827804209e+00    0.2051248    0.1828967  -2.68 0.0004548239    1.018    0.018
        58  -9.6477      2.2907    212.3248   1.4498962124e+02   2.9118035106e+01    0.1334167   0.09620361  44.24 0.0005316456    1.510    0.338
        59 -11.9405      4.3333    206.8617   1.4421243345e+02   3.0143204616e+01    0.5648444    0.2466682  85.04  0.002771725    2.197    0.545
        60 -11.2512     18.6606    202.8789   1.4098865874e+02   2.9664957700e+01    0.3614134    0.2294335 -73.48 0.0008172644    1.343    0.255
        61  -9.5308    223.5815    201.8103   9.5228061144e+01  -3.2485454251e+00    0.1823455    0.1222122 -50.47 0.0007233417    1.684    0.406
        62 -10.2334    175.3081    202.6966   1.0528628459e+02   5.0610976978e+00     0.236289    0.2150282  66.12 0.0005431775    1.241    0.194
        63  -9.6549     34.6553    201.0332   1.3739735012e+02   2.8371861448e+01    0.1772846    0.1394333 -84.47 0.0004290439    1.078    0.072
        64  -9.6092    227.1168    196.8820   9.3606509049e+01  -2.9428520228e+00    0.1902149    0.1477757  -7.09 0.0006763324    1.330    0.248
        65 -10.5471    215.4725    194.5169   9.5376282221e+01  -5.5247775157e-01    0.2393345     0.121956 -32.48 0.0005956435    2.081    0.519
        66  -9.4895    202.9983    195.9745   9.8148983276e+01   1.3568387075e+00    0.1707833    0.1588654  -1.83 0.0006619897    1.018    0.017
        67 -10.2662    187.3082    190.3482   1.0030459232e+02   5.3525901090e+00    0.1520354    0.1127667  -7.58 0.0007043865    1.706    0.414
        68  -9.2863      1.5263    188.4348   1.4340305802e+02   3.4572725899e+01    0.1212142   0.09277268 -89.11 0.0002015658    1.011    0.010
        69  -9.4255     61.6374    184.8201   1.2923191761e+02   2.8912849783e+01    0.2043955    0.1201923 -78.95 0.0009461693    1.721    0.419
        70 -11.2357     15.9349    182.5822   1.3974822646e+02   3.4673579399e+01    0.4169372    0.2094349  82.39  0.002014286    2.092    0.522
        71  -9.6845      1.9707    180.2910   1.4264462264e+02   3.6421044215e+01    0.1652099    0.1338584  86.41 0.0006120828    1.082    0.075
        72 -10.4010    244.5657    178.1645   8.6778024343e+01  -2.4218936934e+00    0.2692558    0.1458787 -30.00  0.001255104    1.868    0.465
        73 -10.8958    224.3855    178.3438   9.0438884608e+01   9.4653186586e-01    0.2717701    0.2451105  48.04  0.000484425    1.271    0.213
        74  -9.5798     70.0527    177.6694   1.2610917617e+02   2.9504844963e+01    0.1843566    0.1751066  53.60 0.0005273984    1.167    0.143
        75  -9.0548     36.4012    178.4882   1.3454020489e+02   3.3580769504e+01    0.1339547    0.1094227 -84.64 0.0002303964    1.023    0.022
        76 -10.2119    200.1840    176.8262   9.4863482458e+01   5.6775131342e+00    0.2037329    0.1671783 -14.22 0.0005102275    1.325    0.245
        77  -9.5796     74.9084    171.0966   1.2383160031e+02   3.0435326951e+01    0.2222102    0.1701846 -31.39  0.001107919    1.674    0.403
        78 -10.0504    167.2902    183.6479   1.0335807295e+02   1.0625714600e+01    0.1522808    0.1205728  89.22 0.0007027172    1.673    0.402
        79  -9.5519    209.8481    166.1830   9.0702121416e+01   5.9858087715e+00    0.2011172    0.1685607  -6.86 0.0005810227    1.333    0.250
        80 -10.8654     36.5038    166.4435   1.3301832363e+02   3.6524675087e+01    0.2263624    0.1794207  29.06 0.0007560012    1.512    0.339
        81 -10.9305     36.1452    162.8204   1.3263318168e+02   3.7456521094e+01    0.3325226     0.194847 -54.65  0.001251194    1.588    0.370
        82 -11.1331     36.9788    157.9619   1.3175608719e+02   3.8567623515e+01    0.2452062    0.1666645 -69.23 -0.002661949    1.252    0.201
        83  -9.6574     67.1323    165.1385   1.2489391257e+02   3.3053941911e+01     0.203978    0.1592028  74.59 0.0008497021    1.338    0.253
        84 -10.7815     51.6014    164.0579   1.2880450680e+02   3.5372916716e+01    0.3722797    0.1871661 -44.93  0.001592629    2.281    0.562
        85  -9.3892    200.4585    162.5525   9.1795894976e+01   8.5521312198e+00    0.1471808    0.1399355 -42.74 0.0001765713    1.030    0.029
        86 -11.4047     45.6373    161.4950   1.2998861517e+02   3.6726814252e+01    0.5007958     0.316058 -29.48  0.002345056    2.335    0.572
        87  -9.7064    238.9643    158.4980   8.3774118452e+01   2.1229544467e+00    0.1875596    0.1175668  17.52 0.0007528299    2.592    0.614
        88 -11.2697     22.2200    156.1482   1.3534858078e+02   4.0463185024e+01    0.3795815     0.366771  19.85  0.002613329    1.305    0.234
        89  -9.0831    147.6654    156.3298   1.0220640163e+02   2.0811975017e+01    0.1645816     0.124903  84.89 0.0007052079    1.726    0.421
        90  -9.0164    151.6885    153.3380   1.0056734992e+02   2.0668370526e+01    0.1630062    0.1251977  89.11 0.0006543105    1.689    0.408
        91 -10.1592     11.2606    153.3425   1.3780864136e+02   4.2066879659e+01    0.2382097     0.145515  37.52  0.001333671    1.865    0.464
        92 -10.3904    178.2283    151.5377   9.4054427123e+01   1.5459612422e+01    0.2783538    0.2114424 -47.34 0.0005544532    1.278    0.218
        93  -9.2456      5.3686    149.8385   1.3890682765e+02   4.3346724137e+01    0.1664742   0.08915155 -64.12  0.000142726    1.471    0.320
        94  -9.3218     27.2754    147.3303   1.3285739269e+02   4.2149762726e+01    0.1339277   0.08456263 -46.75 0.0002729176    1.595    0.373
        95 -10.7634     18.3700    146.5343   1.3513600944e+02   4.3130049020e+01    0.2678855    0.1910637 -12.46 0.0009803352    1.964    0.491
        96 -10.1847    207.0167    146.0305   8.6902444042e+01   1.0629403790e+01    0.2277211    0.2145051 -46.36 0.0006938714    1.011    0.011
        97 -11.0557     10.2709    146.2011   1.3722802999e+02   4.3853133601e+01    0.4240952    0.1011624  42.44  0.001520276    4.654    0.785
        98 -10.3359     15.8284    139.8241   1.3493908247e+02   4.4952777258e+01    0.2315701    0.1039481  11.06  0.001001697    3.465    0.711
        99  -9.9666    236.7791    138.5982   8.0006375346e+01   6.2604519169e+00    0.1717034    0.1352043  66.96 0.0003609684    1.522    0.343
       100 -10.1952     56.0660    137.0738   1.2308027971e+02   4.1540545272e+01    0.4248774    0.2356401  72.52  0.001575325    3.295    0.697
       101 -11.4690      3.0084    136.3280   1.3796385861e+02   4.6704670338e+01    0.4324558    0.1835065 -64.36  0.002166792    1.760    0.432
       102  -9.1104    143.6961    137.3337   9.8835852578e+01   2.6068075085e+01    0.1629046    0.1255565 -88.83 0.0007037584    1.661    0.398
       103 -10.7856      9.1443    136.7292   1.3635542485e+02   4.6192766969e+01    0.2218887    0.1533899 -59.91 0.0002600317    1.199    0.166
       104 -10.7763     21.9406    136.0227   1.3271651490e+02   4.5367748944e+01    0.2950708     0.200272  42.51  0.001401613    1.695    0.410
       105  -9.3406    138.3418    135.3095   9.9698760301e+01   2.7675467766e+01    0.1608062    0.1279948  -3.21  0.000704461    1.694    0.410
       106 -10.2617    106.9977    133.2413   1.0757138539e+02   3.4461627049e+01    0.2702596    0.2235537 -49.55  0.001051135    1.170    0.145
       107 -11.1199     36.6227    130.6401   1.2763056289e+02   4.5312923378e+01    0.4882201    0.2523639 -55.62  0.002361487    1.614    0.380
       108  -9.5217     33.3082    125.7217   1.2776564613e+02   4.6823238976e+01    0.1909209    0.1717402  87.02 0.0002412252    1.191    0.160
       109  -9.6157     30.2412    124.9620   1.2855459502e+02   4.7292702939e+01    0.1916846    0.1571814 -84.80  0.000463273    1.249    0.200
       110 -10.7247     74.3109    129.5718   1.1619199811e+02   4.0875799468e+01    0.2991585    0.2725676  43.69  0.001682914    1.182    0.154
       111 -10.2876     82.0309    125.3143   1.1294935060e+02   4.0712553212e+01    0.2443757    0.1951647 -51.74  0.001258797    1.169    0.145
       112 -11.1668      2.2339    124.5131   1.3668623276e+02   4.9515990245e+01    0.4249168    0.1411205 -62.56   0.00193894    2.129    0.530
       113 -10.0452    226.0176    124.2423   7.8711132428e+01   1.1078229965e+01    0.1755175    0.1222472  53.32 0.0006713507    1.584    0.369
       114  -9.5650    219.5439    124.4891   7.9856584010e+01   1.2349050387e+01    0.1456834    0.1309783 -54.70 0.0003789992    1.005    0.005
       115  -9.5256     47.0274    125.0000   1.2348321936e+02   4.5564508881e+01    0.1996439   0.07966972  27.91 0.0005522761    2.862    0.651
       116 -11.2729     10.5300    122.5638   1.3402239552e+02   4.9436229696e+01    0.2532924    0.1978866  79.89  0.001211623    1.409    0.290
       117 -11.4134     21.8318    121.0781   1.3043114049e+02   4.8941137479e+01    0.2340353    0.1997823 -12.37            0    1.375    0.273
       118 -12.0318     17.7088    116.3591   1.3090377212e+02   5.0368749548e+01    0.5207437    0.2672811 -50.94  0.002715076    1.606    0.377
       119 -10.1924      6.4870    107.0282   1.3285346651e+02   5.3271179202e+01    0.2274962     0.168047 -68.44  0.001104914    1.165    0.142
       120 -10.6298      2.8106    105.4181   1.3374924789e+02   5.3848363328e+01    0.2520327    0.1769747 -69.36  0.000926076    1.214    0.176
       121 -11.9070     16.6195    109.1372   1.3001324799e+02   5.2116476131e+01    0.4428573    0.3510979  46.67  0.002293015    1.544    0.352
       122 -10.0176     10.7215    109.3991   1.3191462922e+02   5.2465355587e+01    0.2021875    0.1749396 -34.83 0.0007706256    1.205    0.170
       123 -10.0209    249.8205    118.5896   7.3851429992e+01   7.5119252985e+00    0.1739718    0.1267556  76.39 0.0009423188    1.685    0.406
       124  -9.4356    220.4558    116.9890   7.8044531845e+01   1.3600055968e+01    0.2085567    0.1100759 -60.90 0.0005295018    2.415    0.586
       125 -10.5259     86.1128    116.3537   1.0960935767e+02   4.2165516963e+01      0.24628     0.188679 -42.57 0.0004971836    1.254    0.203
       126 -11.3565     51.0927    116.6879   1.2054727232e+02   4.7076698557e+01    0.2838388    0.1835967 -55.21  0.001453582    1.353    0.261
       127  -9.8807     35.0000    114.0170   1.2508882883e+02   4.9433123858e+01    0.2666693    0.1648964 -59.41  0.001409964    1.376    0.274
       128 -11.6797     36.0983    109.4061   1.2382027600e+02   5.0397453175e+01    0.3785716    0.2864395  71.84 0.0002333182    1.735    0.424
       129  -8.9088    212.5441    112.5177   7.8381446706e+01   1.6127418511e+01    0.1461793    0.1329773 -59.82 0.0002190489    1.014    0.014
       130 -10.7237    248.9797    111.9877   7.2618274965e+01   8.8487535574e+00    0.2131556    0.1755362 -54.96 0.0005975149    1.031    0.030
       131 -10.6901     55.5371    109.7572   1.1761316389e+02   4.8154978130e+01    0.3211096    0.2113916 -12.73  0.001443833    2.055    0.513
       132 -11.6551     23.5181    107.7370   1.2755512260e+02   5.1906126530e+01     0.352664    0.2546059  85.00   0.00127903    1.746    0.427
       133 -10.1620     91.2786    107.9169   1.0592258507e+02   4.3212301948e+01    0.2131304    0.1964542 -72.07 0.0007395764    1.176    0.150
       134 -11.2105    243.7129    104.6135   7.1832071689e+01   1.1169772810e+01     0.238602    0.1534443 -35.78  0.000605528    1.585    0.369
       135 -10.8926    247.8170    102.3133   7.0794911127e+01   1.0776589725e+01    0.2257861    0.1764916  67.51  0.001151337    1.416    0.294
       136 -10.2961    223.2225    103.9897   7.4725048261e+01   1.5450290311e+01    0.2242866    0.2004679  84.72 0.0004392024    1.140    0.123
       137  -9.6544     92.3441    102.4762   1.0416652174e+02   4.4227704400e+01    0.3802734    0.2429121 -84.23  0.001356098    3.431    0.709
       138 -10.9397     74.0747    102.2447   1.0981525928e+02   4.7290835137e+01    0.3289304    0.2761781  86.36  0.001009042    1.542    0.352
       139 -10.0635    119.4430    101.7170   9.6118395721e+01   3.9151378822e+01    0.2588312    0.1912052  17.81  0.001171627    1.722    0.419
       140 -10.2221     35.9556    101.7406   1.2225675872e+02   5.2159505309e+01    0.3197686    0.1544155  29.83   0.00152692    2.304    0.566
       141 -11.5063     29.4922     98.8362   1.2380307219e+02   5.3411681851e+01    0.4241236    0.1996664 -41.00  0.001470374    1.973    0.493
       142 -11.4236      3.3262    100.3651   1.3276363004e+02   5.4947055496e+01    0.2525973    0.2239166 -53.06   0.00056492    1.127    0.113
       143 -10.7254     63.2860     99.0027   1.1249236898e+02   4.9568823433e+01    0.4541085    0.2587447  21.05  0.002071908    2.114    0.527
       144 -11.2448     20.2675     97.1038   1.2655978889e+02   5.4556567288e+01    0.2718982    0.2094089 -54.95  0.001111815    1.084    0.078
       145 -10.3327      1.7886     94.1202   1.3220162267e+02   5.6403658846e+01    0.3265639   0.07702335 -54.60  0.001378915    2.613    0.617
       146 -10.0618     31.4784     92.5241   1.2173385840e+02   5.4623712660e+01    0.3232769   0.09983988 -55.47  0.001290668    2.575    0.612
       147  -9.5962     50.5199     99.0152   1.1674815451e+02   5.1197914318e+01    0.1834349    0.1177699 -81.90 0.0008097688    2.500    0.600
       148 -11.7163     25.6712     91.7125   1.2357096623e+02   5.5308293136e+01    0.2420766     0.198769 -32.93 0.0003200385    1.116    0.104
       149 -10.6097     22.9199     87.0542   1.2350103574e+02   5.6535890745e+01    0.2690761    0.1424135 -50.08 0.0004383461    1.510    0.338
       150 -12.0355     11.2052     90.9294   1.2842026993e+02   5.6544978173e+01     0.357701    0.2089258  18.34  0.002074465    2.017    0.504
       151 -10.6007      4.4100     86.3353   1.2987837034e+02   5.7938263471e+01     0.264721    0.2258403  61.60  0.001854156    1.545    0.353
       152  -9.4782    134.4814     91.4799   8.9349178526e+01   3.7986457172e+01    0.1490384    0.1460905  67.98 -7.277032e-06    1.012    0.011
       153 -10.9282     95.3287     90.7827   1.0002910223e+02   4.6158122981e+01    0.4214368     0.246638  22.77  0.001329333    2.284    0.562
       154 -10.0861    158.3738     89.8317   8.3299075092e+01   3.2833320366e+01     0.213728    0.1442525 -30.73 0.0009518342    1.705    0.413
       155 -11.5257     48.1328     85.9528   1.1427822786e+02   5.4296002341e+01     0.502869    0.3966862 -85.92  0.001977579    1.833    0.454
       156  -9.3354     21.2985     91.3430   1.2501158497e+02   5.5740425751e+01    0.1350222   0.07495888 -37.02 0.0005534864    1.671    0.401
       157 -10.8818    112.2277     85.9731   9.3700443731e+01   4.3825598109e+01    0.3324133    0.2673169  74.02  0.001663918    1.572    0.364
       158 -10.6888     67.2370     84.7063   1.0732695137e+02   5.2042126365e+01     0.287794    0.1950777 -23.72   0.00145539    1.606    0.377
       159 -10.0583     15.7065     83.7351   1.2533952170e+02   5.7780792949e+01    0.2342619    0.1368431  26.32   0.00134333    1.990    0.497
       160  -9.9627    117.6763     83.5933   9.1505206980e+01   4.3149081277e+01    0.2631842    0.1375065  42.69 0.0006583284    1.896    0.473
       161  -9.6078     88.0538     83.3573   1.0012920363e+02   4.8953264328e+01    0.1888348    0.1804022  19.82 0.0005248681    1.081    0.075
       162 -10.6212     74.5298     81.2017   1.0386875766e+02   5.1636467572e+01    0.2414937    0.2197525  21.89 0.0004158647    1.128    0.114
       163  -9.7604     70.8696     79.3696   1.0455525102e+02   5.2564571874e+01    0.2026362    0.1331036  32.16 0.0008545149    1.561    0.359
       164  -9.6984     29.9966     81.7096   1.1969177935e+02   5.7059526495e+01    0.1714514    0.1472466 -19.71  0.000888142    1.121    0.108
       165 -10.6357     39.6745     80.9380   1.1597796745e+02   5.6273335343e+01    0.2270995    0.2040587  29.04 0.0008935096    1.306    0.234
       166 -11.7159     22.3499     79.0127   1.2183338885e+02   5.8268212485e+01    0.4185588    0.2922917 -56.81  0.001254296    1.317    0.241
       167  -9.6747     18.5017     79.5275   1.2337172327e+02   5.8458218310e+01    0.1658027    0.1071688 -64.14 -3.835832e-06    1.553    0.356
       168 -11.1450     11.7251     79.6292   1.2587791613e+02   5.8908694445e+01    0.3396522    0.1886346 -36.53 0.0006491369    1.580    0.367
       169 -11.0935      3.3088     78.6107   1.2872693908e+02   5.9620152927e+01    0.3214433    0.2617593  19.45  0.001588661    1.498    0.332
       170 -11.4475      7.0737     73.9627   1.2633774746e+02   6.0360211713e+01    0.5096606    0.2398474  22.65  0.002794665    2.432    0.589
       171 -10.5474     91.5964     78.1843   9.7482508478e+01   4.9312919089e+01    0.2882949    0.2088794 -10.83  0.001423606    1.669    0.401
       172  -9.1541     81.3044     79.2717   1.0107249977e+02   5.0909158534e+01    0.1378709    0.1033682  -3.74 0.0002955521    1.537    0.349
       173 -10.3798    150.4646     77.5817   8.1728208281e+01   3.6909447203e+01     0.249911    0.2366601 -56.72  0.000758498    1.083    0.077
       174 -11.6843     58.1063     74.4237   1.0751188633e+02   5.5362633835e+01    0.4014671    0.3216834  75.47 0.0005265166    2.032    0.508
       175 -11.4909     61.9734     71.9210   1.0539201454e+02   5.5305173274e+01    0.4432233    0.3291033 -30.16  0.001623317    1.247    0.198
       176  -9.6672    121.9505     76.4904   8.8287613618e+01   4.3543257201e+01    0.2217473    0.1394068  49.13 0.0006155777    1.545    0.353
       177 -11.8616     44.8073     75.2513   1.1255524133e+02   5.6857267159e+01    0.2186985    0.1943479 -21.40 0.0002622216    1.061    0.057
       178 -11.2381     38.0956     70.0183   1.1356519828e+02   5.8615805850e+01      0.54436    0.4112674  69.43  0.003000494    2.354    0.575
       179 -11.5878    102.3659     72.8125   9.2605735000e+01   4.8252682850e+01    0.3180002    0.2910483 -72.64 0.0005780017    1.314    0.239
       180  -9.9661     16.7078     72.8208   1.2243646577e+02   5.9957497291e+01    0.2411478    0.1375224 -50.07  0.001299354    1.408    0.290
       181  -9.4193    174.4312     72.1705   7.5442618077e+01   3.2176852444e+01     0.195728    0.1292731 -53.60 0.0009243157    1.565    0.361
       182  -9.6269    151.6470     72.3081   8.0019610633e+01   3.7540470275e+01    0.1521077    0.1120881 -83.23 0.0007043099    1.718    0.418
       183 -11.8129     76.3271     71.1248   1.0022388971e+02   5.3263262435e+01    0.4673497    0.2847269  51.67  0.001961459    2.112    0.527
       184 -11.0153     27.2569     70.2650   1.1775575178e+02   5.9616770560e+01    0.2623447    0.1859625 -44.94 0.0009503757    1.200    0.167
       185 -10.7632     31.0446     66.1224   1.1514778244e+02   6.0070063561e+01    0.3062035    0.1813166 -50.05  0.001051513    1.533    0.348
       186  -9.7375    160.9636     69.7025   7.7380733934e+01   3.5779380303e+01    0.1984382    0.1756642  62.24 0.0003143079    1.075    0.070
       187 -10.1460    144.3622     70.0173   8.0976680187e+01   3.9622806080e+01    0.1942822    0.1856032 -45.12 0.0004056935    1.103    0.093
       188 -11.3774     94.5724     67.6420   9.3319738346e+01   5.0662885296e+01    0.4477321    0.3010093 -34.11  0.001855596    1.512    0.339
       189 -10.7467     99.2428     65.4716   9.1240668410e+01   5.0135282905e+01     0.269815    0.2057703 -18.96  0.001439692    1.414    0.293
       190 -11.3006     68.7757     68.1243   1.0184474050e+02   5.5004093931e+01    0.4272869    0.2001759 -41.94 0.0009828579    2.049    0.512
       191 -11.5654     49.6731     68.8995   1.0891285544e+02   5.7505643423e+01    0.4172242    0.2661598  -4.36  0.002165643    1.887    0.470
       192  -9.3901    123.4523     68.4538   8.5516878893e+01   4.4607417368e+01    0.1410997    0.1351147  53.10 5.563532e-05    1.046    0.044
       193 -10.9512     18.5336     60.9616   1.1862310246e+02   6.2128801409e+01    0.4070698    0.2877108  65.40  0.002172073    2.802    0.643
       194 -11.1416     16.5773     67.8409   1.2123585356e+02   6.0954959012e+01    0.2060166    0.1803077 -29.93 0.0002218853    1.126    0.112
       195 -10.9510     21.0123     65.6317   1.1892205832e+02   6.1044169770e+01    0.3255111    0.1873005   5.05  0.001833812    1.966    0.491
       196  -9.9689      6.4203     67.8047   1.2516676011e+02   6.1631787658e+01    0.1729873   0.09428832 -55.17  0.000268283    1.493    0.330
       197 -11.5011      3.3730     64.2102   1.2549853028e+02   6.2510066895e+01    0.3568434    0.3008364  83.01  0.002038574    1.711    0.416
       198 -10.8092    139.0865     65.8621   8.0983583378e+01   4.1522346141e+01    0.2157783    0.1993172  50.25  0.000538599    1.037    0.035
       199 -11.6403     63.9582     59.9335   1.0090034353e+02   5.7173028371e+01    0.8054726    0.2334943  33.30  0.002802146    3.856    0.741
       200  -9.5161    215.4102     65.5284   6.7335165508e+01   2.3751165465e+01    0.1340379    0.1189863 -75.17 -7.690738e-05    1.063    0.060
       201 -11.5301     57.9908     61.8614   1.0366979342e+02   5.7697010962e+01    0.5264626    0.2004127 -34.63  0.002087229    2.892    0.654
       202  -9.5039    120.2971     65.0529   8.5302536414e+01   4.5856374413e+01    0.1907357    0.1838644 -16.15 0.0004645392    1.081    0.075
       203 -11.0994     77.0445     63.5601   9.7586039990e+01   5.4486428592e+01    0.3325639    0.2436153 -37.29 0.0005897564    1.356    0.263
       204 -10.3891     51.4836     62.7619   1.0634874463e+02   5.8406897527e+01    0.2886122    0.1736812 -18.25  0.001459559    1.911    0.477
       205 -11.2946     11.6238     44.0735   1.1652189876e+02   6.5679502986e+01    0.3842396    0.2052263 -27.13  0.001639305    1.649    0.394
       206 -10.8533      1.4994     44.6876   1.2112886501e+02   6.6229772377e+01    0.1826401    0.1085417 -39.89 0.0004114072    1.267    0.211
       207 -10.5252      7.0396     41.3342   1.1767796017e+02   6.6465336387e+01     0.299962    0.1255724 -49.53 0.0008282715    1.990    0.498
       208 -11.1423     11.0428     62.4675   1.2202466142e+02   6.2381502456e+01    0.2127499    0.2077574  16.78 0.0003828595    1.371    0.270
       209 -12.1721      5.2979     52.4721   1.2170071822e+02   6.4614077170e+01    0.7957982    0.3159465 -59.80  0.003918617    2.581    0.612
       210 -10.9463     83.9572     61.7766   9.4751700116e+01   5.3600470468e+01     0.339769    0.2055793  35.45    0.0016992    1.609    0.379
       211 -10.4930     86.0510     57.5943   9.2717134073e+01   5.3909294603e+01    0.3126964    0.1889496 -39.86  0.001575656    1.718    0.418
       212  -9.6917    134.2379     61.2145   8.0747093573e+01   4.3368458379e+01    0.2265662      0.11121  63.56 0.0008727116    2.433    0.589
       213 -11.4197     29.8194     60.7750   1.1406988586e+02   6.1189559651e+01    0.6032363    0.2298357  16.82  0.002510502    3.446    0.710
       214 -12.4834     37.8486     51.1668   1.0784746370e+02   6.2061641555e+01    0.7381523    0.4798209 -13.05   0.00434669    1.539    0.350
       215 -10.8008     46.0103     57.2488   1.0664946670e+02   6.0066657962e+01    0.3609304    0.2621439  26.45  0.001207801    1.414    0.293
       216 -10.6089     45.0297     51.3453   1.0507587439e+02   6.1190820241e+01    0.3416549    0.1670451 -32.28 0.0007542594    1.981    0.495
       217 -11.4572    123.1843     56.2589   8.1899819566e+01   4.6602333513e+01    0.4848887    0.3136144 -66.36  0.002144061    2.439    0.590
       218 -10.2869    114.7698     57.2043   8.4323564355e+01   4.8283707170e+01    0.2599339    0.1804033  42.48 0.0003772352    1.350    0.259
       219 -10.0207    117.7440     54.9721   8.2862247660e+01   4.7981945660e+01    0.2556914    0.1926353   8.38 0.0004134425    1.639    0.390
       220 -10.1711    129.6148     55.7671   8.0208724946e+01   4.5243870203e+01    0.1875763    0.1290657 -46.65 0.0005409875    1.609    0.379
       221 -10.7889    101.5685     55.9643   8.7531170426e+01   5.1203696310e+01    0.4914993    0.1861372  49.40  0.001591112    2.572    0.611
       222 -10.8808     75.2002     56.0320   9.5724028377e+01   5.6046840493e+01    0.2013921    0.1727489  20.92 0.0003167051    1.093    0.085
       223 -12.0540    128.3388     50.6126   7.8954753660e+01   4.6278982517e+01    0.5031263    0.3288769  -6.82  0.001479734    2.263    0.558
       224 -11.1042     87.3342     52.2379   9.0533368760e+01   5.4508833423e+01    0.2352109     0.214398 -27.87 0.0005363281    1.191    0.160
       225 -10.3275     82.7377     50.3767   9.1348135552e+01   5.5623602159e+01    0.3022484    0.1148587  43.84  0.001238568    2.506    0.601
       226 -11.0198     12.5003     51.6695   1.1844802172e+02   6.4285612943e+01    0.2436319    0.1808279 -46.68 0.0006839529    1.261    0.207
       227 -11.0636    154.1330     49.0067   7.3079372340e+01   4.0543766098e+01    0.6093605    0.3548993 -80.60  0.002412512    2.953    0.661
       228 -10.0268     77.0831     50.8195   9.3332126331e+01   5.6546201250e+01    0.1825328    0.1693358  28.54 0.0004284776    1.189    0.159
       229 -10.5094     70.3839     50.8018   9.5581581549e+01   5.7663852931e+01    0.3039759    0.2591563  60.84  0.001558712    1.636    0.389
       230 -10.1082    113.8928     48.3096   8.1749301758e+01   4.9771127864e+01    0.2306422    0.1924502 -73.82 0.0008791932    1.553    0.356
       231 -10.3093     95.1669     48.7657   8.7012242368e+01   5.3537170957e+01    0.2969064    0.1828631  13.36  0.001354585    2.296    0.565
       232 -10.2066    103.9775     46.4642   8.3765237248e+01   5.2102465844e+01     0.200777    0.1803414 -10.94 0.0009785917    1.156    0.135
       233  -9.2945    100.2831     47.6537   8.5178198765e+01   5.2684645133e+01    0.1258371     0.106271 -75.53 0.0003751022    1.644    0.392
       234 -10.7152     61.4354     46.4945   9.7230670167e+01   5.9720282350e+01    0.2407786     0.223583 -23.33  0.000835958    1.274    0.215
       235 -10.6685    142.8977     45.7739   7.4371121042e+01   4.3617225099e+01    0.2878405     0.217996  87.38 0.0009128981    1.519    0.342
       236  -9.1995     18.6698     46.2729   1.1418092290e+02   6.4755585521e+01   0.09611769   0.09037752  42.93 0.0006986333    1.590    0.371
       237  -9.1433    233.3009     45.3119   6.0879277544e+01   2.2857974393e+01    0.1104185   0.09965093  41.52 0.0003403882    1.607    0.378
       238 -11.0078    164.1756     44.4899   7.0048034870e+01   3.8786242310e+01    0.3294049    0.2307744 -14.73  0.001015927    1.999    0.500
       239 -10.0631     86.0490     45.1251   8.8512187987e+01   5.5784927479e+01    0.1976756    0.1567741  17.27 0.0004572143    1.201    0.168
       240 -10.3963     51.3774     44.8377   1.0037471551e+02   6.1411802844e+01    0.2375237    0.1987214  38.42  0.001556681    1.463    0.317
       241 -11.0349     52.7547     41.3998   9.8617901157e+01   6.1740923127e+01    0.3153102    0.2574719 -60.06  0.001949601    1.946    0.486
       242 -10.4737    121.7177     42.5610   7.8026950949e+01   4.8848232743e+01    0.3285077    0.1439933 -41.37  0.001395179    2.562    0.610
       243  -9.9445    110.8635     42.0456   8.0513041498e+01   5.1263041450e+01    0.1878393    0.1730533  74.92 0.0005017604    1.235    0.191
       244 -10.7649     67.0327     41.1018   9.3322105622e+01   5.9639874261e+01    0.3437155    0.2086664  -6.14  0.001503959    2.082    0.520
       245 -11.2896     10.6018     34.4217   1.1381020566e+02   6.7349295100e+01    0.6368081    0.2012966  20.21  0.003005118    3.366    0.703
       246 -10.7791      6.9636     30.0268   1.1396132081e+02   6.8309447642e+01    0.4311193    0.1584613 -28.83  0.002084992    2.771    0.639
       247 -10.7129     10.0749     25.4200   1.1083071495e+02   6.8772801220e+01    0.2755301    0.1531166 -13.22 0.0009512484    1.694    0.410
       248 -12.4202    226.3260    246.1213   1.0271482114e+02  -1.0941725612e+01    0.5313008    0.3617282  -8.10  0.003162416    1.482    0.325
       249 -11.5851     20.8229     37.7761   1.1040858172e+02   6.5968991691e+01    0.2618313    0.1622713 -26.19 0.0004698026    1.348    0.258
       250 -12.4630     25.9240     36.3398   1.0767921297e+02   6.5710055679e+01    0.4028789    0.3424426 -16.21  0.001995472    1.192    0.161
       251 -10.1741    225.9625     40.3171   6.0641321596e+01   2.5124923932e+01    0.2185043    0.1483544 -59.75 0.0007262113    1.300    0.231
       252  -9.0661    220.2802     41.6730   6.1550071212e+01   2.6181351377e+01    0.1347379   0.08219798 -68.90 0.0002867428    1.597    0.374
       253 -11.1779    101.1161     28.4201   7.8493192248e+01   5.4947755014e+01    0.3651184     0.261514  82.61  0.001941799    2.115    0.527
       254 -11.1209     97.3808     40.9412   8.3748308626e+01   5.4178828407e+01    0.4291993    0.2601703  50.83  0.001471033    1.570    0.363
       255 -10.7780    104.9959     34.0197   7.9378258584e+01   5.3499134542e+01    0.2679797    0.2307896 -45.00  0.000328131    1.380    0.275
       256 -10.8465     97.9692     31.7598   8.0461308612e+01   5.5203520356e+01     0.314789    0.1986394  41.14  0.001037566    1.397    0.284
       257 -11.5530    101.3768     36.8933   8.1288620640e+01   5.3892461009e+01    0.2864236     0.250717  35.68  0.000578304    1.019    0.019
       258 -12.0458     97.0676     36.9619   8.2484896779e+01   5.4752340098e+01    0.2696945    0.2560374 -84.99 0.0003576137    1.331    0.249
       259 -11.1404     89.3815     39.5524   8.5578375906e+01   5.5917843756e+01    0.2619211    0.2132164 -56.67 0.0005702756    1.678    0.404
       260 -11.5296     80.1739     36.8451   8.7436402289e+01   5.7975412286e+01    0.3995167    0.3329508 -46.85  0.002504441    1.542    0.352
       261 -10.6064     77.5890     33.2007   8.6939202633e+01   5.8901425691e+01    0.3742454    0.2329848   6.24  0.001944045    2.002    0.501
       262  -9.9954     73.5990     31.4546   8.7582364732e+01   5.9818723773e+01    0.1928945    0.1604671  17.75  -3.3158e-05    1.013    0.013
       263  -9.7671     44.0325     39.0013   1.0112817485e+02   6.3258059270e+01    0.2547459    0.1169207 -45.82  0.001000659    2.495    0.599
       264  -9.7537    149.3755     38.7423   7.1120514251e+01   4.3022497403e+01    0.1743913    0.1321121 -14.84 0.0009500186    1.681    0.405
       265 -10.6503    162.4659     36.9892   6.8350679178e+01   4.0163758666e+01     0.229555     0.161206  56.38 -1.776635e-05    1.305    0.234
       266  -9.4978    127.5000     36.4678   7.4842952654e+01   4.8330453290e+01    0.1332566    0.1183888  54.00 0.0001294542    1.015    0.015
       267 -10.4356     70.4968     34.5652   8.9755216580e+01   5.9954955100e+01    0.2165017    0.1641191 -31.63  0.001028564    1.421    0.296
       268 -10.3526    151.4572     33.8682   6.9388563709e+01   4.3134728817e+01    0.2637583    0.1243755  45.07  0.001146148    2.242    0.554
       269 -10.2365    139.9788     34.0610   7.1566504591e+01   4.5779198004e+01    0.1966789    0.1734117  66.73 0.0003195558    1.041    0.039
       270  -9.8638    206.5266     33.5039   6.1365628105e+01   3.0338058997e+01    0.2304937   0.09551766  57.29 0.0009004035    2.341    0.573
       271  -9.8758    129.9193     32.6570   7.3171019452e+01   4.8240468457e+01    0.1859906    0.1560333  56.98 0.0005999428    1.053    0.050
       272  -9.9637    178.7898     32.0113   6.4581300886e+01   3.6933554902e+01    0.1959009    0.1276719 -88.02 0.0004491398    1.606    0.377
       273  -9.7218    124.4682     32.7318   7.4354579919e+01   4.9453775027e+01    0.2464598    0.1028231  57.15  0.001054801    2.109    0.526
       274  -9.7019     90.0748     31.6615   8.2618751945e+01   5.6771624413e+01     0.178216    0.1349111  39.80 0.0003820274    1.160    0.138
       275 -10.3132     56.1094     30.5938   9.3330480316e+01   6.2755163127e+01    0.2094444    0.1427525  -7.32   0.00127268    1.445    0.308
       276 -10.6130     50.1260     28.7536   9.4871675506e+01   6.3864562499e+01    0.3084281    0.1767484 -16.06  0.001156285    1.864    0.464
       277  -9.7136    140.1503     28.5508   6.9939007699e+01   4.6376705134e+01    0.3072575    0.1615107  -8.87  0.001254055    3.472    0.712
       278 -10.4683     81.7419     28.3093   8.3871735030e+01   5.8737659297e+01     0.413594     0.228431 -49.84  0.001944207    2.964    0.663
       279  -9.9252    124.6897     28.0936   7.2874616941e+01   4.9931114324e+01    0.2554429    0.1637766  28.91  0.001220113    1.836    0.455
       280 -10.8186    214.7141     27.3018   5.9123453708e+01   2.9285826579e+01    0.1974614    0.1669037 -88.15 0.0002364793    1.095    0.087
       281  -9.5337    162.8390     28.6295   6.6089286421e+01   4.1081688173e+01    0.1862841    0.1111131  77.07 0.0002757107    1.656    0.396
       282 -11.2428     70.9308     25.9079   8.6381190998e+01   6.0942497647e+01     0.473774    0.2264925  38.79  0.001842573    1.847    0.459
       283 -10.3679    181.0058    248.8058   1.1203529054e+02  -4.5120592175e+00    0.2871223    0.1291045 -28.69  0.001074135    3.797    0.737
       284 -10.1160    205.2409     27.1480   6.0118806409e+01   3.1423614608e+01    0.1814166    0.1257384 -78.93 0.0005361688    1.317    0.241
       285 -10.8261     87.5427     25.1297   8.1020795149e+01   5.8004575852e+01    0.3073641     0.261347 -49.77  0.001803249    1.555    0.357
       286 -11.1255     83.8032     20.6320   8.0460137760e+01   5.9195178791e+01    0.3558605    0.2526769  65.44  0.001663548    1.805    0.446
       287  -9.6108     24.7868     26.8126   1.0461722753e+02   6.7230100018e+01    0.1366712    0.1201044  -6.87 0.0004921803    1.320    0.242
       288 -11.0155      2.1401     24.1009   1.1413833147e+02   6.9552519752e+01    0.3457473    0.1455435 -36.63  0.002038056    1.844    0.458
       289  -9.7995    137.0118    247.5112   1.2091691750e+02   2.9462876647e+00    0.2022789    0.1164151  39.08 0.0003980441    1.522    0.343
       290 -10.3719    147.6190    245.2368   1.1837721105e+02   1.6032549831e+00    0.1797872    0.1234204 -38.84 0.0009569537    1.731    0.422
       291 -12.1944     74.3860    238.3957   1.3283495861e+02   1.4720432751e+01    0.5125942    0.3705835 -84.64  0.002837175    1.344    0.256
       292  -9.7659    112.3509     24.8091   7.4554333364e+01   5.2983975067e+01    0.1598025    0.1185602  -6.29 0.0005315863    1.590    0.371
       293 -10.6918     95.0073     24.2197   7.8645843110e+01   5.6641927131e+01     0.388877    0.1694334  49.07  0.001800257    1.938    0.484
       294  -9.3950     63.3637    243.7983   1.3559692321e+02   1.5153486129e+01    0.1623047    0.1059731 -62.51 0.0004637265    1.656    0.396
       295 -10.0634    109.9414    242.9644   1.2597914539e+02   8.2805536724e+00     0.216737    0.1418657  66.08 0.0005584322    1.650    0.394
       296 -10.1613    134.9336     22.3534   6.9107249009e+01   4.8238181671e+01     0.189247     0.144207  58.10 0.0007302471    1.119    0.106
       297  -9.8190    120.2902     21.4836   7.1745495855e+01   5.1604006030e+01    0.2268415    0.1510783  -1.99 0.0008770016    1.984    0.496
       298 -10.0182    173.9617     24.3052   6.3353716263e+01   3.8968942340e+01    0.1855441    0.1405943  73.71  0.000354673    1.127    0.113
       299  -9.7302    162.0070     20.2143   6.4021340658e+01   4.2207041130e+01     0.177919    0.1409804  72.73 0.0002163432    1.069    0.064
       300 -10.0523     45.2372     20.4239   9.3457590853e+01   6.5584429245e+01    0.2590534   0.09938953  42.00  0.001247859    2.658    0.624
       301 -12.2009     35.8350    241.6760   1.4073215635e+02   1.9181803471e+01    0.4096778     0.284297  59.63  0.002653091    1.197    0.165
       302 -11.4949     31.4223    237.3680   1.4123361995e+02   2.0616364957e+01    0.3042547      0.19626  88.69  0.001152712    1.314    0.239
       303 -10.6214     29.1881    232.8849   1.4131453190e+02   2.1832869579e+01    0.2508155    0.2133418  66.55  0.001150393    1.206    0.171
       304 -10.3484     88.8754    241.2363   1.3016205436e+02   1.1957001901e+01    0.2342631    0.1616955 -39.19  0.001227226    2.136    0.532
       305  -9.9632    217.3347     16.4471   5.6615027342e+01   3.0005003716e+01    0.2273502   0.09618539  67.12  0.001125336    2.061    0.515
       306 -10.5422     23.6386     41.2921   1.1040330780e+02   6.5147287160e+01    0.2065089    0.1749297  33.72 0.0008337028    1.605    0.377
       307  -9.5952     46.8616    241.4012   1.3860690615e+02   1.7861934303e+01    0.1476434    0.1129984  34.08 0.0003543861    1.588    0.370
       308 -10.0601     51.0340     15.0000   8.9012948199e+01   6.5360028230e+01    0.2772246    0.1486033  37.90   0.00163056    1.649    0.394
       309  -9.3334     50.4535    240.4648   1.3782856647e+02   1.7593429503e+01    0.1240812    0.1005199  74.24 0.0008074173    1.042    0.040
       310 -10.3853    195.6207    238.4014   1.0738808168e+02  -5.1039786212e+00    0.2784825    0.2078093   6.43  0.001587882    1.398    0.285
       311  -9.5299    243.4912    237.4844   9.8062249960e+01  -1.2024930209e+01    0.1226955   0.09919926  -3.78 8.799047e-05    1.001    0.001
       312 -10.1238    100.0751     12.9746   7.3472501761e+01   5.6719076634e+01    0.1933979    0.1548273  35.79  0.001270246    1.097    0.089
       313 -12.4986    232.9641    246.9547   1.0161744931e+02  -1.1983834899e+01     0.466192    0.3965375  -9.64  0.003236753    1.137    0.120
       314 -10.2151    159.9220    235.8604   1.1435898523e+02   1.2720907510e+00    0.2110176     0.176146  12.49 0.0006433607    1.276    0.216
       315 -10.4473    177.7243    234.8109   1.1044992221e+02  -1.5492793768e+00    0.2480509    0.1920809  -5.55 0.0008638995    1.479    0.324
       316 -10.9921    153.4752    234.1512   1.1546144504e+02   2.7005204310e+00    0.2741241    0.2171189 -26.92  0.001062238    1.493    0.330
       317 -10.0048    167.0376    233.7169   1.1250987157e+02   4.5833288533e-01    0.1930033    0.1680091  30.67 0.0008080588    1.038    0.037
       318  -9.8015     24.0541    232.3118   1.4224829082e+02   2.2540818781e+01    0.1665303    0.1269194  74.13 0.0005734635    1.037    0.036
       319  -9.3851      4.6745     12.3029   1.0829856270e+02   7.1042379883e+01   0.08659799   0.07880887   7.61 0.0007031681    1.641    0.390
       320  -9.8827     79.9049    231.3456   1.3090930140e+02   1.5416888265e+01    0.1889972     0.148423  54.67 0.0004866008    1.133    0.117
       321 -13.1762     18.9356    247.7999   1.4424766808e+02   1.9885493858e+01     1.332841    0.3028391  48.70  0.005747932    3.200    0.688
       322  -9.6935    108.2077     10.4199   7.0766611816e+01   5.5247794097e+01    0.1664849    0.1062852  67.88  0.000512221    1.581    0.367
       323  -9.5422     58.3354    230.2930   1.3529729926e+02   1.8729357931e+01    0.1137762    0.1011374 -34.41 0.0004177194    1.641    0.391
       324 -10.2482    190.5540    227.0960   1.0648138458e+02  -2.3117220188e+00    0.3909566    0.1317294 -45.84  0.001457594    3.161    0.684
       325  -9.5404    249.3011    227.3182   9.5225169690e+01  -1.1288797649e+01    0.1266842   0.08172134  -6.65 0.0003801225    1.621    0.383
       326 -10.1756    129.7703    226.9310   1.1949521965e+02   8.2447167039e+00    0.3558456    0.1628204  52.94  0.001395724    2.460    0.593
       327 -10.2197     87.8303    227.1626   1.2871666378e+02   1.5121750565e+01    0.1718931     0.166476 -39.31  0.001080137    1.325    0.245
       328 -10.3638     66.5601    226.5246   1.3319331701e+02   1.8419391492e+01    0.3155424    0.1486546  46.66  0.001047513    1.894    0.472
       329 -10.2189    115.9718    225.4992   1.2232838449e+02   1.0908438977e+01    0.2049849    0.1009974  57.36 0.0006039052    2.429    0.588
       330 -11.4160    156.0755    241.4647   1.1604133582e+02   8.8141137420e-01    0.2998103    0.2088538  -8.92  0.001475532    2.138    0.532
       331  -9.5396    115.5059    244.4993   1.2500956705e+02   7.0710029810e+00    0.1329662    0.1162404  52.46 0.0008104365    1.034    0.032
       332 -10.0743      5.0998    226.1656   1.4536557136e+02   2.5846946495e+01    0.2807377   0.06082007  53.01  0.001071709    4.054    0.753
       333 -10.8367    123.0770    221.4802   1.2015826748e+02   1.0554824305e+01    0.3781687     0.252087  51.88  0.001888427    1.432    0.301
       334  -9.7077     13.3745    221.7622   1.4351655931e+02   2.5969665309e+01    0.1597546   0.08990543 -71.23 0.0005950364    1.574    0.365
       335 -10.1736    141.8231    220.8973   1.1588959711e+02   7.3884396377e+00    0.2185774    0.1920792  10.33 0.0008840209    1.286    0.222
       336  -9.8691    174.1882    219.6453   1.0860988440e+02   1.8887147744e+00    0.2042436    0.1232218  29.11 0.0008327769    1.709    0.415
