#   1 NUMBER                 Running object number                                     
#   2 MAG_AUTO               Kron-like elliptical aperture magnitude                    [mag]
#   3 X_IMAGE                Object position along x                                    [pixel]
#   4 Y_IMAGE                Object position along y                                    [pixel]
#   5 X_WORLD                Barycenter position along world x axis                     [deg]
#   6 Y_WORLD                Barycenter position along world y axis                     [deg]
#   7 A_WORLD                Profile RMS along major axis (world units)                 [deg]
#   8 B_WORLD                Profile RMS along minor axis (world units)                 [deg]
#   9 THETA_WORLD            Position angle (CCW/world-x)                               [deg]
#  10 FWHM_WORLD             FWHM assuming a gaussian core                              [deg]
#  11 ELONGATION             A_IMAGE/B_IMAGE                                           
#  12 ELLIPTICITY            1 - B_IMAGE/A_IMAGE                                       
         1 -12.1699    230.2448     20.8280   6.2485442380e+00   2.4809617727e+01    0.9092082    0.4448773  58.22  0.004503107    2.209    0.547
         2 -10.1259     60.0759     22.0813   4.0718919722e+01   6.5606372700e+01    0.3425824    0.2309842 -16.57  0.001552231    1.538    0.350
         3  -9.0361     71.4836      7.4465   2.8529819234e+01   6.5281773769e+01    0.1356195     0.117553  24.09 0.0001093891    1.007    0.007
         4 -11.0763     32.9723      4.9041   4.4963273750e+01   7.2611991996e+01     0.448943    0.2110529 -39.63   0.00220681    2.146    0.534
         5  -9.9377     50.3731      8.7773   3.8020227243e+01   6.9259703200e+01    0.1879943    0.1120905 -17.36 0.0009512088    1.741    0.426
         6  -9.9665    102.8508    238.7030   7.6246880883e+01   1.3269382643e+01    0.2560706    0.2014699 -68.06  0.001313967    1.598    0.374
         7 -10.0140    101.0153    249.6735   7.7622999495e+01   1.1793211320e+01     0.410705    0.2311375  40.03  0.002570708    1.325    0.245
         8  -9.3518    100.2378    244.2858   7.7288440980e+01   1.2730210800e+01    0.2489948    0.1710697 -85.31  0.001620383    1.963    0.491
         9  -9.0394     75.7404    250.2831   8.2514518284e+01   1.4893069494e+01     0.231768    0.1190451  35.87    0.0014063    1.530    0.346
        10 -10.9160     76.1105    244.3024   8.2000260240e+01   1.5812260180e+01    0.2115757     0.196132 -66.21 0.0002540205    1.413    0.292
        11 -18.8224     12.3753    192.7728   9.1826064510e+01   3.2367803946e+01     12.90417     2.875895 -81.60    0.0483418    4.491    0.777
        12 -10.8646    133.9986    229.0059   6.8897183556e+01   1.0436782878e+01    0.2709579    0.1417064  35.62  0.001296698    1.520    0.342
        13  -8.5690    138.9998    214.9960   6.6056173643e+01   1.1936180159e+01    0.1483454    0.1277445  29.85 0.0004695592    1.050    0.048
        14  -8.3246    133.2795    213.3263   6.7037285202e+01   1.3086926279e+01    0.1216172   0.09244678   1.74 0.0003809175    1.594    0.373
        15  -8.9452    132.4639    208.4625   6.6549629810e+01   1.4040614488e+01    0.1297221    0.1083568  34.93 1.123764e-05    1.014    0.014
        16 -10.1372    131.0020    203.2574   6.6139114838e+01   1.5177564150e+01    0.2354379     0.191375 -51.39 0.0006873554    1.453    0.312
        17 -10.6200    124.0555    202.1504   6.7513153243e+01   1.6461776078e+01    0.2123297    0.1975415 -51.18  0.001200496    1.261    0.207
        18  -9.3641    194.3329    196.6164   5.1937161348e+01   6.1058546502e+00    0.3729338    0.1919562 -52.38  0.001510367    3.456    0.711
        19  -8.5760    210.9686    198.6894   4.9175839106e+01   3.2480950898e+00    0.1740143    0.1351791  17.92 0.0005919461    1.081    0.075
        20  -9.4759     71.5362    185.9474   7.7646049990e+01   2.7351471592e+01    0.2867565    0.1586767  55.13  0.000918534    1.769    0.435
        21  -9.1940     78.2711    183.7603   7.5768626616e+01   2.6905517753e+01    0.2093887    0.1568176 -77.50 0.0006316548    1.423    0.297
        22  -9.8381    115.6730    181.9837   6.6507343302e+01   2.1638803747e+01     0.185185    0.1803858  55.80 0.0007090954    1.097    0.089
        23 -10.2469     96.8371    180.0066   7.0759240607e+01   2.5005447109e+01    0.4548317    0.2647621  65.83  0.002034326    2.319    0.569
        24  -9.0932     96.8516    176.1701   7.0212234817e+01   2.5811456235e+01    0.2342126     0.182575  39.40  0.000240906    1.169    0.145
        25  -9.7818    172.8118    177.8984   5.2915496624e+01   1.2630801474e+01    0.2946678    0.1876353 -48.69  0.001150475    1.895    0.472
        26  -9.0307     93.0618    236.4989   7.8000456967e+01   1.4933808702e+01    0.2542489     0.179743  -3.27  0.001476636    2.351    0.575
        27  -9.6646    107.2634    235.5757   7.5052056081e+01   1.3174487441e+01    0.1823699    0.1632292 -82.77 0.0009544971    1.373    0.271
        28 -10.3722    101.2432    223.1532   7.5005378297e+01   1.6089008845e+01    0.3236355    0.1676123 -64.46  0.001319395    2.418    0.586
        29  -8.6483    139.9828    171.9797   5.9111412612e+01   1.9490858442e+01    0.1720176    0.1490197  31.97 0.0003221659    1.044    0.042
        30 -10.0973    179.5284    168.5193   4.9726168624e+01   1.3036475119e+01    0.4678134    0.3328645 -52.48    0.0024202    1.811    0.448
        31 -12.6454     97.3150    228.3588   7.6357766662e+01   1.5732827996e+01     1.982701    0.3866215  46.25  0.006210024    5.098    0.804
        32 -11.6567    114.4252    228.5837   7.2851672815e+01   1.3317979349e+01     0.478545    0.2819875 -62.79  0.001792482    2.200    0.546
        33 -11.8835    108.3857    228.7509   7.4113659186e+01   1.4139813715e+01    0.5500227     0.266736  36.19   0.00266277    1.646    0.392
        34 -10.4374     86.6801    218.0380   7.7569236434e+01   1.8994181619e+01    0.3426361    0.2663775  -6.18  0.001769006    1.894    0.472
        35  -9.6448    110.4929    166.9779   6.5388076485e+01   2.5584299804e+01    0.2921594    0.1998364 -80.03 0.0009271383    1.980    0.495
        36  -9.1719    115.1266    164.8507   6.3867945069e+01   2.5256226845e+01    0.2114877    0.1984704  38.92  0.001239755    1.019    0.019
        37  -8.5557    163.5141    163.9934   5.2263155580e+01   1.6742894169e+01    0.1962619    0.1389661 -39.90 0.0004248166    1.497    0.332
        38 -11.7145    126.6343    229.4773   7.0452111264e+01   1.1428704929e+01    0.3594827    0.3422653  25.71  0.002655404    1.199    0.166
        39  -9.7373    134.5014    148.4903   5.5936736317e+01   2.5214693072e+01    0.4177693    0.2156925 -55.79   0.00167348    2.325    0.570
        40 -10.1494    133.7902    142.1138   5.4783337460e+01   2.6684248496e+01    0.4139909    0.2345701 -48.38  0.001781929    1.856    0.461
        41  -9.1692    153.9626    145.2535   5.0566667785e+01   2.2110295753e+01    0.2259784    0.2042358 -32.85 0.0003787254    1.144    0.126
        42 -10.2664    109.0502    145.0275   6.1831148366e+01   3.0628029154e+01    0.3930659    0.3049498 -30.57  0.001583963    1.505    0.336
        43  -8.6282    120.0137    145.6769   5.9055238632e+01   2.8514435072e+01    0.2000569    0.1869643  34.83 0.0005966424    1.023    0.023
        44 -15.3431     75.0392    148.8447   7.1868778297e+01   3.5190222347e+01     3.980523     3.209822  65.27   0.02215748    1.243    0.195
        45  -8.4024    128.4851    138.5305   5.5368538160e+01   2.8467915547e+01    0.1489969    0.1422614  27.23 5.092246e-05    1.009    0.009
        46 -11.0286    105.1541    132.0918   6.0293025712e+01   3.4253200391e+01    0.5941774     0.401187 -32.51  0.002022729    1.801    0.445
        47 -10.6680     92.1857    132.1398   6.4017377199e+01   3.6484609140e+01    0.2775058    0.2609619   3.42 0.0003581891    1.162    0.139
        48  -9.3988    112.9323    126.3460   5.6857626853e+01   3.4127705133e+01    0.2207187    0.1878586  33.73 0.0009616096    1.167    0.143
        49 -10.5706    133.5541    123.3492   5.0599114913e+01   3.0708648594e+01     0.508453    0.3450639 -88.51  0.001926025    2.807    0.644
        50  -8.6407    176.7946    230.7828   6.0684172085e+01   3.9429494826e+00    0.1983107    0.1104715   3.94 0.0009425869    2.733    0.634
        51  -9.2345    100.0630    121.4142   5.9439906607e+01   3.7634716057e+01     0.263783    0.2044542 -31.68 0.0007155451    1.455    0.313
        52  -8.7485    108.6795    116.0553   5.5671715425e+01   3.7269960705e+01    0.2085928    0.1940794 -41.05 0.0004026109    1.087    0.080
        53  -9.5085    134.3353    105.6704   4.5914526126e+01   3.4272960485e+01    0.2591645    0.1601049 -46.49  0.001094294    1.660    0.397
        54  -9.4677    131.9870    103.2419   4.5879270336e+01   3.5290379969e+01    0.2142296    0.1903305  78.73 0.0004015741    1.305    0.234
        55  -9.1430     44.0832    102.4835   7.3738270411e+01   5.0476807954e+01    0.1903469    0.1374453  26.32 0.0004085012    1.517    0.341
        56 -10.7683     48.3954     92.1821   7.0091761530e+01   5.2532856404e+01    0.5332702    0.1997568  42.00  0.001999251    2.955    0.662
        57 -11.5439     27.0629     87.8440   7.7365301346e+01   5.5741383487e+01    0.4080351    0.2691852 -62.48  0.001313465    1.308    0.235
        58 -10.6036     36.8049     88.0669   7.3633261898e+01   5.4799517483e+01    0.2758943     0.206879  -0.81  0.001093664    1.597    0.374
        59  -9.4091     58.3910     85.3926   6.4721320413e+01   5.2911667574e+01    0.2324451    0.2166567  83.53 0.0005121518    1.172    0.147
        60 -11.0151     89.6231    223.1100   7.7443209365e+01   1.7686638245e+01    0.4250788    0.2518498  47.75  0.001426448    1.408    0.290
        61  -8.3457     79.5462     72.5030   5.3084888855e+01   5.2546677056e+01    0.2480838    0.1462187  36.02 0.0001655254    1.751    0.429
        62  -9.2227     82.3541     71.6894   5.1807433371e+01   5.2215520417e+01     0.233046     0.195043 -71.20  0.001123737    1.439    0.305
        63  -9.2526    148.3218    228.3417   6.5923858926e+01   8.4425772730e+00    0.1231611   0.08510414   6.13 0.0007050397    1.724    0.420
        64 -11.2531    182.3186     63.6069   2.3441375690e+01   3.0555988392e+01     0.431276     0.380064  56.82  0.001084894    1.155    0.134
        65 -12.4774    199.3051     51.1299   1.7352594962e+01   2.8242756239e+01     1.202116    0.8709525  34.77  0.004368268    1.658    0.397
        66 -11.2042    205.0826     46.2869   1.5285061278e+01   2.7517202343e+01    0.4703197      0.41323  47.25  0.001274192    1.247    0.198
        67  -9.4070     67.6470     55.9850   5.2027831763e+01   5.8123264054e+01    0.2971065    0.1970794  52.36  0.001015425    1.878    0.468
        68  -8.9855     61.5387     44.5609   5.0213201951e+01   6.1428996766e+01    0.1386069    0.1282172 -12.44 3.351853e-05    1.047    0.045
        69  -9.3749    105.4672    217.9554   7.3543277464e+01   1.6403868592e+01    0.1645899    0.1242442 -65.49  0.001032134    1.598    0.374
        70 -11.8633    231.0440     27.1342   7.6948021934e+00   2.3939213810e+01    0.8881999    0.4017497  62.65  0.004247865    2.287    0.563
        71  -8.5733    164.3878    249.3049   6.5472447813e+01   3.2479918586e+00    0.1230337    0.1129873 -50.37 0.0007542068    1.582    0.368
        72  -8.8981     65.7562    247.9131   8.4245810064e+01   1.6473403416e+01    0.1403303    0.1256592  46.90 0.0004903683    1.243    0.196
        73 -10.2083    241.6519    246.5529   5.1546141346e+01  -6.3919510427e+00    0.1925082    0.1430133   5.59 0.0008063074    1.159    0.137
        74  -9.8234    110.4310    244.4456   7.5304851833e+01   1.1345614406e+01    0.3045691    0.2413663   9.33  0.001663139    1.526    0.345
