#   1 NUMBER                 Running object number                                     
#   2 MAG_AUTO               Kron-like elliptical aperture magnitude                    [mag]
#   3 X_IMAGE                Object position along x                                    [pixel]
#   4 Y_IMAGE                Object position along y                                    [pixel]
#   5 X_WORLD                Barycenter position along world x axis                     [deg]
#   6 Y_WORLD                Barycenter position along world y axis                     [deg]
#   7 A_WORLD                Profile RMS along major axis (world units)                 [deg]
#   8 B_WORLD                Profile RMS along minor axis (world units)                 [deg]
#   9 THETA_WORLD            Position angle (CCW/world-x)                               [deg]
#  10 FWHM_WORLD             FWHM assuming a gaussian core                              [deg]
#  11 ELONGATION             A_IMAGE/B_IMAGE                                           
#  12 ELLIPTICITY            1 - B_IMAGE/A_IMAGE                                       
         1 -13.2570      3.5226    129.1639   1.1259577951e+02   4.7855342691e+01     5.986551     1.740751 -86.45   0.01492334    6.968    0.856
         2 -12.1253    216.6243     40.2684   3.3639775635e+01   2.7388996711e+01    0.9011619    0.6848107 -64.72  0.003898736    1.115    0.103
         3 -10.8300      2.8826     23.6678   8.9537219250e+01   7.1378773389e+01    0.4815192    0.2244988 -56.82   0.00244755    2.704    0.630
         4  -9.9894      2.0000     15.0056   8.6413503464e+01   7.2842336570e+01    0.3550876    0.1283889 -43.82  0.001646401    2.360    0.576
         5  -9.6027      1.8180     10.3571   8.4380963245e+01   7.3561304036e+01    0.3077286    0.1484004 -42.15   0.00163156    1.925    0.481
         6 -11.5944    234.9474     24.0553   2.8779981154e+01   2.5724403507e+01    0.6505325    0.4587283 -64.48  0.002653735    1.122    0.109
         7  -9.3107      1.8056      2.8743   8.0634157198e+01   7.4621481800e+01    0.3739994    0.1417665 -42.07  0.001979019    2.600    0.615
         8 -10.1253     13.1205     11.9206   7.7991960756e+01   7.2307952220e+01    0.3195119    0.1029331 -32.96   0.00142507    3.049    0.672
         9  -8.4648     28.6199    219.7317   1.1434335996e+02   2.3175880961e+01    0.1802749    0.1065966  88.21 0.0009493312    1.644    0.392
        10 -13.2680      8.4951    208.1035   1.1807199238e+02   2.7790927916e+01     2.490471    0.9647613 -81.61  0.004973769    2.372    0.578
        11 -11.8583      8.1068    230.2450   1.1947189631e+02   2.2827593206e+01    0.9985031    0.6506486  62.23   0.00435558    1.279    0.218
        12 -12.5629     52.9678    238.9705   1.1045978606e+02   1.6142070999e+01     2.262166     1.006078  13.57  0.007405519    5.331    0.812
        13  -9.3213     81.9185    214.0701   1.0099184612e+02   1.7948054299e+01    0.2838314    0.2016518 -71.80 0.0005190947    1.506    0.336
        14 -10.2646     45.7354    221.9556   1.1059830974e+02   2.0779913098e+01    0.4822932    0.3232198 -43.31  0.002576646    1.904    0.475
        15 -12.5535     55.5033    208.6223   1.0692919416e+02   2.2741522952e+01     2.951025     0.663561  49.81  0.006999674    7.207    0.861
        16  -8.3142     73.7036    206.6967   1.0212296654e+02   2.0835585197e+01    0.3484196    0.1675384 -78.78  0.001326018    2.805    0.643
        17  -7.8871     86.4782    249.5155   1.0402584720e+02   9.6301777276e+00     0.133014    0.1077715  50.15  0.000807991    1.104    0.094
        18 -11.7868     24.3892    199.6842   1.1372736522e+02   2.8342430065e+01    0.6665691    0.5079209  71.67  0.001485021    1.187    0.158
        19  -8.9022     50.7990    184.6706   1.0537866981e+02   2.9259647898e+01    0.2803555    0.2139613  81.58  0.000798782    1.330    0.248
        20 -10.0417     46.3958    179.9737   1.0600055659e+02   3.0977302519e+01     0.381265    0.3240691 -57.70 0.0009988183    1.179    0.152
        21 -10.3309     54.8326    174.6053   1.0294553606e+02   3.1371638823e+01    0.4931109    0.3047255 -29.39  0.001856648    2.218    0.549
        22 -10.2705     60.5899    169.4142   1.0054681565e+02   3.2006135586e+01    0.3671682    0.2881382 -30.99 0.0008601687    1.463    0.317
        23  -8.8974     23.7586    224.4091   1.1577092684e+02   2.2611083106e+01    0.3794617    0.1650704  72.65  0.001650737    2.650    0.623
        24 -10.1766      2.2258    161.4273   1.1617601330e+02   3.9702768644e+01    0.6573948    0.1536095 -75.87  0.002206187    3.593    0.722
        25  -9.4137     86.9797    165.7273   9.2234626109e+01   2.9209216136e+01    0.3829111    0.1859194  60.96  0.001121162    4.057    0.754
        26 -10.1939     71.6012    160.4911   9.5853819554e+01   3.2866529504e+01    0.3774054    0.3603692  31.79 0.0005360526    1.090    0.082
        27 -11.6072     78.1627    154.1604   9.2725780815e+01   3.3574685258e+01     1.039932    0.8456011 -11.92  0.002002871    1.436    0.303
        28 -12.0060     68.3492    144.7814   9.4003795879e+01   3.7463278120e+01    0.9164886    0.6482194  71.41     0.002695    1.836    0.455
        29  -8.6105     36.8024    161.2164   1.0634952218e+02   3.6901444593e+01    0.2527749    0.1244705  63.37 0.0009533971    2.808    0.644
        30 -11.7358     58.1634    156.0327   9.9172754110e+01   3.5843244958e+01    0.6188461    0.3544659 -38.29  0.001477076    2.015    0.504
        31 -13.7048     14.2140    247.1232   1.1915224774e+02   1.8672461131e+01     3.859765     1.382704  19.41   0.01444323    5.028    0.801
        32  -8.8549     24.3160    148.2130   1.0841289032e+02   4.1477606225e+01    0.2431201    0.1533833  38.56 0.0008504468    1.709    0.415
        33  -9.2357     94.7600    141.3924   8.5023872490e+01   3.4217982533e+01    0.3384028      0.28007  37.49  0.001138033    1.234    0.190
        34  -8.5727     97.9906    138.0094   8.3277185427e+01   3.4515272078e+01    0.4203559    0.2510963 -19.11  0.001297243    2.815    0.645
        35 -10.6658     82.6223    139.1538   8.8326886874e+01   3.6800449908e+01     0.346605    0.3087466 -35.82 0.0004501128    1.109    0.098
        36 -10.8881     59.4885    137.0213   9.5384059107e+01   4.0698891433e+01    0.4647681    0.3210466 -72.42  0.002163104    1.531    0.347
        37  -9.1946    106.4927    130.6457   7.8963999356e+01   3.4803926004e+01    0.4123657     0.318624  17.67  0.001492365    1.443    0.307
        38 -10.3446     64.8272    126.2804   9.1410174664e+01   4.2780121789e+01    0.5951177    0.3010438  58.67  0.001917144    3.689    0.729
        39  -7.9215    105.2149    118.9777   7.6446643794e+01   3.7870065405e+01    0.2104908    0.1976536 -29.54 0.0002321464    1.039    0.037
        40  -9.0785     13.9580    127.9831   1.0905036678e+02   4.7525335563e+01    0.2100848    0.1798228 -66.57 0.0006449675    1.021    0.021
        41  -8.3325     33.2627    115.9870   1.0042862314e+02   4.9083701506e+01    0.1907165    0.1117812 -62.77 0.0008865163    1.530    0.346
        42  -8.0044    205.0124    110.4501   5.0740194970e+01   1.8698192201e+01    0.2034452    0.1400495  51.88  0.001004638    1.601    0.375
        43  -8.7486     51.9753    105.4995   9.1293624855e+01   4.9704433616e+01    0.2207693    0.1443865  22.49  0.001043261    1.623    0.384
        44 -10.8217      1.7880     77.9045   1.0551244069e+02   6.0490950631e+01      0.78549   0.05691359 -62.34  0.002361025    4.718    0.788
        45  -8.1763     62.9942     80.8121   8.0370659508e+01   5.3901009857e+01    0.2266542    0.1659019  59.47  0.000833553    2.008    0.502
        46  -8.9485     58.6560     75.8848   8.0568949771e+01   5.5587405166e+01     0.296051    0.1112873 -42.02  0.001095316    2.565    0.610
        47  -8.1737     54.6489     75.3368   8.2022735426e+01   5.6273571576e+01    0.1367007    0.1135302  68.51  0.000531957    1.790    0.441
        48  -8.5477     43.2172     89.4048   9.0702252633e+01   5.4590423386e+01    0.1908974     0.126803  34.90 0.0006417934    1.663    0.399
        49 -10.3472     12.7281     59.6988   9.6205526807e+01   6.3903046378e+01    0.3499868    0.2583192  65.12 0.0007897009    2.277    0.561
        50 -10.5062    199.9892     56.5801   3.9148284512e+01   2.8691301176e+01    0.3737605    0.2063029 -44.17  0.001888827    1.683    0.406
        51 -11.8724    207.7014     45.6355   3.5750160266e+01   2.8553916049e+01    0.6305532    0.4789948 -50.78  0.002823821    1.222    0.182
        52  -8.9990    116.0919    246.3893   9.7000321133e+01   6.0982456455e+00    0.2859711     0.191659 -52.52  0.001562398    1.700    0.412
        53  -7.4218     26.6640     51.7416   8.6898825080e+01   6.4351146635e+01    0.1332264   0.08240443 -16.38 0.0002732557    1.575    0.365
        54 -10.4306      2.0024     45.1487   9.7484761821e+01   6.7500915025e+01    0.4515356     0.123945 -60.72  0.001744196    3.618    0.724
        55 -10.7426    223.9104     33.6286   3.1573388279e+01   2.6744448856e+01    0.4009188    0.3380504  49.95  0.001125884    1.610    0.379
        56 -12.8839    100.2074    228.1994   9.8351552334e+01   1.2137699292e+01     3.388927    0.6927256  39.39   0.01033487    3.902    0.744
        57 -13.2736     35.1237    190.5842   1.1019421192e+02   2.9509102046e+01     2.309013     1.162454  71.47  0.008801418    2.449    0.592
        58  -8.2697     31.6592    222.5203   1.1387135604e+02   2.2218688607e+01     0.254491    0.1758017 -49.80  0.001447077    1.745    0.427
        59  -8.3868     59.4288    226.3724   1.0782354670e+02   1.8118624921e+01    0.3216361    0.1604435 -86.13  0.001383715    2.564    0.610
        60  -7.8399    128.9601     28.9865   4.3116921681e+01   4.8712559602e+01    0.1542577    0.1414508  61.56  0.000306037    1.051    0.049
        61  -8.0338     54.5129    221.9325   1.0854004089e+02   1.9737554345e+01    0.1902964    0.1243311 -70.16 0.0005380703    1.543    0.352
