#   1 NUMBER                 Running object number                                     
#   2 MAG_AUTO               Kron-like elliptical aperture magnitude                    [mag]
#   3 X_IMAGE                Object position along x                                    [pixel]
#   4 Y_IMAGE                Object position along y                                    [pixel]
#   5 X_WORLD                Barycenter position along world x axis                     [deg]
#   6 Y_WORLD                Barycenter position along world y axis                     [deg]
#   7 A_WORLD                Profile RMS along major axis (world units)                 [deg]
#   8 B_WORLD                Profile RMS along minor axis (world units)                 [deg]
#   9 THETA_WORLD            Position angle (CCW/world-x)                               [deg]
#  10 FWHM_WORLD             FWHM assuming a gaussian core                              [deg]
#  11 ELONGATION             A_IMAGE/B_IMAGE                                           
#  12 ELLIPTICITY            1 - B_IMAGE/A_IMAGE                                       
         1 -14.0182    219.5500      4.5335   3.9738308416e+01   2.9338252075e+01     2.075249    0.7934267  69.66  0.005939701    2.369    0.578
         2 -15.2118    193.6665     34.8813   5.0804792714e+01   3.2294767380e+01     3.561643     2.102973  21.93   0.01391404    2.903    0.656
         3 -12.1446     38.5891    212.3036   1.2400768189e+02   2.6044260638e+01    0.2871974    0.1226532  51.49  0.001195092    1.919    0.479
         4 -19.5123     16.3844    143.5071   1.2290864675e+02   4.3058298641e+01     18.70033     5.303768 -78.48   0.07152208    3.376    0.704
         5  -8.7508     34.1884    207.2889   1.2446424085e+02   2.7529853784e+01    0.4366834    0.1569294  67.19  0.001882954    3.288    0.696
         6 -10.3109    175.4929    212.5077   9.7103712649e+01   5.0112114178e+00    0.1310572    0.1122756  35.01 3.915442e-05    1.016    0.016
         7 -10.0490    152.1949    211.1695   1.0150029520e+02   9.3165590274e+00    0.1741613    0.1423644  65.34 0.0003401585    1.320    0.242
         8 -10.2297     43.4530    207.1007   1.2270746003e+02   2.6513018505e+01    0.4534681    0.2147167 -76.05  0.001836703    1.946    0.486
         9 -11.8016     61.3080    234.6106   1.2156622798e+02   1.9080779190e+01    0.1979251    0.1423428  73.11 0.0003783278    1.121    0.108
        10 -12.3322    196.4347    198.4821   9.0631379602e+01   3.5218401027e+00     1.293642     1.125524  75.80  0.007714428    1.598    0.374
        11 -10.0317     73.0200    205.0421   1.1674692524e+02   2.3155709644e+01    0.3597797    0.2547795  88.85  0.001847267    1.321    0.243
        12 -11.7536     67.7162    206.8580   1.1798266848e+02   2.3512919702e+01    0.2202835     0.184414  68.77 0.0002544377    1.089    0.082
        13 -11.0864     97.3940    200.6486   1.1126873208e+02   2.0464372103e+01    0.3593676    0.3033821  -0.01  0.001301025    1.823    0.452
        14 -11.0319    207.6830    193.9544   8.7642395987e+01   2.2137352857e+00    0.2665673    0.1655943 -32.55  0.001206789    1.697    0.411
        15 -10.4423     53.9255    231.4630   1.2263251296e+02   2.0582730504e+01    0.2024891    0.1233716  85.12   0.00118242    1.497    0.332
        16  -9.2886     87.7655    202.7053   1.1350355913e+02   2.1513205278e+01    0.1764213      0.15084  34.16 0.0006820002    1.400    0.286
        17 -11.5920    152.5389    197.9046   9.9349883100e+01   1.1610053326e+01    0.4105654    0.2567212 -53.72  0.002056125    1.839    0.456
        18 -11.7233    140.9187    199.8579   1.0207170695e+02   1.3332388923e+01    0.3170981    0.2098183 -48.88   0.00168468    1.704    0.413
        19 -10.4358     44.1558    198.8798   1.2190615058e+02   2.8099719974e+01      0.24638    0.1781078 -54.70  0.001585869    1.764    0.433
        20 -11.1457     35.9274    197.7569   1.2342376622e+02   2.9267594820e+01     0.182147    0.1291716  57.25 0.0004811194    1.240    0.193
        21 -12.3400     31.3925    197.9723   1.2431710011e+02   2.9717905737e+01    0.2006355    0.1544699  63.17 0.0005272146    1.159    0.137
        22  -9.2212    159.5102    196.4843   9.7674470035e+01   1.0597846545e+01    0.1365394    0.1216663  43.52 0.0008102766    1.024    0.024
        23  -9.8113     82.3778    195.1815   1.1374475286e+02   2.3846111987e+01    0.2508486    0.1778049  64.37  0.001344171    1.268    0.211
        24  -9.2785     72.0473    231.0809   1.1936171467e+02   1.8305081081e+01    0.1254725   0.09778521  83.34 0.0004235956    1.176    0.150
        25 -11.0928     96.9782    191.5893   1.1019368684e+02   2.2382300049e+01    0.2817334    0.2655986 -20.29 0.0008620112    1.427    0.299
        26 -10.9904    158.5116    237.7903   1.0404381650e+02   3.9750424169e+00    0.3078014    0.1963662 -55.86  0.001816406    2.045    0.511
        27  -9.4886    220.4874    228.4813   9.1322884316e+01  -4.7626833933e+00    0.1935524    0.1112155 -46.44   0.00103514    2.518    0.603
        28  -9.4823     56.8988    193.1232   1.1882179727e+02   2.7748966013e+01    0.1425282    0.1297797 -84.91 0.0009921636    1.267    0.211
        29 -13.0639     66.9896    187.5723   1.1612994754e+02   2.7613081984e+01    0.6820592    0.6202993 -64.01  0.003379002    1.338    0.253
        30 -16.0734     69.8275    146.0227   1.0995918891e+02   3.6640048499e+01     11.83681     5.456938  80.53   0.01831564    9.823    0.898
        31 -12.7443    125.3435    188.2059   1.0356652724e+02   1.8348938129e+01    0.6625679    0.3934075 -89.09  0.002679538    3.023    0.669
        32 -11.2327    142.2962    189.6933   1.0015403642e+02   1.5016399918e+01    0.2522128    0.2090841  68.48  0.001431624    1.271    0.213
        33 -10.2751    153.9264    185.2769   9.6915626872e+01   1.3711104742e+01    0.2951516    0.2009869 -68.76  0.001112164    1.976    0.494
        34 -11.9553    146.7879    183.6431   9.8160940193e+01   1.5364190955e+01     0.434695    0.3004911  70.16  0.001656944    1.877    0.467
        35  -8.9540     43.7848    220.7536   1.2366630792e+02   2.3808235399e+01    0.1726569   0.09688313 -64.36  0.001061018    1.927    0.481
        36 -11.0083     99.4595    180.8498   1.0816271837e+02   2.4259637567e+01    0.2608052    0.2224644  58.83 0.0005445585    1.079    0.073
        37 -10.6054    204.5676    176.0596   8.4766407126e+01   5.6690384338e+00    0.3930588    0.2740254 -49.01  0.001586436    1.712    0.416
        38  -9.1758    197.8509    177.3525   8.6343222680e+01   6.7330911787e+00    0.2077532    0.1188218  33.45 0.0009447162    1.742    0.426
        39  -9.7270     68.7024    176.9482   1.1451991531e+02   2.9696459257e+01    0.2397332    0.1482057  64.70 0.0007858403    1.601    0.375
        40  -9.8398     61.7525    220.1371   1.2032721843e+02   2.1702424643e+01    0.1662756    0.1203818  75.31 0.0007146459    1.140    0.123
        41  -9.7417     73.0312    218.0070   1.1801327282e+02   2.0607381107e+01     0.172252    0.1331739  70.81 0.0003180538    1.051    0.049
        42  99.0000     50.0987    216.7348   1.2221419655e+02   2.3821991893e+01    0.2859427    0.2152559  -4.33  0.001637198    3.051    0.672
        43  -9.9361    185.4884    169.0244   8.7156892337e+01   1.0618313137e+01    0.2130471    0.1413863 -39.28  0.000625909    1.570    0.363
        44 -10.6207    230.5619    166.7795   7.7984744106e+01   2.2981618832e+00    0.1927565    0.1223781 -42.98 0.0009559495    1.731    0.422
        45  -9.9054    161.8246    166.4156   9.1657292556e+01   1.5849664570e+01    0.2310302    0.1982182 -61.75 0.0004272402    1.299    0.230
        46 -13.3565     56.7592    201.1476   1.1961366863e+02   2.6099607763e+01     0.451454    0.3133751 -68.80  0.001402711    1.454    0.312
        47 -10.2946    236.8148    158.3942   7.5097965107e+01   2.4600174633e+00    0.1904664     0.119317  30.89  0.000485521    1.655    0.396
        48  -9.4535    149.4968    156.0031   9.2296975531e+01   2.0451098006e+01    0.2158105      0.13155 -72.00 0.0008104064    2.700    0.630
        49 -12.4343     95.0963    153.3189   1.0482601316e+02   3.1125045923e+01    0.6503172    0.4895217 -25.43  0.003241351    1.925    0.480
        50 -10.5201    188.2908    153.9697   8.3382334329e+01   1.2835005400e+01    0.2108956    0.1965135 -21.53 0.0007792744    1.073    0.068
        51 -11.5858    133.9909    145.6379   9.3770189416e+01   2.5794896620e+01     1.286857    0.3278936 -54.93  0.003067031    5.906    0.831
        52  -9.6914    112.9880    150.9375   9.9973619009e+01   2.8595161391e+01    0.2448658    0.1728466  82.31 0.0009742072    1.805    0.446
        53 -10.5820    174.6579    149.0396   8.5177243214e+01   1.6647401175e+01    0.3242788    0.2877056 -61.42 0.0008058237    1.254    0.203
        54 -11.1108    144.0935    146.5165   9.1545628549e+01   2.3565505029e+01    0.4169787    0.2528789 -68.80  0.001627334    2.423    0.587
        55 -11.5100    106.7661    139.6346   9.9312233565e+01   3.2308756099e+01    0.6440961    0.3316135 -42.47  0.002596004    2.213    0.548
        56  -9.6603    111.8897    141.5065   9.8385164433e+01   3.0952347818e+01    0.2148439    0.1426826  44.84 0.0004793162    1.512    0.339
        57 -12.4416     95.0558    138.9572   1.0220713210e+02   3.4482375363e+01    0.3266507    0.2819906  32.42 0.0004750275    1.302    0.232
        58  -9.7915    103.3121    133.7114   9.8992111284e+01   3.4300862522e+01    0.1754412    0.1731797  75.79 0.0002517195    1.089    0.082
        59 -11.1118    106.0948    130.7635   9.7633935256e+01   3.4493989235e+01    0.3854761     0.327811 -60.52  0.001123994    1.129    0.114
        60 -11.1128    135.7098    127.9362   8.9364493484e+01   2.9367370133e+01    0.8096973    0.1932329 -48.14  0.002157442    4.235    0.764
        61 -10.9027    114.4170    129.8690   9.5251905938e+01   3.3166604194e+01    0.3332566     0.295415 -20.06  0.000641255    1.318    0.241
        62 -10.1580    160.7159    128.0453   8.3390165256e+01   2.3949272561e+01    0.3563624     0.281855  86.53  0.001639932    1.657    0.397
        63 -11.2133    102.0604    125.7713   9.7623666906e+01   3.6381042948e+01     0.300432    0.2510926 -19.08 0.0006887505    1.489    0.329
        64 -10.9639    120.0849    123.4110   9.2283738109e+01   3.3554950216e+01    0.5280377    0.3233372 -23.70  0.001968103    2.719    0.632
        65 -10.2242    109.9191    118.9313   9.3930022384e+01   3.6539650594e+01    0.2188345    0.2099203 -65.42 0.0003642016    1.007    0.007
        66 -10.2585    167.6190    112.4199   7.7852166094e+01   2.5597745193e+01    0.3674207    0.2775163 -88.22  0.001593174    1.861    0.463
        67 -10.5603    135.0000    112.1038   8.5597710323e+01   3.3009867099e+01    0.4254782   0.08762201 -45.11  0.001033179    4.771    0.790
        68 -11.5513    118.3796    110.5104   8.9553974724e+01   3.6820155095e+01    0.6240356    0.4191669  66.96  0.002645733    1.998    0.500
        69 -10.2002    205.4872    110.1960   6.9497804767e+01   1.7214629628e+01     0.314607    0.2161107  42.87 0.0007838018    1.525    0.344
        70  -9.8820    134.5719    105.3750   8.3919036480e+01   3.4564811565e+01    0.4589618    0.1492267 -45.93  0.001403047    3.041    0.671
        71 -11.3848     55.7713    212.3356   1.2079383618e+02   2.3977433176e+01    0.2877645    0.2093812  79.19 0.0009126175    1.138    0.121
        72 -10.5246    169.0616    235.8514   1.0182205078e+02   2.5380332401e+00    0.1802248    0.1672413  10.19 0.0003739736    1.203    0.169
        73  -9.3951    182.7953     83.1683   6.6599284161e+01   2.7545979324e+01    0.2189385    0.1880635  13.07  0.001073808    1.338    0.252
        74  -9.1186     67.6557     71.2313   9.4085522556e+01   5.4355671995e+01    0.1865603    0.1134376 -42.60 0.0003204672    1.469    0.319
        75 -11.8776    160.1684     61.6354   6.4793227861e+01   3.6951150682e+01    0.9216412    0.5333499  85.18   0.00173962    3.325    0.699
        76 -11.8000    161.5299     54.8139   6.2360164145e+01   3.7708975690e+01    0.6228312    0.4396359 -81.73 0.0003711221    1.929    0.482
        77 -11.9201    248.8876    248.5885   8.9684529532e+01  -1.1175820937e+01    0.3131131    0.2629633 -15.92  0.002440026    1.474    0.322
        78 -13.0171    178.4998     49.0405   5.7373937336e+01   3.4237968787e+01    0.7770482    0.6017209  45.43 0.0008152843    1.333    0.250
        79  -9.5378     52.6122    208.2840   1.2105480611e+02   2.5174373728e+01    0.2194453    0.1281479  58.06 0.0004280214    1.440    0.305
