#   1 NUMBER                 Running object number                                     
#   2 MAG_AUTO               Kron-like elliptical aperture magnitude                    [mag]
#   3 X_IMAGE                Object position along x                                    [pixel]
#   4 Y_IMAGE                Object position along y                                    [pixel]
#   5 X_WORLD                Barycenter position along world x axis                     [deg]
#   6 Y_WORLD                Barycenter position along world y axis                     [deg]
#   7 A_WORLD                Profile RMS along major axis (world units)                 [deg]
#   8 B_WORLD                Profile RMS along minor axis (world units)                 [deg]
#   9 THETA_WORLD            Position angle (CCW/world-x)                               [deg]
#  10 FWHM_WORLD             FWHM assuming a gaussian core                              [deg]
#  11 ELONGATION             A_IMAGE/B_IMAGE                                           
#  12 ELLIPTICITY            1 - B_IMAGE/A_IMAGE                                       
         1 -15.0029    168.3802     46.5531   6.8868307226e+01   3.7231884760e+01     1.387964     1.146372  -2.93   0.00404816    1.359    0.264
         2 -15.2521    186.6651     13.8214   5.5810357148e+01   3.6507716632e+01     2.202768     1.387423  70.49  0.006884306    1.493    0.330
         3  -9.8880    135.6847    240.4109   1.1736736079e+02   9.2921107600e+00    0.2387697    0.1109025  37.46  0.001270048    1.859    0.462
         4 -19.6510     67.8515    160.3284   1.2155791228e+02   3.4124007912e+01     16.31676     6.286028 -69.19   0.06962217    2.662    0.624
         5 -12.0957     11.6140    205.9799   1.3680253931e+02   3.1109686983e+01    0.2172591      0.14592  45.02  0.001386313    1.471    0.320
         6 -11.5106    219.9973    198.0269   9.5762324235e+01   1.2554864443e+00    0.1924627    0.1651959  18.56 0.0006566605    1.079    0.073
         7 -10.4209    134.1547    196.7901   1.1214278883e+02   1.6574828541e+01    0.1876636    0.1552977  63.28 0.0004143751    1.174    0.148
         8 -11.3107    113.0398    195.1624   1.1623930603e+02   2.0369284230e+01    0.3890371    0.3234062 -17.40  0.001776441    1.787    0.440
         9 -10.8530    152.5444    237.5962   1.1402382650e+02   7.0667348792e+00    0.2248523    0.1424782  26.07 0.0007623888    1.761    0.432
        10 -12.3981    156.5623    189.4835   1.0645233827e+02   1.3910214443e+01    0.2801153    0.2553096 -16.19 0.0005392901    1.267    0.211
        11 -12.1420    147.2957    183.8675   1.0744205854e+02   1.6577631262e+01    0.4764066      0.21652  55.46  0.001885261    2.706    0.630
        12 -13.4093    126.2421    172.7563   1.1013443632e+02   2.2443556270e+01    0.7399548    0.5267242  51.14  0.001861993    1.292    0.226
        13 -12.3498    150.8945    188.6795   1.0748018529e+02   1.5072656240e+01    0.3697594    0.2033804 -52.40  0.001803098    2.129    0.530
        14 -12.9062    153.2301    184.1157   1.0624941905e+02   1.5453184676e+01     0.353952    0.3061818  70.93  0.002129342    1.273    0.215
        15 -14.2598    141.6612    175.6210   1.0725923150e+02   1.9121742596e+01    0.8920312    0.5423282  44.89  0.003805102    1.479    0.324
        16 -14.5472    139.5969    169.1628   1.0659320755e+02   2.0731062657e+01     1.197246    0.4265904  42.50  0.003956158    2.564    0.610
        17 -12.6667    174.4260    184.0727   1.0191967315e+02   1.1538723738e+01    0.4703599    0.1606279 -48.48  0.001715851    3.687    0.729
        18 -11.6674    125.2500    237.2395   1.1888840070e+02   1.1356160273e+01    0.1636497      0.13917 -89.37 0.0004714923    1.359    0.264
        19 -10.3545    238.6467    184.6955   9.0044275125e+01  -1.7230664555e-01    0.1354203   0.08454526  13.22 0.0007040805    1.710    0.415
        20 -11.8012     29.6710    183.4653   1.3207008249e+02   3.3691885782e+01    0.2215659    0.1380002  59.62  0.001242592    1.360    0.265
        21 -10.2896     25.7253    184.8273   1.3294476741e+02   3.3812664166e+01   0.08225432   0.07773694  62.94 0.0002010002    1.397    0.284
        22 -10.8045    160.1908    235.3642   1.1237193740e+02   6.1638335606e+00    0.1675795    0.1525857   2.81 0.0005021662    1.320    0.242
        23 -12.3050    162.5157    181.3641   1.0386283155e+02   1.4220987767e+01    0.2644091    0.2026736 -63.49  0.001454466    1.641    0.391
        24 -13.2790    188.2312    175.7301   9.7642071901e+01   1.0302777643e+01    0.7288636    0.4417227 -52.90  0.001723446    2.191    0.544
        25 -11.4954    186.9701    165.9434   9.5996279207e+01   1.2167294607e+01    0.3998421    0.2874874 -50.07  0.001570261    1.651    0.394
        26 -11.9602      4.5172    178.1599   1.3663652785e+02   3.7037314037e+01    0.1952108    0.1499101  63.59 0.0009443323    1.187    0.158
        27 -11.6279    167.3359    176.7652   1.0205332189e+02   1.4114423437e+01    0.2481944    0.1695338  61.18 0.0008234179    1.750    0.428
        28 -10.3195     11.2405    174.3466   1.3509999471e+02   3.7237197594e+01    0.1325339    0.0930984 -85.57 0.0005361412    1.172    0.147
        29 -11.5840    194.5701    172.3295   9.5744540832e+01   9.6383164256e+00    0.2772165    0.2558477 -39.22 0.0008732682    1.251    0.200
        30  -9.8492    207.2969    170.9308   9.3023891838e+01   7.4249399917e+00    0.2065025    0.1025726 -55.44 0.0007031314    4.297    0.767
        31 -11.1330    108.3767    249.6105   1.2306799721e+02   1.1987089270e+01    0.1084592   0.09886152  74.25 0.0002094107    1.283    0.221
        32 -10.8825     35.9239    168.5552   1.2957028808e+02   3.6105126856e+01    0.2446291    0.1395366  70.43  0.001427273    1.654    0.395
        33  99.0000    134.9047    236.9210   1.1711712738e+02   9.9239741705e+00      0.45224    0.2603459  78.01  0.002166727    3.363    0.703
        34 -10.4130     24.4543    165.5242   1.3175862965e+02   3.7866893410e+01    0.1468066    0.1130554  16.06 0.0008249709    1.899    0.474
        35 -10.5149     13.3113    163.1120   1.3392612187e+02   3.9356586164e+01    0.1513582    0.1014453 -87.78  0.000352297    1.181    0.154
        36 -10.5087    148.2428    228.6129   1.1369596231e+02   9.0506823467e+00    0.1844476    0.1455347 -75.19 0.0006504831    1.673    0.402
        37 -11.5353    187.4049    154.5312   9.3578828900e+01   1.4029467611e+01    0.5711839    0.2528554  38.36  0.002243769    2.265    0.559
        38 -10.2574    132.9847    228.9488   1.1655096742e+02   1.1428956943e+01    0.1661697    0.1302797  48.13  0.001128759    1.009    0.009
        39 -11.2634    174.5645    148.9457   9.5058866735e+01   1.7662521544e+01     0.288376    0.2366794  48.54 0.0006565255    1.192    0.161
        40 -10.0892    126.3828    228.1950   1.1768276073e+02   1.2578233529e+01     0.137236    0.1075907 -87.53 0.0004156708    1.513    0.339
        41 -12.7328    161.1373    128.5649   9.3443649938e+01   2.4368657171e+01    0.5256059    0.4096229 -81.01  0.002488878    1.747    0.427
        42 -12.0511    168.3858    113.2488   8.8089592339e+01   2.5721028607e+01    0.4368129    0.3421049 -59.16  0.001182337    1.477    0.323
        43 -11.0409    231.2844    113.6990   7.6080793109e+01   1.1534920036e+01    0.2576028    0.2284117  11.77 0.0008061299    1.112    0.101
        44 -13.9634    119.0228    110.3580   9.9361010259e+01   3.6892278163e+01    0.7382352    0.5677335  75.04  0.003582012    1.624    0.384
        45 -11.0696    205.3959    110.1136   7.9757426612e+01   1.7814330308e+01    0.3297251    0.2187497  43.31 0.0009505738    1.510    0.338
        46 -12.9060     18.1728    108.8239   1.2759110579e+02   5.0784359582e+01    0.4013443    0.2262481   4.99  0.002171475    2.785    0.641
        47 -11.7322      6.6104    102.1978   1.3004284573e+02   5.3035486201e+01    0.2142165    0.1831387  80.93 0.0008467672    1.187    0.158
        48 -11.9372    168.1149    238.8999   1.1140468051e+02   4.4224786834e+00    0.1758418    0.1376355  51.15 0.0004660596    1.243    0.195
        49 -10.1892    127.4087    222.6631   1.1684870417e+02   1.3298907685e+01    0.1304826    0.1169655 -51.08 0.0006145846    1.408    0.290
        50 -10.7192    218.0000    219.4111   9.9727190088e+01  -1.1264853945e+00    0.2257909   0.06716741 -36.03 0.0009291897    3.890    0.743
        51 -11.0148     23.1289    219.0376   1.3549417806e+02   2.7640126664e+01    0.1746884   0.09621184 -66.83  0.001184528    1.975    0.494
        52 -10.7003    146.9721     82.2853   8.4577958072e+01   3.6575404884e+01    0.2177239     0.199069  41.30 0.0004345001    1.084    0.078
        53 -10.5988     93.7936     79.5444   9.8336432247e+01   4.8182412072e+01    0.2435852    0.1870319 -46.07 0.0002765827    1.236    0.191
        54 -10.3235    141.4510     71.3462   8.2608283150e+01   3.9882274585e+01    0.2441776    0.1860385  76.14 0.0007337232    1.671    0.401
        55 -14.4254    156.0607     60.7969   7.5898453909e+01   3.8164566713e+01     1.370268     1.024535  37.95 0.0009285365    1.376    0.273
        56 -10.7167    113.1281    206.8039   1.1769584406e+02   1.8236846227e+01     0.183361    0.1397664  59.63 0.0005596538    1.149    0.130
        57 -13.2380    173.1360     38.7770   6.5549630643e+01   3.7079846857e+01     0.459671     0.433039  -1.28 0.0008709619    1.120    0.107
        58 -10.9867     13.5925     59.9302   1.2110420275e+02   6.1891315997e+01    0.1760278    0.1692604  55.46 0.0004167852    1.303    0.232
