#   1 NUMBER                 Running object number                                     
#   2 MAG_AUTO               Kron-like elliptical aperture magnitude                    [mag]
#   3 X_IMAGE                Object position along x                                    [pixel]
#   4 Y_IMAGE                Object position along y                                    [pixel]
#   5 X_WORLD                Barycenter position along world x axis                     [deg]
#   6 Y_WORLD                Barycenter position along world y axis                     [deg]
#   7 A_WORLD                Profile RMS along major axis (world units)                 [deg]
#   8 B_WORLD                Profile RMS along minor axis (world units)                 [deg]
#   9 THETA_WORLD            Position angle (CCW/world-x)                               [deg]
#  10 FWHM_WORLD             FWHM assuming a gaussian core                              [deg]
#  11 ELONGATION             A_IMAGE/B_IMAGE                                           
#  12 ELLIPTICITY            1 - B_IMAGE/A_IMAGE                                       
         1 -10.6806     65.9137     20.6231   7.3620906683e+01   6.3784349694e+01    0.5282047    0.4642546  81.05  0.002022703    1.891    0.471
         2 -11.9122     97.5600      6.7615   5.7310977662e+01   5.9187942734e+01     1.036966    0.4735039  35.05   0.00456612    2.238    0.553
         3 -12.4076     55.7826     66.5377   9.5048043169e+01   5.7154652476e+01     1.309308    0.7094336 -54.01  0.006273222    1.746    0.427
         4 -12.1692    115.8683     14.9105   5.6141489121e+01   5.4256747532e+01     1.623722    0.5806836  38.74  0.005716305    3.229    0.690
         5 -12.4274     80.1208     35.5149   7.4881425592e+01   5.9140092021e+01     0.982185    0.6538665  59.09  0.004840771    2.129    0.530
         6 -13.1870     67.9814     30.5887   7.7221353430e+01   6.2004634599e+01     2.427838    0.6294149  40.23  0.008376502    3.915    0.745
         7 -11.7474    106.8241      8.2252   5.5606645484e+01   5.6994973395e+01     2.687621    0.8076294  37.24  0.008254799    4.514    0.778
         8 -12.3609     20.7435     67.6960   1.0872057338e+02   6.0351189695e+01     1.883653    0.7481394 -63.24  0.008719945    2.146    0.534
         9 -13.1621     91.5653     54.7191   7.8389232137e+01   5.3801379626e+01     1.837931     1.185021  42.81  0.005729907    1.599    0.375
        10 -10.9905    117.7839     47.1100   6.7796994263e+01   4.9606626557e+01      1.01938    0.4172781 -26.34  0.003392638    3.005    0.667
        11  -9.6905     50.7658     11.5708   7.5398547329e+01   6.7392408461e+01    0.6510868     0.477947   5.92  0.002866963    1.192    0.161
        12 -10.2296     39.2567     10.7078   8.0092015908e+01   6.9124302994e+01    0.6243272    0.4579722  18.03  0.004148725    1.272    0.214
        13 -10.5467     39.2106      4.6435   7.6999247953e+01   6.9922586868e+01     1.137433    0.4849972  21.12    0.0048918    3.305    0.697
        14 -12.2600     14.7970     34.9642   1.0213855901e+02   6.7516566349e+01     1.158157    0.6715712 -47.62  0.004187775    1.345    0.257
        15 -11.2082     51.5925     25.7175   8.1657608336e+01   6.5265511296e+01    0.7738402    0.6746364  34.84  0.005120287    1.431    0.301
        16  -9.9677     55.4696     17.7625   7.6415952055e+01   6.5855642742e+01    0.3045579    0.2055119 -36.18  0.001114198    1.549    0.354
        17 -12.5004     29.3259     24.5776   9.1241100148e+01   6.8153280482e+01     1.263958    0.8073322 -14.42  0.007267868    1.510    0.338
        18 -11.4429     18.6736     13.8390   9.1886966110e+01   7.0932630762e+01    0.5422055    0.3050055 -33.77  0.002242467    1.409    0.290
        19 -12.2857     25.1180      6.6924   8.5033243273e+01   7.1372915872e+01    0.8853673    0.3963117 -42.04  0.004727021    2.203    0.546
        20 -11.5849     11.7684     25.5914   1.0032192533e+02   6.9470162445e+01    0.4767128    0.1935304 -33.96  0.001018045    2.162    0.538
        21 -11.5835      4.8322     26.1432   1.0402712039e+02   6.9803458853e+01    0.4953571    0.2552093 -25.19  0.002576244    1.827    0.453
        22 -13.3312      4.6552      8.7533   9.7294017203e+01   7.2851876548e+01    0.7749208    0.4473094 -47.67  0.003501674    1.550    0.355
        23 -12.6886     12.7193      4.5327   9.0681715454e+01   7.2894025430e+01    0.5925456    0.4778527 -18.36  0.002007593    1.183    0.155
        24 -10.6436    211.1436     12.7638   4.0789342186e+01   3.0732933296e+01     1.045977     0.362741  57.56  0.004178523    2.744    0.636
        25 -11.0070    215.2853     23.5783   4.3100240278e+01   2.8490745434e+01    0.6272342    0.4350518 -30.25  0.002425147    1.515    0.340
        26 -11.1126    192.9906     32.5913   4.8228752290e+01   3.2907686854e+01    0.4449802    0.3830974   4.68   0.00141661    1.427    0.299
        27 -10.3242    124.1074     22.3907   5.7106133878e+01   5.1495842996e+01    0.9349964    0.4553766  22.20   0.00323384    3.629    0.724
        28 -11.3802    132.0030     19.5045   5.4340284250e+01   4.9912121730e+01    0.6144679    0.4714047  39.61  0.002653749    1.240    0.193
        29 -11.7263      5.5487     18.8171   1.0098580386e+02   7.1086260649e+01    0.4933689    0.3010011  16.78   0.00200001    1.834    0.455
        30 -10.0252    173.5424     30.3426   5.0439918680e+01   3.8153023525e+01    0.5254011    0.3551886   2.78  0.002199562    2.084    0.520
        31 -10.2319    185.9508     25.7026   4.7246401334e+01   3.5544152992e+01    0.8756421    0.3039286 -43.63  0.003191268    2.903    0.656
        32 -10.0065    157.7420      5.4570   4.5103348756e+01   4.4867575977e+01    0.5482262    0.3430754  65.57  0.002812729    1.405    0.288
        33  -9.5025    173.1667     10.8026   4.4621060977e+01   4.0438556949e+01    0.2055247    0.2035211  80.36 0.0004184167    1.121    0.108
        34 -10.7404    164.4309      5.9193   4.4314843245e+01   4.3129697540e+01    0.7317156    0.5708191  30.70  0.003563663    1.456    0.313
        35 -11.7476    171.1248     15.3849   4.6274781759e+01   4.0488718703e+01     1.439693    0.7164044 -71.19  0.005339277    3.165    0.684
        36  -9.9445    158.0535     19.7304   4.9620587475e+01   4.3360376822e+01    0.3615852    0.3021011 -33.15  0.001345757    1.283    0.221
        37 -10.3761    163.4142     16.3871   4.7712479902e+01   4.2352456284e+01      1.18559    0.6075138   5.35  0.004229917    3.821    0.738
        38 -11.3429    154.1125     17.1819   4.9444752361e+01   4.4637525069e+01    0.5977951    0.4022641  28.17 0.0007816664    1.764    0.433
        39 -10.6418    149.5847     15.3567   4.9602878119e+01   4.5974650926e+01    0.7245787    0.4181506 -23.56  0.003086675    1.904    0.475
        40  -9.4778    231.9959     17.2363   3.9905495250e+01   2.5285410498e+01    0.3963551    0.1711446 -56.30  0.001409639    2.359    0.576
        41  -9.4557    198.5504     15.9384   4.2959124829e+01   3.3485813531e+01    0.2532186    0.2088205  25.54  0.001439581    1.536    0.349
        42  -9.3748    222.2394     12.7665   3.9726466952e+01   2.8071992125e+01    0.2736548    0.1960535  62.89  0.001124328    1.426    0.299
        43  -8.8337    233.8096      7.3531   3.7460149875e+01   2.5976090566e+01    0.1847439     0.144543  85.52  0.000537651    1.183    0.155
        44  -9.5415    232.7622     10.6689   3.8308222490e+01   2.5852848468e+01    0.3533297    0.1775085  83.01  0.001715591    1.989    0.497
        45  -8.7845     86.2196     10.6121   6.2173840197e+01   6.1193482297e+01    0.2815656    0.1636516  40.54  0.001465832    1.531    0.347
        46 -10.8129    139.5769      4.6779   4.7665146215e+01   4.9496165099e+01    0.4891385    0.3016794 -15.69  0.001934486    1.856    0.461
        47 -10.0483    133.3354      4.8030   4.8790998143e+01   5.1025360185e+01    0.5403296    0.3969319 -33.23  0.003021668    1.507    0.336
        48  -9.6441    226.4220      7.9353   3.8202772207e+01   2.7617109644e+01    0.2749127    0.2189937  15.51  0.001179693    1.826    0.452
        49  -9.3300     77.4336      8.7281   6.4060504799e+01   6.3130391475e+01    0.2226328    0.1663161  20.55 0.0008774516    1.187    0.158
        50  -8.6937     77.4913      4.9927   6.2294237253e+01   6.3499514114e+01    0.3383749    0.1715269   2.15  0.001464064    2.655    0.623
        51  -9.3388    249.6800      7.1092   3.6208347338e+01   2.2472173655e+01    0.3310167    0.1505891 -64.28     0.001573    2.210    0.548
        52 -10.0125    181.6919      4.4530   4.1721856550e+01   3.8895130627e+01    0.4143721     0.292723  23.15  0.002183767    1.870    0.465
        53 -10.0139    243.8468      5.2866   3.6232791122e+01   2.3946787209e+01     0.314189    0.1943386 -21.56   0.00172175    1.995    0.499
        54  -9.2484    211.3222      4.3633   3.8662756804e+01   3.1573479261e+01    0.3308599    0.2275489  10.08  0.001710383    2.269    0.559
        55 -10.5097    207.4754      3.2018   3.8724432961e+01   3.2620955368e+01    0.5015101    0.2522063 -46.32  0.002250335    1.886    0.470
        56  -8.1838    190.5145      7.4639   4.1563470468e+01   3.6384957479e+01    0.2113427    0.1855473  54.64 0.0006414171    1.213    0.175
        57  -8.9776    189.4481      3.8947   4.0703377762e+01   3.7000693082e+01     0.240881    0.1697602 -52.87  0.001330366    1.415    0.293
        58  -9.2749    217.5866      5.2371   3.8318229042e+01   2.9983150782e+01    0.2617294    0.1829757  33.92  0.000825113    2.007    0.502
        59  -8.9672    220.9592      3.0000   3.7491477486e+01   2.9414774722e+01    0.2304914    0.1559066  84.97 0.0008096356    1.340    0.254
        60  -9.2752     71.6728      4.1236   6.3779511858e+01   6.4696750771e+01    0.3356258     0.248467 -38.09  0.001395046    1.682    0.406
        61  -8.5050     67.2046      5.0652   6.5778641924e+01   6.5422888286e+01    0.2123239    0.1582745 -35.78    0.0010412    1.619    0.382
        62 -10.2455     56.6723      2.3669   6.8334633698e+01   6.7535057976e+01    0.3367888    0.1981847  34.40  0.001165109    1.521    0.343
        63  -8.7986     61.0091      6.0000   6.8510260661e+01   6.6411453221e+01    0.1835063    0.1288297  34.95 0.0005637711    1.312    0.238
        64  -9.7728     62.5273      2.8558   6.6367028349e+01   6.6483078786e+01    0.4153498    0.1990395  25.57  0.001962625    2.308    0.567
        65  -8.6143     83.7607      4.0452   5.9934763982e+01   6.2343897373e+01    0.1716748    0.1484275   6.56 0.0005166188    1.108    0.098
        66  -9.0122    130.8056     10.3949   5.1278081209e+01   5.1136003343e+01    0.2963034    0.1530494  48.16  0.001216337    1.726    0.420
        67  -8.8703    248.2019      1.7963   3.5171753311e+01   2.3367554704e+01    0.1521709     0.143003  58.64  0.001070157    1.383    0.277
        68 -10.6730    200.0086      5.7259   4.0094248829e+01   3.4197293253e+01    0.5522857    0.3260061 -42.72  0.002156346    1.652    0.395
        69 -10.7632     41.7477     53.9535   9.6568443256e+01   6.1401215194e+01    0.2376222    0.2032344   0.26 0.0004715318    1.219    0.180
        70  -9.2580    211.4558    250.3070   9.4044841763e+01  -6.4564444887e+00    0.1993521    0.1263327  47.34  0.001200769    1.802    0.445
        71  -9.6811    124.5518    250.1301   1.0996147913e+02   6.9489866652e+00    0.2409945    0.1392974  28.98  0.001317859    1.963    0.490
        72 -11.8258     42.0063     49.9238   9.5135361230e+01   6.2177032326e+01     1.213986    0.3470478  28.41  0.004549396    3.998    0.750
        73 -12.6139     49.1565     39.1836   8.8263065961e+01   6.3347126659e+01    0.6340839    0.4121684  32.07 0.0006564619    1.672    0.402
        74 -11.8886     56.5322     37.7562   8.4667440622e+01   6.2602399438e+01    0.4927832    0.3865094  13.68  0.001146455    1.255    0.203
        75  -8.8124      3.4478    246.5834   1.3062653788e+02   2.2967196687e+01     0.168139   0.06729119 -69.35  0.001027353    2.559    0.609
        76  -8.8177     91.6805    246.3300   1.1562214258e+02   1.2433887981e+01    0.1237838   0.07074144  64.15 0.0007048065    1.689    0.408
        77  -9.3129     10.8145    144.8531   1.2316412045e+02   4.3176674649e+01    0.2267387    0.1552365 -77.29  0.000902296    1.154    0.134
        78  -9.6609      5.2785    147.0777   1.2467503138e+02   4.3076219481e+01    0.1855921    0.1650669  48.64 0.0007058874    1.362    0.266
        79 -10.3359      6.2743    142.6967   1.2406618511e+02   4.4006672613e+01    0.2642245    0.1847835 -74.93 0.0005650363    1.150    0.130
        80 -11.1116     31.1231    141.4549   1.1774615596e+02   4.2245143682e+01    0.5256514    0.3382179  84.21  0.002958692    1.503    0.334
        81 -10.0003     98.9885    138.9870   9.9262603754e+01   3.3856882653e+01    0.3869185    0.3054773 -33.06  0.001424894    1.494    0.331
        82  -9.3516     47.4846    139.1588   1.1316207069e+02   4.1107807748e+01    0.2920082    0.1904511 -83.23  0.001450117    1.463    0.317
        83 -10.3957      3.0016    137.0121   1.2436503734e+02   4.5536310835e+01    0.4141108    0.2572356 -50.49  0.002556667    1.729    0.422
        84  -9.9108     55.6477    136.6744   1.1059400045e+02   4.0757913433e+01    0.2103327     0.149059 -37.62  0.001065328    1.723    0.420
        85 -10.5139     22.9910    136.4244   1.1925548717e+02   4.4166253943e+01    0.3702318    0.2037655 -65.81  0.002013116    1.485    0.327
        86  -9.1407    236.0117    135.4892   6.7752880263e+01   6.4437159327e+00    0.1978572     0.113513  23.73 0.0007018466    2.487    0.598
        87 -10.1194     66.5473    134.4488   1.0724252751e+02   3.9909485957e+01    0.2539364    0.2146222  83.29 0.0007846794    1.169    0.144
        88 -12.2250     48.1621    125.2006   1.1084033984e+02   4.4407456255e+01    0.8041295    0.7778902 -33.92  0.005266283    1.222    0.181
        89 -11.0924     34.0276    109.9664   1.1248489887e+02   4.9511195154e+01    0.6796823    0.6221157 -11.44  0.003186388    1.330    0.248
        90 -10.2889     34.6511    131.4746   1.1554135268e+02   4.4290502477e+01    0.5343989    0.2457063 -79.20 0.0008257529    2.181    0.542
        91 -11.5818     44.4934    114.0425   1.1002190120e+02   4.7502619038e+01     1.099025    0.5804084  -4.47  0.003922864    4.498    0.778
        92 -11.1210     39.8460    124.3580   1.1307224264e+02   4.5491565590e+01    0.9394609    0.2291335 -56.26   0.00339943    3.113    0.679
        93 -11.5943     30.7267    120.7204   1.1512611250e+02   4.7233682095e+01    0.6861702    0.4872308  44.64  0.001898456    1.579    0.367
        94 -10.4110     62.2731    135.6646   1.0862371754e+02   4.0175578584e+01    0.3772064    0.1771664 -69.88  0.001589836    2.126    0.530
        95  -9.3442     73.3752    129.4411   1.0443185783e+02   4.0182756306e+01    0.2333069    0.2119813 -78.07 0.0001827799    1.021    0.021
        96 -10.8150     55.8632    126.4768   1.0886018399e+02   4.3206353369e+01       0.4557    0.2988587 -47.11  0.001655638    1.544    0.352
        97  -9.5085     60.3571    120.5473   1.0649681509e+02   4.4092427803e+01    0.3138712    0.2272758   8.83  0.001621313    1.892    0.472
        98 -10.1049     75.8436    119.4714   1.0174153989e+02   4.2242561626e+01    0.5844938    0.2800837  48.50  0.002285146    2.419    0.587
        99 -11.6916     66.2427    124.3166   1.0549566161e+02   4.2412417970e+01    0.8898807    0.5092318 -47.58  0.004182301    1.727    0.421
       100  -9.7082     68.4966    115.9221   1.0317793600e+02   4.4142231565e+01    0.2817495    0.2337652 -74.28  0.001072336    1.163    0.140
       101 -11.3058     24.0105     95.7113   1.1320146946e+02   5.3730823602e+01     0.796461    0.5309459  87.32  0.003892896    1.700    0.412
       102 -10.4251     91.3113    121.8408   9.7774952614e+01   3.9253824663e+01    0.5184326    0.3853599 -36.73  0.002559454    1.479    0.324
       103  -8.5638     81.5706    124.5169   1.0113133185e+02   4.0164711314e+01    0.1445068     0.131616 -60.70 7.367982e-05    1.041    0.039
       104 -10.0428    116.2242    116.4023   8.9491913845e+01   3.6007429545e+01    0.2868107    0.2585046 -39.14 0.0006859427    1.114    0.102
       105  -9.8848    105.1428    116.6645   9.2644066973e+01   3.8058212975e+01    0.3637038    0.2814878  81.90    0.0017198    1.635    0.389
       106  -8.5504     81.7752    114.4186   9.8897900366e+01   4.2564068483e+01    0.1971577    0.1434776  18.39 0.0009532346    1.731    0.422
       107 -10.2102     55.8079    113.2875   1.0646793216e+02   4.6410573427e+01     0.316523    0.2791966  62.32  0.001328831    1.238    0.192
       108  -9.2683     63.7567    113.5958   1.0412417017e+02   4.5338975640e+01    0.1799727    0.1293242  46.61 0.0006850919    1.535    0.349
       109  -9.2955     88.2949    119.6909   9.8165301094e+01   4.0264484782e+01    0.2715922    0.2078965  57.09 0.0009218434    1.438    0.304
       110 -10.2325     71.1471    109.7765   1.0106525971e+02   4.5252387983e+01    0.4089546    0.1443136 -56.69  0.001487294    2.532    0.605
       111 -10.4202     68.7921    105.7885   1.0090096274e+02   4.6534869428e+01    0.3527655    0.2279705 -26.93  0.001616729    2.052    0.513
       112  -8.4136    104.3762    109.6401   9.1125675554e+01   3.9837155790e+01    0.3313739    0.2167677 -85.73  0.001264806    2.643    0.622
       113  -9.6390     62.8351    109.1073   1.0347266008e+02   4.6539760808e+01    0.2284262    0.2067511 -25.84 0.0007181023    1.223    0.182
       114  -9.7835     22.8732    108.7017   1.1565640719e+02   5.0755851575e+01    0.3063236    0.1937487  38.81  0.001084952    1.833    0.455
       115  -8.7166     97.7364    107.8087   9.2595823685e+01   4.1469758845e+01    0.1979704    0.1711065  83.59 0.0005070716    1.324    0.245
       116  -9.0854    113.4827    107.5162   8.7983588191e+01   3.8581359863e+01    0.1531526    0.1474119 -37.78 -3.189834e-06    1.028    0.028
       117 -10.0913     51.5205     92.3852   1.0342057569e+02   5.1889075915e+01    0.5169758    0.3829872 -64.46  0.002891384    1.256    0.204
       118 -10.6579     49.7346    102.8650   1.0627724755e+02   4.9616918951e+01    0.5843599    0.4527731 -20.51  0.003307135    1.558    0.358
       119  -9.5510     46.0705     98.5951   1.0657553310e+02   5.1031643859e+01    0.3442493    0.2476339  26.37  0.001374468    1.628    0.386
       120 -11.0377     55.1373     86.4064   1.0076237213e+02   5.2846396327e+01    0.5984536    0.3476065  17.19  0.001681586    2.241    0.554
       121 -10.6797     54.2247    100.3243   1.0430468863e+02   4.9705050449e+01     0.436381    0.3390578  57.62  0.001591973    1.516    0.340
       122  -9.0093     50.5467     97.5007   1.0488494134e+02   5.0798717775e+01    0.2360626    0.1886128 -63.89 0.0006496412    1.126    0.112
       123  -8.6226    110.3092    104.4622   8.8077462448e+01   3.9896473445e+01    0.2796155     0.152301  36.60   0.00111807    1.998    0.499
       124 -11.1567    143.0570    101.2687   7.8367651043e+01   3.3647943791e+01    0.6297211    0.3657073  30.37  0.002286331    2.258    0.557
       125  -9.5950    133.6785    102.0751   8.1005139170e+01   3.5570647096e+01    0.3487308    0.2607439 -42.06 0.0007694886    1.317    0.241
       126  -9.2296    132.5328     98.0371   8.0176775039e+01   3.6687869740e+01    0.3430422    0.2467172 -55.69  0.001050122    1.500    0.333
       127  -8.5667     95.8066    103.2058   9.1993291215e+01   4.2879806928e+01    0.2006122    0.1704422 -12.02 0.0005275245    1.362    0.266
       128 -10.4569     78.5217    101.5825   9.6872257236e+01   4.6111599945e+01    0.5597632     0.374573  24.14  0.002153156    1.790    0.441
       129 -11.2253     72.5419     95.2896   9.7201881703e+01   4.8473969733e+01    0.5856784    0.4010358  51.62  0.002827731    1.740    0.425
       130 -10.7661     74.8617     90.3461   9.5165671071e+01   4.9268202020e+01    0.7070866    0.4357979  49.83  0.003281092    1.964    0.491
       131 -10.7759     64.1111     98.8128   1.0077897700e+02   4.8822936629e+01    0.5006971    0.3965469  78.33  0.002698773    1.558    0.358
       132 -10.4901      4.4064     99.2089   1.1991588165e+02   5.4199177268e+01    0.3278191    0.1982728 -89.25 0.0005845748    1.595    0.373
       133 -11.1019      3.8771     87.8660   1.1849970922e+02   5.6830751158e+01    0.9063751    0.2492271 -62.84   0.00400531    2.384    0.581
       134 -10.3293    141.8187    243.6771   1.0598901409e+02   5.2801853931e+00    0.3108733    0.1967886  28.06  0.001564754    1.662    0.398
       135  -9.5542    156.0532     96.6132   7.3890982256e+01   3.1593835109e+01     0.487063    0.2333527 -32.40  0.001708293    2.390    0.582
       136 -10.5654     39.0990     96.9315   1.0850990013e+02   5.2134540327e+01    0.5681231    0.3085106 -17.83  0.002408492    3.178    0.685
       137  -9.8439     39.4743     92.4615   1.0747315936e+02   5.3148454955e+01    0.2471811    0.2057202 -54.93  0.000589552    1.022    0.022
       138 -11.2944     34.1291     91.3893   1.0904590296e+02   5.3899472701e+01    0.8553501    0.4194315   5.18  0.003634936    3.436    0.709
       139 -11.0603    116.6718     94.7226   8.3576319575e+01   4.0787016042e+01    0.6774725    0.5171304  45.53  0.001701293    1.354    0.262
       140  -9.4213    127.4137     91.7901   7.9751127404e+01   3.9133910083e+01    0.3556689    0.2860973  -6.34  0.001673861    1.509    0.337
       141 -10.0505    123.3775     92.3527   8.1018046587e+01   3.9887921797e+01    0.4460492    0.3561792  67.77  0.001235116    1.492    0.330
       142  -8.6189     93.8644     97.3952   9.1047137717e+01   4.4555694863e+01    0.2005073     0.143014  22.50 0.0007671338    1.681    0.405
       143  -9.5536     87.2371     96.8550   9.2946030965e+01   4.5815126932e+01    0.3601352    0.2126508  45.46  0.001602392    1.864    0.464
       144  -8.4225    228.2776     95.3364   5.9511576425e+01   1.4846283595e+01    0.1433354    0.1119261   2.04 0.0003377924    1.611    0.379
       145  -8.7271    137.0061     95.5093   7.8286894305e+01   3.6225005787e+01    0.2314384    0.1555594  46.08 0.0004255453    1.508    0.337
       146  -8.7999    189.1951     94.0316   6.6035695247e+01   2.4138224247e+01    0.2568643    0.1805697  -3.63  0.001064672    2.048    0.512
       147  -9.7315    104.5709     92.0313   8.6324035569e+01   4.3785853469e+01    0.4453512    0.2915115  12.73  0.001731477    2.372    0.578
       148  -9.5900    106.7015     86.9679   8.4214372836e+01   4.4470948610e+01    0.3486142    0.2064187 -43.91 0.0005916317    1.623    0.384
       149  -9.5260    108.9990     83.9754   8.2636146939e+01   4.4649511442e+01    0.2825226     0.226645 -25.82 0.0008603646    1.299    0.230
       150  -8.8150    174.4823     92.0086   6.8474627100e+01   2.8072005945e+01    0.2246724    0.1413418 -10.79   0.00081027    2.570    0.611
       151 -10.5871     88.9816     89.1239   9.0284990087e+01   4.7269369944e+01    0.6386576    0.4571474 -19.75  0.001501764    1.728    0.421
       152  -9.6155     83.2971     90.0675   9.2358192076e+01   4.8009376332e+01    0.3095903    0.2109675  28.18  0.000802959    1.655    0.396
       153  -9.7231     82.6904     85.8720   9.1379579399e+01   4.9047328101e+01    0.4317814    0.2435733 -35.59  0.001780087    1.901    0.474
       154 -10.6998    194.2168     88.8962   6.3688946620e+01   2.3861049660e+01    0.4368986    0.2764123 -23.63 0.0005066124    1.828    0.453
       155  -9.4253    187.5235     89.5669   6.5149331673e+01   2.5359230981e+01    0.2697078    0.2429961 -77.16  0.001387376    1.194    0.162
       156 -10.0276    112.4645     87.5696   8.2699359933e+01   4.3187433330e+01    0.5289988    0.1740666 -37.89  0.001551381    3.563    0.719
       157  -9.8116     52.8264     81.9909   1.0044600463e+02   5.4128429482e+01    0.4452199    0.2760873 -18.56   0.00209651    2.205    0.547
       158 -11.3775    138.5179     69.9192   7.0144071430e+01   4.0907169325e+01    0.8110889    0.6347268  60.18  0.002127012    1.356    0.262
       159 -10.0767    146.5414     83.8018   7.2451987036e+01   3.6384711376e+01     1.132194    0.5053797 -26.99  0.003483293    3.369    0.703
       160  -9.9056    154.1411     75.0722   6.8017555523e+01   3.6200245003e+01    0.6407049    0.3921548  25.86  0.001905146    2.392    0.582
       161  -9.2299    151.5159     72.0186   6.7685095675e+01   3.7395275494e+01    0.3021363    0.2442928 -46.58 0.0005867401    1.264    0.209
       162 -10.5928    150.5025     67.1626   6.6407170704e+01   3.8504798174e+01    0.5710258     0.478223  -7.50  0.002833743    1.348    0.258
       163 -10.0039    144.3244     77.5333   7.1093069991e+01   3.8113569246e+01    0.4474887    0.2596138 -39.63  0.001472261    1.712    0.416
       164  -8.7916    146.9196     74.9647   6.9674714880e+01   3.7972427974e+01    0.2244564    0.2041029   9.54            0    1.175    0.149
       165  -8.5029    222.7539     86.9989   5.8303861185e+01   1.7476469552e+01    0.1960961      0.11693 -35.63 0.0006777383    1.559    0.359
       166 -10.1671    154.8835     86.0699   7.1132919289e+01   3.3953014993e+01    0.4010876    0.2673214  28.16 0.0009494791    1.902    0.474
       167  -9.9415    130.8613     86.5925   7.7287867618e+01   3.9448128679e+01    0.5018952    0.2480863  54.47  0.001606773    2.302    0.566
       168 -10.9617    135.8837     82.2496   7.4658537770e+01   3.9179635263e+01    0.5846909    0.5206857   4.76  0.002976018    1.220    0.180
       169 -10.4616    119.2602     86.6558   8.0483620603e+01   4.1966257659e+01    0.3758245    0.2687241  44.25 0.0009245101    1.432    0.302
       170  -8.5046    105.6105    102.1849   8.8826960861e+01   4.1316480239e+01    0.2292434    0.1349155 -38.61 0.0009503941    1.768    0.435
       171  -7.9519    202.6582     86.6879   6.1564453913e+01   2.2223603878e+01    0.1549166    0.1185434  16.98 0.0007046288    1.700    0.412
       172  -9.4679     62.0606    102.8545   1.0235743622e+02   4.8134595904e+01    0.2499803    0.2081633 -71.30 0.0003452972    1.176    0.150
       173  -8.8461    160.3814     81.6941   6.8587399571e+01   3.3451752452e+01    0.3631459     0.211593  69.10  0.001352688    2.351    0.575
       174 -10.4055    106.5611     76.9702   8.1196765229e+01   4.6590540612e+01    0.4887127    0.2846214  43.04  0.002116933    1.770    0.435
       175 -10.7637    103.0090     80.9851   8.3520375841e+01   4.6462467236e+01    0.5421958    0.3176619  32.21  0.001536372    1.943    0.485
       176 -10.1455     98.6281     77.1007   8.3664066536e+01   4.8114277149e+01    0.3801033    0.3455385  59.96  0.001085214    1.254    0.203
       177  -9.4151    167.3742     78.5230   6.6126976049e+01   3.2316056838e+01     0.340647    0.2454348 -79.75  0.001039833    1.921    0.479
       178 -10.0146    189.0074     77.7423   6.1601516993e+01   2.7094987834e+01    0.4111245    0.2568744  40.27  0.001090006    1.819    0.450
       179 -10.8379    137.7463     59.2494   6.6870522744e+01   4.2963971925e+01    0.3950512    0.2912191  12.41            0    1.723    0.420
       180 -10.1358    130.6575     74.7203   7.3685256474e+01   4.1841887014e+01    0.4948564     0.278715  65.40  0.001371157    2.595    0.615
       181  -9.9845    129.6489     61.1891   6.9546670724e+01   4.4547750234e+01    0.5090381    0.3002942  69.29  0.001308133    2.495    0.599
       182 -10.2934    106.9851     59.5514   7.5289004517e+01   4.9857131330e+01    0.3157924    0.2806485  -0.88 0.0003991401    1.116    0.104
       183 -11.9126    124.7769     67.4938   7.2925020435e+01   4.4535780734e+01      1.36717     1.184664  39.20  0.007134968    1.149    0.130
       184 -10.0559    101.4027     68.9239   8.0168683357e+01   4.9225630362e+01    0.4545934    0.4034407 -28.19  0.001478445    1.075    0.069
       185 -11.3611    111.8269     63.5592   7.5240329986e+01   4.8105414586e+01    0.5030316    0.3430812 -46.11 0.0003117023    1.532    0.347
       186 -11.0304    114.9869     72.0163   7.7133226340e+01   4.5831011633e+01    0.5336755    0.3729792 -43.79 0.0004406599    1.428    0.300
       187 -10.7988    118.8857     70.5145   7.5537135051e+01   4.5278329802e+01    0.3250051    0.2754543  54.72 0.0005729647    1.259    0.206
       188  -9.8795     90.9530     76.9943   8.6061328020e+01   4.9552820630e+01    0.4846453    0.3201611  -1.12  0.002027804    2.368    0.578
       189  -9.6836      4.9568     77.0330   1.1640649743e+02   5.9226694593e+01    0.2228573     0.182235  62.89 0.0009190902    1.505    0.336
       190 -10.1424      4.1664     72.3664   1.1587059342e+02   6.0307100028e+01    0.3842395    0.1790173 -37.27  0.001541801    2.120    0.528
       191  -9.7530    248.4766     76.9788   5.2223553456e+01   1.3423015908e+01    0.2196261    0.1210819 -36.07 0.0008613989    1.597    0.374
       192  -9.2156    188.5231    243.5587   9.7212676184e+01  -2.1109199796e+00    0.1222981   0.09611782  28.55 0.0001739916    1.009    0.009
       193  -9.5762    214.4792     75.7960   5.6735043396e+01   2.1245111067e+01    0.3394467    0.2442302  84.45  0.001617922    1.680    0.405
       194  -8.9582    204.0746     75.9121   5.8447892654e+01   2.3717658318e+01    0.2356158    0.1811575  21.37 0.0008554015    1.678    0.404
       195 -11.4218     16.8384     84.8931   1.1366892215e+02   5.6751284012e+01    0.7193784    0.2335924 -48.81   0.00300072    2.478    0.596
       196  -9.0863    171.7914     74.3832   6.3992281000e+01   3.1957566711e+01    0.2152355    0.1402621  45.14 0.0004040367    1.584    0.369
       197 -10.1565    165.5205     69.6527   6.3884893903e+01   3.4346999939e+01    0.6556724    0.3389046 -45.59  0.001965235    2.016    0.504
       198  -9.0603    169.9945     70.6184   6.3249479894e+01   3.3061303221e+01    0.2488552     0.180327  40.06  0.000761335    1.477    0.323
       199 -10.5211    107.9715     69.5534   7.8381988095e+01   4.7779166317e+01    0.6017131    0.3910573 -56.90  0.001856196    1.912    0.477
       200  -9.2594    119.2740    239.2228   1.0974755365e+02   9.5375949723e+00    0.2006511   0.07127109  47.57 0.0008742757    2.368    0.578
       201  -9.7808    250.0077     70.4577   5.0508808724e+01   1.4087002353e+01    0.2271493    0.1638479 -37.83 0.0009102873    1.229    0.187
       202  -9.4503    177.9648     69.7794   6.1423285372e+01   3.1206643750e+01    0.3069893    0.2751986 -23.43  0.001179033    1.168    0.144
       203  -9.2584     84.5883     67.8891   8.5246721484e+01   5.2548519025e+01    0.3031901    0.2348638 -49.86 0.0007333247    1.320    0.242
       204 -11.9626     31.8374     42.0258   9.6769489823e+01   6.4757412747e+01    0.8983783    0.5187165  16.68  0.003090191    1.955    0.489
       205  -9.3642    131.7625     67.1177   7.0955957736e+01   4.3002820269e+01     0.261572    0.2134946  43.20 0.0006644455    1.216    0.178
       206  -9.7134    189.8604     64.7697   5.7807727462e+01   2.9049168426e+01    0.2854786    0.2490663  26.35 0.0005957543    1.308    0.236
       207 -11.0746    156.4040     42.4092   5.7242206742e+01   4.0940407504e+01    0.8742459     0.501537 -29.25  0.003827285    1.832    0.454
       208 -10.6784    166.3622     53.6757   5.8849525551e+01   3.6747243434e+01     1.230635    0.2675437 -35.95  0.003442892    4.120    0.757
       209 -10.5187    160.6413     52.0200   5.9461636575e+01   3.8453004479e+01    0.5356197    0.3765019 -21.74  0.002500839    1.587    0.370
       210  -8.9959    207.0661     61.1678   5.4019374978e+01   2.5352510341e+01    0.2624425    0.2009664 -38.56 0.0008378995    1.258    0.205
       211  -9.5831    186.4338     61.5196   5.7481661370e+01   3.0429312241e+01    0.5271423    0.2488529 -59.74  0.001391602    3.597    0.722
       212 -10.1954    185.7168     55.5742   5.5897881094e+01   3.1535926182e+01    0.4003732    0.3220627  80.41  0.001489907    1.300    0.231
       213 -10.8452    183.4827     51.8546   5.5200354592e+01   3.2663850494e+01    0.4670442    0.4008789  26.92 0.0005801612    1.338    0.253
       214  -9.2211    212.5224     59.6484   5.2807050948e+01   2.4257807963e+01    0.3098835    0.2272223  13.44  0.001451599    1.987    0.497
       215  -9.9657    201.5338     59.9329   5.4538061832e+01   2.6903377201e+01    0.2847877    0.2301729  65.80 0.0004468606    1.248    0.199
       216  -9.9460    151.3309     59.6374   6.3840171265e+01   3.9578690618e+01    0.4065273    0.2802319  51.84  0.001131193    1.414    0.293
       217  -9.7364    243.4294     55.6602   4.7813388936e+01   1.7681560370e+01    0.3784313    0.2707724  14.22   0.00185789    2.252    0.556
       218 -10.4380    193.1033     55.0927   5.4536732589e+01   2.9744852455e+01    0.5219088    0.3640424  -2.62  0.001718534    2.050    0.512
       219  -9.7042    174.3291     56.4929   5.8193249541e+01   3.4285447914e+01    0.5559369    0.2937925 -12.16  0.001854333    3.413    0.707
       220  -9.0576    177.0023     49.9709   5.5763280882e+01   3.4594318945e+01    0.3855235    0.2395723 -60.89 0.0008001516    1.974    0.493
       221 -10.8101    173.1519     46.3867   5.5365529922e+01   3.6101064664e+01    0.5640786    0.3839634  49.01  0.001754996    1.469    0.319
       222 -10.2074    136.3956     42.1726   6.1410002603e+01   4.5963583723e+01    0.4227766     0.322151 -81.43  0.002031852    1.745    0.427
       223  -9.4158    140.8055     52.3336   6.3845104323e+01   4.3351912731e+01    0.3307243    0.2742383  55.24 0.0008142604    1.187    0.157
       224 -10.8954    142.1044     44.3535   6.0868682871e+01   4.4246053372e+01    0.5382665    0.3627333  -3.70  0.000666037    1.965    0.491
       225 -11.1109    146.7351     35.2842   5.6824986293e+01   4.4353467629e+01    0.9799735    0.3398286  59.89  0.003408648    2.729    0.634
       226  -9.6053    155.8928     32.5244   5.4138269879e+01   4.2396047995e+01     0.312228    0.2915438 -79.33  0.001781931    1.111    0.100
       227 -12.2311    147.5287     53.5951   6.2734614888e+01   4.1497800525e+01    0.6405824    0.4342699  30.65 0.0002224092    1.730    0.422
       228 -10.3984    145.0321     49.0219   6.1783217417e+01   4.2825678745e+01    0.3929053    0.3092629  36.37 0.0003284887    1.303    0.233
       229 -10.4792    120.7254     54.9224   6.9768444378e+01   4.7670139183e+01    0.5998697    0.4711412   4.43  0.002982218    1.459    0.315
       230 -10.1673    133.5870     54.1175   6.6171648242e+01   4.4809386650e+01    0.6340535        0.367  -7.84  0.002291993    2.934    0.659
       231 -10.3501     71.0994     52.6477   8.4724023174e+01   5.7746977163e+01    0.5229383    0.2707796 -43.36  0.002410691    1.812    0.448
       232  -9.5233     76.1510     51.9516   8.2646599756e+01   5.7054111967e+01    0.3140166    0.1829591  27.15  0.001464073    1.929    0.482
       233 -10.3294    233.4653     55.3517   4.8922610715e+01   1.9963102933e+01     0.383737    0.2651094  44.60  0.001964442    1.744    0.427
       234  -9.0240    223.4974     56.5278   5.0483235129e+01   2.2103929332e+01    0.1425918    0.1279913 -61.43   0.00080994    1.021    0.020
       235 -10.2968    238.3304     52.0802   4.7549844116e+01   1.9328453646e+01    0.2372399    0.2213671 -42.62 0.0005189491    1.131    0.116
       236  -9.3593    236.8988     47.8105   4.6688603493e+01   2.0251960811e+01    0.2186209    0.1917425 -62.88  0.001315797    1.017    0.017
       237 -11.5738     57.9429     48.5591   8.8225157356e+01   6.0463229907e+01    0.6035109    0.5691723 -53.05  0.002821074    1.319    0.242
       238 -10.8163     65.9181     45.4953   8.4006017807e+01   5.9861658175e+01    0.6195469      0.39297 -19.79  0.003120815    1.710    0.415
       239  -8.7303    211.6086     51.0193   5.0664782071e+01   2.5758259431e+01    0.3911281    0.2279805 -20.69  0.001694488    2.117    0.528
       240  -9.3785     10.1022     52.0790   1.0921773907e+02   6.4380197245e+01    0.1758349    0.1489231 -24.96 0.0003773498    1.214    0.176
       241  -8.9745     55.6861    237.6467   1.2141734678e+02   1.8801544459e+01    0.1423511    0.1320425 -44.75  0.000810225    1.697    0.411
       242  -8.3603     16.6406     50.6880   1.0608037304e+02   6.4262388086e+01    0.1313223   0.06936523 -33.90  0.000704246    1.744    0.427
       243  -9.0714    194.3332     48.7474   5.2562155627e+01   3.0372324964e+01    0.3662647    0.2263782 -14.28  0.001561991    2.183    0.542
       244  -9.8584    178.2687     44.3840   5.3882898607e+01   3.5077767560e+01    0.3350886    0.2465117  74.95 0.0008813781    1.393    0.282
       245 -10.2431    206.5528     46.1361   5.0065713919e+01   2.7695272256e+01    0.4414971    0.1995502  58.20 0.0009722368    2.152    0.535
       246  -9.2009    128.2893     45.3977   6.4468826172e+01   4.7436745103e+01    0.4164701    0.2845471  31.62  0.001951814    1.587    0.370
       247  -9.8654    105.9894     42.9316   6.9563907187e+01   5.2857251201e+01    0.4657743    0.4343819   7.55  0.002715468    1.024    0.023
       248  -9.5151     95.1501     46.1337   7.4065286819e+01   5.4586057317e+01     0.331734    0.2223228 -11.51 0.0009043967    1.757    0.431
       249  -9.8120     98.0060     41.7740   7.1513164510e+01   5.4709599826e+01    0.3646902    0.2819709  -4.54 0.0009927893    1.355    0.262
       250  -9.6742    100.4149     38.2000   6.9401938467e+01   5.4756322694e+01    0.3664681    0.3106688  61.90  0.001475639    1.396    0.284
       251 -10.1029     74.9760     46.2032   8.0923788652e+01   5.8280533417e+01    0.3829811    0.2536578  20.67  0.001386784    1.669    0.401
       252 -10.0247     76.3915     41.7570   7.8695717588e+01   5.8799330116e+01    0.3083668    0.2136358 -32.51 0.0009318995    1.357    0.263
       253  -8.7377      6.7571     46.9784   1.0934560091e+02   6.5620426475e+01    0.1660711    0.1143353 -54.06 0.0005210559    1.140    0.123
       254 -10.0322     14.0762    237.4465   1.2854672827e+02   2.3540743192e+01    0.2094774    0.1230842 -75.37  0.001484092    1.672    0.402
       255  -8.3707    220.6797    237.6407   9.0457081207e+01  -6.2733240385e+00    0.1265262   0.07771921   8.27 0.0005480027    1.766    0.434
       256  -8.6056    172.3264    237.3477   9.9356116364e+01   1.3460726372e+00    0.1257753   0.08767972  10.49 0.0007049647    1.752    0.429
       257  -8.8784     20.9669    232.3455   1.2714396164e+02   2.3767745515e+01    0.1478164    0.1063755  63.80 0.0005909523    1.100    0.091
       258  -9.2213     12.6249    231.9393   1.2852767471e+02   2.4693343407e+01    0.2323693   0.08434332  52.94  0.001336448    2.038    0.509
       259  -8.4738    227.0013    231.5313   8.8340572365e+01  -6.4533710077e+00    0.1802708   0.09846482  33.18 0.0005511674    1.544    0.352
       260  -8.8476    219.6180    230.8996   8.9560665386e+01  -5.2582848552e+00    0.1929633    0.1255685  36.61 0.0004532102    1.376    0.273
       261 -11.3500     36.4444     27.1217   8.8965780673e+01   6.6962810182e+01    0.3689949     0.233274  -4.94 0.0003530506    1.704    0.413
       262  -9.3329    135.7835    230.2227   1.0546269796e+02   8.4395415836e+00    0.1660717    0.1425229  18.04   0.00107049    1.350    0.259
       263  -9.1554    202.1128    228.9849   9.2466040072e+01  -2.2631752543e+00    0.1856426    0.1503427  22.88   0.00041483    1.006    0.006
       264  -8.4447    137.4468    224.4657   1.0437518410e+02   9.1548567696e+00    0.1279264    0.1087539  43.66 0.0008070045    1.035    0.034
       265  -9.1998     41.1262    221.3396   1.2289536055e+02   2.3640152401e+01    0.1864216    0.1353263 -76.24 0.0009079835    1.392    0.281
       266  -8.6793    224.6677    215.3420   8.6006907565e+01  -3.9716302237e+00    0.1113237    0.1016511  70.46  0.000705109    1.752    0.429
       267  -8.9379     13.4299    212.2362   1.2738215010e+02   2.8381587740e+01     0.160643   0.07878807  83.85 0.0009508082    1.720    0.419
       268  -9.8142    248.9890     44.0491   4.4504777862e+01   1.8081014987e+01     0.225755    0.1915682 -25.64 0.0007195306    1.319    0.242
       269  -9.0332    219.6571     42.8267   4.7491923552e+01   2.4964946968e+01    0.2020321    0.1131156 -42.43 0.0006103981    1.645    0.392
       270  -9.2863    220.3551     29.2247   4.3972671436e+01   2.6579312335e+01    0.2787858    0.1542756 -52.36 0.0007442242    1.742    0.426
       271  -9.4536    214.9220     40.2544   4.7417650308e+01   2.6456107403e+01    0.4973141    0.3210994 -14.05  0.001615844    2.069    0.517
       272  -9.1354    233.8361    199.8452   8.1534008143e+01  -3.2730160596e+00      0.16064    0.1495655 -12.00  0.001067274    1.303    0.232
       273 -10.5963    220.8742     35.2125   4.5418431041e+01   2.5690557580e+01    0.6591381    0.3744239  62.26  0.003197478    1.749    0.428
       274 -10.6751    225.7350     28.3075   4.3170540411e+01   2.5415982915e+01    0.5829605    0.3116843 -45.00  0.002592204    1.697    0.411
       275 -10.7949    211.2537     31.3238   4.5547042274e+01   2.8518316515e+01    0.7923755    0.4352759  47.80   0.00360082    2.101    0.524
       276  -9.3227     27.4822    193.5000   1.2350318420e+02   3.0820783786e+01    0.2195171    0.1699256  81.08  0.001154435    1.025    0.025
       277  -9.6757    211.4213     17.4931   4.1963060900e+01   3.0138775594e+01    0.4441953     0.180064  63.50  0.001501425    2.261    0.558
       278  -8.4920    224.7415     41.8304   4.6628722191e+01   2.3890921662e+01    0.1938601    0.1870553  39.23 0.0006642156    1.231    0.187
       279  -8.5508    197.1716     41.7928   5.0203208814e+01   3.0636497926e+01    0.1804962    0.1600108  42.95 0.0002705945    1.248    0.199
       280  -9.6994    190.0486     40.3418   5.0838926653e+01   3.2633746860e+01    0.4519191    0.1952494  54.67  0.001785067    2.217    0.549
       281 -10.1187    173.8624     39.2349   5.3078733156e+01   3.6917632192e+01    0.3618547    0.3143142  40.86  0.001170778    1.214    0.176
       282  -8.4825    112.5104     41.4807   6.7174268159e+01   5.1653603368e+01    0.2130078    0.1781829 -69.33  0.001005485    1.570    0.363
       283  -8.3456    110.5118     38.4923   6.6605804931e+01   5.2538340408e+01    0.1404633    0.1342147  17.34 0.0008096689    1.065    0.061
       284  -9.1195    235.6274     39.3292   4.4793789232e+01   2.1696503269e+01    0.2254441    0.1679536 -23.20  0.001142036    1.522    0.343
       285  -8.8528    202.1561     37.8974   4.8444237497e+01   2.9914140670e+01    0.2116055    0.1755403 -73.69 0.0002408053    1.175    0.149
       286  -9.1838    198.0379     36.9893   4.8755279700e+01   3.1065059104e+01    0.2230983    0.1690084  32.31  0.001129239    1.643    0.391
       287 -10.1445    198.7522     32.1802   4.7339438861e+01   3.1508821799e+01     0.296618    0.1971617 -29.78 0.0006999137    1.576    0.366
       288  -9.0336     33.0415    191.9844   1.2225884721e+02   3.0559647188e+01    0.1704835     0.128412 -54.38 0.0005756406    1.668    0.400
       289 -10.8199    105.7835     34.1917   6.6281599431e+01   5.4189406098e+01    0.3808865     0.235581  44.57 0.0002341377    1.527    0.345
       290  -9.9398    108.6299     29.5475   6.3684548387e+01   5.4192117276e+01    0.4172384    0.3048955  71.04  0.002112118    1.734    0.423
       291  -9.6236     11.5503    192.2546   1.2656757005e+02   3.2629739544e+01     0.205015    0.1387156  49.75  0.001415216    1.414    0.293
       292 -10.6474    129.0509     23.3238   5.6352863701e+01   5.0200435207e+01    0.4374446    0.2389619  60.77  0.001386023    1.750    0.428
       293  -9.8094     10.6871    184.8869   1.2627024694e+02   3.4265793305e+01    0.2949121     0.224309   1.54  0.001960173    2.267    0.559
       294  -9.8870    242.2512     24.6014   4.0691259880e+01   2.2077764683e+01    0.2903286    0.1981205 -34.73  0.001184295    1.436    0.303
       295 -10.8046    245.4843     33.2389   4.2370383424e+01   2.0276129177e+01    0.7728902    0.2923334  70.60  0.002849565    2.783    0.641
       296 -10.0691    234.6640     33.6524   4.3537825152e+01   2.2661016694e+01    0.2939161    0.2330743  41.27 0.0009313362    1.600    0.375
       297 -10.7872    236.1039     28.0491   4.2065650460e+01   2.3041660493e+01     0.474286     0.378985  21.88  0.002018731    1.800    0.445
       298  -9.8347    134.8752     33.8492   5.8846850804e+01   4.7481842348e+01     0.325653     0.231748  28.86 0.0006475449    1.537    0.349
       299  -9.1683    138.4905     31.0722   5.7090215404e+01   4.6951719898e+01    0.2014133    0.1921319 -21.91   0.00116452    1.108    0.097
       300  -8.8466     24.3247    183.4883   1.2338616159e+02   3.3292484512e+01     0.209604   0.09093073 -76.78 0.0008424128    1.961    0.490
       301  -9.6420    188.5230     19.6706   4.5192408176e+01   3.5590656041e+01    0.3441259    0.1853641  50.15 0.0008012493    1.920    0.479
       302  -8.3676     18.3166    182.6431   1.2456661009e+02   3.4053706252e+01    0.1284926    0.0666437  69.05 0.0007044841    1.750    0.429
       303  -8.8318     36.9973    179.5066   1.2035042253e+02   3.2859172876e+01    0.1830948   0.07085663  54.86 0.0008105275    2.579    0.612
       304  -9.7789      1.8268    178.3693   1.2763900173e+02   3.6406582468e+01    0.2756761    0.1258362 -85.91  0.001552522    1.755    0.430
       305 -10.3068    179.6915     25.2054   4.7981633522e+01   3.7200201781e+01    0.3254341    0.2191171  48.29 0.0001494852    1.525    0.344
       306  -8.5623     80.0144    176.4870   1.1026998151e+02   2.8074049512e+01    0.1702028    0.1226341   2.30 0.0008095246    2.462    0.594
       307  -9.3595     50.6827    173.8427   1.1672626893e+02   3.2576876024e+01    0.1887515     0.174544  40.71 0.0005894784    1.330    0.248
       308  -8.4291     65.4689    173.4560   1.1326701926e+02   3.0797108657e+01    0.1319357    0.1131344  83.00 6.862093e-05    1.007    0.007
       309 -10.1640    183.7404     33.5459   4.9827098189e+01   3.5137463504e+01     0.406255    0.2152605  58.44 0.0006676094    1.767    0.434
       310 -10.4191    179.2435     30.2086   4.9522320122e+01   3.6708523699e+01     0.469842    0.3349785  75.39  0.001748457    1.375    0.273
       311 -10.7004     18.7083    166.7605   1.2324630118e+02   3.7526387969e+01    0.3568553    0.1834385 -65.53  0.002002261    1.711    0.415
       312 -10.2669     32.3581    166.1210   1.2011458501e+02   3.6366937883e+01     0.219976     0.181585  36.32 0.0004824947    1.449    0.310
       313  -9.1800     13.0854    165.5014   1.2438442895e+02   3.8299128372e+01    0.1456554    0.1117614  41.27 0.0004058379    1.485    0.327
       314 -10.1043      2.0671    159.1177   1.2632757605e+02   4.0596721153e+01    0.4015264    0.1516801  87.61  0.001853514    2.563    0.610
       315 -10.1005    167.5780     28.5481   5.0846208741e+01   3.9903490985e+01    0.3852213    0.3009548 -16.42  0.001039687    1.454    0.312
       316  -9.4919    146.5202     29.2871   5.4845164692e+01   4.5172710641e+01     0.415978    0.2779862  65.69  0.002019595    1.465    0.317
       317  -9.5348    147.3861     23.9448   5.2875635174e+01   4.5591980821e+01    0.2693443    0.2100293  49.13 0.0006605275    1.200    0.167
       318  -9.5508    203.2633     28.6939   4.5821075024e+01   3.0819293323e+01    0.3923577    0.2336824 -12.19  0.001486188    2.368    0.578
       319  -9.0339    204.3397     23.0029   4.4176705359e+01   3.1240186017e+01    0.3353215    0.1363489 -31.71   0.00137857    2.408    0.585
       320 -10.3632    113.1526     32.7630   6.3715121569e+01   5.2750870967e+01    0.5396405     0.336295   1.14 0.0004096771    2.168    0.539
       321  -9.5251    153.2585     24.7904   5.2087235340e+01   4.4008528121e+01    0.3354061    0.2448894 -37.65  0.001735821    1.447    0.309
       322  -8.6604    250.1049     25.5037   4.0204108236e+01   2.0234773661e+01    0.1765845    0.1176101  80.58 0.0005544109    1.503    0.335
       323  -8.5056    139.8260     24.3447   5.4470264886e+01   4.7437865639e+01    0.2692316     0.101685 -28.83  0.001010169    2.725    0.633
       324  -9.8245     97.3996     22.6238   6.4041453718e+01   5.7507831830e+01    0.3433007    0.2288475  34.67  0.001172677    1.412    0.292
       325  -8.7337     72.5217     16.2256   6.9194581976e+01   6.3194553093e+01     0.406151    0.1482384  37.90  0.001652242    2.738    0.635
       326  -9.3591     74.6071     19.0357   6.9739432954e+01   6.2463839242e+01     0.240887      0.17239  39.36 0.0005157315    1.348    0.258
       327  -9.0170     82.6894     20.8742   6.7821561508e+01   6.0709823551e+01     0.339949     0.222143  25.98  0.001804537    1.509    0.337
       328  -9.0981     79.5002     19.0000   6.8051031168e+01   6.1555751545e+01    0.4064201    0.1329053  48.09  0.001477001    2.897    0.655
       329 -10.1727     22.8004    159.1623   1.2165022069e+02   3.8881862681e+01    0.2307765    0.1381331 -61.53 0.0009808991    1.568    0.362
       330  -9.5961    229.9945     19.9980   4.0742022364e+01   2.5425932292e+01    0.3376421    0.2503535  86.66  0.001969898    1.272    0.214
       331 -10.4372    247.4659     18.9361   3.8965079127e+01   2.1603928039e+01    0.5318962    0.2368457  76.47  0.001830855    2.301    0.565
       332  -8.4024     28.5285    158.4398   1.2024313772e+02   3.8511532729e+01    0.1240785    0.1000272 -88.91 8.688213e-05    1.014    0.013
       333  -9.1449    125.8725     15.5844   5.4184345350e+01   5.1816416683e+01    0.2534694    0.1803473  35.73 0.0007949934    1.369    0.269
       334  -8.9102    185.3563     13.8673   4.3951204019e+01   3.7026639977e+01    0.2359264    0.1619143  82.02 0.0005751318    1.392    0.282
       335  -9.3513    243.0506     13.2044   3.8045379336e+01   2.3244547141e+01    0.2397162    0.1637032  73.63 0.0009714832    1.445    0.308
       336  -9.3303      7.9993    151.4019   1.2439752522e+02   4.1890672963e+01    0.2186085    0.1324873 -72.21 0.0006077595    1.337    0.252
       337  -9.5933     67.2871     12.8847   6.9518138179e+01   6.4534046069e+01    0.2732639    0.1720939  49.44 0.0009850695    1.760    0.432
       338  -8.9300     11.3161    153.3222   1.2379003712e+02   4.1196206646e+01    0.1812423    0.1537216 -82.45 0.0007052445    1.152    0.132
       339 -11.1106     14.5392    151.2964   1.2285948700e+02   4.1400835472e+01    0.4286376    0.2055156  68.30  0.001533297    2.221    0.550
       340  -8.5007    228.4529     11.4841   3.8865089542e+01   2.6757369268e+01    0.1292821     0.110555 -72.93 9.225132e-05    1.015    0.015
       341 -10.5225     31.0826    151.4785   1.1890216584e+02   3.9884936819e+01    0.3190877    0.2576892   7.48   0.00141554    1.762    0.433
       342  -8.5388     45.8610    150.2520   1.1508457882e+02   3.8634007103e+01    0.1653542    0.1361426 -56.06 0.0004034972    1.292    0.226
       343  -8.3885     76.4892    149.5101   1.0711867685e+02   3.4887339219e+01    0.1413996    0.1241899  88.50 0.0005889325    1.049    0.047
       344  -9.3931     67.4832    148.0159   1.0921996185e+02   3.6505248985e+01    0.2139203    0.1244836 -67.54 0.0008139374    1.589    0.371
       345 -10.0519     17.9355    147.8580   1.2172674056e+02   4.1914451131e+01    0.2098227     0.140105 -79.68 0.0003708083    1.197    0.165
       346  -9.1808     45.4150    144.7785   1.1448254323e+02   3.9988707336e+01     0.230929    0.1633602 -27.15  0.001029709    2.078    0.519
       347  -9.7743     40.3633    146.3441   1.1598226474e+02   4.0159850532e+01    0.2514431    0.2420905 -44.68  0.001024254    1.297    0.229
       348 -10.3401     38.2254    143.0534   1.1611492266e+02   4.1165566883e+01    0.3100308    0.2760516   2.06  0.001325446    1.508    0.337
       349 -11.0363     82.0209     75.4666   8.8518303758e+01   5.1416431810e+01    0.3447303    0.2882255 -79.68 0.0003268218    1.554    0.356
       350 -10.1145    236.1473    249.3423   8.9588937563e+01  -9.8648645318e+00    0.3107353    0.1257431  39.55  0.001621863    2.200    0.545
       351 -12.9442     12.3468    125.2685   1.2079979061e+02   4.7623074498e+01     1.818541    0.6506388 -87.32 0.0001116675    3.531    0.717
       352 -11.1691     19.2373    119.3942   1.1820137790e+02   4.8501113031e+01     1.078302    0.5444599  83.13  0.005071156    2.390    0.582
       353 -12.5428     11.6496    107.2936   1.1880742392e+02   5.1886726502e+01     1.468538    0.4008917 -51.33  0.005647048    3.054    0.673
       354  -9.6251    182.9944    249.6203   9.9086025717e+01  -2.0651085870e+00    0.2844357   0.09238676  39.39  0.001250235    2.445    0.591
       355 -11.6592      6.7225     58.0198   1.1201865996e+02   6.3308087870e+01    0.9702743    0.5907342  83.23  0.005190878    2.536    0.606
       356 -11.6719     32.7018     58.8916   1.0173447894e+02   6.1280997613e+01    0.5722873    0.4137118  -4.76 0.0009931271    1.547    0.354
       357 -12.1756     73.1513     69.0275   8.9539125672e+01   5.4188915519e+01     1.607728     1.071606 -19.91  0.006187558    1.788    0.441
       358  -9.2996    150.6615    249.3175   1.0502379201e+02   3.0300835108e+00    0.1211084   0.08103479  60.51 0.0003809055    1.705    0.413
       359 -11.6260     30.6362     72.8296   1.0619606062e+02   5.8442302638e+01    0.8110182     0.283354 -50.22  0.003546079    2.194    0.544
       360 -11.9155     39.7333     65.7462   1.0090643439e+02   5.9148837387e+01     1.137644    0.5571043 -39.28   0.00546336    1.892    0.471
       361 -11.8629     27.8185     85.0043   1.0990470751e+02   5.5918199294e+01     1.473295    0.6326491   0.74  0.005305862    5.065    0.803
       362 -11.0217    113.6005     22.9900   5.9833375680e+01   5.3885114723e+01    0.4775798     0.319783  60.55  0.001299347    1.526    0.345
       363 -10.1501    107.1157    248.6788   1.1302170966e+02   9.8011197210e+00      0.29701    0.1737046  61.20  0.001741782    1.658    0.397
