#   1 NUMBER                 Running object number                                     
#   2 MAG_AUTO               Kron-like elliptical aperture magnitude                    [mag]
#   3 X_IMAGE                Object position along x                                    [pixel]
#   4 Y_IMAGE                Object position along y                                    [pixel]
#   5 X_WORLD                Barycenter position along world x axis                     [deg]
#   6 Y_WORLD                Barycenter position along world y axis                     [deg]
#   7 A_WORLD                Profile RMS along major axis (world units)                 [deg]
#   8 B_WORLD                Profile RMS along minor axis (world units)                 [deg]
#   9 THETA_WORLD            Position angle (CCW/world-x)                               [deg]
#  10 FWHM_WORLD             FWHM assuming a gaussian core                              [deg]
#  11 ELONGATION             A_IMAGE/B_IMAGE                                           
#  12 ELLIPTICITY            1 - B_IMAGE/A_IMAGE                                       
         1 -13.7631    206.8216     25.0495   2.9424443637e+01   3.0821171583e+01    0.8801391    0.7467636 -52.76  0.004327521    1.111    0.100
         2 -12.1427     84.7304    185.9064   9.2802564252e+01   2.4941320739e+01    0.4021493     0.329376  49.37   0.00139906    1.119    0.106
         3 -14.3963    245.9086    236.2657   6.7775603340e+01  -7.2097723512e+00     2.025387    0.6425935 -32.41   0.01000937    3.002    0.667
         4 -16.2578    120.9185    234.8803   9.0784657993e+01   9.7652258175e+00     5.204556     3.827288 -61.20   0.03262192    1.637    0.389
         5 -11.7273     78.0996    184.3182   9.4236908396e+01   2.6267634971e+01    0.5611912    0.4783908  53.90   0.00242107    1.072    0.067
         6  -9.7333     68.0308    193.5253   9.7807645432e+01   2.5574817885e+01    0.1795871    0.1187553  40.24 0.0009594468    1.389    0.280
         7 -10.3558     60.4689    187.9310   9.9030305735e+01   2.7842838134e+01    0.2950762    0.1285024 -75.33  0.001236873    2.515    0.602
         8 -12.0209     72.0845    187.7669   9.6154595974e+01   2.6325881362e+01    0.3727157    0.2259167  85.86  0.001028075    1.963    0.491
         9 -11.3167    161.1178    185.6698   7.4966369625e+01   1.2473496461e+01    0.3209245    0.1963518 -53.98  0.001045116    1.890    0.471
        10  -9.9953     55.6497    237.7258   1.0455385867e+02   1.7970507032e+01    0.1036555   0.09094547  -0.24 0.0007002059    1.634    0.388
        11 -10.1972     91.3561    184.6270   9.0994700978e+01   2.4237074799e+01    0.2546171    0.1639325 -60.50   0.00071557    1.613    0.380
        12 -10.4205    175.9668    183.4979   7.1478017614e+01   1.0361257964e+01    0.2084315    0.1265891  37.80 0.0007301901    1.593    0.372
        13 -11.5120     66.2678    181.4156   9.6839754652e+01   2.8586195315e+01    0.3838891    0.2875013 -32.60  0.001280799    1.836    0.455
        14 -11.9098    154.2358    177.4053   7.4966165029e+01   1.5260170767e+01    0.4799316    0.1992975 -53.05  0.001825221    2.803    0.643
        15 -18.3504     33.0039    126.8645   9.9149342908e+01   4.6095159050e+01     17.54766     4.258886 -72.57   0.05108047    4.479    0.777
        16 -11.0049    172.6244    178.4051   7.1223637601e+01   1.1864069968e+01    0.2477401    0.2463668 -36.49 0.0005447765    1.152    0.132
        17 -11.0538    179.3153    174.6823   6.9150935602e+01   1.1395060732e+01    0.3539678     0.281217  83.48  0.001230953    1.968    0.492
        18 -10.9940    182.3047    173.6633   6.8353926927e+01   1.1064311390e+01      0.40419    0.2274668 -49.44  0.001680029    1.956    0.489
        19 -10.5242      3.5023    176.1567   1.1200023462e+02   3.6583944258e+01    0.1037628   0.08546672  31.91 -0.0002976701    1.410    0.291
        20 -10.4136     62.4144    172.5171   9.6736421609e+01   3.1207444613e+01    0.2549712    0.2316326  17.79  0.001525477    1.318    0.241
        21 -11.2161     70.1535    233.9785   1.0127278630e+02   1.6882621201e+01    0.1535089    0.1421862  83.76 0.0006161273    1.218    0.179
        22 -10.5974     72.2453    202.7649   9.7821428307e+01   2.2968416805e+01     0.200007    0.1516813  82.17 0.0006455993    1.319    0.242
        23 -11.3396     51.6006    198.4396   1.0221693677e+02   2.6578197444e+01    0.2650449    0.2173554 -26.53 0.0008698564    1.749    0.428
        24 -11.1631     60.7293    197.6657   9.9991084467e+01   2.5608288036e+01    0.2367423    0.1991389   2.32 0.0009720704    1.620    0.383
        25 -10.4982    107.9259    163.4676   8.3477853612e+01   2.6400177611e+01    0.2227833    0.1391774  38.11 0.0006562541    1.560    0.359
        26 -11.0873    112.1993    150.6445   7.9988450163e+01   2.8629558787e+01    0.5537504    0.3262812  81.67  0.001837139    3.667    0.727
        27 -11.4827    133.7680    146.0952   7.3571271802e+01   2.5641467599e+01     1.126524     0.288788 -55.48  0.002577694    6.427    0.844
        28 -11.6170     94.4533    149.8714   8.4603677609e+01   3.1896509014e+01    0.3151948     0.267962  36.67 0.0003783095    1.208    0.172
        29 -12.9473     98.9180    145.0439   8.2465559395e+01   3.2302497079e+01    0.7352812    0.4068191 -43.83  0.001243901    2.003    0.501
        30 -10.1529    110.2177    138.9430   7.8144669754e+01   3.1739590651e+01    0.4622181    0.2726404 -80.67  0.001264303    2.981    0.665
        31 -12.2383    112.0523    130.9245   7.5909074912e+01   3.3286779101e+01    0.7402852    0.4822452  -0.32  0.001668046    3.183    0.686
        32 -12.0501    105.7555    130.7408   7.7608909763e+01   3.4511426896e+01    0.4880282    0.3836622 -65.84  0.001513322    1.309    0.236
        33 -11.0439    119.0121    136.9434   7.5367219332e+01   3.0554967421e+01    0.3167581     0.241872  84.47 0.0004847028    1.663    0.399
        34 -10.6270    116.3355    133.6812   7.5362711774e+01   3.1824770258e+01    0.3003755    0.2368007  86.45 0.0008804183    1.540    0.351
        35 -10.2041    145.1184    138.7914   6.9241636996e+01   2.5013104156e+01    0.2219028    0.2002697  79.40 0.0004874148    1.220    0.181
        36 -11.8257     98.6133    131.6207   7.9817982554e+01   3.5599076954e+01    0.2827218    0.2606215 -43.16 0.0005998911    1.136    0.120
        37 -10.0702    116.0280    125.9731   7.3699381594e+01   3.3678117953e+01    0.2325766    0.2286088 -25.86 0.0007058817    1.073    0.068
        38 -10.4325    104.2186    120.8671   7.5801942612e+01   3.7148452587e+01    0.2674925    0.2290701 -19.97  0.000633022    1.381    0.276
        39  -8.1358      2.3406    195.5304   1.1328015621e+02   3.2304003896e+01    0.1757073    0.1052171  33.65  0.001061004    1.681    0.405
        40 -10.5625     89.7853    115.5886   7.8842103989e+01   4.1054949974e+01    0.2164175    0.1374218  50.52 0.0009432727    1.683    0.406
        41  -9.9971    205.1939    110.1999   5.0441963897e+01   1.8287962879e+01    0.2038182    0.1865015 -14.78 0.0006563616    1.154    0.134
        42 -11.6840    118.9567    110.2830   6.9065587866e+01   3.6684241545e+01    0.4534426    0.3434867 -86.93  0.001310223    1.724    0.420
        43 -12.8412     59.8725    228.0408   1.0293564591e+02   1.9331720927e+01    0.2372292     0.222133  22.82  0.001256352    1.351    0.260
        44  -9.6875    153.3080     85.3500   5.3856602620e+01   3.4243793428e+01    0.1525933    0.1215085   7.01 0.0007043548    1.710    0.415
        45 -10.0131     70.9821     82.5127   7.6470098351e+01   5.2103924893e+01    0.2040224    0.1441004  36.80 0.0003442461    1.478    0.323
        46 -12.9763    169.1239     65.3869   4.5149877809e+01   3.4016340441e+01    0.4782067    0.4528289  89.67 0.0009301215    1.048    0.046
        47 -13.8015    184.5791     51.6376   3.8904242252e+01   3.2461767097e+01     1.184089    0.9128082  30.56  0.004379619    1.739    0.425
        48 -12.0321    189.9495     45.7742   3.6604272747e+01   3.2033414386e+01    0.3683924    0.3364925  16.20 0.0009372511    1.397    0.284
        49 -11.6425     88.4867    220.7594   9.6088972539e+01   1.7002092478e+01    0.5131702    0.3378694  13.65   0.00224277    2.136    0.532
        50 -10.4508     86.2365     33.0909   5.3524112974e+01   5.8587741432e+01    0.2799664    0.1877295  55.95 0.0006039618    1.512    0.339
        51 -10.6564     63.4907    236.7278   1.0287600088e+02   1.7200110777e+01    0.1367879    0.1059483 -52.73 0.0008885759    1.667    0.400
        52 -10.3726     89.2069    192.2722   9.2552430754e+01   2.2856900070e+01    0.4295709    0.2333355  84.70  0.001683485    3.097    0.677
