#   1 NUMBER                 Running object number                                     
#   2 MAG_AUTO               Kron-like elliptical aperture magnitude                    [mag]
#   3 X_IMAGE                Object position along x                                    [pixel]
#   4 Y_IMAGE                Object position along y                                    [pixel]
#   5 X_WORLD                Barycenter position along world x axis                     [deg]
#   6 Y_WORLD                Barycenter position along world y axis                     [deg]
#   7 A_WORLD                Profile RMS along major axis (world units)                 [deg]
#   8 B_WORLD                Profile RMS along minor axis (world units)                 [deg]
#   9 THETA_WORLD            Position angle (CCW/world-x)                               [deg]
#  10 FWHM_WORLD             FWHM assuming a gaussian core                              [deg]
#  11 ELONGATION             A_IMAGE/B_IMAGE                                           
#  12 ELLIPTICITY            1 - B_IMAGE/A_IMAGE                                       
         1 -13.1228     37.0806     50.0004   9.2531684111e+01   6.3013092361e+01    0.8466089     0.794562  34.58  0.005699903    1.400    0.285
         2 -11.5928     26.8062     49.8192   9.7099472535e+01   6.4024271152e+01     1.015492    0.6165926 -82.55  0.004172976    4.137    0.758
         3 -12.1444     75.5134     35.5785   7.1101010135e+01   5.9982690966e+01     1.058782    0.5525264   1.84  0.003347648    4.417    0.774
         4 -10.8254     22.5998     25.6748   9.0447356276e+01   6.8861280996e+01    0.3993405    0.2475839 -27.42   0.00141911    1.330    0.248
         5 -10.6432     26.3723     14.1249   8.3331508825e+01   7.0316672788e+01    0.2111876    0.1333549 -10.76 0.0002674677    1.419    0.295
         6  -9.7996     14.9754     14.2601   8.9659896122e+01   7.1404855807e+01    0.1812703    0.1771835 -66.89   0.00084994    1.769    0.435
         7 -11.5889     13.6920      3.3269   8.5094964520e+01   7.3152915010e+01    0.5491663    0.3420297  39.14  0.002553103    2.451    0.592
         8 -10.9532     27.1739      3.1791   7.7360723901e+01   7.1723692331e+01    0.3603594    0.2025765  42.55  0.001747002    2.457    0.593
         9 -11.3558     32.2974      1.7773   7.3918583578e+01   7.1244949135e+01    0.2366492    0.1530222  24.52 0.0005559076    1.358    0.263
        10 -11.5757     20.4642     17.6376   8.8137020534e+01   7.0378017823e+01    0.4121698    0.3323803 -32.16  0.002089021    1.303    0.233
        11 -12.4864     23.2506      7.8149   8.1916455749e+01   7.1559639865e+01    0.5588558    0.3119405 -45.54 0.0006102546    2.269    0.559
        12 -11.1437    103.9393     20.3840   5.5951636443e+01   5.6112893389e+01    0.4600992    0.3402002   2.25  0.001603129    1.469    0.319
        13 -10.1661     43.4639      8.5908   7.2049589528e+01   6.8870456332e+01    0.2433435     0.199898 -10.61  0.001065315    1.212    0.175
        14 -10.4202     45.0322     14.1975   7.4102986062e+01   6.7935033085e+01    0.2292213    0.1903889  37.37  0.001265389    1.525    0.344
        15 -11.2884     39.8969     12.2933   7.5584752459e+01   6.8907894365e+01    0.4472923    0.2655405 -38.41  0.002574234    1.877    0.467
        16 -11.5420     35.0229     15.1190   7.9349648938e+01   6.9160695933e+01    0.6233763    0.2517079  19.51  0.000787917    3.497    0.714
        17 -10.5319     31.1588     12.8325   8.0201075518e+01   6.9955773845e+01    0.2295923    0.1414351 -23.42 0.0003385003    1.405    0.288
        18 -10.4205     31.4220      9.5086   7.8414077198e+01   7.0380539571e+01    0.3401125    0.1655427   6.99  0.001530195    2.977    0.664
        19 -11.4134      9.9947     15.4738   9.3039265410e+01   7.1607603614e+01    0.2398463    0.1523098 -19.22 0.0004588752    1.280    0.219
        20 -11.7344      4.1761     17.7549   9.7330465487e+01   7.1617297806e+01    0.3349127    0.3264012 -12.38  0.001819768    1.531    0.347
        21 -10.5667      5.0552     13.4972   9.5067064316e+01   7.2278967267e+01    0.1832677    0.1533622 -21.10 0.0006061301    1.233    0.189
        22 -10.8878     74.1810     16.0950   6.3240317006e+01   6.2791107143e+01    0.5193838     0.321394  52.87   0.00223781    1.748    0.428
        23  -9.8896     77.6415     15.1926   6.1652600556e+01   6.2223520229e+01     0.203913    0.1648661  -4.70 0.0002332059    1.203    0.169
        24 -11.0120     79.0632     10.5162   5.9105838773e+01   6.2435311799e+01    0.3469798    0.1856876  41.55 0.0007813217    1.587    0.370
        25 -12.1743     73.3495      5.7196   5.8797260321e+01   6.4032397055e+01    0.7516193    0.3667563 -31.01  0.001864171    2.252    0.556
        26 -11.1810     67.0039      7.8782   6.2012479706e+01   6.5026745534e+01     0.244138    0.1985301   8.83 0.0003318223    1.090    0.083
        27 -11.2146     68.2284      3.7745   5.9626687524e+01   6.5199585962e+01    0.2766236    0.1860755  41.96  0.001332738    1.292    0.226
        28 -10.7492     64.1265     14.2071   6.6061561235e+01   6.4856056384e+01    0.3925959    0.2276294  13.31  0.001985076    1.947    0.486
        29 -10.9389    156.8013     13.0331   4.2722127108e+01   4.4080632322e+01    0.4782344    0.3545448  26.93  0.002625716    1.611    0.379
        30  -9.0432     50.2917     11.4150   7.0388280046e+01   6.7493781157e+01    0.1975068   0.08940695 -19.19 0.0008972851    2.531    0.605
        31  -9.7188     55.2264      9.9765   6.7587110311e+01   6.6868495757e+01    0.2138605    0.1344091 -18.78 0.0004608663    1.535    0.349
        32 -10.2045    119.1925     12.6220   4.9354042929e+01   5.3366888795e+01    0.2129862     0.195858  20.25 0.0005982724    1.133    0.118
        33 -10.1882    117.4972      9.4954   4.8569493137e+01   5.4056256750e+01    0.2338739    0.2048958 -48.60 0.0007116405    1.362    0.266
        34 -10.6730     97.3785      4.6202   5.1332899568e+01   5.9101345470e+01    0.3337556    0.1987143  17.14   0.00139297    1.905    0.475
        35 -10.4414     99.6253     12.7674   5.4066959615e+01   5.7863126520e+01    0.3444505     0.196328  41.50  0.001743672    1.527    0.345
        36  -9.6895    226.0000     11.3638   3.4501130132e+01   2.7575335846e+01    0.2560884   0.06661333 -29.73  0.000937205    3.955    0.747
        37 -10.5906    176.0666     11.3583   3.9603262816e+01   3.9437617235e+01    0.2256602    0.1914998 -52.71 0.0006449228    1.232    0.188
        38 -10.2805    131.5157     11.3258   4.6419310292e+01   5.0514176945e+01    0.3410757    0.1994496  59.88  0.001711739    1.456    0.313
        39 -11.4428    241.2119     10.0373   3.3020010109e+01   2.4402259081e+01    0.2704984    0.1534928 -57.95  0.001548769    1.533    0.348
        40 -10.8669    236.9941      9.5155   3.3226761521e+01   2.5361559032e+01     0.178718    0.1055575  76.70 0.0004974059    1.575    0.365
        41  -9.9183     97.1661     10.1806   5.3665649682e+01   5.8654329682e+01    0.2380242    0.1745842  65.74 0.0004514713    1.484    0.326
        42  -9.5370     59.3753      9.7755   6.5810300567e+01   6.6189526271e+01    0.1628402    0.1052661 -10.18 0.0008131591    1.515    0.340
        43 -10.7121      8.1220      8.9985   9.1233106161e+01   7.2783604555e+01    0.3960309    0.1883207  36.68  0.002095229    3.143    0.682
        44 -11.1274    146.3449      6.2806   4.2228637370e+01   4.7307894309e+01    0.3587871    0.3171324  51.28  0.002246339    1.105    0.095
        45 -10.1919    126.9864      7.9962   4.6122014111e+01   5.1914304031e+01    0.3198408    0.1784807  42.97 0.0003079194    1.669    0.401
        46 -10.1924    130.4638      6.4814   4.4951708978e+01   5.1200119275e+01    0.2197968    0.1343999 -10.39 0.0006504279    1.999    0.500
        47 -11.1494    216.1328      7.4521   3.4461510295e+01   3.0222721434e+01    0.2758381    0.1885919 -22.90  0.001115888    1.796    0.443
        48 -10.2581    191.6582      6.4487   3.6534411950e+01   3.6096213812e+01    0.2913802    0.1302108 -20.03  0.001267569    2.942    0.660
        49  -9.6739    161.1514      6.8586   4.0261945865e+01   4.3572316839e+01    0.1959444    0.1612018 -82.97 0.0004892312    1.201    0.167
        50 -10.1111    126.6056      3.3225   4.4559083279e+01   5.2397917183e+01     0.305149    0.1312156 -32.93 0.0008220618    2.566    0.610
        51 -10.7114     91.5251      6.5865   5.3689639793e+01   6.0212675515e+01    0.4131307    0.1863658  34.83  0.001347656    2.201    0.546
        52 -10.5581    164.9110      5.4473   3.9355651385e+01   4.2763806640e+01    0.2083381    0.1702963 -56.18 0.0004416962    1.297    0.229
        53 -10.2450    223.6890      4.7797   3.3238310799e+01   2.8785259865e+01    0.1988715    0.1550369 -17.48   0.00124863    1.692    0.409
        54 -12.1732    179.0245      4.2009   3.7311501389e+01   3.9387589941e+01    0.2480718    0.2146262 -83.58  0.000344872    1.072    0.067
        55  -9.5538    173.4158      4.2113   3.7959748550e+01   4.0767644089e+01    0.3759407    0.1860013 -72.08  0.001585832    2.667    0.625
        56  -9.2830    155.3406      5.6553   4.0707470120e+01   4.5126268666e+01     0.140679   0.09170276 -68.42 0.0007047644    1.783    0.439
        57  -9.7362    121.4977      5.3626   4.6247824915e+01   5.3459924031e+01    0.2628294    0.1176681  80.01 0.0009300638    3.514    0.715
        58 -11.6399    237.8504      2.9848   3.1801811754e+01   2.5869088668e+01    0.3300712    0.2514124  43.27  0.002110915    1.846    0.458
        59 -10.3308    243.5365      3.4915   3.1514425583e+01   2.4611251895e+01    0.1202407   0.09327617 -70.31 4.932134e-05    1.022    0.022
        60  -9.9517    203.1554      3.2834   3.4638275775e+01   3.3657376038e+01    0.1964139    0.1362733  60.78 0.0002745937    1.433    0.302
        61  -8.7146    113.0000      2.9662   4.7088578998e+01   5.5667591179e+01    0.1817418   0.07526175 -19.53            0    2.772    0.639
        62 -11.0105     88.6797      1.7139   5.2386310161e+01   6.1239229462e+01    0.2388156    0.1481505  48.45  0.001328574    1.332    0.249
        63 -10.8649     81.2937      5.5435   5.6188620892e+01   6.2459485584e+01    0.2880952    0.1342902 -32.23  0.001380495    2.410    0.585
        64 -11.8722     50.7331    162.3751   1.1140409696e+02   3.5306472242e+01    0.6304322    0.4516513  82.34  0.002954407    1.397    0.284
        65 -10.6250    249.1460    247.7923   8.1042342683e+01  -1.1583720239e+01    0.4375646    0.2110342  -2.01   0.00210129    2.855    0.650
        66 -10.4700     88.0973    249.9502   1.1249809127e+02   1.1658272316e+01    0.2588005    0.1464719  36.08 0.0007672231    1.576    0.366
        67  -9.9012     72.6115    250.0870   1.1549329760e+02   1.3739501223e+01    0.1806605    0.1568312  11.02  0.001257869    1.654    0.395
        68 -12.0956     28.8996    248.0872   1.2339680171e+02   1.9381700609e+01    0.7435796    0.2776544  63.66  0.003785733    2.521    0.603
        69 -12.2264     19.7085    238.0510   1.2449358211e+02   2.2221109265e+01    0.5731997    0.2702176  45.61  0.003520537    1.693    0.409
        70 -11.4858      4.3285    236.7555   1.2713652641e+02   2.3968753193e+01    0.3725713    0.2648839 -59.38  0.002725489    1.879    0.468
        71 -13.2580      6.1376    244.9076   1.2717216209e+02   2.2286514689e+01    0.8901736    0.6093208  43.67   0.00487817    1.423    0.297
        72 -12.1429     21.9476    248.7818   1.2464816084e+02   1.9996728276e+01    0.3975457     0.220283  48.72  0.001615409    1.410    0.291
        73 -11.2138     17.2704    247.4120   1.2538822989e+02   2.0729843581e+01    0.2306444    0.1411997  62.78 0.0007383784    1.213    0.175
        74 -11.7379     36.1765    166.8687   1.1563439345e+02   3.5822587063e+01    0.5996144    0.2732079  47.46  0.002555982    2.174    0.540
        75 -11.0731     35.6822    163.0244   1.1534283591e+02   3.6787935314e+01    0.3639335    0.2767335  10.17  0.001420476    1.760    0.432
        76 -11.4937     44.2284    162.6484   1.1312015254e+02   3.5976731178e+01    0.5217275    0.4268456  -1.40  0.003087508    1.655    0.396
        77  -9.6916     99.2553    164.9767   9.9030465271e+01   2.7796728117e+01    0.1966904    0.1837799 -73.76 0.0003259093    1.066    0.062
        78  -9.8399     67.2502    165.3904   1.0750399116e+02   3.2507792674e+01    0.1980059    0.1165387  46.21 0.0009444029    1.681    0.405
        79  -8.9899    200.3178    162.6553   7.4355916225e+01   8.9647095646e+00    0.1409892    0.1194278 -81.48 0.0007048885    1.721    0.419
        80  -9.8590      9.0199    162.3853   1.2183199324e+02   3.9292346377e+01    0.2742115   0.06683954  35.84  0.001144924    3.504    0.715
        81 -12.3558     21.9619    157.0489   1.1818702844e+02   3.9496404221e+01    0.5669173    0.4624032 -40.99  0.003651508    1.478    0.323
        82 -10.2674     10.9170    153.4750   1.2062433401e+02   4.1227992130e+01    0.2629864    0.1716337  25.39  0.001585484    1.838    0.456
        83 -10.1671    177.7506    151.1682   7.6659535789e+01   1.5719195560e+01    0.2928279    0.2576973  59.71  0.001047414    1.294    0.227
        84  -9.6118     32.9022    148.1586   1.1435944778e+02   4.0643760032e+01    0.1734271    0.1368262 -53.97 0.0004389597    1.283    0.221
        85 -10.9538     18.1338    146.9460   1.1815574384e+02   4.2221683270e+01    0.2692527      0.19942 -14.34   0.00093567    1.882    0.469
        86 -10.0172     41.1666    146.1813   1.1185226822e+02   4.0305346079e+01    0.1844689    0.1628823 -65.34 0.0002565699    1.102    0.093
        87 -10.9627     11.2891    145.5430   1.1980395084e+02   4.3074019348e+01    0.3600456    0.1890241 -87.62  0.001876152    1.745    0.427
        88  -9.6762    220.4571    143.9775   6.6304372633e+01   8.4670257891e+00    0.2171994    0.1314175 -37.16 0.0006817892    1.539    0.350
        89 -10.0881    207.0719    146.3245   6.9386589950e+01   1.0672159046e+01    0.2042678    0.1855311  31.54  0.000821337    1.138    0.121
        90  -9.9110      2.7749    144.2005   1.2187365797e+02   4.3968801134e+01    0.1691565    0.1190181 -57.16  0.001071612    1.381    0.276
        91 -10.0215     49.2923    141.9893   1.0898009251e+02   4.0457795474e+01    0.2227372    0.1791484 -30.22  0.000164351    1.481    0.325
        92  -9.9199     56.9084    138.8737   1.0630144328e+02   4.0336242150e+01    0.2687725    0.1758098  39.14  0.001327781    1.608    0.378
        93 -10.4434      9.2899    137.3220   1.1953253240e+02   4.5167340933e+01    0.2879357    0.1111445 -70.17  0.000913501    2.020    0.505
        94 -10.7563      2.8048    137.0277   1.2123500993e+02   4.5653020039e+01    0.2934514     0.137401 -75.81  0.001290091    1.702    0.413
        95  -9.8382     20.9321    135.3267   1.1611607021e+02   4.4797519733e+01    0.2229672    0.1485366 -83.90 0.0008065499    1.348    0.258
        96  -9.8834     13.8716    136.0713   1.1815802552e+02   4.5148164031e+01    0.1829787    0.1413794  81.16 0.0002579731    1.222    0.182
        97 -10.1176    249.7056    134.0211   5.9139886673e+01   4.7327823323e+00    0.1938236    0.1577235 -29.28 0.0007731916    1.059    0.056
        98  -9.1208    104.7013    134.3333   9.1492280006e+01   3.4209596029e+01    0.1557662    0.1204632  80.57 0.0001631879    1.649    0.394
        99 -10.2496     55.5912    133.1318   1.0573052789e+02   4.1918145942e+01    0.2772179    0.2065248  66.10 0.0009215735    1.508    0.337
       100 -10.3601     79.6818    133.0635   9.8532157728e+01   3.8673313956e+01    0.2050204    0.1805988 -57.65 0.0004913993    1.079    0.073
       101 -11.4789     73.4299    129.2312   9.9642793315e+01   4.0538269804e+01    0.5292322     0.299196  54.27  0.002229932    2.196    0.545
       102 -11.4888     37.1143    129.6423   1.1067927144e+02   4.4774754844e+01    0.4290128    0.2642296 -57.26  0.001791398    1.421    0.296
       103 -10.0307      9.7679    129.1830   1.1855528798e+02   4.7077246858e+01    0.1770227    0.1419954 -88.38 0.0003840202    1.113    0.102
       104  -9.4315     56.6334    126.6774   1.0428056201e+02   4.3391088216e+01    0.1487101   0.09961835 -31.53 0.0007037832    1.793    0.442
       105 -11.5129     21.8181    121.1173   1.1405038052e+02   4.8173388611e+01    0.3577628    0.2209089 -36.69  0.001923419    1.819    0.450
       106  -9.8807     26.2545    119.9433   1.1253187995e+02   4.8110457996e+01    0.2020296    0.1744214 -65.11 0.0005876971    1.037    0.036
       107 -11.5479     13.4290    126.0432   1.1715726559e+02   4.7586509046e+01     0.456406    0.2171537  20.52 0.0004721553    2.544    0.607
       108 -11.1570     10.7901    122.5993   1.1752032858e+02   4.8586356131e+01    0.2589523    0.2084776  74.84  0.001099054    1.274    0.215
       109  -9.6079    220.4242    124.4835   6.1867589471e+01   1.1946230786e+01    0.1446043    0.1313485 -27.19  0.000104286    1.011    0.011
       110 -11.0232      2.4269    123.0235   1.1998055939e+02   4.8984021896e+01    0.3526826    0.1340639 -57.03  0.001236693    2.104    0.525
       111  -9.5290      1.2781    118.6778   1.1985568701e+02   5.0073228848e+01    0.2031165    0.1040828 -79.39 0.0004594401    1.636    0.389
       112  -9.5767     32.3245    121.6405   1.1091943328e+02   4.7180951284e+01    0.1511881    0.1254641  -4.38 0.0002383033    1.466    0.318
       113  -9.1352     67.3354    120.7177   9.9799718617e+01   4.3486594028e+01    0.1437835    0.1084512  69.53 0.0002356095    1.619    0.382
       114  -9.7572     72.1775    118.8177   9.7874806570e+01   4.3276594302e+01    0.2014884    0.1619894 -32.33 0.0004627556    1.317    0.241
       115 -11.4917     17.6318    114.9449   1.1448363172e+02   4.9969011936e+01    0.3528732    0.1956226 -51.36  0.001026119    1.588    0.370
       116 -12.4989     14.4443    109.3797   1.1470812073e+02   5.1517324842e+01    0.5465906    0.3510688 -32.54  0.003022007    1.736    0.424
       117  -9.0352    179.3286    116.6764   6.8022323682e+01   2.2336988912e+01     0.158099     0.124774 -79.91 0.0007049475    1.696    0.410
       118 -10.1865     86.0144    116.5124   9.3010807837e+01   4.1720132824e+01    0.2269758    0.1922475 -51.39 0.0003528305    1.126    0.112
       119  -9.9763    213.9679    115.5478   6.0911612120e+01   1.4888593782e+01    0.2086301    0.1444906  47.58 0.0006092594    1.533    0.348
       120 -10.4923     35.1008    114.5055   1.0890089691e+02   4.8673911491e+01    0.1763469    0.1336265  23.32 0.0006000295    1.526    0.345
       121 -10.9952    249.2906    112.3106   5.4473981739e+01   8.3452924425e+00    0.2509311     0.205497 -45.61 0.0006161346    1.144    0.126
       122  -9.6150     94.6282    112.7147   8.9416045107e+01   4.1169407574e+01    0.2160775    0.1422756 -60.79 0.0009450977    1.643    0.392
       123 -12.3198     55.0716    110.3002   1.0159461688e+02   4.7600557597e+01    0.3419992    0.2303914 -47.59  0.001748637    1.358    0.264
       124  -9.7191     43.0324    111.2810   1.0575449290e+02   4.8693395296e+01    0.1832196    0.1687304 -46.88 0.0005718377    1.079    0.073
       125 -11.3663     36.4162    109.4623   1.0759585149e+02   4.9779559213e+01      0.43389    0.2705519  69.37  0.002073658    2.212    0.548
       126 -11.4435     24.3780    108.2874   1.1134446996e+02   5.1080871861e+01    0.4991847    0.2044282 -46.23  0.002209582    2.268    0.559
       127  -9.3940     82.5949    108.7648   9.2235221203e+01   4.4125041876e+01     0.210369    0.1400594 -63.28 0.0009492022    1.626    0.385
       128 -10.0307     70.7554    108.3817   9.5995426187e+01   4.6009677523e+01    0.2677462    0.1859609 -57.31 0.0007188054    1.365    0.268
       129 -11.5825      2.8906    106.2628   1.1794547145e+02   5.2918131398e+01    0.3751784    0.2994847 -61.91  0.001732045    1.068    0.063
       130 -10.4843    243.9543    104.6983   5.3557054922e+01   1.0604527415e+01    0.1836964     0.174624 -40.40  0.000632807    1.080    0.074
       131 -10.5678    247.1662    102.1411   5.2529166268e+01   1.0393160559e+01    0.1850301    0.1752739 -38.53 0.0005557364    1.083    0.077
       132 -10.2918     51.1141    104.8678   1.0177648230e+02   4.9376465793e+01    0.2536609    0.1530016 -66.97  0.001206363    1.655    0.396
       133 -10.9519     13.9568    103.5661   1.1402542923e+02   5.2933659287e+01    0.3146079    0.1898265 -14.64  0.001260482    2.144    0.534
       134  -9.0944    223.3092    103.7123   5.6497418682e+01   1.4978885941e+01    0.1413401    0.1078676 -68.19 0.0003083219    1.575    0.365
       135  -9.9647    119.5565    102.6417   7.9268699593e+01   3.8664322888e+01     0.316965    0.1501437 -41.04  0.001157508    2.145    0.534
       136 -10.5968     57.5052     96.5727   9.7698387425e+01   5.0591624037e+01    0.2373279    0.2146139 -45.09 0.0002054993    1.018    0.018
       137 -11.3140     62.0719     98.6538   9.6611575323e+01   4.9516714206e+01    0.4064114    0.3427926 -23.95 0.0009584927    1.207    0.172
       138 -10.6421     66.5259     98.1143   9.4944708607e+01   4.9042546634e+01    0.2550116    0.1964334 -51.95 0.0006567424    1.203    0.169
       139 -11.7207      3.1246     99.8311   1.1704522809e+02   5.4415788973e+01    0.2726067    0.2108979 -81.16  0.000316634    1.184    0.155
       140 -11.3220      1.4786     96.0233   1.1707606856e+02   5.5381735457e+01     0.272589    0.1400034 -68.53 3.910549e-05    1.514    0.339
       141 -11.3246    144.6353     98.0926   7.1183687294e+01   3.4092392886e+01     0.586316    0.4296085  48.77  0.002345163    1.365    0.268
       142 -10.7601     35.8761    102.9875   1.0657936508e+02   5.1392611641e+01    0.4543649    0.2608097  -4.69  0.002100418    2.517    0.603
       143 -10.8471     40.5590     97.6081   1.0388381881e+02   5.2234066054e+01      0.29353     0.247403  69.22 0.0001695004    1.426    0.299
       144  -9.5218     24.3426     99.2957   1.0984606100e+02   5.3236216629e+01    0.1363967   0.08143852 -38.48 0.0007031957    1.663    0.399
       145 -11.2510     15.1380     98.0931   1.1278745616e+02   5.4156024407e+01    0.3086068    0.2063564  78.44  0.000984016    1.808    0.447
       146 -11.2051     28.2000     96.1031   1.0792416503e+02   5.3694311415e+01    0.2400148    0.1922823  56.27  0.001444389    1.508    0.337
       147  -9.7580    249.8631     95.8108   5.0757233192e+01   1.0879148459e+01    0.1843456    0.1420868 -57.38 0.0004666505    1.309    0.236
       148 -11.0241     20.8051     93.6918   1.1007967119e+02   5.4817987025e+01    0.5709255    0.0529532 -59.97  0.001751309    4.292    0.767
       149 -10.9749     22.3903     86.7839   1.0820885717e+02   5.6319325857e+01    0.4227972    0.2153016 -28.15  0.002012475    2.301    0.565
       150 -11.4276    156.9428     82.5628   6.3753055496e+01   3.4195235603e+01     0.698236    0.4161531  23.88  0.002530399    2.691    0.628
       151 -11.5599    162.3045     92.6139   6.5390884174e+01   3.1019561150e+01    0.4046814    0.2528884 -28.46  0.001120565    1.798    0.444
       152 -12.1618    158.6246     89.7242   6.5420056131e+01   3.2450442923e+01    0.5596074    0.3239999 -38.55  0.001817622    1.740    0.425
       153 -12.4355    165.7893     85.3254   6.2568011218e+01   3.1546542267e+01    0.8100643     0.743586  55.88  0.004258021    1.085    0.078
       154  -9.4214     53.2183     94.3769   9.8685098330e+01   5.1627981309e+01    0.1827691    0.1250834  40.35 0.0004526146    1.658    0.397
       155 -10.1477     91.6111    100.1936   8.7123444176e+01   4.4612487822e+01    0.2248259    0.1323863 -39.39 0.0007632514    1.716    0.417
       156  -9.7379     47.0507     92.5436   1.0045766581e+02   5.2757550860e+01    0.1872097    0.1338688  27.15 0.0006075724    1.548    0.354
       157 -10.2933     35.8054     91.3032   1.0424126047e+02   5.4173277848e+01    0.2316604    0.1898117  88.38 0.0006008793    1.447    0.309
       158 -10.5801     25.6308     91.0891   1.0787370108e+02   5.5076458253e+01    0.2854104    0.1947876 -66.09 0.0009215965    1.306    0.234
       159 -11.4370     10.9524     90.8594   1.1306242492e+02   5.6101140629e+01    0.3138419    0.2316574  12.23 0.0009762559    1.634    0.388
       160  -9.1787     83.1976     93.4135   8.8032890811e+01   4.7590071309e+01    0.2130628    0.1350507  47.99 0.0009460222    1.820    0.451
       161 -10.1574    108.9729     91.4902   7.9218077209e+01   4.3257607524e+01    0.2306811    0.1507838  40.05 0.0005269588    1.538    0.350
       162 -10.9826     97.0834     89.1582   8.2250768109e+01   4.6077172865e+01    0.4452932    0.2848489 -13.05  0.001762138    2.380    0.580
       163  -9.8443     83.0299     88.9294   8.6827811130e+01   4.8621365810e+01    0.2287512    0.1688183 -16.02 0.0005320195    1.572    0.364
       164  -9.9956    138.9966     87.6320   6.9613290709e+01   3.7492020039e+01    0.2182787    0.1949562  45.81  0.000642847    1.108    0.097
       165 -10.2173     46.5882     87.8099   9.9502802036e+01   5.3908355704e+01     0.245621    0.2117064 -84.26  0.001440583    1.372    0.271
       166 -10.4945     44.6052     83.4739   9.9173613602e+01   5.5115678047e+01    0.4310831    0.2180376  43.98  0.001912215    2.542    0.607
       167 -10.2534     64.9335     87.2991   9.2693371979e+01   5.1756167889e+01    0.2220751    0.1826148 -17.45 0.0009350526    1.241    0.194
       168  -9.8605     67.4866     84.4789   9.0997285075e+01   5.2028412502e+01    0.2827412    0.1530152 -29.30  0.001150313    2.289    0.563
       169 -11.0760    116.2816     84.6796   7.4993672046e+01   4.3158421530e+01    0.4009587    0.2766268 -14.75  0.001711035    1.893    0.472
       170 -11.0217     31.5657     68.0779   1.0032933321e+02   5.9806293036e+01    0.3591898    0.2012636  11.50  0.001835349    2.072    0.517
       171 -12.6280     44.7294     75.2957   9.6997094391e+01   5.6936129280e+01    0.2727586    0.2654339  63.30 0.0004740313    1.268    0.212
       172 -11.4024     36.9136     67.0872   9.7863382485e+01   5.9525325765e+01    0.6836818    0.4832643  77.82  0.003050555    2.542    0.607
       173 -13.5351     17.1599     67.2520   1.0605465382e+02   6.1081787170e+01    0.8378702    0.5171786 -28.58  0.001797467    1.568    0.362
       174 -11.8466      6.2555     83.7838   1.1357065761e+02   5.7982017309e+01    0.6744744     0.452735 -37.51  0.003844341    1.404    0.288
       175 -12.1533      4.2107     64.7454   1.1083798483e+02   6.2337954113e+01    0.5576909    0.3607719 -65.33  0.002393588    1.337    0.252
       176 -11.4327     10.4834     63.4420   1.0795249388e+02   6.2308960936e+01    0.3205165    0.2077967 -52.37  0.001962794    1.203    0.169
       177 -11.4567      5.2518     58.9922   1.0916770351e+02   6.3532420323e+01     0.277067    0.2387685  36.61 0.0003423701    1.511    0.338
       178 -11.7400      8.4516     73.9687   1.1097811370e+02   6.0095473849e+01    0.6259218     0.321256 -10.49  0.003243889    2.417    0.586
       179 -11.8772     12.6224     77.9454   1.1013990810e+02   5.8973687980e+01    0.3386405    0.2436094 -20.28  0.001149376    1.476    0.323
       180 -11.2106     13.8154     74.3677   1.0896107350e+02   5.9710538734e+01    0.2221018      0.17945  -5.80 0.0002139463    1.377    0.274
       181  -9.3224     82.9966     85.2776   8.5780251370e+01   4.9429481776e+01    0.1736296    0.1291173  32.76 0.0003893195    1.386    0.278
       182 -10.1179     31.5349     92.8387   1.0610068652e+02   5.4189422064e+01    0.2173139    0.1507953 -54.36 0.0005966367    1.204    0.169
       183  -9.4611    133.0138     83.0813   6.9824043844e+01   3.9761427645e+01    0.1850715    0.1795225  11.28  0.000977029    1.008    0.008
       184 -10.2680     86.6165     80.8957   8.3232121611e+01   4.9747514343e+01    0.3822458    0.2656932 -66.63  0.001716775    2.006    0.501
       185 -10.1523    145.8664     81.7588   6.6141016789e+01   3.7004318997e+01    0.2773221    0.2206731 -34.26  0.001336211    1.285    0.222
       186 -11.1191     30.7401     81.6494   1.0399218363e+02   5.6851793929e+01    0.3305195    0.2229293 -23.09  0.001337822    1.578    0.366
       187 -10.3400     21.3053     81.3417   1.0751412336e+02   5.7648938447e+01    0.4132872     0.193336 -32.11  0.001716359    2.348    0.574
       188 -11.0781     18.8248     79.1421   1.0800464065e+02   5.8319161069e+01    0.5967595    0.2237865 -42.17   0.00134097    2.370    0.578
       189  -8.7730    112.2767     79.6711   7.4634747392e+01   4.5015210777e+01    0.1476777    0.1232916 -79.50 0.0002130299    1.594    0.373
       190  -9.8180     71.1025     79.3781   8.8217454350e+01   5.2613567643e+01     0.189144    0.1738744  12.45 0.0004699566    1.116    0.104
       191 -10.7414     90.7221     75.6794   8.0216523252e+01   5.0090745398e+01    0.3973239    0.2392834 -39.31  0.001246342    1.622    0.383
       192 -10.2255     53.9649     73.8744   9.3007047428e+01   5.6171512752e+01    0.2386561    0.2120253 -52.49 0.0006373723    1.194    0.163
       193 -10.1125     58.0180     74.2361   9.1556110715e+01   5.5574746756e+01    0.2598552    0.2415944  10.10 0.0006010175    1.151    0.131
       194 -12.1017     62.0243     71.7743   8.9286982062e+01   5.5557089773e+01    0.6554285    0.2426417 -42.36 0.0004117585    2.527    0.604
       195  -9.4903    122.1658     76.3448   7.0715047570e+01   4.3514072965e+01    0.2223585    0.1415765  55.45 0.0009453617    1.722    0.419
       196 -10.5186     74.4780     75.5622   8.5840375879e+01   5.2903328065e+01    0.2761298    0.1866594 -36.77 0.0007349435    1.402    0.287
       197 -10.3323    144.4779     73.9602   6.4130368073e+01   3.8764665034e+01    0.3704478    0.2417482  43.86  0.001635751    1.509    0.337
       198  -9.6335    137.4672     73.9916   6.5880155748e+01   4.0430366663e+01    0.2260964    0.1524877 -35.19 0.0004007348    1.526    0.345
       199 -11.8333    167.7529     70.0150   5.7780538981e+01   3.3749944687e+01    0.2833974    0.2635924  18.95 0.0002917735    1.159    0.137
       200 -10.4793    102.4448     73.4792   7.5687131649e+01   4.8265579982e+01    0.3100099    0.1448348  42.66  0.001199287    2.128    0.530
       201 -10.3360    151.7812     71.1923   6.1571541058e+01   3.7481378821e+01    0.5135503    0.2442254  35.02  0.001719845    2.959    0.662
       202 -11.1937     77.3586     69.7951   8.2969927514e+01   5.3623889815e+01    0.5161766    0.3037174  37.21  0.002400595    1.745    0.427
       203 -10.7949     77.3813     64.3202   8.1143389062e+01   5.4703852229e+01     0.354163    0.3201622  -7.46    0.0020576    1.014    0.013
       204 -10.4569     47.6921     58.0572   9.0643073898e+01   6.0232997957e+01    0.3710517    0.2465056 -77.76  0.001068335    3.085    0.676
       205 -11.8193     50.2237     68.5378   9.2898914132e+01   5.7770759583e+01    0.3197664    0.2366932 -13.88 0.0003300296    1.388    0.279
       206 -11.5684     51.7354     62.8137   9.0520567710e+01   5.8776465546e+01    0.3919577    0.3199366 -62.25 0.0005643756    1.488    0.328
       207  -9.2598    189.2935     68.6995   5.3367523338e+01   2.8666248811e+01    0.1494536    0.1102545 -70.03 0.0002264195    1.569    0.363
       208 -10.2239    110.1244     65.9161   7.0827978698e+01   4.8090274658e+01    0.6262907    0.1778907 -45.35   0.00178889    4.194    0.762
       209  -9.7498     98.1762     60.1944   7.2584610084e+01   5.1608253161e+01    0.2428951      0.18428 -22.44 0.0003136102    1.347    0.258
       210 -10.6392     95.4498     65.0898   7.5155880519e+01   5.1258201810e+01    0.3693581    0.2878289   5.52  0.001426007    1.402    0.287
       211  -9.6711     99.4904     65.5007   7.3984654330e+01   5.0379193424e+01    0.1996463     0.184442  10.51 0.0005960469    1.016    0.015
       212 -10.6209     84.1607     61.8699   7.7882778827e+01   5.3987037150e+01    0.3136277    0.2305757 -18.31  0.001592315    1.418    0.295
       213 -10.1248     87.2561     59.4013   7.5944411432e+01   5.3874345836e+01     0.254259    0.2368242  67.87  0.001001745    1.367    0.269
       214  -9.3129    202.5316     62.4168   4.9558293874e+01   2.6452738718e+01    0.1405473     0.132473 -79.68 6.456285e-05    1.017    0.016
       215  -9.7382    167.0325     61.0175   5.5311263974e+01   3.5386894122e+01    0.2229392    0.1726085 -72.97 0.0003230882    1.520    0.342
       216 -10.1797    121.7228     61.3146   6.5960469666e+01   4.6325438846e+01    0.3395123    0.1286914  47.82  0.001096231    2.494    0.599
       217 -10.6064     23.8500     41.9179   9.5892644325e+01   6.5817762957e+01    0.4618145    0.3435865  71.16  0.002210606    2.714    0.632
       218 -11.1095     29.4665     60.6622   9.9171680155e+01   6.1573791032e+01    0.5847222    0.3106817  16.77  0.002845307    2.099    0.524
       219 -11.9324     40.6625     38.5895   8.6782244258e+01   6.4737411271e+01     1.454672    0.7200273  40.80  0.006840828    2.605    0.616
       220 -12.1571    226.4530    245.4411   8.4715719513e+01  -8.3261008904e+00    0.7333287    0.3598987   6.48  0.003237244    3.123    0.680
       221 -12.3148    233.3910    247.6230   8.3804828083e+01  -9.5319614161e+00    0.5048796    0.3299128 -30.63  0.003278989    1.669    0.401
       222 -12.3238     28.0272     38.8418   9.2812540189e+01   6.6025929795e+01    0.4112349    0.2491439 -50.49  0.002337677    1.618    0.382
       223 -12.3059     24.5241     35.0351   9.3123434899e+01   6.7043219215e+01    0.3894705    0.2106706  -0.07  0.000334655    2.128    0.530
       224  -9.7377    215.0521     60.3480   4.7224521354e+01   2.3819906034e+01     0.185876    0.1675025 -86.94 0.0004508366    1.074    0.069
       225  -9.8834    155.5401     60.4562   5.7489691214e+01   3.8336991430e+01    0.1489218    0.1427502  56.50 0.0001429428    1.001    0.001
       226 -10.2502     55.4774     54.9833   8.6382864848e+01   5.9841965779e+01    0.2694899    0.2019304 -82.89  0.001296949    2.612    0.617
       227 -11.1609     63.7765     59.5957   8.4657654952e+01   5.7775353864e+01    0.2723588     0.208635  26.91  0.001325796    1.328    0.247
       228 -11.1581     59.4893     59.2253   8.6221747398e+01   5.8465687133e+01    0.3726082    0.2814764 -13.50   0.00175837    1.302    0.232
       229 -12.5865    147.0518     56.9039   5.8241975346e+01   4.0996827628e+01    0.3061795    0.2935267 -28.23 0.0004490659    1.094    0.086
       230 -11.0839     75.1847     56.1672   7.9109557990e+01   5.6613674058e+01    0.2382825    0.2053936 -31.80 0.0003215095    1.164    0.141
       231  -9.3021    138.6497     56.1811   5.9945662035e+01   4.3166087113e+01    0.1995281    0.1420458 -19.28  0.000370092    1.610    0.379
       232 -10.4039     98.9077     55.7507   7.0786504919e+01   5.2234365550e+01     0.304121    0.2022884  24.60 0.0007328846    1.647    0.393
       233  -9.2604     70.3214     56.3155   8.0987780034e+01   5.7388802624e+01    0.1452322    0.1001827  -6.45 0.0007041078    1.660    0.397
       234  -9.3876    133.5088     54.5591   6.0656859293e+01   4.4661384933e+01    0.2127364    0.2103458 -45.16 0.0006857122    1.090    0.082
       235 -12.1716    130.1142     49.6298   5.9851367643e+01   4.6229295631e+01    0.5130407    0.4753532 -35.99 0.0003647729    1.157    0.136
       236 -12.4437      8.1730     51.4015   1.0605570295e+02   6.4985511557e+01    0.5461643    0.3582174  19.50  0.001678963    1.777    0.437
       237 -10.0905    120.0757     52.7459   6.3505655737e+01   4.8106973051e+01    0.2814254    0.1937012  21.14 0.0003764325    1.731    0.422
       238 -10.8852     87.3762     51.8328   7.3180712730e+01   5.5184270410e+01    0.3606266    0.2596692  38.82  0.001126424    1.356    0.263
       239  -9.9107     61.9388     52.9843   8.3061400991e+01   5.9303151932e+01    0.2056486    0.1820809 -13.12 0.0006397336    1.056    0.053
       240 -10.7857    104.4307     52.1929   6.7798356387e+01   5.1671351929e+01    0.2753724    0.1966123  66.79  0.001287274    1.890    0.471
       241 -10.2208     73.5830     51.2533   7.7918105826e+01   5.7768306640e+01    0.3489304    0.2194808  15.43 0.0008911268    1.869    0.465
       242 -11.0421     78.5563     47.5931   7.4711268719e+01   5.7531721746e+01     0.394829     0.218453 -27.60  0.001716977    1.907    0.475
       243 -10.6597     11.1309     44.8301   1.0288439059e+02   6.6157921388e+01    0.3740961     0.185426 -49.72  0.001167038    1.548    0.354
       244  -9.4140    166.8164     48.8028   5.1765787537e+01   3.7270136487e+01    0.1926395    0.1635266 -81.62 0.0004316769    1.254    0.202
       245 -10.5197    114.0200     49.0178   6.3870225035e+01   5.0067074916e+01    0.4538768    0.2242114 -47.83  0.001763198    2.609    0.617
       246 -10.0114    110.3251     46.3270   6.3953730987e+01   5.1304861257e+01    0.2950573    0.1657214  50.29  0.001310991    1.699    0.411
       247 -10.3152    155.6593     47.8370   5.3603824503e+01   4.0208803259e+01     0.289197    0.1448695 -20.64  0.001095033    2.669    0.625
       248 -10.8772    143.1870     45.7954   5.5554550251e+01   4.3604997642e+01    0.3148273    0.2755268 -78.04 0.0006814166    1.295    0.228
       249 -10.9689     91.9954     43.6890   6.8583496739e+01   5.5599330131e+01    0.4803641    0.2500299 -44.38  0.002075234    2.263    0.558
       250 -10.5632     51.0481     44.9549   8.4609569426e+01   6.2301191766e+01    0.2387217    0.1646335 -30.95 0.0003318378    1.293    0.227
       251 -11.6148     51.5935     40.2582   8.2569825201e+01   6.3053605008e+01    0.5911666    0.2980074  33.26  0.001722399    2.011    0.503
       252  -9.4830    174.0203     43.9832   4.9102826787e+01   3.6131329498e+01    0.1821376    0.1574759  68.84 0.0008125424    1.085    0.079
       253 -10.8324    123.7053     42.0915   5.8864021154e+01   4.8845615826e+01    0.4805556    0.3278101 -33.72  0.002374415    1.559    0.359
       254  -9.5061     74.0311     44.2270   7.5088897070e+01   5.8890016979e+01    0.1778965    0.1066373  36.86 0.0004089734    1.622    0.384
       255 -10.3767     82.8224     40.8754   7.0600487377e+01   5.7825752303e+01     0.344391    0.1984718  20.95  0.001520709    2.126    0.530
       256 -12.1690     66.7212     39.8362   7.6162073771e+01   6.0842002089e+01    0.7413003    0.4281487  11.04  0.001985981    2.329    0.571
       257 -10.2334     35.5034    239.4975   1.2170377968e+02   2.0253365856e+01     0.212451    0.1648794  86.20  0.001073614    1.200    0.167
       258 -11.3766     81.5014     35.0313   6.8736758177e+01   5.8949027514e+01    0.4110056    0.2683832 -13.34  0.001352596    1.668    0.401
       259 -10.9801      7.0277     41.1889   1.0379807166e+02   6.7114582188e+01    0.2367433    0.1233762 -48.02 0.0006174256    1.445    0.308
       260  -9.4039    163.2422     42.0174   5.0399944339e+01   3.9107945790e+01    0.1729102    0.1235504 -30.58 0.0003984155    1.505    0.336
       261 -11.6627     99.6853     38.2925   6.4103866144e+01   5.4800896868e+01    0.7229541     0.391032  20.49  0.002065318    2.778    0.640
       262 -10.1604    137.9521     41.0467   5.5149315042e+01   4.5552470529e+01     0.220355    0.1988928  54.44 0.0005550435    1.039    0.037
       263  -9.2802    188.2225     39.4014   4.5614323726e+01   3.3200562689e+01    0.1856553    0.1266851  80.83 0.0002438002    1.498    0.332
       264 -10.3105    221.9611     37.5225   4.0865900050e+01   2.5391636852e+01    0.2861657    0.1906999 -72.91  0.001159715    1.534    0.348
       265 -10.2111      2.2373     36.8700   1.0490363058e+02   6.8203960657e+01    0.2255763    0.1298988 -18.16  0.001376842    1.660    0.398
       266 -12.2344     57.3969     34.1961   7.7646420125e+01   6.3215991542e+01    0.4002988    0.3182228 -52.25  0.002335069    1.756    0.431
       267 -12.6258     74.6228    238.3163   1.1408966682e+02   1.5640280182e+01    0.7556702    0.4676621 -72.73  0.004524484    1.756    0.431
       268 -10.3198     88.9047    241.2095   1.1150610135e+02   1.3122740875e+01    0.2090604    0.1538034 -33.30  0.001229142    2.116    0.527
       269 -10.1045    195.3989    238.7646   8.9544416617e+01  -2.9209125886e+00     0.257149    0.1723918  17.89  0.001504942    1.346    0.257
       270 -10.3273    243.8665    237.7572   8.0312542460e+01  -9.7107385917e+00    0.1815565     0.154593 -46.86 0.0009327657    2.043    0.510
       271 -11.0299      8.5318     33.2223   1.0056813182e+02   6.8568209206e+01    0.4694042    0.3957785  48.38  0.002440816    1.798    0.444
       272 -11.2668     17.9251     31.1829   9.5017580697e+01   6.8294674324e+01    0.3808346    0.2448364  -0.84  0.002301609    1.526    0.345
       273 -10.1554     16.3441     18.8190   9.0911318649e+01   7.0554932434e+01    0.2249689    0.1160778 -35.18 0.0002529833    1.564    0.360
       274  -9.7184    135.3266    238.0160   1.0162887036e+02   6.6798958526e+00    0.1922088   0.09243359 -31.31 0.0007051066    4.393    0.772
       275 -10.5523     29.4977    232.9775   1.2241836593e+02   2.2165337638e+01     0.269947    0.1371482  68.42  0.001570715    1.747    0.428
       276 -10.2255    159.9755    236.0055   9.6254768807e+01   3.0775267203e+00    0.2013453    0.1433743   7.40 0.0005205473    1.659    0.397
       277 -11.5660     37.6262    243.8233   1.2158196854e+02   1.9200346439e+01    0.4897169    0.2940394  87.91  0.002948203    1.557    0.358
       278 -10.0139     94.9894     34.5232   6.4088599836e+01   5.6318938365e+01    0.2497651    0.1979431 -16.65 0.0007673332    1.282    0.220
       279 -11.7028    100.7888     28.7352   6.0090015923e+01   5.5834409273e+01    0.4808377    0.3578669  15.01  0.002604136    1.394    0.283
       280  -9.8345    177.4004    234.8148   9.2516798417e+01   4.7784024210e-01    0.1676215    0.1157224 -24.15 0.0009466085    1.674    0.403
       281 -10.0621    107.3063     18.3345   5.4280831041e+01   5.5570954078e+01     0.216444    0.1675437   8.30 0.0008601772    1.368    0.269
       282 -10.1167    201.9206     34.0667   4.2375326707e+01   3.0538279923e+01    0.1997424    0.1839006 -79.53 0.0004247595    1.048    0.046
       283 -10.2434    247.1463     33.1654   3.7388618172e+01   2.0433349396e+01    0.1738285    0.1210449 -66.60 0.0003632583    1.289    0.224
       284 -10.4437    183.9555     33.4923   4.4623269615e+01   3.5010970072e+01    0.2856922    0.1184113  60.80  0.001162033    2.161    0.537
       285 -10.0465    121.2847     33.1966   5.6322892652e+01   5.0602681472e+01    0.4731747   0.08942452  54.95  0.001322125    4.310    0.768
       286 -10.9485    235.6445     30.2385   3.7809932576e+01   2.3255017203e+01    0.3650324    0.2050139  51.02   0.00173278    2.161    0.537
       287 -11.1076     47.9005     31.7861   8.0751359619e+01   6.4966387987e+01    0.3413287    0.1979242  30.20            0    1.700    0.412
       288  -9.9714     50.4742     27.5479   7.7792241557e+01   6.5266551218e+01    0.2444637    0.1631014  14.07 0.0009199068    1.438    0.305
       289  -9.6673     89.0284     31.4988   6.4778790139e+01   5.7958562789e+01    0.2042299    0.1232089  44.04 0.0006797596    1.523    0.344
       290  -9.1041    139.2241     30.6754   5.1437241151e+01   4.6564180828e+01    0.1328481    0.1042605 -60.70  0.000277618    1.505    0.336
       291 -10.4632    165.8806     31.9833   4.6961503330e+01   3.9726125546e+01    0.3348961    0.1990114  76.60  0.001509016    1.782    0.439
       292 -10.8133    111.9213     26.5874   5.6246073043e+01   5.3594639561e+01    0.4406907    0.1954891 -26.35  0.001846851    2.466    0.594
       293 -11.0308     69.7635     26.6207   6.9484817205e+01   6.2290284281e+01    0.2848398    0.2407514  -6.73  0.001271209    1.112    0.101
       294  -9.9202     60.6161     27.7735   7.3581324748e+01   6.3682004503e+01    0.1785186    0.1143527 -40.55 0.0009538512    1.768    0.434
       295 -11.7248    194.8642     26.1003   4.1208449397e+01   3.3215117075e+01    0.4426754    0.2871939  80.97  0.002065944    1.490    0.329
       296 -10.8886    131.8958     26.0123   5.1387563267e+01   4.8910864759e+01    0.3838828    0.1909751  48.42 0.0007594872    1.792    0.442
       297 -10.1213    128.5481     23.7694   5.1324378336e+01   4.9977380286e+01    0.2606202    0.2170389 -44.95  0.001041654    1.371    0.271
       298  -9.8032    218.5126     25.9390   3.8514581422e+01   2.7620562199e+01    0.1922688    0.1536696  82.77 0.0003076227    1.157    0.136
       299 -10.0968    214.2883     25.9919   3.8966562641e+01   2.8592701027e+01    0.1845382    0.1629928 -69.04  0.001166309    1.057    0.054
       300 -10.2735    118.8555     25.8304   5.4252872404e+01   5.2065963986e+01    0.2136599    0.1770232  10.32 0.0002926491    1.276    0.217
       301 -10.2676    120.1237     21.3844   5.2340233783e+01   5.2260999323e+01    0.3234038    0.1887708  32.17  0.001435653    1.859    0.462
       302 -10.8665      9.4216     24.8614   9.7144492867e+01   7.0043134360e+01    0.4223907    0.1522053  15.47  0.001869414    3.011    0.668
       303  -9.5028    108.4576     24.5839   5.6384090419e+01   5.4620645625e+01    0.1392133    0.1194685  36.25 0.0002346034    1.021    0.020
       304 -10.7149     95.4389     23.5934   5.9606681158e+01   5.7614865738e+01    0.5155277     0.319135  61.11  0.002533469    1.833    0.454
       305 -10.8687     90.1429     20.6526   5.9990720439e+01   5.9077633951e+01    0.2927058    0.2066625  28.09 0.0009407672    1.305    0.234
       306 -10.2826     55.3155     23.4706   7.3887408586e+01   6.5135046853e+01    0.2306973      0.18957  25.15  0.001473455    1.223    0.182
       307 -11.2715    129.4304     19.1297   4.9523612272e+01   5.0259746293e+01     0.267603    0.2455893   4.55 0.0005449054    1.185    0.156
       308  -9.4518     36.5078     22.9384   8.2239629250e+01   6.7822829660e+01    0.1708235    0.1064615 -35.83 0.0004436815    1.494    0.331
       309 -10.7411     67.7144     21.5826   6.8051950453e+01   6.3319329175e+01    0.3773828    0.1120855  44.36  0.001427828    3.105    0.678
       310 -10.2170     59.4795     21.4789   7.1252293691e+01   6.4741178356e+01    0.1300152    0.1058695   7.14 0.0001298262    1.002    0.002
       311  -9.7834    238.0000     19.9329   3.5359938036e+01   2.3977084589e+01    0.1953934   0.06459067 -32.08 0.0008053172    2.962    0.662
       312  -9.7128      1.4838     25.5566   1.0171794672e+02   7.0381475535e+01    0.1911393   0.07040645 -45.98 0.0006006262    1.908    0.476
       313 -10.0021    109.5773    242.9483   1.0751310992e+02   9.7905617054e+00    0.2768372    0.1467256  56.78   0.00101418    1.993    0.498
       314 -10.1105     24.1201    232.4624   1.2338628952e+02   2.2836113323e+01    0.1827938    0.1554747 -73.31 0.0007113366    1.429    0.300
       315 -11.0016     41.8804     19.2050   7.7953749849e+01   6.7689717715e+01    0.4374173    0.2311772  33.29  0.002160468    1.850    0.459
       316  -9.6404     38.4751    232.8196   1.2071514114e+02   2.1202445665e+01    0.1532791   0.09905093 -83.98 0.0006757641    1.461    0.315
       317 -10.8756    153.7319    233.6647   9.7208097011e+01   4.4708954268e+00    0.2137564    0.1524073 -31.39 0.0008198594    1.698    0.411
       318 -10.3447     86.4284    233.2684   1.1121667176e+02   1.4965370263e+01     0.236278    0.1176567  52.94 0.0008749975    1.825    0.452
       319  -9.6351    190.5026    226.4760   8.8539131807e+01  -3.2033202264e-01    0.2027771    0.1162056 -26.70 0.0006927902    2.038    0.509
       320 -10.9239    120.3651    226.2777   1.0325451273e+02   1.1169845400e+01    0.2065142    0.1711561 -86.17 0.0006890665    1.413    0.293
       321 -10.8115      4.7077    226.1532   1.2659834378e+02   2.5964959932e+01      0.28831   0.09633171  51.46  0.001536771    2.272    0.560
       322 -10.0892     65.9901    226.0833   1.1472990294e+02   1.9171161903e+01    0.1840018     0.157397  63.07 0.0005475268    1.073    0.068
       323  -9.6317    140.0223     19.5597   4.7598779436e+01   4.7612350888e+01    0.2082697    0.1208233  60.96 0.0004077883    1.508    0.337
       324  -9.8467    170.5730     18.5575   4.2347249487e+01   4.0071469161e+01    0.1356835     0.119559  85.14 -1.373794e-05    1.044    0.042
       325  -9.9439    160.1006     17.8967   4.3686331851e+01   4.2766181522e+01    0.2041771     0.169719 -75.25 0.0003057631    1.253    0.202
       326 -11.0809     20.8952    222.0554   1.2338663068e+02   2.5222227507e+01    0.2588144    0.1409255 -84.12  0.001353052    1.640    0.390
       327 -10.0604    123.5761    222.2095   1.0202093791e+02   1.1423640883e+01    0.1704198    0.1246744 -40.52 0.0009438103    1.665    0.399
       328  -9.9040    142.0114    220.8395   9.7824530294e+01   8.6485873800e+00    0.2235389    0.1433373  17.01  0.001074447    1.960    0.490
       329  -9.4199     41.7522    220.9749   1.1923297516e+02   2.3191375135e+01    0.1458583    0.0898171 -79.06 0.0007229106    1.546    0.353
       330  -9.4103    174.4687    219.7713   9.0728778270e+01   3.3893537836e+00    0.2971481   0.09485111  29.74 0.0008872312    4.392    0.772
       331 -11.5611      9.7229    217.1658   1.2523121559e+02   2.7288808734e+01    0.2967862     0.179677  57.55  0.001468796    1.338    0.252
       332  -9.5288     37.9506    217.5003   1.1973854800e+02   2.4335990565e+01    0.1678415    0.1049454  38.90 0.0006495622    1.544    0.352
       333  -9.7371    183.2288     15.6573   3.9886398687e+01   3.7229230914e+01    0.2698173    0.1520908 -87.62  0.001249564    1.983    0.496
       334 -11.2439     30.1052    215.8833   1.2119720676e+02   2.5526244773e+01    0.3460369    0.2447257  19.25  0.002167119    1.983    0.496
       335 -10.8888     50.6411     15.3684   7.2149440213e+01   6.6946270907e+01    0.2805218    0.1474574  33.30   0.00148828    1.747    0.427
       336 -11.1926    235.9036    214.8864   7.7764868117e+01  -5.5979867152e+00    0.2998058    0.1528179 -24.09  0.001014201    1.989    0.497
       337 -11.5832    240.0148    211.2540   7.6359353850e+01  -5.6856968777e+00    0.4291064    0.3328156  40.94  0.002681818    1.636    0.389
       338  -9.5708    233.3216     14.6464   3.4610998539e+01   2.5595416321e+01    0.1370803   0.07420658 -63.00 0.0007047043    1.755    0.430
       339  -9.4498    229.6789     14.7152   3.4929406129e+01   2.6389528917e+01    0.1143618   0.09119131  47.83 0.0003092217    1.594    0.373
       340  -9.9147     23.2515    216.5868   1.2259796154e+02   2.6093725467e+01    0.1390802    0.1080054  26.48 0.0009456739    1.653    0.395
       341  -9.1997    194.6577    215.3010   8.5803152360e+01   7.6918854839e-01    0.1241726    0.1038458  59.28 0.0002383878    1.675    0.403
       342  -9.4504    137.2063    215.6246   9.8098346049e+01   1.0426251474e+01    0.2009015    0.1172563  29.10 0.0009480803    1.719    0.418
       343  -9.7485     66.9812    215.4985   1.1352016741e+02   2.1203286328e+01     0.184348    0.1120889  38.40 0.0005422313    1.533    0.348
       344 -10.3448     21.6366    212.6138   1.2266419022e+02   2.7076029232e+01    0.2848832    0.1454359  54.08  0.001658675    1.649    0.394
       345 -10.0875    208.9649    212.0391   8.2362530480e+01  -1.0445017812e+00    0.2042448    0.1650417   7.05 0.0005277453    1.063    0.059
       346 -12.3672      4.1263    208.2225   1.2582888361e+02   2.9617760440e+01    0.5912574    0.3023539 -82.06  0.003596899    1.648    0.393
       347  -9.1295    188.2338    205.3562   8.5359697603e+01   3.4989021980e+00    0.1356141   0.09697562  -6.53 0.0003852364    1.576    0.365
       348 -11.1328     19.6917    202.2368   1.2237941295e+02   2.9453995032e+01    0.4399495    0.1656375 -73.50  0.002169034    2.318    0.569
       349 -10.2755    175.3167    202.7564   8.7629116020e+01   6.2060064195e+00    0.2229003    0.1974587  43.64 0.0005115082    1.216    0.177
       350  -9.3480    243.3211    202.2948   7.4107099487e+01  -4.8953885398e+00    0.1312419   0.08354787   1.61 0.0002510606    1.614    0.380
       351 -10.0211     10.9986    208.3206   1.2450044594e+02   2.8985502303e+01    0.1547589     0.124865  69.06  0.000499187    1.107    0.096
       352  -9.1759    223.4881    201.4844   7.7604047585e+01  -1.7354715648e+00     0.130106    0.1131926   3.91 0.0001446132    1.107    0.097
       353  -9.2442     34.4404    201.4279   1.1923000406e+02   2.8127649421e+01    0.1184009    0.1006355  80.85 0.0008017819    1.084    0.078
       354  -9.4434    215.4941    194.5508   7.7821006302e+01   6.6503596609e-01    0.1381447    0.1145484   3.93  1.72587e-05    1.046    0.044
       355 -10.8702     16.0270    193.3242   1.2254029091e+02   3.1725518146e+01    0.2143199    0.2055261  -3.25 0.0009112336    1.480    0.324
       356  -9.5608    211.4903    188.4609   7.7420906526e+01   2.3501315312e+00    0.2464369    0.1202941 -27.35  0.001028826    2.326    0.570
       357  -9.5401      1.6187    188.2115   1.2523243967e+02   3.4066249346e+01    0.1567685    0.0854985 -72.70  0.000557305    1.584    0.369
       358 -11.1299     16.6103    183.7968   1.2173739015e+02   3.3781430565e+01    0.3351056    0.2160448  89.18   0.00206354    1.305    0.234
       359 -10.4123     15.2919    180.6551   1.2179595065e+02   3.4603577977e+01    0.2146854    0.1633478  70.20 0.0007986618    1.136    0.119
       360  -9.7548    167.4797    183.5119   8.5772020018e+01   1.1259058745e+01     0.146843    0.1342709  18.31   0.00037429    1.008    0.008
       361  -9.6815     58.8108    182.1780   1.1180031292e+02   2.9626946689e+01    0.1719582    0.1536099 -48.01 0.0007169715    1.327    0.246
       362  -9.3126      1.5481    180.5020   1.2478724083e+02   3.5760482182e+01     0.116827   0.08993996  84.81 0.0001556418    1.009    0.009
       363  -9.8503    244.3712    178.3887   6.9283689347e+01  -1.4811883260e+00    0.2517142    0.1026151 -24.72 0.0009452114    3.074    0.675
       364  -9.2466     69.6261    178.1608   1.0864956204e+02   2.9147017077e+01    0.1863822    0.1140495 -54.42 0.0006252797    1.684    0.406
       365 -10.4073     46.6139    177.6040   1.1423170897e+02   3.2160171615e+01    0.2603158    0.2036275  68.58  0.001576074    1.173    0.147
       366  -9.5446    200.5227    176.4794   7.7223543315e+01   6.3940835191e+00    0.1445898    0.1281149   2.94 0.0001155449    1.017    0.016
       367 -10.0492     34.0680    173.8795   1.1686811277e+02   3.4387494217e+01    0.2199244    0.1541481 -78.13  0.000570608    1.251    0.201
       368 -11.0665     18.0220    173.1330   1.2058740642e+02   3.6077276866e+01    0.3692087    0.2018015  65.46  0.002002591    1.783    0.439
       369  -9.1411     74.6768    171.2980   1.0642903271e+02   3.0068787949e+01    0.1455593   0.09815541  67.40 0.0004131804    1.625    0.385
       370 -10.8315     36.9464    157.9231   1.1444444460e+02   3.7883493754e+01    0.2969632    0.1998384  72.06   0.00040683    1.509    0.337
