#   1 NUMBER                 Running object number                                     
#   2 MAG_AUTO               Kron-like elliptical aperture magnitude                    [mag]
#   3 X_IMAGE                Object position along x                                    [pixel]
#   4 Y_IMAGE                Object position along y                                    [pixel]
#   5 X_WORLD                Barycenter position along world x axis                     [deg]
#   6 Y_WORLD                Barycenter position along world y axis                     [deg]
#   7 A_WORLD                Profile RMS along major axis (world units)                 [deg]
#   8 B_WORLD                Profile RMS along minor axis (world units)                 [deg]
#   9 THETA_WORLD            Position angle (CCW/world-x)                               [deg]
#  10 FWHM_WORLD             FWHM assuming a gaussian core                              [deg]
#  11 ELONGATION             A_IMAGE/B_IMAGE                                           
#  12 ELLIPTICITY            1 - B_IMAGE/A_IMAGE                                       
         1 -11.3978    203.0758     39.5725   4.5248366257e+01   2.8859001702e+01     1.277765       0.6349  55.85  0.005766168    2.128    0.530
         2 -11.9863    218.0467     27.2318   4.0498265699e+01   2.6862873646e+01    0.8860397    0.7694939  13.84  0.003357655    1.441    0.306
         3 -11.8735    228.4111     16.6696   3.7035683833e+01   2.5707361690e+01    0.7033458    0.5965049 -62.07  0.002700903    1.065    0.061
         4  -9.9852      1.8471      7.2728   1.0075605594e+02   7.7146284003e+01    0.7604658     0.130729 -63.38   0.00217051    6.457    0.845
         5  -9.4062     32.7926      7.5779   7.6801012456e+01   7.3679157377e+01    0.5064251    0.1012931 -42.89   0.00153263    5.066    0.803
         6  -7.9147    124.6100      4.8181   4.4102809224e+01   5.3026324684e+01    0.1885227    0.1252229 -37.87 0.0003265305    1.553    0.356
         7  -8.0984    250.2470      1.4077   3.2225625172e+01   2.2666874629e+01    0.1569184   0.09570123 -74.58 0.0009443767    1.584    0.369
         8  -9.0919    160.6333    227.1756   9.3212725671e+01   7.8991281958e+00    0.1465741    0.1020721 -23.62 0.0009209575    1.723    0.419
         9 -12.3029     85.2820    228.5344   1.0842925505e+02   1.8015795666e+01     1.192296    0.8515798  85.77  0.006539184    1.681    0.405
        10 -12.1244     38.9085    232.4452   1.1812613790e+02   2.2793922214e+01    0.9083866     0.363951  56.32  0.001069085    2.063    0.515
        11 -11.3974     18.9452    219.6636   1.2158699126e+02   2.7092487712e+01    0.5204104    0.3143017  54.69  0.001977303    1.221    0.181
        12 -13.4761     68.7245    247.8584   1.1316736955e+02   1.6908723083e+01     3.548959    0.6655366  30.86  0.009400159    5.401    0.815
        13  -9.8192    164.2492    219.7426   9.1534854662e+01   8.4093384867e+00    0.2648814    0.1549813 -50.70  0.001526382    2.334    0.572
        14 -11.9079     30.5419    247.7804   1.2041616135e+02   2.1083841862e+01    0.7100518    0.6870229   6.37  0.006245728    1.558    0.358
        15  -8.5379     25.8692    213.1384   1.1987361829e+02   2.7637336679e+01    0.1742169    0.1135576  57.36 0.0003684461    1.175    0.149
        16 -12.1249    126.8032    230.2585   1.0017134185e+02   1.2177960046e+01    0.5186529    0.4180947  39.49  0.003698379    1.087    0.080
        17  -9.5504     24.5125    202.2620   1.1964854083e+02   2.9874956553e+01    0.2125527    0.1288304  39.00 0.0006874176    1.381    0.276
        18  -9.7385     20.9645    194.4588   1.2005969987e+02   3.1782870977e+01    0.2310035    0.1260136  70.13  0.001351396    1.610    0.379
        19 -12.0948     31.5878    206.2212   1.1829831080e+02   2.8387369769e+01     1.171534    0.3271988 -71.58  0.004762181    3.555    0.719
        20 -13.4690      6.9709    241.8701   1.2460212260e+02   2.4301347384e+01     1.684642     1.252505  69.09   0.01390242    1.208    0.172
        21  -9.9785     59.4328    179.7928   1.0982299399e+02   3.0638697555e+01    0.3604036    0.2562208 -38.59  0.001455977    1.977    0.494
        22 -10.0144     65.0010    174.1212   1.0784143357e+02   3.1148877681e+01    0.3031774    0.2527529 -21.74 0.0005116907    1.661    0.398
        23 -12.7856      8.7173    207.3309   1.2326397850e+02   3.0351926222e+01     0.992343    0.7336212  38.77  0.005004611    1.282    0.220
        24 -10.4663     72.6921    153.9540   1.0333314533e+02   3.4611095955e+01     0.665984    0.3211395  56.23  0.002771011    2.326    0.570
        25 -11.3913     68.4141    144.3774   1.0317923899e+02   3.7448770034e+01    0.7662847      0.47224  63.27   0.00269771    1.766    0.434
        26  -9.9222     75.1819    164.2061   1.0403255439e+02   3.1941873104e+01    0.2778007    0.2715442  -0.71 0.0005409416    1.230    0.187
        27 -11.4273     82.2402    158.4816   1.0138230022e+02   3.2189975783e+01    0.8088635    0.7386915 -62.30  0.003581635    1.203    0.169
        28 -11.6431     62.0973    160.4376   1.0705420778e+02   3.4575027310e+01    0.4788218     0.305939 -43.52  0.001366982    2.026    0.506
        29  -7.2276    125.3212    154.6287   8.9661372780e+01   2.5874675037e+01    0.1473129    0.1085923  74.24 0.0007033561    1.803    0.445
        30  -8.6195    135.0000    148.9975   8.6250079856e+01   2.5243674599e+01    0.2258453   0.08231345 -48.37 0.0008018813    2.939    0.660
        31  -9.8667     32.1985    143.9973   1.1368865201e+02   4.1915543244e+01    0.4951662    0.2474213 -83.86  0.002347915    1.966    0.491
        32 -10.5920     84.9648    142.0764   9.8085005464e+01   3.5510260222e+01    0.3624639    0.2917106 -49.54 0.0005648059    1.359    0.264
        33  -9.0432     96.8459    143.8385   9.5081810033e+01   3.3166011337e+01    0.2132383    0.1999786   2.58  0.001029823    1.224    0.183
        34 -10.8251     58.6910    133.0892   1.0440969548e+02   4.1490758485e+01     1.018544    0.3348432 -75.60  0.002951376    4.805    0.792
        35  -9.6775     32.7946    132.7821   1.1237526397e+02   4.4578197929e+01    0.6799828    0.1120728 -74.62  0.001684647    6.795    0.853
        36  -9.8157     74.4687    135.2790   9.9989792216e+01   3.8731356145e+01    0.3666836    0.2177645  77.33  0.001531425    2.339    0.572
        37 -13.7309     38.8673    194.0141   1.1592567052e+02   3.0055584847e+01     3.620297     1.325635  67.72   0.01463471    3.449    0.710
        38  -9.0998    107.4313    131.5474   8.9820455822e+01   3.4072246945e+01    0.4542335    0.2663231  42.65  0.001705223    1.623    0.384
        39  -9.0134     95.9953    127.7863   9.2278469081e+01   3.6985905337e+01    0.2969248    0.2481698   3.62 0.0008628224    1.508    0.337
        40  -8.8428     17.7053    130.4359   1.1682554110e+02   4.6525984183e+01    0.2213181    0.1094462  32.52   0.00103471    1.965    0.491
        41  -9.4432     37.3757    224.0811   1.1801307003e+02   2.4434947765e+01    0.2284062    0.1326835  54.10  0.001031267    1.320    0.243
        42 -10.1290     32.8109    117.0257   1.1051651080e+02   4.8494851784e+01    0.7100198     0.122889 -73.96  0.001681564    7.018    0.858
        43  -8.0306    106.1894    119.8761   8.7659526346e+01   3.6936916113e+01    0.1954288    0.1764698  -3.30 0.0002572075    1.290    0.225
        44  -7.4186    205.6576    110.3092   6.3102938606e+01   1.8123530140e+01    0.1355195    0.1064827 -66.91 0.0005024667    1.695    0.410
        45  -8.9630     83.3761    108.8307   9.2068522894e+01   4.3664726366e+01    0.2217368     0.130889 -46.52 0.0009521332    1.777    0.437
        46  -7.9780    134.5291    106.4916   7.6753166534e+01   3.4044791181e+01     0.150437    0.1480213  28.39 0.0002211028    1.021    0.021
        47 -12.4551    115.3978    230.4178   1.0246971890e+02   1.3717945851e+01    0.8475054    0.3152198  36.17  0.004134016    2.047    0.512
        48  -9.0217     32.8614     72.5608   1.0285489922e+02   5.9712597040e+01    0.5077775    0.1195583 -64.53  0.001591025    3.722    0.731
        49  -9.6579     32.9186     81.7019   1.0479032510e+02   5.7423258579e+01    0.8295372   0.03293633 -63.58  0.001917722    6.788    0.853
        50  -8.8484     33.0000     60.9510   9.9892041442e+01   6.2538146198e+01    0.2316027   0.07140638 -62.51 0.0008042488    2.955    0.662
        51  -9.3896     13.3917     60.1816   1.0942913149e+02   6.4408291348e+01    0.2343341    0.1716391  74.01 0.0005909979    1.522    0.343
        52  -8.9011     41.3263     59.1630   9.5377240990e+01   6.2002397905e+01    0.3612835    0.1729831  43.75  0.001473792    2.376    0.579
        53  -9.3632     33.0000     50.9365   9.6941012920e+01   6.4909114211e+01    0.4161056    0.1048201 -58.02  0.001386143    3.366    0.703
        54  -7.7752     22.3223     56.6896   1.0409987291e+02   6.4588168845e+01    0.1324286   0.09665125  66.42 0.0002848454    1.650    0.394
        55  -8.6749     83.2290     49.0451   7.3844405019e+01   5.7062133276e+01    0.2031176    0.1213541 -40.22 0.0008835839    1.671    0.401
        56  -9.6303      2.0000     37.9407   1.1100407723e+02   7.0370399911e+01    0.4212806    0.1029965 -65.06  0.001638727    2.878    0.653
        57 -12.1238      3.4839    185.0427   1.2365492315e+02   3.5259362993e+01    0.9737505    0.4403176 -89.71  0.005360154    2.017    0.504
        58 -11.3424    210.3693     34.4531   4.3100590445e+01   2.7780555215e+01    0.5489596    0.4692013 -62.11  0.003326154    1.083    0.077
        59 -10.4021    127.9195    246.8511   1.0170652412e+02   9.6404072026e+00    0.3963026    0.1213192 -51.08  0.001883522    4.195    0.762
        60  -8.5847    135.0756     42.0527   5.6533319932e+01   4.5745505556e+01    0.2358545    0.2149304 -74.84  0.000658599    1.118    0.106
        61  -9.7977     32.8123     29.1641   8.8710315384e+01   6.9709439622e+01    0.6193683   0.05985023 -50.17  0.001493538    6.940    0.856
        62 -13.9558      5.2413    139.2529   1.2116963095e+02   4.5346303045e+01     6.972899     1.422718 -85.53   0.02136648    5.138    0.805
        63 -10.2176    144.7290    230.4711   9.6675612629e+01   9.6608423770e+00    0.2519809    0.1647032 -62.00  0.001544136    2.325    0.570
        64 -10.6922    101.9720    229.2563   1.0507341527e+02   1.5712460247e+01    0.2735366     0.207139  40.21  0.001828858    1.020    0.020
        65 -10.0687    120.9322    223.7130   1.0062406388e+02   1.4001542302e+01    0.2645384    0.1902253  18.36  0.001671706    1.463    0.316
