#   1 NUMBER                 Running object number                                     
#   2 MAG_AUTO               Kron-like elliptical aperture magnitude                    [mag]
#   3 X_IMAGE                Object position along x                                    [pixel]
#   4 Y_IMAGE                Object position along y                                    [pixel]
#   5 X_WORLD                Barycenter position along world x axis                     [deg]
#   6 Y_WORLD                Barycenter position along world y axis                     [deg]
#   7 A_WORLD                Profile RMS along major axis (world units)                 [deg]
#   8 B_WORLD                Profile RMS along minor axis (world units)                 [deg]
#   9 THETA_WORLD            Position angle (CCW/world-x)                               [deg]
#  10 FWHM_WORLD             FWHM assuming a gaussian core                              [deg]
#  11 ELONGATION             A_IMAGE/B_IMAGE                                           
#  12 ELLIPTICITY            1 - B_IMAGE/A_IMAGE                                       
         1 -15.0501    248.1553    163.6878   5.4814111151e+01   3.3435781968e+00      6.03351     1.019795 -36.68   0.01859708    4.977    0.799
         2 -15.6713     96.0552     50.9224   5.7446760372e+01   5.3740310629e+01     2.078287     1.894327 -29.13   0.01179175    1.147    0.128
         3 -15.0080    114.0055     38.7936   4.7906187387e+01   5.1413706803e+01     2.003591      1.26311 -19.39   0.00813397    1.843    0.457
         4 -15.1786     74.3960     31.8685   5.6995157960e+01   6.1217556970e+01     2.786587     1.715997 -17.31   0.01351201    1.853    0.460
         5 -15.3535     92.4334     14.7586   4.3865273400e+01   5.9300691803e+01     2.664479      2.36537  50.87   0.01654131    1.065    0.061
         6 -11.9164     50.7851     29.9877   6.5888244053e+01   6.5901628533e+01    0.7435403    0.2651536 -29.96  0.002671702    3.504    0.715
         7 -13.4321    249.1485     23.5458   2.5907858957e+01   2.2555293010e+01     1.165511    0.3850102 -33.86   0.00562353    2.507    0.601
         8 -11.7438     50.0314     16.8229   5.9683713049e+01   6.7909708853e+01    0.5569227    0.3165648   7.85  0.002557831    2.395    0.583
         9 -10.5833     40.6459     14.6437   6.3054421037e+01   6.9797822839e+01    0.3412475    0.2113378  -8.40 0.0001073813    1.768    0.434
        10 -11.4580     56.1556      6.6254   5.1608819694e+01   6.7934497816e+01    0.4347855    0.2393258  -5.60  0.002138176    2.192    0.544
        11 -14.2583     62.3535     27.3999   5.9604081035e+01   6.4217785666e+01     3.453476     1.194324 -23.09  0.009825069    5.779    0.827
        12  -9.4887     41.0504    226.0000   1.0911350226e+02   2.1943096930e+01    0.1946539   0.06043471  28.68 0.0007724695    2.934    0.659
        13  -8.8684     13.9321    250.7758   1.1600869788e+02   1.9838499359e+01    0.1303132   0.07515714  32.95 0.0004057212    1.549    0.354
        14 -10.2012     62.1730    223.9466   1.0424175281e+02   1.9985900091e+01    0.2785722    0.1651029  27.13  0.001381845    1.636    0.389
        15 -10.7709    125.9578    220.7101   8.9278577960e+01   1.2083277683e+01    0.2691872    0.2259419  56.37 0.0007186747    1.368    0.269
        16 -12.8144    248.8132    196.6435   6.0847673936e+01  -1.4262917947e+00     1.012488    0.4932214 -45.12  0.005041327    2.732    0.634
        17  -8.8737    165.6781    249.3242   8.4773664254e+01   1.8242385973e+00    0.1126156   0.08710278  47.56 0.0007046889    1.681    0.405
        18  -9.8530     49.8205    202.6139   1.0520509186e+02   2.5960088444e+01    0.1928045   0.09836394  40.96 0.0009509698    1.717    0.418
        19 -11.7524     91.6470    199.1766   9.4481657945e+01   2.1388122026e+01    0.6111568    0.3115735  20.11  0.002554841    2.400    0.583
        20  -9.2285    127.0122    196.9775   8.5488297317e+01   1.6550302471e+01    0.2122018    0.1600862 -11.62  0.000918451    1.558    0.358
        21  -9.6519    173.0215    195.7391   7.4811400515e+01   9.4853533930e+00    0.1978728    0.1738125  38.68  0.001181697    1.317    0.241
        22 -11.6370     68.3791    195.6872   9.9885716843e+01   2.5290863835e+01    0.4002118     0.203672  39.40  0.001884747    1.759    0.432
        23 -11.0730     45.5053    194.2494   1.0549125781e+02   2.8324409032e+01    0.4325652    0.1631624  34.62  0.001875913    2.302    0.566
        24 -11.9314     80.4449    193.4200   9.6546179611e+01   2.4214722155e+01      0.50758    0.2825197  15.74  0.002193528    2.348    0.574
        25 -10.9331    103.4031    180.8110   8.8779918486e+01   2.3716998258e+01    0.3842521    0.1837235 -46.76  0.001238562    2.230    0.552
        26 -12.6139     98.5346    187.6540   9.1107051015e+01   2.2923842182e+01    0.9993372    0.4447382  22.29  0.003656217    2.899    0.655
        27 -12.3085     92.3355    182.9172   9.2003599472e+01   2.4912708223e+01    0.4965291    0.3103989 -60.99  0.001304129    1.698    0.411
        28 -11.8901     56.7550    187.6400   1.0195026237e+02   2.8567637664e+01    0.5013562     0.209446  40.96  0.002106969    2.152    0.535
        29 -12.5145    230.0855    185.4433   6.1892999512e+01   2.6285383888e+00    0.4581989    0.3070722 -30.73  0.002747805    1.322    0.244
        30 -11.1625    111.8604    186.0083   8.7449428443e+01   2.1244150984e+01    0.6008944    0.3212059  36.48  0.002057105    1.727    0.421
        31 -11.6046     67.7285    185.5910   9.8844665342e+01   2.7689918888e+01    0.3571856    0.1939935  33.85  0.001681769    1.719    0.418
        32 -11.6510     76.3807    184.8547   9.6475003436e+01   2.6721713598e+01    0.4195955    0.1954709  31.16  0.001791156    2.043    0.510
        33 -11.0680     45.8594    183.0336   1.0429942008e+02   3.0895293991e+01    0.3704831    0.1773458  31.56  0.001716206    1.981    0.495
        34  -9.4617    212.0360    182.3054   6.4507184833e+01   5.7268955327e+00    0.1830129    0.1510747   3.44 0.0006673243    1.080    0.074
        35  -9.8581     35.1810    188.0457   1.0752718561e+02   3.0840332231e+01    0.2738839    0.1218253  51.08   0.00123567    2.179    0.541
        36 -12.3087     62.4159    177.5045   9.9248790909e+01   3.0272456018e+01    0.5758991    0.2424625  29.41   0.00236172    2.322    0.569
        37  -9.7390    204.9876    176.2401   6.4648699259e+01   7.8052723855e+00    0.2400711     0.174561 -26.70 0.0009438636    1.239    0.193
        38 -10.9496    110.0771    176.2926   8.6285711702e+01   2.3680264993e+01    0.5414367    0.2256734  27.05  0.001922344    2.765    0.638
        39 -12.2873     81.7388    176.7432   9.3907378911e+01   2.7877502646e+01    0.6143786    0.2512861  25.87  0.002267201    2.735    0.634
        40  -8.6552     14.3091    177.6882   1.1201810792e+02   3.5167265557e+01    0.1339731    0.0780447  61.11  0.000702661    1.624    0.384
        41  -8.8902    202.8166    187.5556   6.7244489374e+01   6.2666013545e+00    0.1665546    0.1209504  40.68 0.0004739658    1.591    0.372
        42  -9.7909     35.4214    174.2122   1.0618480130e+02   3.4099032393e+01    0.1866926    0.1158762  88.40 0.0008807688    1.646    0.393
        43 -10.4937     45.2184    172.4142   1.0333367616e+02   3.3514312921e+01    0.2804116    0.1737726  56.73  0.001066857    1.650    0.394
        44 -11.5179     70.2723    170.9842   9.6217757543e+01   3.0828780829e+01    0.3346338    0.2068785  30.48  0.001602018    1.600    0.375
        45 -12.1459     56.7766    170.0946   9.9857538442e+01   3.2755591906e+01    0.4439985    0.2836644  35.27  0.001751351    1.518    0.341
        46  -9.4373    206.5550    169.3001   6.2973815738e+01   8.7204411602e+00    0.2522188    0.1200026 -41.50  0.001130439    2.038    0.509
        47  -9.9150    128.9867    169.0455   8.0091582286e+01   2.2127687563e+01      0.24642    0.1780429  -9.47  0.001139356    1.751    0.429
        48 -10.5409    114.9476    168.2916   8.3582334699e+01   2.4686422919e+01    0.3384183    0.2673839  -5.55  0.001369131    1.486    0.327
        49 -10.2218     90.7070    169.4096   9.0318537233e+01   2.8299333560e+01    0.2877866    0.1280433  36.67   0.00113509    2.106    0.525
        50 -10.6287     76.0915    168.7674   9.4271329641e+01   3.0573656413e+01    0.2640413    0.2051197   4.96  0.001278056    1.544    0.352
        51 -12.1969    103.2951    166.8871   8.6445685840e+01   2.6925186937e+01    0.7843314    0.3422856  29.02  0.002911631    2.447    0.591
        52 -12.5580     82.1449    164.7161   9.1937639008e+01   3.0693079873e+01    0.6434292    0.3939571  37.86  0.002835123    1.572    0.364
        53  -8.7382     20.3166    166.6628   1.0957999542e+02   3.7318593761e+01    0.1404457   0.08264446  62.42 0.0007048248    1.699    0.412
        54  -9.6231     79.5252    211.4556   9.8946094098e+01   2.0409229188e+01    0.1312032    0.1152711  46.40 3.430787e-05    1.014    0.014
        55 -12.0899     71.5803    163.6837   9.4776562217e+01   3.2431167768e+01    0.4178478    0.3297735  13.83  0.002021197    1.424    0.298
        56 -10.6802     48.5627    164.8575   1.0151339473e+02   3.4999107893e+01    0.2767298    0.1873505  40.55  0.001025578    1.442    0.306
        57 -10.3164     38.5870    164.9007   1.0434312268e+02   3.6056808304e+01    0.2643512     0.183311  40.37 0.0008039057    1.415    0.293
        58 -11.8802     63.4072    161.3446   9.6779130697e+01   3.4086590253e+01    0.3947867    0.2457914  45.02  0.001865552    1.600    0.375
        59  -9.5861    152.9718    161.2804   7.2645425397e+01   1.9508577811e+01    0.4231237    0.1850051  49.28  0.001491268    2.918    0.657
        60 -11.6516     96.8344    160.7751   8.7129957635e+01   2.9400037194e+01    0.6465894     0.290571  23.05  0.002236222    2.953    0.661
        61  -9.2107    205.5484    159.9509   6.1254487109e+01   1.0473877189e+01    0.2070557    0.1205208 -32.91  0.001009186    1.573    0.364
        62  -9.0828     23.7240    159.9696   1.0803236544e+02   3.8673790364e+01    0.2556275   0.08814103  54.43 0.0008975527    3.558    0.719
        63  -8.8628    144.5037    159.5358   7.4316822494e+01   2.1413669898e+01    0.1472873    0.1408513  11.19 -1.921174e-07    1.053    0.050
        64 -11.3583    113.2350    158.7708   8.2232293945e+01   2.7152903643e+01     0.433879    0.2804148  30.26  0.001969351    1.552    0.355
        65 -10.4162    123.0066    156.3819   7.9137874969e+01   2.5989250827e+01     0.485551    0.3233908  17.70  0.002138638    1.785    0.440
        66 -12.6901     84.5688    155.6096   8.9704807302e+01   3.2550967999e+01    0.8145081    0.3924633  36.38  0.003313608    2.000    0.500
        67 -12.8067     71.6121    154.3984   9.3301222038e+01   3.4721911912e+01    0.9335809    0.3260284  30.11  0.003273575    2.869    0.651
        68 -11.9385     51.1076    155.8314   9.9602968400e+01   3.6961565832e+01     0.579256    0.2713135  46.55  0.002350584    2.228    0.551
        69  -9.1122    219.0491    155.6917   5.7943728830e+01   8.9679836883e+00    0.1792196    0.1565775  -1.79 0.0005415318    1.091    0.083
        70 -11.0757    101.4935    151.2762   8.4020732507e+01   3.0905041664e+01    0.4772785    0.3257723   7.22  0.002068463    1.961    0.490
        71 -11.0439     93.1887    151.9357   8.6532357389e+01   3.2106438198e+01    0.4447835    0.2287565  28.05  0.001700697    2.082    0.520
        72  -9.6915     29.3418    150.2971   1.0539794437e+02   4.0598712195e+01    0.3676686    0.1743257  67.42  0.001458448    2.789    0.641
        73 -12.1027     57.7201    146.8685   9.6289265131e+01   3.8436689114e+01    0.7080235    0.3663824  56.23  0.002832077    2.451    0.592
        74 -11.0496     40.4172    148.1045   1.0178323811e+02   4.0084071465e+01    0.5324897    0.2709973  56.09  0.002257393    2.318    0.569
        75 -12.5513    112.7700    146.7345   7.9914559510e+01   3.0029649262e+01    0.9994095    0.4782966  35.94  0.003865288    2.066    0.516
        76 -10.3346    234.0115    146.9394   5.3668319717e+01   7.9843787822e+00    0.2732572    0.1522162 -33.98  0.001057395    1.524    0.344
        77  -9.3655    189.0073    147.3817   6.1768242737e+01   1.5599084828e+01    0.3086736    0.1347338 -31.53  0.001162922    2.509    0.601
        78 -11.4691     79.9454    147.4724   8.9610120662e+01   3.5250290925e+01    0.3291923    0.2564411  27.32  0.001664354    1.319    0.242
        79 -10.8190    131.1042    143.8955   7.4336213218e+01   2.7303928517e+01    0.5809171    0.3607674   8.88  0.002179055    2.615    0.618
        80 -12.4243     91.4685    144.4280   8.5579560643e+01   3.4210892888e+01    0.7646146    0.3400507  28.23   0.00277474    2.506    0.601
        81 -12.4525     72.6266    141.5710   9.0766070898e+01   3.7792515941e+01     0.641872    0.3771478  44.13   0.00283514    1.764    0.433
        82 -11.5765     82.2197    140.3512   8.7568684789e+01   3.6675929487e+01    0.4172321    0.2363895  43.18  0.001773989    1.813    0.449
        83 -10.2520     23.9200    138.4904   1.0570656855e+02   4.4063945026e+01    0.4868203    0.2276013  68.22  0.001902376    2.934    0.659
        84  -9.0144    131.1834    214.6082   8.7221498149e+01   1.2459409711e+01    0.1872778    0.1151756  21.72 0.0004644995    1.610    0.379
        85 -10.3851     39.4244    136.2466   1.0045896485e+02   4.3216811284e+01    0.2815257    0.2142295  53.25  0.001142077    1.386    0.279
        86  -9.2297    197.3336    136.1760   5.7662944593e+01   1.6091702625e+01    0.2032683    0.1191467 -44.60 0.0008289604    1.686    0.407
        87 -11.2289    117.1762    134.3046   7.5932730247e+01   3.2110488216e+01    0.6007479    0.3300683  27.15  0.002322099    2.146    0.534
        88 -13.1358     86.9075    132.3363   8.4474167135e+01   3.7919870327e+01      1.00906    0.4558957  31.83   0.00378194    2.290    0.563
        89  -8.9867    211.1594    207.6235   6.9320168258e+01   1.9137146960e+00    0.1756001    0.1016807  19.83 0.0009395217    1.669    0.401
        90 -10.5757    137.2208    132.0879   7.0016227376e+01   2.8716130047e+01    0.5977529    0.3696855   8.19  0.002144621    2.870    0.652
        91  -9.7171    148.5527    131.5932   6.7061634781e+01   2.6550995058e+01    0.3856692    0.2155082 -16.88  0.001234395    3.545    0.718
        92 -10.8249     59.1467    206.4668   1.0331502428e+02   2.4031534916e+01     0.452403    0.1076834  30.26  0.001557931    3.631    0.725
        93 -13.3237    105.1584    128.0631   7.7947125583e+01   3.5799725584e+01     1.113982     0.773393   7.09    0.0047362    1.958    0.489
        94 -11.8871     74.6979    130.5371   8.7971984953e+01   4.0266162069e+01    0.5103177    0.2538303  42.73  0.001637245    2.105    0.525
        95  -9.6730     13.0018    129.6005   1.0819171103e+02   4.7143382722e+01    0.3478549    0.1706954  70.73  0.001484895    2.521    0.603
        96 -12.7129     62.0214    125.6624   9.1169742855e+01   4.3285748669e+01    0.9936512    0.4308459  50.08    0.0034538    3.100    0.677
        97 -12.2206    123.5814    126.2188   7.2226230062e+01   3.2719012147e+01    0.8439728    0.5354545  22.63  0.003475561    1.947    0.486
        98 -11.8454     44.7757    123.1391   9.6581296844e+01   4.6024053296e+01    0.9656381    0.5275783  77.90  0.003619829    3.032    0.670
        99 -10.9000     28.9041    122.6368   1.0198106460e+02   4.7707882955e+01     0.809285    0.3591339  70.89  0.002545253    4.552    0.780
       100 -10.9542    148.5023    119.2334   6.4022920754e+01   2.9133194633e+01    0.5842119    0.3789171  -7.84  0.002248354    2.503    0.600
       101 -10.0094    143.3229    120.7044   6.5666890329e+01   2.9908983849e+01    0.2749318     0.219998  53.96 0.0008148709    1.366    0.268
       102 -10.9673    135.8837    119.0877   6.7147155383e+01   3.1796349365e+01    0.5825549     0.431088 -14.02  0.002624704    1.671    0.402
       103 -11.5374     72.7426    120.7816   8.6550055642e+01   4.3001593456e+01    0.4610167    0.2566883  39.08  0.001747389    1.839    0.456
       104  -9.6385      3.0666    117.1299   1.1016775396e+02   5.0892609930e+01     0.343079    0.1276617  78.18  0.001134647    4.243    0.764
       105 -12.4124    114.0705    114.7777   7.2033647570e+01   3.7179787575e+01    0.7913201    0.5619856 -21.42  0.003471938    1.725    0.420
       106 -13.9098    116.0477    100.5763   6.7608738947e+01   3.9913258802e+01     1.218366    0.9722617  32.99  0.005943807    1.271    0.213
       107 -12.4069     81.3257    114.1052   8.2131503658e+01   4.3306555701e+01    0.6582617    0.4288766  60.02  0.002528082    2.083    0.520
       108 -12.4542     97.0654    113.8085   7.6940219594e+01   4.0647159995e+01    0.9832598    0.3616953  36.89  0.003275624    2.760    0.638
       109 -11.7421    126.8790    112.4129   6.7804293834e+01   3.5102720946e+01    0.7513007    0.4797673  14.94   0.00289091    2.383    0.580
       110 -11.7172     67.9445    111.6884   8.6145405907e+01   4.5975703270e+01    0.4286467    0.2627225  50.91  0.001847635    1.958    0.489
       111 -12.7591    248.8194    106.1910   4.3097922754e+01   1.1806102241e+01    0.8904902     0.263467 -34.46  0.003487242    2.878    0.653
       112 -10.2515     14.3053    110.2437   1.0538583804e+02   5.1986664169e+01    0.4082575    0.2162497 -89.80  0.001844885    2.120    0.528
       113 -11.0858    145.0132    105.3490   6.1235920675e+01   3.2706528485e+01    0.5185028    0.3623835  16.82  0.002232131    1.919    0.479
       114 -11.9887     46.3158    102.7526   9.2044362773e+01   5.1037780306e+01    0.9164513    0.4895028  65.13  0.003196114    3.657    0.727
       115 -11.1904     22.9044    101.8598   1.0087701520e+02   5.3506697407e+01    0.8682243    0.4321068  76.37  0.003181367    3.529    0.717
       116 -10.9074    156.0714    102.8470   5.7976359661e+01   3.0773531372e+01    0.5101692    0.2494579 -28.85  0.001835457    2.559    0.609
       117 -12.1268    133.8377    101.9069   6.3100684040e+01   3.5839618474e+01    0.7084325    0.4885069   6.77   0.00289462    2.181    0.542
       118 -11.3634     84.0663    101.1412   7.7883580682e+01   4.5945732923e+01    0.5257425     0.271679  50.58  0.001974992    2.442    0.591
       119  -9.1545    163.6805    101.6646   5.5994595526e+01   2.9323949989e+01    0.1546709    0.1175615   5.33 0.0003278027    1.702    0.413
       120 -12.2455     65.3340     96.8352   8.3431380986e+01   4.9991129811e+01    0.7634403    0.4216743  53.53  0.002635646    2.567    0.610
       121 -11.3759     96.2560     97.9786   7.2940999086e+01   4.4446425864e+01    0.3948399     0.241125  45.69  0.001684838    1.719    0.418
       122 -11.6347    143.5293     92.6809   5.8086994042e+01   3.5522759152e+01    0.5571403    0.3497887  27.16  0.002277446    2.097    0.523
       123 -13.1123    131.0383     90.6702   6.0625856325e+01   3.8715693769e+01     1.002942    0.6519707  21.40  0.004083558    2.138    0.532
       124  -9.8823     43.6372     92.6216   9.0789365555e+01   5.3856006479e+01    0.2301046    0.1522526 -29.68 0.0008304596    1.614    0.380
       125 -10.3526     57.9349     92.0632   8.4993260639e+01   5.2195220822e+01    0.2187106     0.203956 -33.62 0.0003898337    1.015    0.015
       126 -10.6598     34.9758     89.6040   9.3617200494e+01   5.5514043747e+01    0.5794098    0.2860877 -74.37  0.002132739    2.570    0.611
       127 -13.0183     89.7441     88.0088   7.2181029152e+01   4.7894604068e+01    0.9221683    0.3984721  46.75   0.00329612    2.573    0.611
       128 -11.4049     49.4732     84.9613   8.6480696127e+01   5.5007361511e+01    0.6733972    0.4342797  74.41  0.002729743    2.884    0.653
       129  -9.5230     68.6493    203.6829   1.0071598521e+02   2.3478052042e+01    0.1305641    0.1001475 -20.93 0.0007047443    1.735    0.424
       130 -13.1585    111.4780     85.5058   6.4505160497e+01   4.4030473552e+01     0.823103     0.589231   0.08  0.003561419    1.939    0.484
       131 -12.1192    105.9987     84.5006   6.5845594760e+01   4.5394473293e+01    0.5371564    0.3760146 -78.07   0.00216923    2.438    0.590
       132 -11.3731    145.0852     83.3314   5.5028751357e+01   3.6914467076e+01    0.4865489    0.3499664  17.49  0.002176559    1.853    0.460
       133  -9.7245    162.1775     83.0177   5.1241797804e+01   3.3029323627e+01    0.2466859    0.1745908  -1.49  0.001081343    2.039    0.510
       134 -11.5514    123.2876     80.7154   5.9684780173e+01   4.2380531088e+01    0.4883181    0.3468712   1.54  0.002096756    2.004    0.501
       135 -11.5136     75.3682     81.3985   7.5262397166e+01   5.1944528447e+01    0.3385187    0.2792449  66.20  0.001174119    1.572    0.364
       136 -10.3865     24.3750     80.0975   9.5982387408e+01   5.8786137648e+01    0.4737667    0.2446811 -77.33   0.00170162    2.443    0.591
       137  -9.8054     25.4196     73.3947   9.3918627444e+01   6.0299471617e+01    0.9153961    0.3189127 -26.96  0.002272505    7.292    0.863
       138 -10.4817    153.9862     80.5137   5.2236692375e+01   3.5356782218e+01    0.3345846    0.2308606  10.25  0.001414619    2.209    0.547
       139 -10.9062    136.3847    110.2143   6.4701480241e+01   3.3570335696e+01    0.4347324    0.2587674  33.31  0.001781077    1.871    0.465
       140  -8.8136      8.5114     80.5088   1.0303882753e+02   5.9754929000e+01    0.1296241    0.1131467 -59.94  0.000365422    1.064    0.060
       141 -11.5597     61.8540     77.5400   7.9291622359e+01   5.4994860281e+01    0.3873754    0.2873369 -76.95  0.001833946    1.929    0.482
       142 -13.0404    133.6589     75.0712   5.5267197779e+01   4.1049156142e+01    0.8286179    0.5982125   6.29  0.003683589    1.928    0.481
       143 -10.9682    144.9479     75.7034   5.2807936133e+01   3.8302905169e+01    0.3517361    0.2656573  27.21  0.001686644    1.544    0.352
       144 -12.9778     84.9286     73.9327   6.9386053569e+01   5.1791879891e+01    0.7763692    0.4332814  55.18  0.003053636    2.426    0.588
       145 -12.0507    119.0547     72.9748   5.8390610265e+01   4.4782018333e+01    0.4870875    0.3108616  35.47  0.002141427    1.679    0.404
       146  -9.4747     43.0225    203.5243   1.0692617523e+02   2.6505995496e+01    0.1976498   0.07031636  48.04 0.0008101629    2.590    0.614
       147 -12.3029    108.7512     72.4716   6.1162351059e+01   4.7171265327e+01    0.6066489    0.2950369  46.94  0.002384414    2.023    0.506
       148 -12.6583     97.9935     72.1760   6.4387758198e+01   4.9528587227e+01    0.6191165    0.3356433  45.71    0.0025825    1.838    0.456
       149 -11.7150     51.6157     69.2524   8.0952244554e+01   5.8316796242e+01    0.8263969    0.3743352 -62.95   0.00290185    3.370    0.703
       150  -9.5525     16.5762     69.0774   9.6993021656e+01   6.2001215755e+01    0.3112155    0.1148368 -63.86  0.001267397    2.422    0.587
       151 -10.9096    151.2323     68.0549   4.9169638765e+01   3.8105735179e+01     0.420261    0.2684242  23.18  0.001736866    2.342    0.573
       152 -11.0911    142.4704     66.8597   5.0679032402e+01   4.0383813726e+01    0.4265137    0.2934362   9.23  0.001831461    2.184    0.542
       153 -12.6945    134.3659     58.0715   4.9721902783e+01   4.3729113934e+01    0.9833415    0.3346592  39.68  0.002701949    4.708    0.788
       154 -13.2141    114.4314     64.1326   5.6745453494e+01   4.7409241746e+01    0.7525678    0.4571028  28.83  0.003132259    2.059    0.514
       155 -11.1127    133.2884     64.6362   5.2080133445e+01   4.2930428553e+01    0.3954643    0.2289138  25.45  0.001477792    2.726    0.633
       156 -10.4405     37.4958     63.6132   8.5530768709e+01   6.1339056902e+01    0.3815781    0.2493387 -67.73  0.001709003    1.915    0.478
       157 -13.4549     75.8894     60.4669   6.7991482101e+01   5.6162083343e+01    0.9131535     0.585734  60.08  0.003939301    2.313    0.568
       158  -8.9330     18.2956     62.3679   9.4473328745e+01   6.3431906502e+01    0.1470191   0.07876097 -35.88 0.0004913243    1.724    0.420
       159 -12.5129    248.4974     53.6513   3.2119686943e+01   1.9116700940e+01    0.4594982    0.3103131 -37.13  0.002904485    1.277    0.217
       160  -9.5875     25.0382     57.9243   8.9831521250e+01   6.3871443880e+01    0.4029499    0.1652735 -54.23  0.001755758    2.103    0.525
       161 -13.2189    123.2340     56.4687   5.1837482832e+01   4.6633492910e+01    0.6471702    0.4502106  34.70  0.003081978    1.542    0.351
       162 -12.2064    125.0172     67.5126   5.5042813091e+01   4.4385988074e+01    0.6064684     0.298883  54.94  0.002386182    2.082    0.520
       163 -11.6251     54.3740     53.5503   7.4241412063e+01   6.1174526920e+01    0.6879894    0.3093049 -57.10  0.002448759    3.512    0.715
       164  -9.2665      7.3168     56.8232   9.8620457892e+01   6.5407365839e+01     0.251716     0.113665 -74.77  0.001074793    2.666    0.625
       165 -12.0083    236.7679    230.4687   6.8624087139e+01  -4.4511106666e+00    0.3469484    0.2222099  -9.44  0.001408489    1.280    0.219
       166 -10.3145    164.4876    225.4956   8.1573868796e+01   5.6747302538e+00    0.3145816    0.2205465  -7.42  0.001543173    1.512    0.339
       167 -10.0935    161.3315    225.3361   8.2212650011e+01   6.1507283564e+00    0.3304133    0.1914426 -26.97  0.001634606    2.000    0.500
       168 -10.2204     88.4093    226.8185   9.8572525690e+01   1.6125099955e+01    0.2000512    0.1723516 -13.16 0.0008527706    1.399    0.285
       169 -10.4389     30.9953     49.2746   8.3913970362e+01   6.5124828943e+01    0.6638733    0.1845401 -53.62  0.002330029    3.438    0.709
       170 -10.1843     44.1767     54.9601   7.9447309622e+01   6.2358311121e+01     0.323006    0.2380074 -52.48  0.001273458    1.452    0.311
       171 -12.2591    126.4846     46.0840   4.7529348738e+01   4.7412689139e+01    0.4928116    0.2610398  35.51  0.001978676    2.337    0.572
       172  -9.5058     16.5574     43.3326   8.9635599481e+01   6.7731633291e+01    0.3298616    0.1024745 -54.67  0.001327466    2.707    0.631
       173  -9.1706      5.0000     41.9534   9.5840467588e+01   6.8812826441e+01    0.2033043   0.06159182 -62.01 0.0008008971    2.932    0.659
       174  -9.6968     36.5222     40.0324   7.7456745800e+01   6.6289434317e+01    0.3074887    0.1635625 -50.93  0.001265584    2.041    0.510
       175 -10.7811     45.2638     49.3645   7.6838146156e+01   6.3330362658e+01    0.3363723    0.2438719 -18.50 0.0002654792    1.359    0.264
       176 -10.2189     28.0373     29.3284   7.7421013974e+01   6.9294021827e+01     0.652311    0.1863008 -34.76  0.002076639    4.623    0.784
       177 -10.3485     88.7748    222.7563   9.8043627939e+01   1.6876745646e+01     0.282524     0.131046 -70.56  0.001145635    2.851    0.649
       178  -9.3780    191.9671    225.8633   7.6063332281e+01   1.7959867895e+00    0.1945926    0.1371819   2.02 0.0006509841    1.276    0.217
       179 -10.6696     43.3434     27.3184   6.8214904125e+01   6.7520047168e+01    0.4272932    0.2082493 -12.11  0.001410179    4.603    0.783
       180  -9.9220     40.7174     21.7259   6.6767232502e+01   6.8785123880e+01    0.3161809    0.1762945 -22.37  0.001578908    1.906    0.475
       181 -10.5692     48.4942     21.5000   6.2811917529e+01   6.7547323225e+01    0.3169187    0.2144272  22.13  0.001631446    1.388    0.280
       182  -9.5474    171.1126    225.7616   8.0238223726e+01   4.6938012265e+00    0.1766112    0.1488345  23.40 0.0003852098    1.168    0.144
       183 -10.9696     45.4438     43.4052   7.4373559847e+01   6.4440183524e+01    0.6262105    0.1901432 -40.38  0.002229651    3.226    0.690
       184 -10.8413     99.1346    225.3542   9.5970597548e+01   1.4976683192e+01    0.3757736    0.2350691  30.94  0.001367764    1.401    0.286
       185  -9.5452    123.5110    225.0746   9.0423068058e+01   1.1627711731e+01    0.1737963    0.1300714 -50.39  0.000601123    1.541    0.351
