#   1 NUMBER                 Running object number                                     
#   2 MAG_AUTO               Kron-like elliptical aperture magnitude                    [mag]
#   3 X_IMAGE                Object position along x                                    [pixel]
#   4 Y_IMAGE                Object position along y                                    [pixel]
#   5 X_WORLD                Barycenter position along world x axis                     [deg]
#   6 Y_WORLD                Barycenter position along world y axis                     [deg]
#   7 A_WORLD                Profile RMS along major axis (world units)                 [deg]
#   8 B_WORLD                Profile RMS along minor axis (world units)                 [deg]
#   9 THETA_WORLD            Position angle (CCW/world-x)                               [deg]
#  10 FWHM_WORLD             FWHM assuming a gaussian core                              [deg]
#  11 ELONGATION             A_IMAGE/B_IMAGE                                           
#  12 ELLIPTICITY            1 - B_IMAGE/A_IMAGE                                       
         1 -14.6181     70.3965    148.1969   4.7668613718e+01   3.5868682887e+01     4.407307       2.2059 -84.91  0.002010491    3.523    0.716
         2 -13.1695    215.4834     56.3213   3.5478163251e+02   2.6723420371e+01    0.9472695    0.8181052 -35.91  0.004051008    1.274    0.215
         3 -13.6044    229.5922     47.5530   3.5175151830e+02   2.5369786985e+01    0.8297653    0.8005487  22.21  0.005460976    1.516    0.340
         4 -11.5900      2.2601     22.7862   4.9346716471e+01   7.5702106720e+01    0.7006581    0.1577347 -63.03  0.002172416    5.237    0.809
         5 -10.9032      2.3520      2.9967   3.7377773278e+01   7.9414781815e+01    0.3748258    0.1988801 -43.37  0.002042314    1.885    0.469
         6  -9.1142    193.6988      5.3105   3.4479090637e+02   3.6940011938e+01     0.125808    0.0630754 -58.54  0.000251026    1.605    0.377
         7  -9.5964    227.1756      9.8240   3.4412031469e+02   3.0103059726e+01    0.1907527      0.13131 -57.70 0.0007192448    1.052    0.050
         8  -9.3152     58.8530    232.8680   6.0979790966e+01   1.6986164773e+01    0.3678131    0.1887704 -39.58  0.001719695    2.653    0.623
         9  -9.7053    101.4356    248.1975   5.2443997669e+01   9.4806132742e+00    0.3158195    0.1109026 -56.39  0.001428421    3.204    0.688
        10  -9.1830     74.8683    248.7734   5.8503885271e+01   1.2208517511e+01    0.2811995    0.1382952 -51.53  0.001467084    2.370    0.578
        11 -12.9737     53.4462    217.8773   6.1106362854e+01   2.0743960454e+01      2.29288     1.165574 -74.13  0.005533842    2.234    0.552
        12 -15.6969     24.0395    179.7955   6.6196408734e+01   3.2832815725e+01     11.63811     3.595722 -89.93   0.03432769    4.653    0.785
        13 -13.2354    129.2842    230.3723   4.4204840551e+01   9.5092146753e+00     1.283644    0.5922134  22.85  0.006207227    1.974    0.494
        14 -11.8359     98.6787    226.2648   5.0717273946e+01   1.3868366820e+01    0.6108046    0.4594276  42.51  0.003639482    1.327    0.247
        15 -11.4665     81.7887    221.7825   5.4322164487e+01   1.6747581738e+01    0.9277832    0.2684164  34.78  0.003551387    2.709    0.631
        16  -8.8825     63.5300    237.1136   6.0194674437e+01   1.5638202801e+01    0.1789281    0.1428149  27.40  0.000372076    1.071    0.067
        17  -9.8100     72.6878    233.3883   5.7679529019e+01   1.5403065522e+01    0.2427786     0.206706  49.93 0.0008095627    1.179    0.152
        18  -9.7007     47.0283    229.4626   6.3613069905e+01   1.8906281093e+01    0.2152915    0.1548495  61.88 0.0007102097    1.398    0.285
        19 -12.7515    110.0004    229.1233   4.8398694995e+01   1.1990099779e+01     1.183783    0.3818102  28.49  0.004803029    2.601    0.616
        20  -9.1050     72.5974    225.3431   5.6952962975e+01   1.7053745487e+01    0.2143436     0.166705  45.49  0.001056515    1.216    0.177
        21 -10.8349    163.5707    222.5935   3.5909705063e+01   6.8776368955e+00    0.3841081    0.2108544 -44.06  0.002132192    1.850    0.459
        22 -11.6931     89.9573    224.5859   5.2623256514e+01   1.5223749224e+01    0.9758328    0.4589421  51.98  0.004124321    2.789    0.641
        23 -14.7138     35.5249    172.9316   6.2117598381e+01   3.3529652332e+01     5.361527     1.982713  41.85   0.02026605    2.427    0.588
        24  -8.2146    131.7329    211.6984   4.1115394825e+01   1.2647061521e+01    0.1293342   0.09068295 -14.80 0.0002071686    1.524    0.344
        25 -10.0424     72.5098    207.7244   5.5181098180e+01   2.0869582069e+01    0.2303201    0.1306528 -61.06  0.000576037    1.895    0.472
        26 -11.0255    103.4213    202.7646   4.6614670975e+01   1.8100782030e+01    0.3205887    0.2943853 -13.99  0.001343095    1.098    0.089
        27  -9.3460    210.9281    199.0414   2.3536265987e+01   5.2606606902e+00    0.1750339    0.1359977 -17.05 0.0004517066    1.020    0.020
        28 -11.1338    113.6535    195.8563   4.3073850324e+01   1.8211846090e+01    0.4647967    0.2534343 -18.72  0.001788714    3.059    0.673
        29 -12.2086    107.7119    190.1299   4.3707903716e+01   2.0267514636e+01    0.4618239    0.3737267 -18.42  0.002540719    1.315    0.240
        30 -10.1350     69.4205    194.0323   5.4469629169e+01   2.4400712600e+01    0.4460386    0.2296646  43.33  0.001970064    1.846    0.458
        31  -9.5060    191.2741    192.2689   2.5805771070e+01   8.6061554434e+00    0.3740698    0.2080207 -64.15  0.001197773    6.998    0.857
        32 -11.4899     65.3237    186.0350   5.4670716078e+01   2.6832076085e+01    0.3473895    0.2510227  88.81 0.0007720507    1.588    0.370
        33 -10.5743    123.1643    186.6727   3.9297884924e+01   1.8841814393e+01    0.3605234    0.1302883  21.93  0.001103958    4.144    0.759
        34  -8.7508     70.5314    183.4596   5.2861586429e+01   2.6814970746e+01    0.1429662    0.1338579  40.92  0.000108982    1.009    0.009
        35 -12.0696     96.5356    195.1654   4.7326391853e+01   2.0667539593e+01    0.6602424    0.3604823  25.93  0.002858109    1.738    0.425
        36 -11.3452    125.8528    247.1240   4.6989853946e+01   7.0168319787e+00    0.4148185    0.2477261 -42.74  0.002456246    1.821    0.451
        37 -11.2388     60.0453    156.8229   5.2390469079e+01   3.4990792756e+01    0.3855831    0.3248223   4.15 0.0007022868    1.319    0.242
        38 -11.2004    179.7912    167.7218   2.3562847753e+01   1.4367113510e+01    0.4200455    0.3380915   4.76  0.002366489    1.268    0.211
        39  -9.5136    234.6862    153.6549   1.2098026891e+01   9.3521959441e+00    0.1189768   0.07492726 -16.28 0.0007047184    1.712    0.416
        40  -9.5354    134.5787    149.4980   2.9655446073e+01   2.5130913828e+01    0.3818993    0.1833779 -56.60  0.001443186    2.389    0.581
        41  -9.6599    133.4140    143.1037   2.8599413151e+01   2.6733046180e+01    0.4984196    0.1421765 -53.90  0.001382109    4.367    0.771
        42 -10.8634     38.3526    149.5640   5.8635032040e+01   3.9534712892e+01    0.3693164    0.3391989 -46.21 0.0005913604    1.156    0.135
        43  -8.3677    112.3988    150.4464   3.5541687791e+01   2.8671644653e+01    0.1459601    0.1420746 -35.43 5.218327e-05    1.020    0.019
        44 -10.3989     47.4202    147.3405   5.5221165214e+01   3.9122543904e+01    0.3371462    0.2320243  35.56  0.001081712    1.413    0.292
        45  -9.3145    238.3205    147.3307   1.0474045393e+01   9.8462327907e+00    0.1165594   0.07513227 -15.84 0.0007048779    1.693    0.409
        46 -10.1931    108.9416    145.5265   3.5497694011e+01   3.0423002086e+01    0.2775578    0.2687695  35.77 0.0006398202    1.049    0.046
        47 -13.2661     12.7012    245.5343   7.2580697083e+01   1.8745094246e+01       1.4403    0.6918187 -55.10  0.007514491    2.694    0.629
        48 -10.3405     36.6770    142.8315   5.8363356885e+01   4.1575011523e+01    0.3332803    0.2618676 -86.48 0.0007010677    1.263    0.208
        49 -12.1989     43.3038    134.0076   5.4709497670e+01   4.3290918563e+01    0.8289385    0.5353625  49.45   0.00159436    1.597    0.374
        50 -10.1719     38.4632    129.1681   5.5771953998e+01   4.5192925896e+01    0.2728463    0.2070808  37.95 0.0005098621    1.316    0.240
        51 -11.4219     35.4297    124.6202   5.6237266824e+01   4.6797860284e+01    0.5188549    0.3430004  39.79  0.001382239    1.512    0.339
        52  -9.8934     33.3598    136.5242   5.8733987187e+01   4.3679073762e+01    0.3528549    0.2249705  76.43  0.001076721    1.755    0.430
        53 -10.3106     29.5643    135.3040   5.9979623282e+01   4.4398982584e+01    0.2802297    0.2444208  54.72 0.0003360241    1.132    0.117
        54 -10.6628     95.7534    133.6869   3.6840740678e+01   3.5582345921e+01    0.5335013    0.4083567  -9.11  0.002445618    1.687    0.407
        55 -11.6457     82.3640    131.9267   4.0676024138e+01   3.8291705726e+01    0.2986833     0.288753 -45.92 0.0003969891    1.043    0.041
        56 -12.4885      2.1200    244.2943   7.4919727046e+01   1.9842170139e+01    0.5418236    0.2498727 -89.25  0.001066935    2.311    0.567
        57  -9.2059    107.0342    126.4643   3.1885458847e+01   3.5327756331e+01    0.3028581    0.2446247  -3.36  0.001119015    1.541    0.351
        58  -8.1909    184.2843    126.6563   1.4470638889e+01   2.1131662056e+01    0.1326502   0.09808455 -64.30 0.0003561073    1.641    0.391
        59 -14.1258      4.6696    233.4041   7.4020886852e+01   2.1870560405e+01     2.011616     1.052571  44.37   0.01138122    1.484    0.326
        60 -10.5738     93.4682    121.5064   3.4804144507e+01   3.9016539789e+01    0.3604126    0.3052822   5.41  0.000794977    1.379    0.275
        61  -8.8410     87.4964    123.4539   3.7157416313e+01   3.9590110012e+01    0.1535017    0.1517149 -50.10  0.000216965    1.021    0.020
        62 -11.7776     54.5800    160.6574   5.4688163985e+01   3.4658628899e+01    0.5961216    0.4549645  28.10  0.002131082    1.295    0.228
        63  -9.1039    114.2458    121.5991   2.8705544905e+01   3.5119655453e+01    0.2111104    0.1476327  27.62 0.0005212732    1.645    0.392
        64  -9.8296    105.5905    130.6060   3.3246972593e+01   3.4597010412e+01    0.4039311    0.3235805 -70.90  0.001062619    1.380    0.275
        65 -15.1065      5.1600    214.3693   7.3256163106e+01   2.5988070108e+01     4.901682     1.670324  10.25   0.01770652    4.057    0.754
        66 -10.5765    243.5715    114.7366   3.7997540421e+00   1.3949759608e+01    0.2226112    0.1200695 -53.14  0.001268176    1.934    0.483
        67  -9.5896    104.8441    116.0820   3.0035220212e+01   3.8211326524e+01    0.2404056    0.2189118  42.21 0.0002936602    1.122    0.109
        68 -10.1941     42.6874    115.0722   5.1717870214e+01   4.8625319384e+01      0.28621    0.1994649  54.53  0.001106923    1.554    0.357
        69 -10.4341     32.3533    109.9965   5.5070394280e+01   5.1214016070e+01    0.2906139    0.2443437  81.16  0.001235466    1.235    0.190
        70  -8.9029     28.6452    108.3023   5.6363691737e+01   5.2066692302e+01     0.161283    0.1053912  57.46 0.0007038962    1.708    0.414
        71 -10.7844     24.0120    105.1620   5.7861139045e+01   5.3384055829e+01    0.3349841    0.2990716 -34.20 0.0008264467    1.154    0.134
        72 -14.5925      9.9965    206.8566   7.1711391800e+01   2.7342245669e+01     1.347402    0.8846595  37.32  0.003980873    1.306    0.234
        73  -8.5951     87.4937    102.0464   3.1844154934e+01   4.4901030310e+01    0.2263554    0.1390498 -78.05 0.0008082788    2.632    0.620
        74 -12.8303     57.1989    144.5999   5.1459971208e+01   3.8648225274e+01    0.7845024    0.4620692 -38.12 0.0008415278    2.027    0.507
        75  -8.7679     84.6868     93.3271   3.0368848836e+01   4.7522752299e+01    0.2488835    0.1853308  83.11 0.0008112958    1.798    0.444
        76  -9.4536     20.4631     90.4805   5.6913044228e+01   5.7745982020e+01     0.246551    0.2326753 -73.94 0.0005031432    1.044    0.042
        77  -8.9039     38.1217     86.1665   4.7424872677e+01   5.7005192893e+01    0.2078869    0.1726324  63.69 0.0004231494    1.347    0.257
        78 -10.7207    239.9606     83.1309   3.5806502070e+02   1.8963001991e+01    0.1730025    0.1641823  72.38  0.001373281    1.388    0.280
        79 -10.4247     45.4408     80.5863   4.2475147309e+01   5.7439326232e+01    0.3662269    0.2330262  54.63  0.001298072    1.904    0.475
        80  -9.6703    110.6199    167.4354   3.9221004950e+01   2.4982484188e+01    0.2782908    0.2370439  83.62 0.0007425994    1.438    0.305
        81 -10.0067     13.3866     72.3933   5.6948350723e+01   6.3148910351e+01    0.2575019    0.2344211  57.74 0.0006760362    1.208    0.172
        82 -11.9374    205.3421     62.7636   3.5720465140e+02   2.7705445934e+01    0.4433146    0.3479696 -71.25 0.0009137413    1.227    0.185
        83  -8.9312     53.6217    246.0627   6.3196642612e+01   1.4892400084e+01     0.151168     0.137487  51.12 0.0003346037    1.145    0.126
        84 -10.8409     42.7332    245.7831   6.5704470564e+01   1.6009328299e+01    0.2088923    0.1541964  45.74 0.0003591877    1.158    0.137
        85 -10.2018      1.8351     50.6916   5.9116710565e+01   6.9392161023e+01    0.4070608    0.1397085 -62.72  0.001630196    2.430    0.589
        86 -10.9400      2.0000     42.4873   5.6802686149e+01   7.1349821784e+01    0.6289095   0.07950702 -68.86  0.001433939    8.225    0.878
        87 -10.3501     12.8248     49.8646   5.1372208293e+01   6.8811054718e+01    0.2222567    0.1701365 -31.34 0.0009114456    1.238    0.192
        88  -9.8197     18.4680     36.5137   4.2449902786e+01   7.1231966675e+01    0.1340042    0.1205716 -11.38 0.0001343565    1.005    0.005
        89  -9.2968     82.7390     59.0173   1.9783175446e+01   5.5304279987e+01    0.2001737    0.1897996 -50.40 0.0003635664    1.082    0.076
        90  -8.8177     91.0165     32.4909   6.8004595606e+00   5.7753801689e+01    0.2124789    0.1304322  63.17 0.0006304127    1.537    0.350
        91 -10.4356     22.6463     27.9910   3.5377365072e+01   7.2401297573e+01    0.2400684    0.1818437  34.63 0.0006004551    1.311    0.237
        92  -9.8021     53.8528    237.9887   6.2572748028e+01   1.6461556968e+01    0.2473328    0.1799324  39.17 0.0003812918    1.151    0.132
        93 -10.2522      7.5137     25.9977   4.6201956695e+01   7.4582532186e+01    0.2819802    0.1312824  39.15  0.001268089    2.459    0.593
        94  -9.5399     60.6814     21.5814   1.1396721460e+01   6.6284677011e+01    0.2480832    0.2144407  68.74  0.001073305    1.190    0.160
        95 -11.3080     54.7893    232.1319   6.1910400874e+01   1.7559354037e+01    0.2815683    0.2089325 -77.85 0.0005701788    1.552    0.356
        96  -8.7940    189.4539     15.0385   3.4737331070e+02   3.6816728611e+01    0.1727862    0.1037141 -34.61  0.000681207    1.568    0.362
        97  -9.0812    223.2986    240.6876   2.7855702979e+01  -1.7069070669e+00   0.08627819     0.076846  -9.09 0.0003668957    1.603    0.376
        98 -10.6974    103.7096    239.0013   5.0966810753e+01   1.0878390927e+01    0.2873388    0.2257036 -54.23  0.001451036    1.498    0.332
