#   1 NUMBER                 Running object number                                     
#   2 MAG_AUTO               Kron-like elliptical aperture magnitude                    [mag]
#   3 X_IMAGE                Object position along x                                    [pixel]
#   4 Y_IMAGE                Object position along y                                    [pixel]
#   5 X_WORLD                Barycenter position along world x axis                     [deg]
#   6 Y_WORLD                Barycenter position along world y axis                     [deg]
#   7 A_WORLD                Profile RMS along major axis (world units)                 [deg]
#   8 B_WORLD                Profile RMS along minor axis (world units)                 [deg]
#   9 THETA_WORLD            Position angle (CCW/world-x)                               [deg]
#  10 FWHM_WORLD             FWHM assuming a gaussian core                              [deg]
#  11 ELONGATION             A_IMAGE/B_IMAGE                                           
#  12 ELLIPTICITY            1 - B_IMAGE/A_IMAGE                                       
         1  -7.2008    155.0201     18.9933   2.9014869015e+02   6.6265109777e+00  0.007895785  0.007408314 -57.86 0.0003429043    1.060    0.056
         2  -8.8370      5.4891    248.2037   2.9329034477e+02   4.8835137191e+00    0.0296285   0.01525707  59.55  0.002336396    3.007    0.667
         3  -7.5637    248.6591    248.6729   2.9048811104e+02   3.4218829173e+00  0.007153859  0.004924702 -26.24 0.0007051413    1.735    0.424
         4  -8.6616    117.0936    247.5020   2.9199771811e+02   4.2246979398e+00   0.01498432   0.01212652  25.00  0.001308691    1.247    0.198
         5  -8.2778     20.5115    247.9895   2.9311558564e+02   4.7964051579e+00   0.01055095  0.008890118  29.13 0.0007445121    1.189    0.159
         6  -7.3292     71.4726    247.4341   2.9252383939e+02   4.4984661143e+00  0.006498017  0.006440507 -11.79 0.0002005167    1.007    0.007
         7  -7.6143    187.9829    244.5024   2.9116157758e+02   3.8342196598e+00   0.01033943  0.006452513  29.32  0.001031336    1.593    0.372
         8  -8.3016    113.6931    243.1918   2.9201046912e+02   4.2946955854e+00   0.01048751  0.008525479  89.38  0.001176224    1.395    0.283
         9  -9.3645     39.8786    242.0896   2.9285581070e+02   4.7487965092e+00   0.02436933   0.01452044  69.69  0.002109829    2.566    0.610
        10  -8.4442    103.8122    242.1313   2.9211798795e+02   4.3660688028e+00   0.01756933  0.009120069  35.43  0.001626376    1.876    0.467
        11  -7.6924    123.2523    238.6886   2.9187246792e+02   4.2892958349e+00   0.01150999    0.0082167  31.64 0.0007513166    1.391    0.281
        12  -8.6791    181.6824    234.3396   2.9117163191e+02   3.9889948214e+00   0.01997039   0.01305935  61.39  0.001950018    1.922    0.480
        13  -8.8124    177.0686    233.8504   2.9122182639e+02   4.0223148505e+00   0.01908806   0.01423338  80.96  0.001503627    1.652    0.395
        14  -9.9669    216.5989    232.2535   2.9075623281e+02   3.8033539173e+00   0.02577556   0.01999086 -63.72    0.0028663    1.296    0.229
        15  -9.5751    221.9260    231.3601   2.9068933035e+02   3.7816318788e+00   0.02672727   0.02395125  32.94   0.00304922    1.119    0.106
        16  -8.0478      1.9046    234.6175   2.9324854619e+02   5.0614165992e+00   0.01154905  0.009223021 -55.68  0.000683811    1.231    0.187
        17  -8.2247     26.9411    227.4622   2.9291552683e+02   4.9945443662e+00   0.01309625  0.009674757 -89.21  0.001381556    1.625    0.385
        18  -7.4649     45.2315    224.2608   2.9268462632e+02   4.9222278484e+00  0.008921088  0.007492176  62.28 0.0003816666    1.302    0.232
        19  -8.8873    151.8728    216.7476   2.9140715610e+02   4.3703604196e+00   0.01655312   0.01208508  28.05  0.001004058    1.372    0.271
        20  -8.1134    156.3551    216.6767   2.9135499629e+02   4.3442882930e+00   0.01366616   0.01000252  71.14  0.001425747    1.685    0.407
        21  -8.1018    210.2500    215.1028   2.9072365712e+02   4.0388282152e+00   0.01641675  0.007759902 -43.67  0.001393319    2.285    0.562
        22  -8.3277    121.8468    214.5489   2.9174018860e+02   4.5756963162e+00   0.01590224   0.01321232  11.46  0.001837433    1.270    0.213
        23  -8.1086     13.8657    212.0553   2.9297209282e+02   5.2500661743e+00   0.01245725  0.009602457  29.21   0.00125192    1.297    0.229
        24  -7.7629    229.5239    204.4909   2.9043599937e+02   4.0450842336e+00  0.006561741  0.006440552 -31.60 0.0001348656    1.010    0.010
        25  -7.7445    125.5156    199.5330   2.9160538523e+02   4.7266210579e+00  0.006610367  0.006383302 -27.42 9.226945e-05    1.036    0.035
        26  -7.8117     77.6226    194.9582   2.9213040787e+02   5.0661436513e+00   0.01043314  0.008811424   8.70 0.0005849195    1.253    0.202
        27  -7.2453    218.4909    188.5399   2.9046471972e+02   4.2949253599e+00  0.006533802  0.006456148 -25.18 1.770732e-05    1.004    0.004
        28  -8.6646    237.6449    186.6764   2.9023240024e+02   4.2011717946e+00   0.01512576  0.007929026 -32.36  0.001188178    2.600    0.615
        29  -9.1828    242.2592    183.7726   2.9016128118e+02   4.2068131864e+00   0.01803186   0.01389529   5.82 0.0003981931    1.451    0.311
        30  -7.8605    209.5380    187.4848   2.9056144649e+02   4.3608894904e+00   0.01133705  0.006618415  11.61 0.0008981316    2.134    0.531
        31  -8.4813    132.7313    184.6591   2.9143042976e+02   4.8546225691e+00    0.0138311   0.01056203  37.95 0.0008533036    1.312    0.238
        32  -7.9498    204.9844    178.6679   2.9055953138e+02   4.4897132980e+00   0.01059407  0.006161134  26.88 0.0005935387    1.735    0.424
        33  -7.7388     24.2313    177.8079   2.9264205611e+02   5.5827921476e+00   0.00956485  0.007667514 -24.47 0.0008434019    1.371    0.271
        34  -7.6795      3.3078    178.6458   2.9288911997e+02   5.6979567820e+00  0.007028961  0.005009496  66.13 0.0007042606    1.720    0.419
        35  -8.0293    230.1945    173.0557   2.9023414148e+02   4.4026667513e+00   0.01120524   0.00963368  22.01 0.0005754195    1.179    0.152
        36  -8.0739    145.9165    167.0626   2.9116966443e+02   4.9781070418e+00    0.0102302  0.009816169  -5.20 0.0007458476    1.055    0.052
        37  -7.3646     51.4725    166.9424   2.9226030093e+02   5.5452406175e+00  0.009391448  0.005767969  83.10 0.0008085699    2.488    0.598
        38  -8.8446     71.8186    165.4932   2.9201616586e+02   5.4402516945e+00   0.01875763   0.01030703  40.30  0.001142081    1.832    0.454
        39  -8.8871     44.4076    165.6857   2.9233425452e+02   5.6019401915e+00   0.01758719   0.01174042  17.06  0.001055992    1.630    0.387
        40  -8.6429    220.3353    163.2162   2.9028703097e+02   4.5751678834e+00   0.01771168  0.006482491 -49.56  0.001370288    2.656    0.624
        41  -7.9675    154.4382    158.1930   2.9101652209e+02   5.0290501965e+00   0.01344285  0.009799512 -15.12 0.0009294783    1.662    0.398
        42  -7.8344     15.7681    152.1744   2.9258238021e+02   5.9285905660e+00  0.009210833  0.007516793 -27.27 0.0003252101    1.320    0.243
        43  -7.9548     52.4552    146.5470   2.9212340765e+02   5.7742758830e+00   0.01144345    0.0112901  38.93 0.0007316173    1.026    0.026
        44  -7.5908    138.3148    142.4865   2.9110581770e+02   5.3066379274e+00   0.01186289  0.006046325 -62.08  0.001066267    1.959    0.490
        45  -8.2343    132.1755    139.0280   2.9115540634e+02   5.3832955988e+00   0.01064366   0.00924733  24.70 0.0003156808    1.159    0.137
        46  -7.2040    207.6594    129.3131   2.9022367965e+02   5.0414292064e+00  0.007043794  0.004964307  61.62 0.0007046785    1.699    0.412
        47  -7.1481    195.4790    126.5048   2.9034689429e+02   5.1470229980e+00  0.006678879  0.006324227 -28.36  3.50816e-05    1.064    0.060
        48  -8.3579    129.3421    124.0158   2.9109546525e+02   5.5730933327e+00   0.01099629  0.009209649  33.91 0.0003001968    1.194    0.162
        49  -8.9892     75.6823    123.4792   2.9171260758e+02   5.9009385406e+00   0.01249724   0.01200278 -12.07 0.0005692085    1.053    0.050
        50 -10.2607    242.6537    119.1968   2.8975740280e+02   4.9470399506e+00    0.0172164   0.01216555  34.09 0.0004536657    1.404    0.287
        51  -7.0191    213.6965    115.3525   2.9006765003e+02   5.1656522892e+00  0.006998546  0.005028799  66.65 0.0007040197    1.705    0.414
        52  -6.8046     52.4887    115.5818   2.9193224586e+02   6.1306472907e+00  0.006630249  0.006282699 -21.48 0.0001377595    1.069    0.065
        53  -7.5562    171.5842    112.5346   2.9053642379e+02   5.4514474206e+00  0.006531094  0.006371952 -43.22 7.981295e-05    1.015    0.015
        54  -6.9242     53.5971    112.2373   2.9189880149e+02   6.1625245922e+00  0.006998533  0.004700696  52.85 0.0006913349    1.676    0.403
        55  -7.0326     31.4533    108.5242   2.9213219629e+02   6.3376319977e+00  0.006522614  0.006443048 -39.98 0.0008083198    1.004    0.004
        56  -7.8071    240.0496    100.8344   2.8967374646e+02   5.1738213067e+00   0.01062616  0.009076496  59.66  0.001235398    1.261    0.207
        57  -7.1922    245.5703    100.1423   2.8960579111e+02   5.1484999829e+00  0.009117473  0.005952128 -49.10 0.0004952696    1.513    0.339
        58  -7.6358    212.9547     78.7777   2.8984977128e+02   5.5906339061e+00   0.00894676  0.008453943  21.58            0    1.064    0.060
        59  -6.8920    147.4948     79.4911   2.9061040585e+02   5.9763569893e+00  0.006654775  0.006350763 -27.96 0.0002130955    1.053    0.050
        60  -7.2424    196.3020     77.0399   2.9003128150e+02   5.7109150350e+00    0.0115496   0.00344242 -44.13 0.0007038428    4.211    0.763
        61  -8.0694    250.1220     69.1847   2.8936147097e+02   5.4767846937e+00    0.0108226   0.00947188 -56.72 0.0006814607    1.130    0.115
        62  -7.2359     44.5127     66.5981   2.9172237858e+02   6.7421310714e+00  0.006505495  0.006365901  -2.88 6.526477e-06    1.024    0.023
        63  -7.9086    209.2169     62.3980   2.8979143705e+02   5.8014104046e+00   0.01489607  0.008366995  23.60  0.001191727    1.864    0.464
        64  -7.6783    158.0240     62.2529   2.9038198899e+02   6.1112800668e+00  0.008789526  0.008320356  16.27 0.0002464202    1.065    0.061
        65  -8.1245     50.6805     59.3675   2.9160629338e+02   6.7884258750e+00   0.01428798   0.01011113  65.33  0.001147585    1.737    0.424
        66  -8.7547    195.4781     57.7126   2.8992106485e+02   5.9380306352e+00   0.01225159   0.01096658 -17.16 0.0003310892    1.174    0.148
        67  -7.2683    177.3721     49.1928   2.9007745989e+02   6.1449799496e+00  0.009293735  0.006384093 -74.12 0.0009467822    1.616    0.381
        68  -8.1406    135.6951     48.0455   2.9055222073e+02   6.4088568213e+00   0.01126682   0.00958195  12.84 0.0002620042    1.225    0.184
        69  -8.0191    167.8951     45.3126   2.9016295110e+02   6.2466188621e+00    0.0155642  0.008295441  18.35  0.001383194    2.163    0.538
        70  -9.6033    250.1828     43.2584   2.8919998844e+02   5.7741939630e+00   0.01204594  0.009242577 -53.63 0.0005771677    1.279    0.218
        71  -7.8259    244.7338     33.3621   2.8920144622e+02   5.9207170017e+00  0.009445646  0.006346497  13.76 0.0007333957    1.677    0.404
        72  -7.9613    234.2883     26.4633   2.8927916990e+02   6.0629741139e+00   0.01509829  0.008014229  35.80 0.0007313112    1.840    0.456
        73 -10.2233    144.7235     23.9599   2.9029857566e+02   6.6313926215e+00   0.01239196    0.0111363 -52.97 0.0002698578    1.100    0.091
        74  -7.9803    162.9936     24.2478   2.9008905919e+02   6.5181620666e+00   0.01760591  0.007272626 -44.59   0.00113345    2.632    0.620
