#   1 NUMBER                 Running object number                                     
#   2 MAG_AUTO               Kron-like elliptical aperture magnitude                    [mag]
#   3 X_IMAGE                Object position along x                                    [pixel]
#   4 Y_IMAGE                Object position along y                                    [pixel]
#   5 X_WORLD                Barycenter position along world x axis                     [deg]
#   6 Y_WORLD                Barycenter position along world y axis                     [deg]
#   7 A_WORLD                Profile RMS along major axis (world units)                 [deg]
#   8 B_WORLD                Profile RMS along minor axis (world units)                 [deg]
#   9 THETA_WORLD            Position angle (CCW/world-x)                               [deg]
#  10 FWHM_WORLD             FWHM assuming a gaussian core                              [deg]
#  11 ELONGATION             A_IMAGE/B_IMAGE                                           
#  12 ELLIPTICITY            1 - B_IMAGE/A_IMAGE                                       
         1 -13.5678      3.8154      9.5639   1.2172181880e+02   7.2956089610e+01     1.649074    0.8197455 -37.69   0.01034014    1.495    0.331
         2 -14.2279    199.9321     17.1108   6.5199634186e+01   3.2462383788e+01     2.674684     1.560417  26.43   0.01135243    2.651    0.623
         3 -11.4951    139.9663    249.6404   1.2910247658e+02   6.4386787188e+00     0.374615    0.1622685  44.69  0.001953197    1.736    0.424
         4 -11.4753    247.3447    245.4984   1.0939290124e+02  -9.8688271806e+00    0.3302772     0.135842  31.78  0.001777781    1.931    0.482
         5 -12.3695    126.0377    248.5690   1.3152973910e+02   8.7937922741e+00    0.6465005    0.3579847  24.45  0.003154973    2.856    0.650
         6 -11.6439     98.6992    248.7777   1.3649763296e+02   1.2901647789e+01    0.4303198    0.2149865  53.07  0.002050482    1.582    0.368
         7 -12.1614     81.3778    246.6223   1.3939508111e+02   1.5715074404e+01    0.4927799    0.3348146 -76.16  0.003442955    1.646    0.393
         8 -11.6132     87.2712    248.1149   1.3847493045e+02   1.4648622712e+01    0.4914791    0.2107119  59.05   0.00255819    2.226    0.551
         9 -14.6029     31.6038    247.4735   1.4789982487e+02   2.1786634865e+01     9.871902     3.401076  28.74   0.03224703    8.972    0.889
        10 -15.7921      6.9891    210.5199   1.5022709486e+02   3.0869222188e+01     8.749073     1.578438 -75.10   0.03676718    4.348    0.770
        11 -12.1300    106.6629    246.7843   1.3487712052e+02   1.2038809697e+01    0.4590836    0.2845149  27.11   0.00262143    2.152    0.535
        12  -9.7878    229.3951    229.1948   1.0986046048e+02  -5.4310935961e+00    0.1443012    0.1107414 -36.14 0.0005541431    1.721    0.419
        13 -13.5759      6.2924    245.3872   1.5180712152e+02   2.4762762080e+01     1.210464    0.9530005 -73.26   0.01050937    1.691    0.409
        14 -11.2539    101.1379    245.8684   1.3579192069e+02   1.3007594195e+01    0.2518595     0.201136  79.70 0.0007991195    1.282    0.220
        15 -10.7014     75.7049    242.3586   1.4005999000e+02   1.7202094273e+01    0.2436833    0.1307104  64.40 0.0008145374    1.683    0.406
        16  -9.0770     94.2210    216.3344   1.3414453418e+02   1.9142401964e+01    0.2445857     0.137294  75.29 0.0007673246    2.238    0.553
        17  -8.9702    152.7099    212.9337   1.2186834620e+02   1.0001522278e+01     0.168984    0.1511679  48.78 0.0002933442    1.097    0.089
        18 -10.2131    192.9889    194.9606   1.1076503340e+02   5.5071425321e+00     0.528339    0.2731111 -61.15  0.001655112    5.889    0.830
        19 -11.5672     67.3884    196.2812   1.3752084911e+02   2.6898461264e+01    0.3301367    0.2418337 -47.11  0.001615257    1.864    0.464
        20 -11.6153     72.6077    188.9327   1.3562196601e+02   2.7693027312e+01     0.268596    0.2273316 -58.92 0.0008417085    1.403    0.287
        21 -10.9982     81.6632    176.5638   1.3209382227e+02   2.9008293116e+01    0.2350326    0.2099885  81.60 0.0003130928    1.069    0.065
        22 -13.1298     68.9500    174.3801   1.3473533291e+02   3.1289916731e+01     0.466862    0.2844265 -44.47  0.001531933    2.226    0.551
        23  -9.8223    119.0727    174.5105   1.2312894270e+02   2.3290252364e+01    0.2225022    0.1277976  42.23  0.001035017    1.597    0.374
        24 -12.0696     88.4667    167.4908   1.2923462240e+02   2.9946585150e+01    0.8967145    0.5182423  58.16  0.004321899    1.790    0.441
        25 -12.9459     67.6529    144.6703   1.3098284467e+02   3.8132683915e+01     1.244254    0.6754526  85.59  0.005173612    2.724    0.633
        26 -12.4557     58.3053    132.9573   1.3164583767e+02   4.2057851215e+01     1.851539     0.623167 -76.18  0.004565627    7.329    0.864
        27  -9.5077    103.2966    147.3240   1.2219995583e+02   3.1995273517e+01    0.2888912    0.2160354 -28.96 0.0008390217    1.793    0.442
        28 -12.0641     89.3272    150.7476   1.2637895915e+02   3.3550316838e+01    0.2663953    0.2510924 -39.22 0.0004850472    1.246    0.197
        29 -13.6325     44.2614    229.7804   1.4473789105e+02   2.3402060578e+01    0.8573706    0.3558373  40.96  0.002038308    2.048    0.512
        30  -8.7262    192.3572    144.1926   1.0050232156e+02   1.4281234298e+01    0.1960416     0.139149 -46.58 0.0004023109    1.553    0.356
        31  -9.6920    111.2413    136.5759   1.1801540238e+02   3.2984554495e+01    0.3373002    0.2426889 -23.23  0.001277892    1.978    0.494
        32 -10.4013     98.7447    133.8905   1.2078771826e+02   3.5837441391e+01    0.2718451    0.2268471 -28.01 0.0006936284    1.448    0.310
        33 -11.1829     50.5438    129.7883   1.3328017283e+02   4.3718183964e+01    0.2834484    0.2162174  57.33 0.0006538158    1.353    0.261
        34 -14.7049     49.1269    220.5443   1.4322131716e+02   2.4507519977e+01     1.727505     1.543579  73.47  0.009164996    1.304    0.233
        35  -9.6541    107.9412    123.6256   1.1608565404e+02   3.6523800021e+01     0.218055    0.1970084 -41.01 0.0003313746    1.156    0.135
        36 -11.0131    168.2522    113.2874   9.8195727002e+01   2.5656031738e+01    0.3543599    0.3175934 -76.93 0.0007292675    1.275    0.216
        37  -9.9963    100.5374    151.2570   1.2362029242e+02   3.1587491014e+01    0.3102785     0.272754  35.89   0.00104427    1.219    0.179
        38 -11.9377    119.9013    238.0637   1.3153358900e+02   1.1392564968e+01    0.3819334    0.2290201  76.75  0.002033611    2.358    0.576
        39 -11.0214     69.2150    234.7575   1.4062319816e+02   1.9380026084e+01    0.2777365    0.1907091  75.40  0.001246535    1.286    0.223
        40 -10.1534    162.7049    249.1717   1.2488768748e+02   2.8490806893e+00    0.1745002     0.144354  63.14  0.001215227    1.406    0.289
