#   1 NUMBER                 Running object number                                     
#   2 MAG_AUTO               Kron-like elliptical aperture magnitude                    [mag]
#   3 X_IMAGE                Object position along x                                    [pixel]
#   4 Y_IMAGE                Object position along y                                    [pixel]
#   5 X_WORLD                Barycenter position along world x axis                     [deg]
#   6 Y_WORLD                Barycenter position along world y axis                     [deg]
#   7 A_WORLD                Profile RMS along major axis (world units)                 [deg]
#   8 B_WORLD                Profile RMS along minor axis (world units)                 [deg]
#   9 THETA_WORLD            Position angle (CCW/world-x)                               [deg]
#  10 FWHM_WORLD             FWHM assuming a gaussian core                              [deg]
#  11 ELONGATION             A_IMAGE/B_IMAGE                                           
#  12 ELLIPTICITY            1 - B_IMAGE/A_IMAGE                                       
         1 -10.0928     10.1568     18.7376   1.1423774131e+02   6.9357311577e+01    0.9336303     0.366172 -12.60  0.003452987    5.559    0.820
         2 -10.5173     16.1117     66.4818   1.2654358907e+02   6.0691622354e+01     1.328805    0.1429991 -54.86  0.004438439    4.522    0.779
         3 -10.9205     36.8261      8.9710   9.8157647761e+01   6.7948036648e+01     1.063411    0.5412377 -40.31  0.006014196    2.495    0.599
         4 -10.7699     19.2484      6.6293   1.0491543523e+02   7.0192091886e+01    0.9568142    0.8209259  72.23  0.006059213    3.560    0.719
         5  -9.4031      2.2324     14.5457   1.1639567928e+02   7.0527207797e+01     0.392368    0.1784195 -53.69   0.00186386    2.911    0.656
         6 -10.3898      5.1490      4.6504   1.1088135056e+02   7.1679597171e+01    0.4242161    0.3071977  -1.34  0.001505877    1.179    0.152
         7 -10.6540      6.6377     29.9194   1.1988607223e+02   6.7882798491e+01    0.5693228    0.3186718 -44.30  0.002526199    1.450    0.310
         8 -10.9906     23.5633     32.6231   1.1339868525e+02   6.6149401710e+01     1.204955    0.4227441 -34.36  0.003239969    2.587    0.613
         9 -10.0891     74.1217     55.9863   1.0219714310e+02   5.6080986511e+01     1.362522     0.574414 -27.26  0.005063841    3.300    0.697
        10  -9.7889     63.8108      2.9802   8.5381165911e+01   6.4584932253e+01    0.4561157    0.2427392 -26.72  0.002663203    1.996    0.499
        11 -10.2130     69.3809     40.5597   9.8409346286e+01   5.9257963152e+01     1.287711    0.3752903 -35.73   0.00485496    3.431    0.709
        12  -9.9651     60.8162     31.7772   9.8170810226e+01   6.1816938595e+01    0.8830885    0.4277857 -21.83  0.003408135    2.342    0.573
        13  -9.5609     63.1916     21.4327   9.3246870766e+01   6.2772877941e+01    0.3789313    0.3016243 -62.31  0.001335399    2.419    0.587
        14 -10.0236     64.2781     13.6366   8.9690670383e+01   6.3473179256e+01    0.4152112    0.3336146   2.91  0.002872751    1.101    0.092
        15  -8.9018    112.2081     15.6964   7.6794587758e+01   5.4045661166e+01    0.3231667    0.1970282 -31.63  0.001588867    1.866    0.464
        16 -10.1006     46.2477     29.6664   1.0289142045e+02   6.4126850056e+01    0.4350298    0.2266867 -45.01  0.001044888    2.319    0.569
        17 -10.0307     51.6393     14.2320   9.4517800623e+01   6.5354089528e+01    0.7643171    0.3786453  12.92  0.003637799    2.725    0.633
        18  -9.2874    110.2300     31.9275   8.2888513474e+01   5.2719059210e+01    0.7230783    0.2077401 -32.17  0.002615407    3.625    0.724
        19  -9.1432    123.7906      5.6832   7.0954298445e+01   5.2360485267e+01     0.591883    0.1818038  49.60  0.002424046    2.508    0.601
        20  -8.6478    128.5388     24.8202   7.6187159719e+01   4.9450522915e+01    0.5678822    0.2856998 -14.80  0.002155545    2.711    0.631
        21  -8.7191    126.5038      9.1380   7.1541304289e+01   5.1450437149e+01    0.3590316    0.1976683  45.22  0.001031252    1.579    0.367
        22  -9.4067    102.8630     22.0645   8.1339435913e+01   5.5392248129e+01    0.5031049    0.2970125 -15.35  0.001191401    1.944    0.486
        23  -8.6204    104.1058     15.3935   7.8638003663e+01   5.5809127230e+01     0.450372    0.2385939   6.94   0.00199965    2.833    0.647
        24  -9.6320    230.2002     19.7694   5.9964672127e+01   2.5574887144e+01    0.3697194    0.2254851 -43.71  0.001206714    1.610    0.379
        25  -9.5556    119.2132     19.9291   7.6630935514e+01   5.2081737144e+01    0.5979188    0.2840927 -10.56  0.002180186    3.149    0.682
        26  -8.3219     72.0154      8.5016   8.5022095141e+01   6.2673660907e+01    0.2059866    0.1597794 -13.80 0.0005146526    1.329    0.248
        27  -8.6542     78.2392      2.9446   8.0879496076e+01   6.2041839332e+01    0.2326298    0.1917711 -24.48 0.0009260672    1.455    0.313
        28  -9.9178     73.5199     17.4703   8.8154504086e+01   6.1505876507e+01    0.8403862    0.2673343 -24.80  0.003351485    3.630    0.725
        29  -8.2982     77.2311      6.9545   8.2787395881e+01   6.1880914226e+01    0.2330006    0.1609419 -13.78  0.001216625    1.493    0.330
        30  -8.5242     96.7867     12.7881   7.9557717112e+01   5.7570067048e+01    0.2994088    0.1864103  15.83  0.001625341    1.783    0.439
        31  -8.7342     89.0257      2.6393   7.7777171343e+01   6.0003978785e+01    0.2223108    0.1825188  19.77 0.0007944145    1.123    0.109
        32  -9.5334     85.1116     13.0247   8.2855514138e+01   5.9846070609e+01    0.4063824    0.2421422 -46.89  0.001729122    2.605    0.616
        33  -8.6285     85.5670      5.4734   7.9801716479e+01   6.0444609284e+01    0.3731467    0.2144768   9.97  0.002012295    2.006    0.501
        34  -8.8414    133.5017     12.0285   7.1111228204e+01   4.9577629056e+01    0.3063365    0.1869148 -54.36  0.001082677    2.209    0.547
        35  -8.0133     80.4316     12.7177   8.4115063756e+01   6.0753269697e+01    0.2023678    0.1095405 -29.90  0.001094772    2.016    0.504
        36  -9.1261    114.1916     10.0022   7.4389584769e+01   5.4135484644e+01    0.3150973    0.1736602  37.73 0.0003116338    1.696    0.410
        37  -9.1549    115.2093      4.3620   7.2252630200e+01   5.4385618055e+01    0.2695793    0.1946867 -43.98 0.0005844688    1.752    0.429
        38  -8.6254    137.7277      8.9922   6.9395070064e+01   4.8862318761e+01    0.1791631    0.1634036  55.93  0.001171018    1.089    0.082
        39  -8.7463    101.9910      8.2571   7.6594814403e+01   5.6903946949e+01    0.2470389    0.2121866 -33.00 0.0006712439    1.421    0.297
        40  -8.7199    104.2301      2.7227   7.4082619064e+01   5.6887594433e+01    0.3678947    0.1998704  31.94  0.001945321    1.811    0.448
        41  -7.8912     68.1027      9.0911   8.6525935176e+01   6.3294554746e+01    0.1903156    0.1283567  19.56 0.0004985933    1.294    0.227
        42  -9.3045    110.2542      7.9439   7.4555854092e+01   5.5172099485e+01    0.2227341    0.1759556 -14.20 0.0006554664    1.430    0.301
        43  -8.2215    130.9762      6.3917   6.9813652509e+01   5.0658234106e+01    0.2191997    0.1719541 -49.58 0.0007320933    1.553    0.356
        44  -7.7548    174.7359      6.1975   6.2994846292e+01   4.0227128929e+01    0.1755656    0.1293193  53.35 0.0005535202    1.318    0.241
        45  -8.1013    143.2890      5.4448   6.7372319913e+01   4.7858657455e+01    0.2015758    0.1395464 -53.96 0.0006191984    1.754    0.430
        46  -8.4767     97.6651      5.7139   7.6727824221e+01   5.8015300015e+01    0.2622506    0.1485261  23.77 0.0005941842    1.896    0.473
        47  -8.7190     95.7574      2.9705   7.6186270046e+01   5.8628158478e+01    0.3856779     0.240306  13.16    0.0017625    1.764    0.433
        48  -8.2965    136.5045      1.4835   6.7316681266e+01   4.9775628052e+01    0.2251049    0.1060581  64.35 0.0005838544    1.751    0.429
        49  -7.6164    150.6040      1.7553   6.5148507896e+01   4.6430208003e+01    0.1615052    0.1150683 -42.64 0.0009448183    1.636    0.389
        50  -8.2021    158.3547    122.1863   9.7617912610e+01   2.5885090995e+01    0.2314347    0.1458981 -54.08 0.0006834768    1.720    0.419
        51  -8.7266    219.1427    249.8393   1.1074388090e+02  -1.0293582623e+01    0.1777351    0.1250228  14.19 0.0007588673    1.320    0.242
        52 -10.9367    198.9417    249.2876   1.1451190176e+02  -6.9702137723e+00    0.7058168    0.3483403  35.82  0.003545252    1.711    0.415
        53  -9.6966    208.1675    249.5553   1.1278085892e+02  -8.5132339350e+00    0.4428076    0.2066998  29.09  0.002085983    2.096    0.523
        54 -10.9921    191.3281    245.2156   1.1534749078e+02  -5.0911670254e+00    0.5958784    0.3249608  31.62  0.003021669    1.666    0.400
        55  -9.5963    162.2297    249.0442   1.2167144666e+02  -6.9553057010e-01    0.2508352    0.1636529  40.60  0.001197206    1.266    0.210
        56  -9.8811    140.6720    118.4381   1.0101731473e+02   3.0728716597e+01    0.4965499    0.3620493 -75.56  0.001134178    1.835    0.455
        57  -9.2740    142.2772    111.6584   9.8844355596e+01   3.1836268016e+01    0.5248329    0.3176985  24.82  0.001929027    2.474    0.596
        58 -10.1865     91.8324    112.9441   1.1307168739e+02   4.1724239272e+01    0.6231133    0.4388712 -76.44   0.00170698    1.901    0.474
        59  -8.9643     92.4132    103.9916   1.1062439184e+02   4.3629915458e+01    0.6433749    0.3952748  10.70  0.002512166    2.744    0.636
        60  -8.0532      1.3375    115.9765   1.4031071787e+02   5.1077690530e+01    0.2597532   0.08703051 -70.06  0.001096898    2.326    0.570
        61  -8.6755    152.9491    115.5219   9.7210934272e+01   2.8564447392e+01    0.2481452    0.2137401 -43.29 0.0006812344    1.174    0.148
        62  -9.5788     81.6674     99.6485   1.1275920591e+02   4.6373194768e+01    0.7571184    0.3219739 -48.92  0.001117597    2.188    0.543
        63 -10.2245     77.9633    112.8356   1.1716607035e+02   4.3994565761e+01    0.5313771    0.3384775 -77.16  0.001634117    2.274    0.560
        64  -7.9840     77.7838    105.7770   1.1551431094e+02   4.5622694759e+01    0.2859966    0.1685662 -27.18  0.001014332    2.282    0.562
        65  -7.5169    167.4456    113.9762   9.3403546258e+01   2.5485036608e+01     0.219454    0.1346614 -65.37 0.0004093881    2.325    0.570
        66  -9.8573     14.2004    111.6929   1.3607185040e+02   5.1218048958e+01    0.4112391    0.2266541 -86.67  0.001937117    2.158    0.537
        67 -10.7052     63.0629     94.4706   1.1731296592e+02   5.0217364091e+01     1.286958    0.4249031 -49.73  0.002341646    2.623    0.619
        68  -9.6712     65.7084    103.5596   1.1871327888e+02   4.7861348852e+01    0.6773009    0.5273734  -6.20  0.003699912    1.523    0.343
        69  -9.9371     65.8296    111.0149   1.2041473102e+02   4.6157190034e+01    0.4142053    0.3411002 -87.33  0.001180837    1.434    0.303
        70  -9.6796     59.5530    109.9746   1.2210020024e+02   4.7217228555e+01    0.3604482      0.27354  86.53  0.001192017    1.715    0.417
        71  -8.8434    158.7869    111.9423   9.4882458476e+01   2.7955627455e+01    0.2774298    0.2140654 -62.79 0.0004038829    1.453    0.312
        72  -8.5478     36.6744    111.2968   1.2934795288e+02   4.9455513618e+01    0.2368784     0.145054 -14.81  0.001169548    2.368    0.578
        73  -8.0518    149.7307    110.0484   9.6562803083e+01   3.0469385817e+01    0.2245631    0.2015236 -44.79 0.0004133749    1.126    0.112
        74  -9.5952     31.0098    108.7282   1.3057845003e+02   5.0561290106e+01    0.2841197    0.1776621  27.63  0.001605992    1.882    0.469
        75 -10.9853     44.4245    102.2411   1.2511726141e+02   5.0721135746e+01     0.779102    0.4581126  71.44  0.002818494    3.487    0.713
        76 -10.4981      4.8396     86.8538   1.3476726876e+02   5.7210008745e+01     1.363682     0.321903 -60.58  0.004264021    2.775    0.640
        77 -11.1921     20.5181     97.9318   1.3180180052e+02   5.3818952287e+01     1.725929    0.6127259 -69.94  0.006822977    3.187    0.686
        78 -10.4664     32.5081     63.6405   1.1968570599e+02   5.9931470548e+01     1.058435    0.4684707 -29.51  0.004804823    2.604    0.616
        79  -9.9681    175.7651    248.1775   1.1886939337e+02  -2.8917372794e+00    0.2841215    0.1888713 -47.97  0.001416322    1.840    0.457
        80 -10.5136     25.6190     78.1753   1.2593974407e+02   5.7634461991e+01    0.6143639    0.4344414  78.08  0.001858762    2.354    0.575
        81  -9.8951    170.8954    246.8848   1.1963817972e+02  -1.8464469100e+00    0.2827308    0.1935973 -54.46  0.001592772    1.859    0.462
        82  -7.7017    108.9503    247.7954   1.3199811806e+02   8.5907928482e+00     0.155001     0.141934 -28.10 0.0004934487    1.566    0.362
        83 -10.8169    161.5363    243.6563   1.2102389800e+02   3.1478444495e-01    0.5454175    0.2412551  31.80  0.002257383    2.514    0.602
        84 -10.8274     21.9321     53.7008   1.2089841636e+02   6.2693906468e+01    0.6872792    0.4448942 -80.56  0.002874233    3.389    0.705
        85 -10.0029     34.4975     90.8038   1.2581495928e+02   5.4211271777e+01     0.557649    0.2767824 -73.78   0.00169898    3.010    0.668
        86  -7.2497     33.4408    240.4606   1.4529630323e+02   2.0823599182e+01    0.1154733   0.08499668  75.02 0.0001436211    1.014    0.014
        87 -10.4723    250.5640    232.3468   1.0192908577e+02  -1.2675720714e+01    0.2462903    0.1313828 -36.76 0.0002713042    1.957    0.489
        88 -10.2574      4.5646     41.7381   1.2448203977e+02   6.6015444228e+01    0.5959612    0.2785594 -55.31  0.002695801    1.898    0.473
        89  -9.6990    188.0646    233.8385   1.1414754748e+02  -2.7367112829e+00    0.2740858    0.2023102 -47.56 0.0007690322    1.623    0.384
        90  -8.8835    140.0026     99.6790   9.6191150057e+01   3.4862083584e+01    0.4149227     0.223154  31.02  0.001304632    2.570    0.611
        91  -9.5315    149.4750    103.2736   9.4814372161e+01   3.1936060038e+01    0.4306551     0.294781 -55.85 0.0009774807    1.623    0.384
        92 -10.2938     37.6022     80.6121   1.2235336495e+02   5.6071835502e+01    0.7951835    0.3891366 -12.28  0.003066685    3.984    0.749
        93  -8.9142     14.4221    104.9960   1.3492624783e+02   5.2695642910e+01    0.2066153    0.1471701 -27.10 0.0004993482    1.572    0.364
        94  -9.4616      6.4068    103.6162   1.3709406662e+02   5.3511118890e+01    0.3492482    0.2133477  77.90   0.00168498    2.191    0.544
        95  -8.3506    165.8998    103.8096   9.1101129213e+01   2.7926267742e+01    0.2858467    0.2200139 -50.84 0.0004510895    1.333    0.250
        96  -7.9118     73.7045    102.5086   1.1596110669e+02   4.6964194319e+01    0.2556549    0.1175701 -51.71 0.0007559925    2.001    0.500
        97  -7.5403    197.1980    101.8203   8.4075771652e+01   2.0756689090e+01    0.2044702    0.1821992  17.17 0.0005445073    1.335    0.251
        98  -9.2100    158.9522    101.0742   9.1963318786e+01   3.0140127091e+01    0.3514728    0.2191479 -49.80 0.0007280697    1.687    0.407
        99  -9.3832     94.2626     97.3010   1.0828104683e+02   4.4757359367e+01    0.3434714    0.2820493 -62.35 0.0006074294    1.352    0.260
       100  -8.8952     96.1029     90.9497   1.0595694667e+02   4.5761843755e+01    0.5310894    0.3349727  -1.79  0.002053675    2.823    0.646
       101  -7.9784    149.9256     97.2331   9.3058820503e+01   3.3051492559e+01     0.261045    0.1791619  22.64 0.0008756557    1.995    0.499
       102  -9.5643    164.4785     93.8770   8.8761488576e+01   3.0220735706e+01    0.5882415    0.2723019 -37.68   0.00155345    2.267    0.559
       103  -8.8231    163.1777     86.9552   8.7161125493e+01   3.1846207302e+01    0.2897848    0.2079745 -59.12  0.000710971    1.583    0.368
       104  -9.5018    138.6897     92.6881   9.4575761066e+01   3.6568602061e+01    0.4697462    0.4132095  87.98  0.001152001    1.300    0.231
       105  -8.1648    138.3481     88.3136   9.3420009913e+01   3.7501819552e+01    0.3871087    0.2332547  29.06  0.001518619    2.181    0.542
       106  -8.8925     39.9917    107.1141   1.2751844240e+02   5.0080640741e+01    0.1909363    0.1651979 -85.49 0.0004961999    1.272    0.214
       107  -9.5039    157.7308     90.5459   8.9376629426e+01   3.2492841099e+01    0.4359207    0.2451587 -33.77  0.001742081    1.960    0.490
       108  -8.8965    150.3072     88.9826   9.0675842301e+01   3.4571312749e+01    0.3172184    0.2359765 -36.65 0.0007880045    1.400    0.286
       109  -9.5092    110.7741     90.0015   1.0135753385e+02   4.3143477572e+01    0.7433506    0.3825208  27.74  0.002689824    2.765    0.638
       110 -10.1482     85.3217     86.5670   1.0803631079e+02   4.8544696006e+01    0.4606992    0.3500422 -80.00  0.000898385    1.995    0.499
       111  -7.8118    174.3918     88.3031   8.5123658142e+01   2.8845755423e+01    0.2191445     0.141825 -49.49 0.0009114443    1.610    0.379
       112 -10.1595     13.5027     45.3808   1.2183952272e+02   6.4811718733e+01    0.7183062     0.334011 -15.55   0.00287406    2.686    0.628
       113 -10.5709     55.1702     70.9313   1.1354770616e+02   5.6069533639e+01    0.6140748    0.3821349  52.03  0.001700078    2.463    0.594
       114 -10.7037     60.4192     61.4143   1.0876278529e+02   5.7163366081e+01      1.18206    0.3996864  26.65  0.001611529    4.222    0.763
       115 -10.1888     47.9750     84.5361   1.1978297145e+02   5.4174876792e+01    0.5109174    0.3672003 -86.67  0.001792345    2.207    0.547
       116  -9.1847     49.0082     77.1400   1.1747189868e+02   5.5578858331e+01    0.5988063    0.3157601   6.46  0.002594092    2.962    0.662
       117  -8.5714     18.8298    233.3311   1.4733520255e+02   2.3898426475e+01     0.183088    0.1385839 -85.58 0.0003378948    1.238    0.193
       118  -7.4928     78.4422     89.9850   1.1117746577e+02   4.8950933925e+01    0.2194158    0.1298518 -48.06 0.0007300729    1.597    0.374
       119 -10.2915    103.8932     82.6657   1.0121312036e+02   4.5961059911e+01     0.493888    0.3122171 -53.66 0.0008749859    1.827    0.453
       120  -9.6028    104.8780     72.1511   9.7717484334e+01   4.7745679237e+01    0.7845569    0.3958277 -25.99   0.00261384    2.672    0.626
       121  -9.4273    109.7944     63.8881   9.3682896411e+01   4.8193010035e+01    0.3547978    0.3023426 -52.18 0.0007597982    1.360    0.265
       122  -9.0816    110.8044     58.1901   9.1558981812e+01   4.8917387940e+01    0.4555041    0.2456469  31.63  0.001205466    2.142    0.533
       123  -9.4436     87.6385     78.6662   1.0498689092e+02   4.9725990923e+01    0.6183664    0.3458726  20.75  0.001989822    2.479    0.597
       124  -9.0699    157.4272     83.3785   8.7452574507e+01   3.3906799720e+01    0.3516218    0.2747446 -39.06  0.000862116    1.326    0.246
       125  -9.1586    157.2836     76.8314   8.5640487708e+01   3.5117680777e+01    0.5938191    0.2881392 -46.34  0.001867677    2.223    0.550
       126  -9.4180    140.4378     82.3734   9.1186837768e+01   3.8142915630e+01    0.5958345     0.342977 -35.63  0.001674351    1.840    0.457
       127  -8.9664    139.9271     75.5170   8.9308224009e+01   3.9507525894e+01    0.3423761    0.2132121 -46.16 0.0008396544    1.719    0.418
       128  -8.1452    170.0592     83.0802   8.4618899540e+01   3.0866551419e+01    0.2539115    0.1854474 -76.59  0.001126529    1.742    0.426
       129  -9.0502    149.8489     80.0239   8.8244167741e+01   3.6347174656e+01     0.516713    0.2615008 -34.03  0.001545411    2.170    0.539
       130  -8.7582    118.9715     80.4794   9.6246843872e+01   4.3302623444e+01    0.3340172     0.228413 -52.95 0.0005846418    1.672    0.402
       131  -8.1088    119.8772     75.9142   9.4621833062e+01   4.3954698320e+01    0.2288862    0.2105439  12.00 0.0005563608    1.082    0.076
       132  -9.1429     74.1617     80.2515   1.0980593201e+02   5.1603583635e+01    0.3525407    0.2285768 -57.70 0.0007160745    1.804    0.446
       133  -7.8104     75.0020     74.4931   1.0782001622e+02   5.2604043223e+01     0.334249    0.1885838   6.14  0.001209373    3.277    0.695
       134  -7.8225     68.5998     79.7472   1.1150394875e+02   5.2527349212e+01    0.2761387    0.1157818 -44.11  0.001147375    2.178    0.541
       135  -8.5808    166.1230     78.6999   8.4246958299e+01   3.2619101518e+01    0.2557754    0.2032008 -50.95 0.0006495081    1.310    0.237
       136  -7.7221    184.1449     78.0934   8.0470371677e+01   2.8260077248e+01    0.2236153     0.199279  38.30 0.0006660584    1.232    0.189
       137  -6.9542    174.2680     78.6630   8.2553547650e+01   3.0610943423e+01    0.1547438     0.115265 -71.62  0.000287274    1.594    0.373
       138  -9.6754    127.7711     73.9634   9.1919556173e+01   4.2570781867e+01    0.7979889    0.4035907 -31.06  0.002426478    2.271    0.560
       139  -8.6403    130.4739     63.9882   8.8177998153e+01   4.3665062103e+01    0.4310977     0.233573 -44.76  0.001078091    2.033    0.508
       140  -9.8331     81.5433     72.3904   1.0502715574e+02   5.1956218419e+01    0.4076943    0.2896629 -63.18 0.0009057276    1.974    0.493
       141  -8.9993     83.4774     64.3734   1.0186015269e+02   5.3092585052e+01    0.4820476    0.3085648  -4.34   0.00221323    2.152    0.535
       142  -8.9868    162.6857     72.6030   8.3276013676e+01   3.4523972558e+01    0.4429888    0.2199578 -43.77  0.001291459    2.103    0.525
       143  -8.8744    115.0081     72.8944   9.5043558872e+01   4.5538508676e+01    0.3297042    0.2253486 -41.30 0.0004804695    1.508    0.337
       144  -7.7375    115.6826     68.6920   9.3550805987e+01   4.6137649782e+01    0.2304048    0.1800705  39.36 0.0008335036    1.228    0.186
       145  -8.5081    169.3719     71.5069   8.1586563766e+01   3.3054481273e+01    0.3385309    0.1504169 -32.30  0.001230781    2.578    0.612
       146 -10.0081    237.7519     68.6168   6.9699493620e+01   1.7030238591e+01    0.3169619    0.2458324 -56.56 0.0006080284    1.160    0.138
       147  -9.6775    242.2669     64.2543   6.8171587893e+01   1.6708533258e+01     0.335176    0.2614779   1.70  0.001224036    2.148    0.534
       148  -8.1183    156.4948     70.0459   8.3881237999e+01   3.6477452531e+01    0.2173096    0.1495909 -38.62 0.0005968772    1.523    0.343
       149  -9.7206     94.6379     68.1161   9.9529697437e+01   5.0438417005e+01    0.4424799    0.2558322 -48.05  0.001070463    1.926    0.481
       150  -9.2753     97.1711     58.6814   9.5690633621e+01   5.1575905719e+01    0.6956829    0.4427108 -23.86  0.003396081    1.710    0.415
       151  -7.8127     23.1040     68.8983   1.2457574998e+02   5.9705457981e+01    0.1631088    0.1462677 -53.33 0.0003587549    1.234    0.189
       152  -9.1443    121.1823     65.8535   9.1166892550e+01   4.5435872139e+01    0.4308054    0.2802912 -59.09  0.001237335    2.153    0.535
       153  -8.0729    122.3392     61.3050   8.9431392678e+01   4.5931928805e+01    0.2942748    0.1883926  32.49 0.0009144088    1.678    0.404
       154  -9.2500    138.0438     65.2706   8.6706038266e+01   4.1701498679e+01    0.5861164    0.2459788 -36.49  0.001324514    2.505    0.601
       155  -8.9281    138.9472     56.8644   8.3936583288e+01   4.2823348677e+01    0.3994099    0.2600882 -59.54 0.0006591191    2.072    0.517
       156  -7.9678    138.8066     52.4012   8.2601616757e+01   4.3525675747e+01    0.2704904     0.127585  54.23  0.000792485    1.948    0.487
       157  -8.6171    141.9200     48.6209   8.0743817990e+01   4.3330111955e+01    0.3250392    0.2069697 -36.09 0.0003578342    1.694    0.410
       158  -8.1224    142.2516     44.5664   7.9433034971e+01   4.3812823253e+01    0.3048095    0.1895614  35.65 0.0009597093    1.764    0.433
       159  -7.7142     75.6207     66.7607   1.0521746376e+02   5.3956674702e+01    0.1843584    0.1226418 -48.95  0.000442448    1.625    0.385
       160  -8.6372    170.6850     64.9512   7.9515669597e+01   3.3805098709e+01     0.262734    0.1927874  49.51 0.0007154882    1.327    0.246
       161  -8.7835    157.7186     63.3329   8.1692286288e+01   3.7276983231e+01    0.2818525    0.2188436 -69.22  0.001129826    1.520    0.342
       162  -8.3465    164.4486     60.6911   7.9558420630e+01   3.6030460953e+01    0.2680535    0.1384958 -41.18 0.0007624798    2.020    0.505
       163  -8.4322    152.4506     59.9771   8.1842319014e+01   3.9096897892e+01    0.3741459    0.1942222 -32.73  0.001552171    2.110    0.526
       164  -8.4715     87.3094     58.4056   9.8664499957e+01   5.3447998048e+01    0.2366389    0.2062372 -50.42 0.0006351149    1.385    0.278
       165  -8.6015     89.1629     53.0331   9.6264920920e+01   5.3986069570e+01    0.4672778    0.2657579  15.08  0.001943084    2.654    0.623
       166  -7.0381    130.6679    220.7075   1.2400169425e+02   1.0058218720e+01    0.1316702     0.108556   9.37 0.0007022835    1.633    0.388
       167 -10.2849     85.0951     48.0372   9.5831890186e+01   5.5495176963e+01    0.4227689    0.3462839 -66.36 0.0009652983    1.871    0.465
       168 -10.6062     89.1396     38.2217   9.1074806577e+01   5.6163817175e+01    0.9337253    0.3522327  34.64  0.003528031    3.051    0.672
       169  -8.3672     10.0587     60.1721   1.2724878007e+02   6.2307028473e+01    0.2041726    0.1536837 -61.32  0.001409031    1.365    0.267
       170  -8.5579    149.7144     47.9201   7.8862669625e+01   4.1548838468e+01    0.3103602    0.1965734 -35.13 0.0005555625    1.709    0.415
       171  -9.3833    153.2296     41.2118   7.6168414715e+01   4.1601551426e+01    0.3681464      0.29601 -18.45  0.001206389    1.453    0.312
       172  -9.5610    147.5157     40.9130   7.7221406344e+01   4.3032165071e+01    0.4366375    0.3338395 -64.66  0.002287657    1.579    0.366
       173  -8.7065    144.0516     36.3951   7.6563028426e+01   4.4445332513e+01    0.2784464    0.2073945 -47.22 0.0006456735    1.525    0.344
       174  -8.9885    146.4236     58.7452   8.2800032394e+01   4.0749625607e+01     0.272296    0.2339234 -59.12 0.0007273964    1.293    0.227
       175  -8.9971    147.5719     53.7150   8.1045614630e+01   4.1233787631e+01     0.452528    0.2239037 -21.87  0.001710376    2.855    0.650
       176  -9.6249    146.8644     68.4966   8.5590255962e+01   3.9072538197e+01    0.6093589    0.2840578 -44.14  0.001359636    2.309    0.567
       177  -7.6326    232.4728     58.0268   6.8021177496e+01   1.9859925325e+01    0.1767645    0.1248682  -5.53  0.000809987    2.573    0.611
       178  -8.9671    129.9769     57.9397   8.6424645601e+01   4.4745532406e+01    0.5068544    0.2175263 -46.97 0.0004481178    2.900    0.655
       179  -8.2759    130.3112     54.3063   8.5204230193e+01   4.5224959107e+01    0.2791289     0.229733  34.42 0.0008764676    1.178    0.151
       180  -8.8338    157.8632     54.9719   7.9253315809e+01   3.8532279001e+01    0.4197414    0.2018967 -20.68  0.001486968    3.267    0.694
       181  -8.9841    157.5578     48.6213   7.7478422367e+01   3.9528930936e+01    0.3919152    0.1824206 -27.39  0.001228693    2.606    0.616
       182  -8.3833    122.7156     41.1212   8.2836251709e+01   4.8817239405e+01     0.479499    0.2559559  12.18  0.001591386    4.277    0.766
       183  -9.4022    118.3974     54.6228   8.8335160662e+01   4.7850000635e+01    0.4659902    0.3103267 -30.73  0.001537902    1.590    0.371
       184  -8.9957    121.0656     46.9655   8.5156302644e+01   4.8387242846e+01    0.3366473    0.2137391 -33.16  0.000430514    1.685    0.406
       185  -9.1814     53.3539     38.2719   1.0339865924e+02   6.1944901416e+01    0.5229998    0.2254151 -27.90  0.002366285    2.534    0.605
       186 -10.1164     49.8861     54.1116   1.1023813323e+02   5.9817125891e+01    0.5573939    0.4524678 -61.00  0.002375904    1.707    0.414
       187  -9.6015     55.8301     43.7217   1.0444812369e+02   6.0772984653e+01    0.9832264    0.4844036  -5.83  0.003190513    5.445    0.816
       188  -8.9129     40.0195     34.8506   1.0735146048e+02   6.4123683128e+01    0.3139081    0.2721747 -18.28  0.001515623    1.235    0.190
       189  -9.9703     42.3437     49.8671   1.1170361206e+02   6.1432508135e+01    0.5188072    0.3471597 -62.91  0.002795271    2.393    0.582
       190  -9.9571     37.4943     41.9727   1.1092839531e+02   6.3283437019e+01    0.3676934    0.2884954 -75.27  0.001680775    2.544    0.607
       191 -10.2758     35.8549     38.0020   1.1018885212e+02   6.4096397668e+01    0.3564445    0.2029956 -32.18 0.0004081949    1.500    0.333
       192  -9.3076    162.7597     52.6719   7.7620841104e+01   3.7660823542e+01    0.4353635    0.2051069 -24.67    0.0016401    2.854    0.650
       193  -9.4267    105.4804     51.4996   9.0852807886e+01   5.1059034454e+01    0.6636647    0.3436175 -31.63  0.002427411    2.038    0.509
       194  -8.8803    112.0579     46.2264   8.7264455267e+01   5.0455584146e+01    0.5883944     0.313496 -16.61  0.001747438    2.620    0.618
       195  -7.9264    179.9535     52.8366   7.4513311408e+01   3.3348523268e+01    0.2071087    0.1847939  40.82 0.0004583573    1.235    0.190
       196  -7.4963    223.5173     50.5119   6.7460801592e+01   2.3046745193e+01     0.138143    0.1195913 -80.46 6.252957e-05    1.004    0.004
       197  -9.5741    130.4019     46.3367   8.2665699334e+01   4.6357863385e+01    0.7356394    0.3183774 -22.23  0.001328848    3.323    0.699
       198  -8.9034    132.8255     36.0236   7.8835780719e+01   4.7152470758e+01      0.33587    0.1890955 -38.67 0.0006401576    1.974    0.493
       199 -10.5870    133.9072     31.0548   7.7026833342e+01   4.7499373417e+01    0.3619118    0.2617855  18.13  0.001909695    1.643    0.391
       200  -8.3579    152.9023     53.9363   7.9975243512e+01   3.9904255365e+01     0.229751    0.1732573 -81.02 0.0006118896    1.664    0.399
       201  -7.1408     16.5240    220.4271   1.4687731403e+02   2.6745862918e+01    0.1139521   0.08512744  80.83 5.890606e-05    1.036    0.035
       202 -10.1433    165.0544    211.3997   1.1510477705e+02   5.4694071270e+00    0.2267964    0.2194239 -52.08  0.000190667    1.150    0.130
       203 -10.1242     76.2848     32.0218   9.2886871807e+01   5.9297037910e+01    0.5562221    0.4248995  77.44  0.001315288    2.603    0.616
       204  -7.3041     39.4736    211.5016   1.4186224446e+02   2.6045103422e+01    0.1239801   0.09592815  80.19  1.94058e-05    1.008    0.008
       205 -10.0523      9.7819    207.5592   1.4720901435e+02   3.0099078686e+01    0.4634034    0.3209171  22.52  0.003034759    2.205    0.546
       206  -9.0248    191.6825    193.6462   1.0610863240e+02   3.6920545398e+00    0.6852237    0.3550782 -63.92  0.002117028    4.689    0.787
       207 -10.0567     79.4777     24.0006   8.8798442780e+01   5.9722188227e+01    0.7216445    0.2573356  34.60  0.002446663    3.077    0.675
       208  -8.9919     84.6797     21.9405   8.6402415368e+01   5.9002332537e+01    0.2427834     0.213119  -7.88 0.0008384427    1.198    0.165
       209  -9.4396    105.1975     39.4534   8.6830918898e+01   5.2827144649e+01     0.596763     0.274609 -23.17  0.001856016    2.665    0.625
       210  -8.8336    139.6836     39.8514   7.8537306938e+01   4.5050883087e+01    0.3940483    0.2310624 -34.80  0.001174557    1.859    0.462
       211  -8.0980    160.0000     39.1174   7.4274973755e+01   4.0209427731e+01    0.2106004   0.08195481 -30.86 0.0007917894    2.869    0.651
       212  -8.6601    118.8481     34.6603   8.1648991544e+01   5.0506956661e+01    0.2873862    0.1801253 -32.39 0.0007310715    1.743    0.426
       213  -9.3185    101.0114     32.0305   8.5389282127e+01   5.4633903839e+01    0.5009615    0.2532027 -29.28  0.001703674    2.112    0.527
       214  -8.3267     97.1160     32.8555   8.6779306103e+01   5.5317372941e+01    0.2455932     0.174346  -4.58 0.0004875822    1.535    0.349
       215  -9.1399    153.0937     34.3601   7.4181897664e+01   4.2504384184e+01    0.2485421    0.1852663 -65.33  0.001300084    1.600    0.375
       216  -8.2495    111.5012     22.0451   7.9156761160e+01   5.3559981942e+01    0.2775808    0.1580158 -32.15  0.001067491    1.958    0.489
       217  -7.6082    166.4643    196.9881   1.1219017486e+02   8.0249069178e+00     0.186188    0.1304814 -80.20  0.000358941    2.227    0.551
       218  -9.6087    139.2929    104.4636   9.7679220351e+01   3.4034339642e+01    0.5538926    0.3115123 -55.59 0.0007410493    2.117    0.528
       219  -9.7803    100.9904    175.9893   1.2362586948e+02   2.5185299592e+01     0.205465    0.1883366  81.35 -0.007547014    1.002    0.002
       220  -8.3614     42.1313     27.9270   1.0385921787e+02   6.4884719850e+01    0.1804874    0.1355841  -5.11            0    1.082    0.076
       221  -8.5746     46.7833     20.0056   9.8812896865e+01   6.5341901196e+01    0.3046376    0.1832716 -11.51  0.001115378    1.623    0.384
       222  -7.1486     41.2875    170.2972   1.3713710737e+02   3.5127910547e+01    0.1215728    0.0905888 -47.74 0.0002847427    1.552    0.356
       223  -9.1414    112.6269    155.0297   1.1678693163e+02   2.8054763961e+01    0.2520489    0.2144137  43.53 0.0003045897    1.193    0.162
       224  -9.2112    154.8465     26.9817   7.1709338072e+01   4.2945670945e+01    0.4248902    0.1647995  66.14  0.001632212    2.500    0.600
       225  -9.1959     91.4488     26.3492   8.6048207291e+01   5.7213140451e+01    0.3884434    0.2212446 -45.31  0.001269063    2.422    0.587
       226  -8.6222     92.0098     21.0265   8.3913483046e+01   5.7697390392e+01    0.3577357    0.1852534  36.59   0.00137506    1.756    0.431
       227  -8.3610    144.0793     25.6359   7.3291176973e+01   4.5702907116e+01    0.2168584    0.1779473 -45.32 0.0006012201    1.388    0.280
       228  -7.8485    128.7555     16.0191   7.3306892866e+01   5.0302251496e+01    0.2217734    0.1489813 -35.68 0.0007143923    1.722    0.419
       229  -8.6819    133.7648    146.7672   1.0960885107e+02   2.5798566210e+01    0.7252608    0.1732276 -53.60   0.00166998    5.596    0.821
       230  -8.1963    178.0885    148.9512   9.9526809517e+01   1.5625271767e+01    0.2216405    0.2169759 -75.84  0.000310527    1.045    0.043
       231  -8.8827    132.3745     17.5350   7.3063915116e+01   4.9316319006e+01    0.3652502     0.201038  40.47  0.001200571    1.767    0.434
       232  -8.4696    125.1835     13.1492   7.3106206984e+01   5.1391629824e+01    0.2189162      0.17799  70.95  0.000421546    1.255    0.203
       233  -7.2895     54.3222    147.3186   1.3066788708e+02   3.9051630995e+01    0.1359382    0.0967006 -37.73 0.0007043852    1.669    0.401
       234  -8.8528    236.1208    146.3238   8.7338945266e+01   3.7464730078e+00    0.2779362    0.1242783  40.52  0.001087034    2.543    0.607
       235  -9.6423     67.3000    144.2839   1.2670008666e+02   3.8089741129e+01    0.4925095     0.356155  74.61  0.002533057    1.602    0.376
       236  -9.1189    140.1639     22.7458   7.3161989692e+01   4.6950384410e+01    0.2894585    0.1594241 -35.80  0.001086204    2.034    0.508
       237 -10.3743    224.5633    142.8355   8.8648709816e+01   6.7369556774e+00    0.2714244    0.2690483  66.60 0.0003868564    1.083    0.077
       238  -8.5792    112.3003    134.0178   1.1232523589e+02   3.3098701215e+01    0.3636133    0.2488727 -85.94   0.00109054    2.160    0.537
       239  -7.9615    132.6552    132.2948   1.0652895004e+02   2.9368245143e+01    0.2649779    0.1772332  83.58 0.0009864134    2.491    0.599
       240  -7.8944    136.0000    131.0031   1.0535485814e+02   2.8947002530e+01    0.4395495    0.1457325 -40.87  0.001264319    3.494    0.714
       241  -9.5686     98.8732    128.8896   1.1483999222e+02   3.6795694583e+01    0.7249916    0.4225338  69.65  0.002556202    3.179    0.685
       242  -9.7990     67.1269    128.6976   1.2380135111e+02   4.1848426019e+01    0.3894738    0.3197353  75.65  0.001417043    1.374    0.272
       243  -8.4417     95.7858     16.7876   8.1298478909e+01   5.7385656514e+01    0.2205174    0.1865133 -32.24 0.0005153958    1.415    0.293
       244 -10.0520     71.0136    125.6058   1.2205298035e+02   4.2038964738e+01    0.6082305    0.3903914 -82.24  0.002165027    2.096    0.523
       245 -10.0885    116.9629    124.7933   1.0887464526e+02   3.4329396425e+01    0.8627765    0.5590134 -66.51  0.002036118    1.915    0.478
       246  -9.9780    108.5082    114.4791   1.0864900838e+02   3.8338415217e+01    0.6607301    0.4038963 -71.77  0.001363121    2.585    0.613
       247 -10.4654    123.8748     89.9725   9.7690796274e+01   4.0411604010e+01     1.181226     0.627842 -31.14  0.003182504    2.253    0.556
       248  -7.3400    202.4055     14.2280   6.1635043060e+01   3.2721029604e+01    0.1313586   0.08245834  53.22 0.0006885285    1.665    0.399
       249  -7.7779    141.4676     12.7193   6.9862888700e+01   4.7641492775e+01    0.1630614    0.1263146   7.29 0.0009455862    1.575    0.365
       250 -11.0599    120.9419    109.5810   1.0391572088e+02   3.6934444704e+01     1.425497    0.6848917 -50.25  0.003506693    2.154    0.536
       251  -9.0361    110.0395    107.0063   1.0627460230e+02   3.9702542061e+01     0.575203    0.3535228  27.26  0.002398583    2.001    0.500
       252 -10.3999    108.3095     99.4411   1.0472623968e+02   4.1675321269e+01    0.8579176    0.6184171  73.23  0.002829926    2.031    0.508
       253 -10.1098     58.0413    124.4987   1.2558168320e+02   4.4032409431e+01    0.5531358    0.3469524  86.07  0.002186534    2.387    0.581
       254  -7.7743    171.6580    126.1363   9.5519350147e+01   2.1947070053e+01    0.2132042    0.2018371 -40.60 0.0003827243    1.071    0.066
       255  -7.1038    153.6627    126.6814   9.9874854593e+01   2.5987919348e+01    0.1635533    0.1289025   4.66 0.0006730927    1.705    0.413
       256  -9.3711    243.1247    124.3271   8.1313024288e+01   6.3329486408e+00    0.2481848    0.2129748 -45.93 0.0002330374    1.064    0.060
       257  -9.2536     41.3067    122.0415   1.2996242173e+02   4.6516357013e+01    0.4748352    0.2142787 -74.91  0.001702153    2.792    0.642
       258  -9.7091     27.0219    122.7032   1.3414943891e+02   4.7715149241e+01    0.5092952    0.2746786  68.27  0.002106579    2.885    0.653
       259  -8.0468    228.7631    123.7859   8.3586734525e+01   9.4230914254e+00    0.2026326    0.1697073 -75.04  0.001062409    1.346    0.257
       260 -10.4925    133.7723    109.6706   1.0050509527e+02   3.4164030006e+01    0.8781914    0.4119363 -49.01  0.002483753    2.220    0.550
       261  -9.3587    127.7590    102.3097   1.0010901450e+02   3.7045469371e+01    0.3701787    0.3234943 -76.03  0.001025535    1.307    0.235
       262  -9.0644    130.3481     96.7260   9.7873308883e+01   3.7635843845e+01    0.4908621    0.2891255  23.43  0.001782733    2.662    0.624
       263  -9.7115    134.6777    122.4653   1.0358349211e+02   3.1157552189e+01    0.4728636    0.3162699 -39.96  0.002054536    1.547    0.354
       264 -10.0386    130.0968    118.6274   1.0380795723e+02   3.3002545761e+01    0.5734138    0.3957462 -63.95  0.001197423    1.728    0.421
