#   1 NUMBER                 Running object number                                     
#   2 MAG_AUTO               Kron-like elliptical aperture magnitude                    [mag]
#   3 X_IMAGE                Object position along x                                    [pixel]
#   4 Y_IMAGE                Object position along y                                    [pixel]
#   5 X_WORLD                Barycenter position along world x axis                     [deg]
#   6 Y_WORLD                Barycenter position along world y axis                     [deg]
#   7 A_WORLD                Profile RMS along major axis (world units)                 [deg]
#   8 B_WORLD                Profile RMS along minor axis (world units)                 [deg]
#   9 THETA_WORLD            Position angle (CCW/world-x)                               [deg]
#  10 FWHM_WORLD             FWHM assuming a gaussian core                              [deg]
#  11 ELONGATION             A_IMAGE/B_IMAGE                                           
#  12 ELLIPTICITY            1 - B_IMAGE/A_IMAGE                                       
         1 -15.0148     12.7618     35.4648   6.4758624358e+01   7.0433512724e+01     2.762799     1.732167   7.65   0.01550152    1.646    0.392
         2 -14.8998      8.3945     80.0081   7.7944366167e+01   6.0315478934e+01     2.452801     1.362478 -66.04   0.01252506    1.530    0.346
         3 -12.9304    247.5998     32.3800   1.5854745367e+00   2.0159099008e+01    0.8470528    0.5449239 -48.89  0.003808658    1.228    0.186
         4 -13.4351    242.7057     49.9647   5.7057434398e+00   1.8948234967e+01    0.9770936    0.6065556 -45.55  0.003088234    1.309    0.236
         5 -14.9315    228.9097     24.5763   1.2497765554e+00   2.4832007450e+01      2.74643     1.487761 -22.92   0.01410313    2.205    0.547
         6 -11.7083     15.7739      2.0922   4.5802307773e+01   7.6244122133e+01    0.4265038     0.224473  25.58  0.002342166    1.793    0.442
         7 -13.1715      4.7357      6.7159   5.7785825214e+01   7.6635546839e+01    0.8926865     0.553081 -38.40  0.004163771    1.387    0.279
         8 -12.3846     11.3270     11.3228   5.4987095981e+01   7.5239720181e+01    0.6066296    0.2860988 -14.17  0.002574569    3.171    0.685
         9 -12.1577     38.7847      2.7204   3.1127232140e+01   7.2634149755e+01    0.4994343    0.2753725  50.82  0.002579843    1.918    0.479
        10  -9.5508     54.7383    224.2612   7.9060527808e+01   2.0857360242e+01    0.3055857    0.2294304  87.26  0.001946969    1.397    0.284
        11 -13.1027    244.5386    245.0034   4.3034979339e+01  -7.7498229542e+00    0.9188945    0.4350949 -20.93  0.005377932    1.971    0.493
        12 -13.2403    232.1803    244.2544   4.4953459131e+01  -6.3093772597e+00     1.135424    0.4971729 -17.08   0.00589814    2.732    0.634
        13 -13.2266    219.4048    243.6518   4.7046267911e+01  -4.7604728337e+00    0.8121436    0.4672027  -3.19  0.005019783    1.722    0.419
        14 -13.9040    207.7356    242.8017   4.8988155243e+01  -3.2415781583e+00    0.8711501    0.4946278  10.42  0.005213937    1.666    0.400
        15 -13.1860    133.5148    230.1151   6.1985496091e+01   8.8546950041e+00    0.9706807    0.4390098  44.17  0.004539321    2.070    0.517
        16 -14.4908    162.7660    244.9106   5.7843887394e+01   2.3880175796e+00     1.664005    0.7972214  25.04  0.008581376    1.851    0.460
        17 -13.0808    121.4957    244.2341   6.6266257602e+01   8.2500219119e+00    0.8335607     0.747649  41.43  0.005922943    1.187    0.157
        18 -13.7255    115.7875    229.2340   6.5762031139e+01   1.1606798985e+01      1.49857     1.013546  63.35  0.008209256    1.878    0.467
        19 -12.5211     43.5867    218.8678   8.1199676762e+01   2.3273044390e+01    0.8735622     0.480994  89.01  0.004431656    1.981    0.495
        20 -14.0690     97.1224    241.3181   7.1172006294e+01   1.2118564562e+01     2.730412     1.450344  71.35   0.01213164    3.385    0.705
        21 -13.8689     32.7685    195.9113   8.2141003372e+01   2.9415618793e+01     2.332266     1.431834  69.43   0.01290227    1.520    0.342
        22 -14.4520     74.7219    212.4398   7.3362896119e+01   2.0686594027e+01     1.522425     1.314425  34.83  0.006429041    1.143    0.125
        23 -14.0598     59.2588    204.0371   7.6285202487e+01   2.4505437586e+01     1.373151    0.9016234  62.60  0.005104187    1.456    0.313
        24 -13.2903     74.2635    244.5412   7.6372471171e+01   1.4574350931e+01      1.31535    0.4788221  49.94  0.005737574    2.479    0.597
        25 -12.6184      3.7794    248.8623   9.0957449109e+01   2.1583630292e+01    0.7519781    0.6011831  18.33  0.004690124    1.650    0.394
        26 -14.2701     36.3726    246.0012   8.4400472899e+01   1.8818182542e+01    0.9961171    0.6073954  51.44  0.004556302    1.234    0.190
        27  99.0000     24.4243    234.7141   8.6306805841e+01   2.2207409950e+01     1.263839    0.7908222  43.99  0.006418646    1.231    0.188
        28 -12.3757     17.2803    249.5167   8.8374478312e+01   2.0173280519e+01    0.4521739    0.2637103  41.31  0.001726026    1.297    0.229
        29 -13.1153     20.7601    244.0259   8.7468818474e+01   2.0826301087e+01     1.167742     0.196999  50.73  0.004644618    3.627    0.724
        30 -10.2886      5.6974    227.0899   8.9890744832e+01   2.5508348838e+01    0.2136599    0.1789376 -79.20 0.0009321886    1.412    0.292
        31 -11.4322    209.1263    224.1094   4.5882606593e+01  -1.0314799208e+00    0.1948151    0.1350055   2.90  0.001247947    1.253    0.202
        32 -12.5602    197.7151    248.6429   5.1652146561e+01  -2.7117710558e+00    0.4522252    0.2899791  15.66  0.002983307    1.241    0.194
        33  -9.7978      1.2673    217.5316   9.0493935725e+01   2.7812628169e+01    0.1595929   0.08600651  89.87 0.0002497734    1.721    0.419
        34 -11.0457     15.8462    214.4263   8.7198785175e+01   2.7124501232e+01    0.2907964     0.209214  58.48 0.0009921651    1.082    0.076
        35 -10.4070     15.7888    205.8224   8.6794103243e+01   2.8947783087e+01    0.3909396    0.3381523 -60.43  0.002135906    1.454    0.312
        36 -10.3559     39.8579    229.8878   8.2752302068e+01   2.1484482758e+01    0.3990625    0.1371839  49.33  0.001855166    2.272    0.560
        37 -11.3854    102.6792    223.2240   6.8003874867e+01   1.4610066193e+01    0.4230988    0.3308164  14.33  0.001875245    1.404    0.288
        38 -13.5317     22.9028    171.7874   8.2912627060e+01   3.6023887757e+01     1.128436    0.6605795  50.28  0.003937642    1.518    0.341
        39  99.0000      6.7584    178.9979   8.7604027880e+01   3.5740660107e+01     0.552229    0.3331106  66.79  0.002379412    1.427    0.299
        40 -10.8492     13.5143    189.5166   8.6480525031e+01   3.2753242922e+01    0.5559579     0.241142  53.09  0.002743392    1.943    0.485
        41 -10.8579     13.5056    183.9839   8.6172826048e+01   3.4016351694e+01    0.3803509    0.2087751  85.87  0.001784557    1.691    0.409
        42 -10.4348     75.8985    228.9811   7.4679262936e+01   1.7238274090e+01    0.6836849    0.4715055  60.86  0.003550084    1.405    0.288
        43 -10.7960    248.2922    188.2204   3.3132052679e+01  -1.4085808552e+00    0.2134115    0.1544688  35.55  0.001396416    1.628    0.386
        44 -10.1082     49.3924    170.8182   7.5508726494e+01   3.3391845328e+01    0.2768748    0.1864155  60.81  0.001297949    1.427    0.299
        45 -10.5991     42.5223    170.0259   7.7347807996e+01   3.4396855597e+01    0.4627533    0.2086817  53.60  0.001962482    2.213    0.548
        46 -10.2924     35.3152    169.3857   7.9298012125e+01   3.5352084783e+01    0.3842176    0.1471612  26.56  0.001560371    2.617    0.618
        47 -12.3281     21.8480     92.4033   7.4159853860e+01   5.6281537478e+01    0.8089249    0.3735958 -47.13  0.003133856    2.055    0.513
        48 -12.9415     15.5505     49.5141   6.7606341055e+01   6.7152790646e+01    0.9258316    0.5477149  34.61  0.004680084    1.910    0.477
        49  -9.9539     52.3121    247.6539   8.1214829193e+01   1.6708696007e+01    0.2192781    0.1287792  48.47 0.0009214667    1.294    0.227
        50 -13.6339     28.4002    102.0852   7.3148633758e+01   5.3237224549e+01     1.786219    0.7281688  12.84   0.00664918    3.241    0.691
        51 -14.3747      6.0058    111.0801   8.2894677704e+01   5.2578999238e+01     2.146841    0.9902971 -80.29  0.009811071    1.951    0.487
        52 -10.3071     56.9815    237.2316   7.9524679762e+01   1.8069241300e+01    0.3014932    0.1558329 -79.61  0.001635487    2.292    0.564
        53 -13.5138      4.9084     58.7282   7.5780835433e+01   6.5671114077e+01     1.097087    0.5727532 -49.09   0.00492624    1.593    0.372
        54 -13.9705     20.3229    146.4350   8.1543689028e+01   4.2514783895e+01     1.497907     1.156283  50.78  0.008781977    1.237    0.192
        55 -14.2079      8.5090    136.3074   8.4335303187e+01   4.5997165456e+01     1.330896     1.083907 -49.66  0.006558456    1.341    0.254
        56 -13.1670     39.1281    155.8909   7.6824396995e+01   3.8276076842e+01     1.282513    0.6938527  42.25  0.006088131    1.714    0.416
        57 -13.0169     41.1567    146.8861   7.5149544135e+01   4.0331107397e+01    0.5763575    0.4965115 -68.25  0.001266001    1.156    0.135
        58 -12.2990    249.1534    154.6870   2.6773728607e+01   3.0476790432e+00    0.5593895    0.2742338 -25.46  0.002851858    1.922    0.480
        59 -13.3210    114.0991    152.6121   5.4331793385e+01   2.7721319764e+01    0.9055746    0.5804213 -35.80  0.003932309    1.869    0.465
        60 -12.8305    122.9467    149.5700   5.1324331045e+01   2.6743531971e+01    0.4904048    0.4507692  15.69  0.002614573    1.117    0.105
        61  -9.7487     57.6649    151.1519   7.0618696597e+01   3.7223230125e+01    0.1944268    0.1718257 -70.86 0.0005529897    1.136    0.120
        62 -14.6346     95.3894    137.7294   5.6703790665e+01   3.4685274189e+01      1.85961     1.186251  40.69  0.008239455    1.502    0.334
        63 -13.2647     87.5313    121.8157   5.5728542211e+01   4.0012212653e+01     1.274756    0.7025313  46.62   0.00407694    1.850    0.460
        64 -12.4705     67.9711    145.5922   6.6590566641e+01   3.7195362857e+01     1.194601    0.7383734  14.90  0.003845137    2.117    0.528
        65 -14.3171     71.3063    133.1978   6.3359229542e+01   3.9844513172e+01     2.090168     1.622894  11.58  0.004146018    1.539    0.350
        66 -12.5010     59.2486    130.3493   6.6821027072e+01   4.2333428085e+01     2.204023     1.535203 -63.42   0.01052761    1.399    0.285
        67 -12.4592    133.5020    142.5351   4.7046472963e+01   2.6236385831e+01    0.6905681    0.3348495 -55.78  0.002536301    2.476    0.596
        68 -12.4901    105.7679    130.7556   5.2101184181e+01   3.4436880263e+01    0.4692868    0.3589641  69.89   0.00170622    1.571    0.364
        69 -11.9713    101.2883    127.7829   5.2771502308e+01   3.6008519155e+01    0.4191193    0.3517752  16.82   0.00148579    1.331    0.249
        70 -12.0380     33.7690    123.9489   7.4543187723e+01   4.7045079796e+01    0.9552797    0.3853412 -62.31  0.003870224    2.179    0.541
        71 -11.9221     24.4187    121.9697   7.7554606853e+01   4.8437869200e+01    0.7080279    0.4296515  72.05  0.002443208    1.814    0.449
        72 -12.2210    139.4551    115.2276   3.9010469020e+01   3.0909264843e+01    0.9756162    0.4790086 -42.08  0.003688934    2.086    0.521
        73 -14.5536     91.1686    108.9291   5.1447482327e+01   4.2494136787e+01     2.290082     1.232597  55.16  0.008476192    2.331    0.571
        74 -12.5687     77.9356    108.0036   5.5711667572e+01   4.5124382088e+01    0.9693479    0.5966119  64.13  0.003752687    2.309    0.567
        75 -11.5316    126.3761    112.1445   4.1658014130e+01   3.4464177036e+01    0.4271057    0.2282788  50.95   0.00163489    1.946    0.486
        76 -11.5428     52.4044    105.9237   6.4557567715e+01   4.9558302277e+01    0.5421395    0.4158507  12.77  0.002445545    1.483    0.326
        77 -11.5657     67.0538    103.0262   5.8410439561e+01   4.8164133679e+01    0.6216145    0.4849048 -66.68  0.002314136    1.323    0.244
        78 -12.2315     99.2267     96.0660   4.5339688107e+01   4.3913072654e+01    0.8057556    0.5458232 -86.64  0.003076029    2.508    0.601
        79 -11.6099     84.7540     95.6519   5.0097849153e+01   4.6884872879e+01    0.4660534    0.3795501  33.29  0.001981056    1.238    0.192
        80 -12.5776     38.3727     81.3184   6.4688980677e+01   5.7480976278e+01     1.231902    0.3570037  26.45  0.004129156    3.539    0.717
        81 -12.8961     45.2101     88.6865   6.3537990361e+01   5.4844154263e+01    0.7111034    0.5903546 -82.37  0.003530012    1.313    0.238
        82 -11.2235     35.6874     91.6675   6.8204817059e+01   5.5187254707e+01    0.3511011    0.2045993 -36.47  0.001585509    1.895    0.472
        83 -11.3343     62.2295     73.2825   5.2059298226e+01   5.6082124784e+01    0.5057292    0.3761235  75.86  0.002335849    1.969    0.492
        84 -12.1432     83.4384     72.0155   4.3321530668e+01   5.2465754457e+01    0.6625006    0.4133411  39.23  0.002921194    1.582    0.368
        85 -12.1211    233.0342     59.9265   8.8089611460e+00   1.9548518347e+01    0.5898429    0.3210268 -46.26  0.002982534    1.561    0.359
        86 -13.3256     88.2251     53.0345   3.4749721150e+01   5.5186040678e+01     1.377038     1.065363 -83.13  0.006480915    1.869    0.465
        87 -11.6664    195.3856    233.3760   4.9863067353e+01  -4.4386515606e-01    0.4051222    0.1538959 -25.88  0.001602392    4.124    0.758
        88 -13.3650    149.2984    241.2125   6.0089513574e+01   4.8061784012e+00     1.019555    0.4658024  44.38  0.004945494    2.205    0.546
        89 -12.6379    131.5454    243.5862   6.4075052370e+01   6.9430894190e+00    0.9460248    0.3514981  46.15   0.00398473    2.865    0.651
        90 -11.8099    151.2234     42.6540   1.5125492902e+01   4.1143714109e+01    0.4795475    0.3451225  50.46   0.00238464    1.408    0.290
        91 -12.0337    102.9117     42.7995   2.6106537148e+01   5.3471384142e+01    0.4532055    0.2902308  33.54  0.002017236    1.762    0.432
        92 -11.9304     45.9523     40.7259   4.7585286807e+01   6.5514160835e+01    0.5732633    0.3855504 -44.23  0.002997549    1.493    0.330
        93 -11.8210     50.2150     35.1604   4.2962922780e+01   6.5850852581e+01    0.6258792     0.311157  49.48  0.002627234    2.526    0.604
        94 -12.7720    149.5768    231.4263   5.8731552605e+01   6.2838117070e+00    0.5523878    0.4293767  50.71  0.003439827    1.508    0.337
        95 -12.8351    155.9559    226.6635   5.6726325392e+01   6.1034739195e+00    0.5985344    0.5498632 -69.53  0.004031393    1.541    0.351
        96 -10.1308     51.9708    228.4427   7.9991171658e+01   2.0363116575e+01    0.2756993    0.1800075  35.27  0.001333561    1.318    0.241
        97 -12.8892     33.0558    109.4971   7.2586404903e+01   5.0875110744e+01       1.3587    0.6976853  15.91  0.005820315    2.313    0.568
