#   1 NUMBER                 Running object number                                     
#   2 MAG_AUTO               Kron-like elliptical aperture magnitude                    [mag]
#   3 X_IMAGE                Object position along x                                    [pixel]
#   4 Y_IMAGE                Object position along y                                    [pixel]
#   5 X_WORLD                Barycenter position along world x axis                     [deg]
#   6 Y_WORLD                Barycenter position along world y axis                     [deg]
#   7 A_WORLD                Profile RMS along major axis (world units)                 [deg]
#   8 B_WORLD                Profile RMS along minor axis (world units)                 [deg]
#   9 THETA_WORLD            Position angle (CCW/world-x)                               [deg]
#  10 FWHM_WORLD             FWHM assuming a gaussian core                              [deg]
#  11 ELONGATION             A_IMAGE/B_IMAGE                                           
#  12 ELLIPTICITY            1 - B_IMAGE/A_IMAGE                                       
         1 -14.4902    182.5689     30.8948   6.9631423631e+01   3.5988941232e+01     1.008284    0.9171461  32.00  0.003960629    1.304    0.233
         2 -14.3135    187.4712     22.4034   6.6734373908e+01   3.5797335744e+01    0.7960202    0.6955906  -0.69  0.001505221    1.495    0.331
         3 -13.1626     11.8413    206.2666   1.4705163989e+02   3.0275709944e+01    0.4161043    0.3034113  33.36  0.002690405    1.830    0.454
         4 -15.7377     74.1046    150.0820   1.2668592326e+02   3.5723552239e+01     3.997519     2.102106  80.50   0.01324209    4.095    0.756
         5 -16.2358    120.2746    246.2521   1.3050008066e+02   7.2662589791e+00     5.578993     2.438895  41.70   0.02636904    1.988    0.497
         6 -10.0758     93.3765    207.2451   1.3094378739e+02   1.9472417799e+01    0.1848188    0.1182419 -78.69 0.0005826568    1.634    0.388
         7 -10.6165     58.0352    201.2875   1.3760663315e+02   2.6012253061e+01    0.1736121    0.1403002  66.21  0.000367031    1.132    0.116
         8 -12.6511    197.7536    197.8260   1.0720034501e+02   2.0609500657e+00    0.7732727    0.4775194  54.76  0.003583989    1.888    0.470
         9 -11.5855    189.0178    187.8006   1.0702363507e+02   5.6397178789e+00    0.6662446    0.3865025 -58.27  0.002796542    2.292    0.564
        10 -10.3699    181.3783    195.5238   1.1011791868e+02   5.6585250937e+00    0.2573583    0.1788408 -77.78  0.001008005    2.346    0.574
        11 -10.4054     93.0955    197.9466   1.2973129506e+02   2.1562934224e+01    0.2111425    0.1579094  74.90 -0.001320134    1.286    0.222
        12 -11.8583     79.2361    220.1256   1.3542327394e+02   1.8928351043e+01    0.4823603    0.2219221  48.18  0.001650641    1.917    0.478
        13 -13.4806     76.2676    195.4385   1.3304850309e+02   2.4745605346e+01    0.7372394    0.6642618  69.25  0.003232256    1.152    0.132
        14 -11.1657     82.7977    188.1883   1.3062594925e+02   2.5404656254e+01    0.4744251    0.1992814  54.32   0.00187683    2.625    0.619
        15 -11.6973    208.2898    186.1422   1.0278454994e+02   2.1745524513e+00    0.3341537    0.2636506   1.82  0.001043178    1.435    0.303
        16 -11.9518    212.5585    182.6479   1.0123310554e+02   1.9905996181e+00      0.37565    0.2603182  10.20  0.001246208    1.883    0.469
        17  -9.8210     91.9947    185.0777   1.2809198762e+02   2.4660333961e+01    0.1669162    0.1467448  79.34 0.0003371799    1.019    0.018
        18 -12.0379     85.1438    180.7959   1.2901134044e+02   2.6747911912e+01    0.4138071    0.2717695 -53.44  0.001487373    1.576    0.365
        19 -12.4110     88.4875    174.9758   1.2732865403e+02   2.7579017346e+01    0.4484735    0.2510394 -50.45  0.002051432    1.873    0.466
        20 -10.5223     98.7944    180.6002   1.2582590067e+02   2.4566552925e+01    0.2763601    0.1388548  34.91  0.001146192    2.269    0.559
        21 -11.1936    198.6434    178.0788   1.0306874337e+02   5.5900510260e+00    0.3525761    0.2605812 -56.33  0.001042034    1.559    0.358
        22 -11.3870    126.5179    172.8593   1.1797277813e+02   2.1334677864e+01    0.3235105     0.185261  58.00  0.001334255    1.976    0.494
        23 -12.4362    101.3241    169.8568   1.2341658800e+02   2.6644933122e+01    0.4540357    0.2725212  50.87  0.001544981    1.675    0.403
        24 -19.2620     27.6805    138.3688   1.3673406919e+02   4.4020477288e+01      19.7259     2.480488 -67.90   0.04459359    8.530    0.883
        25 -11.0025    184.7942    168.2265   1.0387463132e+02   1.0395828072e+01    0.3132919     0.238198 -73.28  0.001016817    1.718    0.418
        26 -12.2180     99.6653    157.8991   1.2164863058e+02   2.9767304043e+01    0.6194018    0.3570085 -38.23  0.002560155    2.284    0.562
        27 -10.5830    169.0221    212.4913   1.1577124352e+02   4.8112212315e+00    0.2039853    0.1849463 -49.72 0.0003799391    1.216    0.177
        28 -10.7592     82.1271    212.0603   1.3389761377e+02   2.0199501529e+01    0.2971011    0.2306512  46.77   0.00131679    1.308    0.235
        29 -11.4030    133.8509    144.7038   1.1038247156e+02   2.6370688358e+01    0.8805651    0.2174353 -54.71  0.001979832    5.990    0.833
        30 -11.5337    109.8998    141.5529   1.1574257496e+02   3.1821337678e+01    0.5054958    0.2794409 -35.39  0.001934437    2.438    0.590
        31 -12.3810     98.7166    142.2258   1.1879318158e+02   3.3674893478e+01    0.2769396     0.262622 -29.77   0.00042082    1.189    0.159
        32  -9.8692     81.9799    137.4519   1.2224942648e+02   3.7570667756e+01    0.1960094    0.1416755  40.63 0.0003376999    1.492    0.330
        33 -13.2165     47.5980    131.4266   1.3041218597e+02   4.3610369594e+01    0.5476886    0.3403601  51.28  0.002876606    1.857    0.461
        34 -11.3467    116.7821    131.2097   1.1162713699e+02   3.2936676300e+01    0.4208549    0.2943366 -11.42  0.001705852    2.399    0.583
        35 -11.6303    105.0075    129.0181   1.1423898001e+02   3.5676896642e+01    0.5017531    0.2963822 -65.23  0.002079868    1.961    0.490
        36 -11.1584    160.6987    126.3515   9.9572782859e+01   2.4631590407e+01    0.2973834    0.1927757 -54.58 0.0008235755    1.630    0.386
        37 -10.0388    111.2261    120.1960   1.1046762220e+02   3.6552717418e+01    0.1988099    0.1727894  87.62 0.0003069381    1.280    0.219
        38 -11.1879    168.6260    113.5780   9.4544641504e+01   2.5500342641e+01    0.3274188    0.2705914 -83.84 0.0008735424    1.395    0.283
        39  -9.9861    166.3511    208.8044   1.1568619574e+02   6.0125282666e+00    0.2006286     0.165428  50.79 0.0007504856    1.148    0.129
        40 -10.4525    205.5119    110.0222   8.6152136130e+01   1.7519352682e+01    0.2396704    0.2058781  58.69 0.0007504354    1.200    0.167
        41 -13.5368    170.5030     42.9826   7.4851599004e+01   3.7402001977e+01    0.5869411     0.450794 -31.32  0.001054813    1.434    0.303
        42 -10.3191      4.7758    236.5080   1.5016603404e+02   2.4895611059e+01    0.1072525    0.0915821  71.80 0.0003558465    1.405    0.288
