#   1 NUMBER                 Running object number                                     
#   2 MAG_AUTO               Kron-like elliptical aperture magnitude                    [mag]
#   3 X_IMAGE                Object position along x                                    [pixel]
#   4 Y_IMAGE                Object position along y                                    [pixel]
#   5 X_WORLD                Barycenter position along world x axis                     [deg]
#   6 Y_WORLD                Barycenter position along world y axis                     [deg]
#   7 A_WORLD                Profile RMS along major axis (world units)                 [deg]
#   8 B_WORLD                Profile RMS along minor axis (world units)                 [deg]
#   9 THETA_WORLD            Position angle (CCW/world-x)                               [deg]
#  10 FWHM_WORLD             FWHM assuming a gaussian core                              [deg]
#  11 ELONGATION             A_IMAGE/B_IMAGE                                           
#  12 ELLIPTICITY            1 - B_IMAGE/A_IMAGE                                       
         1 -13.7962    227.5560      4.1319   3.6764867320e+01   2.7727122459e+01     1.716804    0.9716992  51.33  0.006610985    2.192    0.544
         2 -13.9616    183.9526     47.6305   5.3476917765e+01   3.3042939190e+01     1.808065      1.21135  23.40 0.0008955779    2.044    0.511
         3 -14.1451    194.9007     39.0394   4.9433526004e+01   3.1516111933e+01     1.599023     1.248817 -14.36  0.003253974    1.347    0.258
         4 -14.5265    203.7569     29.3315   4.5590049977e+01   3.0571160069e+01     1.635827     1.264823   8.87  0.001342595    1.593    0.372
         5 -11.8368     59.9929      2.9901   6.1860840792e+01   6.9270952823e+01    0.4262246    0.1657621  45.71  0.001754736    2.495    0.599
         6 -10.9796     32.5078      2.9932   7.5233790319e+01   7.4364811870e+01    0.2024397    0.1119961 -33.91  0.001043758    1.622    0.384
         7 -11.5054    176.3606    212.1609   9.2352139763e+01   8.3156415258e+00    0.2977886    0.1370666  31.71  0.001568486    1.923    0.480
         8 -12.4494    139.4329    248.5579   1.0336452358e+02   8.5224348171e+00    0.4498428    0.4026887  29.50  0.003815425    1.190    0.160
         9 -13.3994     61.0714    188.2701   1.1294157024e+02   2.8594381153e+01     5.017879     2.361049  16.07  0.005344994    4.866    0.794
        10 -16.5575     51.5216    202.3295   1.1614599795e+02   2.6955541854e+01     13.25999    0.8570688  41.74   0.04562066    4.539    0.780
        11 -11.3491    108.4215    203.3359   1.0432661564e+02   1.9471651710e+01    0.2415979    0.1969013  45.95 0.0009655872    1.038    0.036
        12 -16.4119     35.7232    249.8365   1.2178297916e+02   2.0437458611e+01     4.173162     1.074736  26.46   0.01278234    9.038    0.889
        13  -8.9028    161.6614    200.3038   9.3333736398e+01   1.2138657770e+01     0.115469   0.08960602  60.12 0.0007039378    1.673    0.402
        14 -12.1894    112.5268    197.7247   1.0280284725e+02   1.9870378960e+01     0.428996    0.3357054  37.28  0.002780402    1.135    0.119
        15 -18.1982      7.8134    240.1409   1.2629462644e+02   2.4625072975e+01     13.27914     1.615187 -82.10   0.04627912    8.422    0.881
        16  -9.8476    151.6730    196.0669   9.4633230044e+01   1.4299532302e+01    0.1668758    0.1493957  21.53 0.0007591157    1.052    0.049
        17  -9.9434     82.0361    194.9630   1.0897986623e+02   2.4614569586e+01    0.2148355    0.1574042  42.32  0.001214877    1.193    0.162
        18 -14.6094     47.5516    222.6551   1.1827193308e+02   2.3680175617e+01     2.299067     0.927753  74.22   0.01113864    3.185    0.686
        19  -9.1644     97.0304    191.0478   1.0529344671e+02   2.3306635447e+01    0.1442272    0.1254098  53.30 0.0003074201    1.013    0.012
        20 -10.9085     73.9054    188.5830   1.1011095650e+02   2.6920542684e+01    0.2720232    0.1652882  56.40 0.0007890284    1.505    0.335
        21  -9.9929     94.8359    187.4755   1.0534749462e+02   2.4297489002e+01    0.1959842    0.1740382 -66.40 0.0002937553    1.254    0.203
        22 -10.8659     99.1196    181.2976   1.0362400419e+02   2.4880681986e+01    0.3545866    0.2611051 -33.39  0.001829942    1.832    0.454
        23 -10.9524    145.6887    181.8760   9.3660338417e+01   1.7566064847e+01    0.2452282    0.2322766  83.54  0.001293893    1.240    0.194
        24  -8.6619    152.3021    211.2865   9.6657012564e+01   1.1889912950e+01     0.113772   0.08233403   9.29 0.0002630428    1.559    0.359
        25  -9.1791     42.9199    179.3500   1.1630763744e+02   3.2537835630e+01    0.1624211      0.13077  57.77 0.0003786888    1.075    0.070
        26 -10.4328    204.6976    176.0438   8.1453280006e+01   9.0079017349e+00    0.2731069    0.2536784 -25.74  0.001092047    1.326    0.246
        27 -10.2279    196.9589    176.2332   8.2842609022e+01   1.0196238620e+01    0.2698171    0.2373475  37.67  0.001642219    1.298    0.229
        28 -11.6232    141.2567    174.1006   9.3324772257e+01   1.9645078547e+01    0.5098175    0.3633865  76.90   0.00186969    2.181    0.542
        29 -10.0676    188.5085    174.9656   8.4137372734e+01   1.1730436183e+01    0.2241318    0.2017108 -55.94 0.0007512951    1.493    0.330
        30 -12.2932     73.7390    174.2658   1.0860933448e+02   2.9867154718e+01    0.3968918    0.2810371 -31.27  0.001441634    2.161    0.537
        31 -12.1511     77.5082    169.7154   1.0717569429e+02   3.0320101738e+01    0.3176774    0.2844572 -22.80 0.0008241563    1.472    0.321
        32 -10.9248     47.4985    172.6959   1.1467951802e+02   3.3446730705e+01    0.3429654    0.2771255 -61.37  0.001054147    1.420    0.296
        33 -11.2866     53.0822    170.5392   1.1314343386e+02   3.3266124804e+01    0.7218786    0.1993927 -60.38  0.002711632    3.429    0.708
        34 -10.5059    229.7600    165.9949   7.5449788215e+01   6.4888504011e+00    0.1576257   0.08953644 -28.08 0.0006209413    1.605    0.377
        35  -9.8512    186.7141    164.9422   8.2614930423e+01   1.3543012668e+01    0.1805004    0.1528183 -21.01 0.0005635946    1.156    0.135
        36 -10.7457    159.4304    162.5162   8.7492901457e+01   1.8617358866e+01    0.2946145    0.2283233 -54.34  0.001315013    1.507    0.336
        37  -9.9690    236.3586    158.3176   7.2952502318e+01   6.4658097853e+00    0.1294656   0.08035177   6.21 3.788759e-05    1.757    0.431
        38 -12.2160     92.1014    153.7711   1.0138447757e+02   3.1650312598e+01    0.6367892    0.4747861 -14.82  0.003225663    2.084    0.520
        39  -8.9675     29.7799    210.9904   1.2112641386e+02   2.7640551546e+01    0.1371788    0.1054245  62.65            0    1.040    0.038
        40 -10.8937    187.2805    151.6359   7.9892379719e+01   1.5537927710e+01    0.3340167    0.2499419 -81.42  0.001619226    2.590    0.614
        41 -11.4784    133.8096    144.9819   8.9703868261e+01   2.6467582117e+01     1.108204    0.2918982 -53.93  0.002999455    5.463    0.817
        42  -8.9391    139.2798    150.6567   8.9568181941e+01   2.4361418555e+01      0.13535     0.108776  85.59 0.0004595701    1.631    0.387
        43 -10.7372    174.4211    148.6809   8.1756485555e+01   1.8335127467e+01    0.2972976     0.264536 -77.45  0.001361774    1.485    0.327
        44 -10.4782    143.8584    145.9888   8.7624420437e+01   2.4435082049e+01    0.3282937    0.1882138 -68.32  0.001247421    3.196    0.687
        45 -10.8364     86.0733    145.3116   1.0158929015e+02   3.4458893058e+01    0.3067576    0.2057127  55.91 0.0009015832    1.496    0.332
        46 -11.0481    104.8112    139.3066   9.5676186197e+01   3.2786886716e+01    0.5078969    0.3397489 -25.96  0.002284496    2.261    0.558
        47 -12.2756     92.4379    139.3026   9.8899365303e+01   3.4830529203e+01    0.2591569    0.2417928 -52.31 0.0005201364    1.160    0.138
        48 -11.2288    113.9714    208.0351   1.0374124512e+02   1.7888823683e+01    0.3367044    0.2073447  66.20   0.00173236    2.133    0.531
        49 -10.8676    113.2689    129.9624   9.1646399772e+01   3.3365873561e+01    0.3868093    0.3148422  15.70 0.0009995787    1.504    0.335
        50 -11.4279    119.3823    123.7085   8.8723779829e+01   3.3602977684e+01    0.5565623    0.3634473 -15.67  0.002199593    2.757    0.637
        51 -11.2426    135.8065    127.8220   8.5609737812e+01   2.9579587728e+01    0.5661626    0.1905236 -49.78  0.001880083    3.154    0.683
        52 -10.8584    105.9774    130.8751   9.3728306444e+01   3.4463296593e+01    0.3400429    0.2999585 -83.99  0.001138241    1.159    0.137
        53 -10.1962    160.9355    128.0694   8.0030529018e+01   2.4581219962e+01    0.3513916     0.254457 -63.13  0.001479663    1.785    0.440
        54  -9.2692     97.6242    129.2930   9.5636565154e+01   3.6263099833e+01    0.1859425    0.1423435 -77.11 0.0009431468    1.401    0.286
        55 -11.1094    100.5203    125.9434   9.4174091791e+01   3.6533044898e+01    0.2969302    0.2416983 -32.66 0.0007910684    1.439    0.305
        56 -10.1867    108.9923    119.0007   9.0382628396e+01   3.6590279427e+01    0.2123963     0.203357  84.96 0.0003328504    1.024    0.024
        57  -9.8510    167.9479    112.7842   7.4896134033e+01   2.5974812102e+01    0.3484693    0.2415591 -68.57  0.001534686    2.149    0.535
        58 -10.4914    135.0000    112.1034   8.2067791533e+01   3.2989277524e+01    0.4668756   0.09822378 -44.84  0.001207967    4.654    0.785
        59 -10.0900    134.5295    104.5145   8.0228536861e+01   3.4660168546e+01    0.5515962    0.1437491 -44.65  0.001578069    3.728    0.732
        60 -11.6947    118.2921    110.1305   8.5797827413e+01   3.6784857835e+01    0.6313921    0.4422684  61.19  0.002180237    1.651    0.394
        61 -10.1967    205.5313    110.2597   6.7372617006e+01   1.8687301458e+01    0.2756006    0.2148139  33.95 0.0008342501    1.367    0.268
        62  -9.9372     66.2645    104.5766   9.9860206717e+01   4.7179188414e+01    0.1864675    0.1438869  20.65 0.0009532253    1.601    0.375
        63 -10.8618     53.1959     91.4442   1.0147865773e+02   5.2268998587e+01    0.2864088    0.1854528 -64.18  0.001234349    1.384    0.277
        64 -10.9016    183.1159    205.7716   9.0204352056e+01   8.2020947439e+00    0.2699138    0.2070855  13.14  0.001838795    1.168    0.144
        65  -9.1824    161.6001     88.8644   6.9800451575e+01   3.1736019923e+01    0.2091495    0.1332246 -47.08 0.0004286424    1.572    0.364
        66 -10.3451     39.4345     88.4003   1.0588633346e+02   5.4696516511e+01    0.2381405    0.1780776  20.93 0.0008857137    1.619    0.382
        67  -9.7069    156.9852     81.5070   6.8610789057e+01   3.4132544045e+01    0.2215407    0.1520523  52.42 0.0005421307    1.531    0.347
        68  -9.4452    184.5200     77.0328   6.2138060086e+01   2.8491477804e+01     0.232056    0.1377942 -30.51 0.0007659717    1.578    0.366
        69  -9.5783     62.9290     69.3167   9.1981118572e+01   5.6300045938e+01    0.1904494    0.1880461 -55.61 0.0004007587    1.092    0.085
        70 -13.8211     73.9326    155.9816   1.0630016162e+02   3.3813176279e+01    0.6081496    0.5682229 -34.29  0.001155252    1.326    0.246
        71  -9.6039     72.0227    231.2429   1.1414982293e+02   1.9447850256e+01    0.1663035    0.1076499  58.70 0.0006053763    1.334    0.251
        72 -15.5382     68.5328    144.2330   1.0608744689e+02   3.7243438494e+01      6.02702     2.883416  63.99   0.02361705    2.887    0.654
        73  -8.6678     63.6418    229.2363   1.1560054084e+02   2.0755156378e+01    0.1151194   0.05876352  52.75 0.0003582033    1.584    0.369
        74 -11.0649    151.7613     54.9921   6.1238673344e+01   3.9953061187e+01    0.3396827    0.2610478 -65.28 0.0004996756    1.465    0.317
        75 -10.8619    153.8599     48.8420   5.8745541417e+01   4.0388643477e+01    0.3176308    0.2554101 -70.22 0.0003817076    1.375    0.273
        76 -15.4885     10.8826    206.7207   1.2469937468e+02   3.0224832182e+01    0.6124052    0.5639933  50.41  0.002967289    1.378    0.274
        77  -9.3267     93.9833    249.9276   1.1151102744e+02   1.3971347530e+01    0.1407287    0.1119079  15.44 0.0004036374    1.553    0.356
        78  -9.7680    189.8370     15.0903   4.2672574700e+01   3.5528550485e+01    0.2237024    0.1678894 -51.72 0.0005824559    1.226    0.185
        79  -9.7521     62.4470    221.1812   1.1527605684e+02   2.2263215292e+01    0.3840798    0.1545961  55.89   0.00198129    2.317    0.568
