#   1 NUMBER                 Running object number                                     
#   2 MAG_AUTO               Kron-like elliptical aperture magnitude                    [mag]
#   3 X_IMAGE                Object position along x                                    [pixel]
#   4 Y_IMAGE                Object position along y                                    [pixel]
#   5 X_WORLD                Barycenter position along world x axis                     [deg]
#   6 Y_WORLD                Barycenter position along world y axis                     [deg]
#   7 A_WORLD                Profile RMS along major axis (world units)                 [deg]
#   8 B_WORLD                Profile RMS along minor axis (world units)                 [deg]
#   9 THETA_WORLD            Position angle (CCW/world-x)                               [deg]
#  10 FWHM_WORLD             FWHM assuming a gaussian core                              [deg]
#  11 ELONGATION             A_IMAGE/B_IMAGE                                           
#  12 ELLIPTICITY            1 - B_IMAGE/A_IMAGE                                       
         1 -13.6466    232.0316     26.4558   3.4901924584e+02   2.7215516875e+01    0.8052331    0.6423964 -47.91  0.003940036    1.158    0.136
         2 -12.1147     33.5706     15.2115   2.3827610015e+01   7.2825322863e+01    0.7778747    0.2644888  52.20   0.00265041    3.986    0.749
         3 -11.4393    244.6957     11.5025   3.4537869903e+02   2.6643872036e+01    0.1915635    0.1634041  38.30   0.00149129    1.933    0.483
         4 -11.1835     19.6128      4.8910   2.6356188619e+01   7.6714180307e+01    0.2512758    0.1736692  42.24   0.00127143    1.424    0.298
         5  -9.6025     41.5310      1.4787   1.0357271146e+01   7.2980172299e+01    0.1283214    0.1098661  38.50 -3.07712e-05    1.022    0.021
         6 -11.2829    151.7815    237.9985   4.2628803051e+01   5.7608070823e+00    0.3131394    0.1878074 -14.16  0.001763827    1.855    0.461
         7 -14.1702    120.4186    232.8107   4.8644190175e+01   1.0237581230e+01     4.183392     3.573461 -34.19  0.008332424    1.282    0.220
         8 -10.5366     45.2457    188.8363   6.2794745421e+01   2.8550100725e+01    0.3688663    0.2088604  72.74  0.001397574    2.048    0.512
         9 -10.8349     37.5199    176.0790   6.3863263316e+01   3.2564531021e+01    0.6863835    0.5013945  -4.77  0.003488566    1.699    0.411
        10 -10.0347     50.4725    176.4699   6.0036416360e+01   3.1060082715e+01    0.2413346    0.1908339  64.52 0.0004853497    1.251    0.201
        11 -10.6928     49.7634    184.0345   6.1039517392e+01   2.9239795604e+01    0.2634659    0.2090253 -88.23 0.0003266161    1.300    0.231
        12 -13.1638     46.3243    180.4180   6.1674195610e+01   3.0525829097e+01    0.7801526    0.4237863 -66.14  0.001288244    1.855    0.461
        13  -8.8527    234.5088    191.4265   2.0777981375e+01   3.6098035114e+00    0.1113787   0.08404464 -19.45 0.0001165443    1.031    0.030
        14 -15.1364     65.2081    148.8824   5.1762745239e+01   3.6403938683e+01     5.097518     2.939072 -80.07   0.01377726    2.086    0.521
        15 -18.4875     12.9358    205.1193   7.2700646248e+01   2.7702368139e+01     10.01714     3.411655 -81.46   0.04098324    2.993    0.666
        16  -9.4260     53.7215    230.2529   6.4003685844e+01   1.8300589918e+01    0.2421716    0.1399312  83.34  0.001246544    2.165    0.538
        17  -9.4426     97.2442    182.7295   4.7579423050e+01   2.3459683464e+01    0.1954776    0.1626167 -17.37 0.0007224214    1.325    0.245
        18 -11.3130    116.5430    181.9457   4.2446791493e+01   2.0849445560e+01     0.350264    0.2342766  17.49  0.001711138    1.589    0.371
        19 -10.1880    174.7142    179.9280   2.9029402147e+01   1.2780679147e+01     0.289056    0.1923347 -42.63 0.0009386743    1.442    0.306
        20 -11.1739    180.5047    167.9842   2.5726623274e+01   1.4095184313e+01    0.6271657    0.4661217 -48.12  0.003645414    1.414    0.293
        21 -10.9263    171.7760    175.5541   2.8825323161e+01   1.3986734600e+01    0.3136624    0.2916535 -13.86 0.0007963844    1.126    0.112
        22 -11.0229    174.0938    172.0974   2.7733148645e+01   1.4282732096e+01    0.3948576    0.3456928  50.39  0.001849975    1.461    0.316
        23  -8.9992     37.9849    194.8130   6.5338164840e+01   2.7853150996e+01    0.4938035    0.4002866  16.64   0.00263046    1.296    0.229
        24 -12.0497    112.9996    170.6265   4.1459938361e+01   2.3900920790e+01    0.9759929    0.6174456  80.46  0.003736042    3.131    0.681
        25 -11.2908    104.8381    172.1573   4.3878868371e+01   2.4791886741e+01    0.3720411    0.2951822 -74.74 0.0009104534    1.471    0.320
        26 -10.1402    230.2420    165.9869   1.7057532782e+01   7.7722064505e+00    0.1602553   0.07891069 -37.38  0.000539946    1.619    0.382
        27 -10.7497     47.2138    229.2012   6.5500501706e+01   1.9187974650e+01    0.1979533    0.1492477  60.35  0.001218301    1.283    0.221
        28  -9.7591    165.0336    226.7314   3.8433577351e+01   6.0520794577e+00    0.1725018    0.1356847  10.73 0.0006605828    1.090    0.083
        29 -11.3038    134.0120    146.5811   3.1527585988e+01   2.5833962509e+01      1.04542    0.2937672 -54.85  0.002790168    4.916    0.797
        30  -9.9226    133.0000    140.0173   3.0386247916e+01   2.7452946004e+01    0.3425105    0.1905431 -59.09  0.001223461    2.111    0.526
        31 -10.7998     83.1791    149.8640   4.6247838756e+01   3.3533611238e+01    0.2662136    0.2477937 -26.73 0.0003608991    1.140    0.123
        32  -9.8703    119.0776    149.3145   3.5880544175e+01   2.7797271203e+01     0.297515    0.2192792 -59.38  0.001445237    1.435    0.303
        33 -11.9442     89.9233    143.8737   4.3075298357e+01   3.3991908283e+01    0.7022911     0.552133 -43.36  0.003459243    1.315    0.239
        34  -9.9688    146.9729    143.0118   2.7721594677e+01   2.4332224279e+01    0.2201793    0.1804228  86.27  0.001126804    1.659    0.397
        35 -11.0840    103.4854    133.0844   3.6805761147e+01   3.4363063138e+01    0.5313039    0.3546741 -23.13  0.002127182    2.086    0.521
        36 -11.6304     91.5342    131.9603   4.0165446074e+01   3.6727317213e+01    0.4970503     0.352822  59.35 0.0005510182    1.631    0.387
        37 -10.4399     89.2898    221.7012   5.4589877207e+01   1.6055441620e+01    0.2936485    0.2475436  58.99 0.0009141293    1.302    0.232
        38 -10.2782    135.9029    129.0614   2.7243029798e+01   2.9315201578e+01    0.5214955   0.08360726 -47.51  0.001192037    5.984    0.833
        39  -9.9736     82.4907    129.3533   4.2494756609e+01   3.8912654087e+01    0.2771068    0.2555477  88.95 0.0003280583    1.117    0.105
        40  -9.2759    160.3954    128.1797   2.1564924905e+01   2.4944905340e+01    0.2121671    0.1248704 -52.72 0.0009548387    1.755    0.430
        41 -10.9048    112.5004    125.9687   3.2625416245e+01   3.4418877024e+01    0.3513604     0.289299  -5.47 0.0008205932    1.485    0.326
        42 -10.7041    117.0285    121.9498   3.0429407640e+01   3.4495860243e+01    0.2377138    0.2362964 -50.09 0.0007315834    1.021    0.020
        43 -10.3986     99.3037    121.1736   3.5355096576e+01   3.8021326513e+01    0.2891489    0.2450286  -8.82 0.0005375691    1.406    0.289
        44 -10.2715     76.3027    120.7886   4.2726044532e+01   4.2150425618e+01    0.2668042    0.2056129  46.15 0.0005004319    1.313    0.238
        45 -10.0071    134.8831    119.4625   2.5237965729e+01   3.1585374957e+01    0.2682886    0.1647484 -43.10  0.001059249    1.571    0.364
        46  -9.1324     71.8258    222.8259   5.8966096687e+01   1.7861878075e+01    0.1468992   0.09604268 -62.75 0.0007985994    1.729    0.422
        47 -10.1184    108.0957    115.9455   3.1482993395e+01   3.7612673059e+01    0.2586844    0.2392827  78.34 0.0003418039    1.139    0.122
        48 -11.7747    115.8243    108.4363   2.7401217044e+01   3.7812593526e+01    0.5369521    0.3078808  40.57  0.002243057    1.821    0.451
        49 -10.3426    134.5157    106.0447   2.1986962420e+01   3.4510044266e+01    0.4067585    0.1418984 -45.14  0.001363831    2.735    0.634
        50 -12.5026     27.5128    250.0322   7.1240380101e+01   1.6923372354e+01    0.3644235    0.2126054   3.76  0.001980164    2.240    0.554
        51 -10.8008     63.4866    102.5005   4.3156834741e+01   4.8993793087e+01    0.2796632    0.2052798 -74.19 0.0006593326    1.495    0.331
        52 -11.8014     41.2124    102.6616   5.2282695107e+01   5.2099118709e+01    0.5000427    0.4226354  10.28  0.001563115    1.284    0.221
        53 -11.3287    116.4968    100.9803   2.5244725969e+01   3.9332605432e+01    0.3063847    0.2223794  28.50  0.001397829    1.658    0.397
        54 -11.1703    114.9368     95.4357   2.4146679545e+01   4.0868318028e+01    0.3937346    0.2588893  64.79  0.001683451    1.875    0.467
        55 -11.8842     32.3863     85.3724   5.2498176209e+01   5.7768298763e+01    0.5715906    0.2855328 -60.47  0.002376117    1.849    0.459
        56 -10.2704    192.1192    193.5949   2.8104692936e+01   8.1622711385e+00    0.7057897     0.377041 -63.15  0.001914781    9.926    0.899
        57  -8.6279    101.6716     91.3069   2.6795097969e+01   4.4567189879e+01    0.1579532    0.1214421  86.31 0.0006621134    1.656    0.396
        58  -8.3552    159.3068     87.3185   1.1856285897e+01   3.2953709716e+01    0.1367713    0.1131015   1.76 0.0003986126    1.634    0.388
        59 -10.7167    180.6613     76.3301   5.5356838206e+00   3.0374837977e+01    0.3273314    0.1347501 -48.63  0.001265183    2.276    0.561
        60 -11.1381     31.7015     72.7438   4.9663591711e+01   6.1113804341e+01    0.3529955    0.1967143  22.00 0.0008746259    1.884    0.469
        61 -12.4740    184.6630     64.5999   2.0650949164e+00   3.1376903162e+01     0.470359    0.4237429 -52.72 0.0008370288    1.097    0.089
        62 -11.4936     46.1509    238.3334   6.6359802619e+01   1.7437376057e+01    0.2008534    0.1589037 -67.67 0.0005793959    1.486    0.327
        63 -13.8836    201.8195     52.6072   3.5718361938e+02   2.9630952966e+01     1.061947    0.9093704  38.64  0.004144393    1.609    0.379
        64 -12.6655    207.6459     47.7894   3.5550073248e+02   2.9138109773e+01    0.4842723    0.4082124 -70.71  0.001402837    1.129    0.114
        65 -10.0632     40.9260     54.8984   3.9009544399e+01   6.4137493805e+01    0.2402561    0.2038402  23.38 0.0006067304    1.169    0.144
        66  -8.8336     48.0636    195.1875   6.2588194802e+01   2.6707060952e+01    0.4236248    0.1580161  48.34  0.001617389    2.629    0.620
        67  -9.8782    237.7806    249.6272   2.9030126899e+01  -4.1247577090e+00    0.1220664   0.07736441  20.76 0.0003633155    1.601    0.375
        68  -8.5887    200.0000     22.9812   3.5034791962e+02   3.3696768290e+01    0.1849243   0.05911101 -31.61 0.0004029705    2.809    0.644
        69 -10.2237     60.9795     21.4953   1.3975629597e+01   6.6398148347e+01    0.2915098    0.2256793  55.68 0.0008657259    1.215    0.177
        70  -9.9320     50.7687    247.7654   6.5896114778e+01   1.5145523011e+01    0.1352965    0.1250168  57.72 0.0005356087    1.178    0.151
        71  -8.9329    189.4147     14.7906   3.4912965709e+02   3.6789339970e+01    0.1532117    0.1114219 -23.36 0.0008056779    1.628    0.386
        72 -10.1124     76.0272    244.4386   5.9894432937e+01   1.3149098374e+01    0.1541449    0.1408072  33.05 0.0002267102    1.115    0.103
        73 -10.0277     36.6257    243.2797   6.8855836955e+01   1.7385451579e+01    0.2657411    0.1623699 -23.49  0.001384827    2.578    0.612
