#   1 NUMBER                 Running object number                                     
#   2 MAG_AUTO               Kron-like elliptical aperture magnitude                    [mag]
#   3 X_IMAGE                Object position along x                                    [pixel]
#   4 Y_IMAGE                Object position along y                                    [pixel]
#   5 X_WORLD                Barycenter position along world x axis                     [deg]
#   6 Y_WORLD                Barycenter position along world y axis                     [deg]
#   7 A_WORLD                Profile RMS along major axis (world units)                 [deg]
#   8 B_WORLD                Profile RMS along minor axis (world units)                 [deg]
#   9 THETA_WORLD            Position angle (CCW/world-x)                               [deg]
#  10 FWHM_WORLD             FWHM assuming a gaussian core                              [deg]
#  11 ELONGATION             A_IMAGE/B_IMAGE                                           
#  12 ELLIPTICITY            1 - B_IMAGE/A_IMAGE                                       
         1 -13.1696    207.6894     47.3817   2.3119950209e+01   2.6881328004e+01      1.93687    0.8313317 -47.84  0.006039481    2.495    0.599
         2 -12.9644    189.0727     38.1717   2.3369179134e+01   3.2818986911e+01     2.218486     1.387871 -53.73  0.008083679    1.762    0.433
         3 -13.1931    228.4519     45.2097   1.9793371845e+01   2.2139711652e+01     1.307675    0.9284787 -80.16  0.006797828    1.536    0.349
         4 -12.7142    161.2092     37.9770   2.8079142334e+01   3.9957179097e+01     1.348812     1.043329   6.88  0.006802898    1.552    0.356
         5 -12.1856     69.8495      3.1987   3.7816205687e+01   6.4296476743e+01     1.225985    0.7048793  44.54  0.006864912    1.623    0.384
         6 -10.9284    147.7151     44.8418   3.3016686679e+01   4.2393875296e+01     1.691828    0.6137039 -27.42   0.00570561    3.155    0.683
         7 -14.8594     86.8321     63.5299   5.6002294998e+01   5.2402378911e+01     3.449763     2.455316 -81.10    0.0149028    2.826    0.646
         8 -13.8779      6.6692     55.8801   8.3118444126e+01   6.2883381982e+01     1.168751    0.8284671  59.36  0.007500859    2.100    0.524
         9 -14.4279     12.5068     37.5595   7.5909153696e+01   6.6154589817e+01     1.599083    0.9450269 -50.89  0.002679243    1.354    0.261
        10 -12.5995     25.8117     39.7421   7.0891484400e+01   6.4755331338e+01     1.171563    0.3331723 -49.20  0.002833103    2.672    0.626
        11 -11.6548     42.3890     19.8540   5.6128293704e+01   6.6392696728e+01    0.7373374    0.6930749   8.48  0.005356969    1.440    0.305
        12 -12.3569     51.2489     18.9518   5.2024218644e+01   6.5357663403e+01    0.5499136    0.3617585  43.78 0.0005215129    1.917    0.478
        13 -13.0029     39.4652     57.8335   7.1031374505e+01   5.9999748865e+01      1.41719    0.4233853 -52.67  0.005655276    2.807    0.644
        14 -13.0216     51.0290     30.7631   5.7074574032e+01   6.3602262395e+01     1.400724    0.8161023  32.14   0.00482388    1.796    0.443
        15 -13.6496     61.2369     17.6922   4.7534917390e+01   6.4051819329e+01     1.756835    0.8186051 -45.07  0.004784649    3.062    0.673
        16 -13.0900     72.8890     24.8283   4.6344303111e+01   6.1183488460e+01    0.5019794    0.4119172 -41.88 0.0007991161    1.517    0.341
        17 -12.5539     78.6822     18.7020   4.1767142482e+01   6.0963327184e+01      1.14403    0.9112613 -72.28  0.003569913    2.335    0.572
        18 -13.1492     75.3032     42.5643   5.2532954402e+01   5.8082915465e+01    0.8848963    0.5409045 -49.12  0.003418067    1.980    0.495
        19 -14.6135     37.6181     71.5555   7.5441486039e+01   5.7339699211e+01     1.585487     1.290619 -71.10  0.002303366    1.358    0.264
        20 -12.8261     67.1229     82.1805   6.8102268505e+01   5.1648650071e+01    0.8215503    0.4909016 -63.53  0.001049365    1.950    0.487
        21 -10.1504     30.1504     20.8601   6.1976308936e+01   6.7619486887e+01     0.717218    0.5350959 -53.38  0.002924687    1.824    0.452
        22 -13.6768     50.9933     46.7061   6.3033005859e+01   6.0857853735e+01     1.826571    0.9051642 -15.98  0.006878337    3.793    0.736
        23 -12.2232    112.5375     28.0911   3.5533837105e+01   5.2932836981e+01    0.4658282    0.3570767  52.35  0.001907099    1.292    0.226
        24 -12.1584    220.9619     11.9423   1.2477770460e+01   2.8005690402e+01     0.256293    0.2437064 -73.10 0.0004184668    1.135    0.119
        25 -12.2647    219.0355     31.2433   1.7454178851e+01   2.6221454120e+01    0.8711779    0.7106096 -76.06  0.003971547    1.176    0.150
        26 -11.7640    226.7934     22.8167   1.4512925794e+01   2.5381122506e+01     0.577481    0.3832465  60.35  0.002359129    1.509    0.337
        27 -11.4091    195.7115     26.7473   1.9225318858e+01   3.2562489461e+01    0.5600617    0.3684694  68.44  0.002817928    1.422    0.297
        28  -9.9372    160.3354     14.0306   2.0706250577e+01   4.2973223783e+01    0.2278435    0.1769572 -51.57 0.0001297186    1.430    0.301
        29 -10.8696    163.0754     20.4806   2.2273242737e+01   4.1598078740e+01     0.394765    0.2471967 -54.71  0.001076805    1.907    0.476
        30 -11.1796    119.3189     21.6502   3.1421857151e+01   5.2175741417e+01    0.6004168    0.3246143  40.96  0.002215979    1.729    0.422
        31 -12.1579    149.1781     23.8675   2.5822222475e+01   4.4727932267e+01    0.7941017     0.423418  23.33  0.003069209    2.851    0.649
        32 -10.6954    152.1372     14.1064   2.2091228294e+01   4.5033157893e+01    0.4591699    0.3562754  66.58  0.001359101    1.194    0.162
        33  -9.7633    102.4772     14.6155   3.2961116595e+01   5.6695198286e+01    0.2158099    0.1275959 -21.99 0.0001967954    1.756    0.431
        34 -12.1657    248.7568     10.7550   9.7277981824e+00   2.1720795217e+01    0.5914794    0.2953825  84.20  0.002184598    2.051    0.513
        35 -12.0407    241.8295      7.5488   9.5871098443e+00   2.3620127490e+01    0.5394533    0.3716309 -83.78  0.002584195    1.336    0.252
        36 -10.0826    130.2817     11.0742   2.5136605966e+01   5.0706952755e+01    0.3590963    0.2725394   2.46  0.001992854    1.450    0.310
        37 -11.6890    116.1271      8.4993   2.7213927238e+01   5.4273627308e+01     0.475668    0.2851889 -10.44  0.001201161    1.874    0.466
        38 -11.1159    120.8559      9.1897   2.6426610783e+01   5.3115708923e+01    0.2320082    0.1955833  38.29 0.0002545881    1.039    0.037
        39  -9.3217     88.4830     11.5857   3.5644720258e+01   5.9912405664e+01    0.2363371    0.1697077  20.36 0.0006958625    1.283    0.221
        40 -11.2943     84.7440      8.3064   3.5354783116e+01   6.0992616959e+01    0.3303058    0.2333315 -21.78  0.001181831    1.443    0.307
        41 -10.8155    170.9180     10.6525   1.8073197465e+01   4.0623436407e+01    0.2289049    0.2045222 -70.22 0.0002337864    1.168    0.144
        42  -9.6794    173.0860      6.6714   1.6595970464e+01   4.0455915429e+01    0.1835743    0.1564691  69.96 0.0005118333    1.039    0.038
        43 -10.3682    146.4540     10.2445   2.1807501138e+01   4.6830842470e+01    0.3253326    0.2302233  37.14  0.001625895    1.406    0.289
        44  -9.7841    145.2948      6.3637   2.0717497660e+01   4.7477107978e+01    0.2134826    0.1390188  -0.17  0.000717018    1.886    0.470
        45 -11.1380     48.8439      8.2054   4.8086617675e+01   6.7122494974e+01    0.2788563    0.1955532  -8.12  0.001133977    1.215    0.177
        46  -9.8506     27.3738      9.1302   5.8109402375e+01   6.9674801320e+01    0.1826846    0.1091807 -22.36  0.001137855    1.394    0.283
        47 -11.7899    194.1486      7.1571   1.4110772388e+01   3.5091660102e+01    0.3007635    0.2254334  46.33 0.0009636286    1.429    0.300
        48  -9.6448    156.2203      8.0544   1.9477247441e+01   4.4592485758e+01    0.1842472    0.1661979  54.34 0.0004685496    1.042    0.040
        49 -10.5247    233.5456      5.3811   9.7892323989e+00   2.5742966891e+01    0.3390096    0.2035423 -17.49   0.00175153    2.185    0.542
        50  -9.4812    137.5370      6.7979   2.2235573906e+01   4.9347513905e+01    0.1850149    0.1160722 -41.59 0.0009203997    1.847    0.458
        51  -9.6616    152.5575      6.2863   1.9493631370e+01   4.5674141507e+01    0.1657638    0.1294408  10.72 0.0002914056    1.479    0.324
        52 -10.6753    109.1176      4.3614   2.7220505726e+01   5.6236839233e+01    0.3625518     0.250829  53.85 0.0008296943    1.301    0.231
        53 -10.2551     97.8666      6.3015   3.0797776190e+01   5.8512479050e+01    0.1890997    0.1323312  41.56 0.0005155756    1.230    0.187
        54  -9.1377    101.5831      4.4865   2.9095753010e+01   5.7883586761e+01    0.2483486    0.1204542  29.65 0.0009000689    2.230    0.552
        55 -10.4153      3.2448      6.2111   6.9055460507e+01   7.2173829586e+01    0.2502139    0.1225095   0.14  0.001475642    2.284    0.562
        56 -10.5836    183.5047      3.8122   1.4449199834e+01   3.8088208249e+01    0.2202759    0.1899297 -81.54 0.0006453443    1.120    0.107
        57 -13.4244    117.3181     64.9530   4.7244823024e+01   4.6214070957e+01      1.77028     1.346121  72.89  0.008408805    1.815    0.449
        58 -11.2541     86.5068      1.7352   3.1970031989e+01   6.1275039493e+01    0.4967432    0.1464373  49.51   0.00175902    2.719    0.632
        59 -11.9480     47.2929      1.8566   4.5634761830e+01   6.8098841064e+01     0.322694    0.1571151  31.18  0.001340782    1.927    0.481
        60  -9.9059    218.9342      1.7759   1.0224902598e+01   2.9546642536e+01    0.2165381    0.1234032  44.75  0.001061648    2.182    0.542
        61  -9.4767    153.8960      2.1758   1.7970450569e+01   4.5699742914e+01    0.1867939    0.1330152  48.62  0.001016936    1.284    0.221
        62 -10.5005    126.9531      1.6771   2.2416179304e+01   5.2340834992e+01    0.1876995    0.1453534  56.53 0.0003290353    1.137    0.120
        63 -13.7356     53.3864     88.3816   7.4178394769e+01   5.2019695038e+01       0.8115     0.496725 -63.70  0.003421613    1.618    0.382
        64 -12.2315    246.3016    249.2245   6.0657981483e+01  -1.1236178284e+01    0.5845363     0.208772  40.71  0.002883147    2.508    0.601
        65 -12.5799    243.3853    242.7800   6.0125332357e+01  -1.0130766258e+01    0.3390261    0.2507747  26.07  0.002379568    1.163    0.140
        66 -11.1209    228.9998    249.0853   6.3604599596e+01  -8.7367339974e+00    0.2023577    0.1517065 -14.94 0.0007229333    1.412    0.292
        67 -12.0363    227.5105    242.6904   6.2867001097e+01  -7.7850337023e+00    0.2733864     0.251543  37.41  0.001631393    1.506    0.336
        68 -11.8903     48.2728     85.5269   7.5184085593e+01   5.3225514327e+01    0.2604947     0.254639 -36.61  0.001040099    1.147    0.128
        69  -9.9819    249.5203     94.4264   2.8815947577e+01   1.0100484139e+01    0.1372723    0.1254905 -35.13 4.280097e-05    1.011    0.011
        70 -10.7551    213.8932     94.3268   3.4414487750e+01   1.8022543603e+01    0.2311742    0.1916171  81.47 0.0007013195    1.408    0.290
        71 -12.4007    212.9828     85.1413   3.2215469975e+01   1.9781270679e+01    0.5125943    0.3283044 -24.28  0.002289015    1.718    0.418
        72 -12.3542    189.5334     93.0982   3.8615116122e+01   2.4044890615e+01    0.4724782    0.3271914  61.04  0.001647815    1.551    0.355
        73 -10.0586     68.0355     94.5416   7.0969645437e+01   4.8801804290e+01    0.1874346    0.1367255  32.47 0.0005378248    1.518    0.341
        74  -9.9781     74.4302     92.2459   6.8390515717e+01   4.8414034731e+01    0.2342812    0.1714208  14.95  0.000579581    1.649    0.394
        75 -11.2749    204.0312     90.9072   3.5283921423e+01   2.0938738637e+01    0.2938566    0.2446465  42.78 0.0008547372    1.240    0.193
        76 -14.1865    180.0865     84.5612   3.8176249124e+01   2.7877074325e+01     2.488315     1.340455  26.44  0.008064839    3.385    0.705
        77 -11.9359    236.9804     53.2808   2.0708315354e+01   1.9034386867e+01    0.4934573    0.3378145 -24.18  0.001480196    1.603    0.376
        78 -13.8739    220.1096     72.9194   2.7925723631e+01   2.0061985335e+01     1.458682     1.146872  71.38  0.001854719    1.354    0.261
        79 -11.3624     36.1093    248.7617   9.7687535812e+01   1.9808110709e+01    0.1941843    0.1218235 -88.11  0.001427762    1.433    0.302
        80 -12.8337    221.5763     57.7252   2.3835907513e+01   2.2013458453e+01     1.109278    0.6298448 -53.65  0.004920584    1.896    0.473
        81 -11.0955      2.8231    248.2879   1.0278895532e+02   2.3371547449e+01    0.2524475    0.1402317  77.21  0.001927607    1.317    0.241
        82 -12.1591    234.4055     61.3221   2.2988123304e+01   1.8473194609e+01    0.8743466    0.6051328 -83.77  0.003917931    1.740    0.425
        83 -11.3890    112.7578    246.5754   8.4356088729e+01   9.9143370718e+00     0.291379    0.1723006 -41.41  0.001623739    2.666    0.625
        84 -12.2473    202.8327     75.6019   3.1442923564e+01   2.3802110071e+01    0.6219431    0.2822938  47.67 0.0008957977    2.284    0.562
        85 -12.9492    203.4007     69.8381   2.9800966046e+01   2.4591335066e+01     0.648958    0.5564938  61.12  0.003447287    1.172    0.147
        86 -12.5243    175.4865     53.8019   3.0217039555e+01   3.4092097740e+01     1.552537    0.5064463  54.86  0.005188556    2.785    0.641
        87 -13.3154    193.2233     66.5977   3.0666813032e+01   2.7633379299e+01     1.533455    0.6089207  45.66  0.005305445    2.758    0.637
        88 -12.9758    191.4506     59.4633   2.8986975993e+01   2.9189538951e+01    0.8151204    0.6136227 -24.07  0.003781696    1.438    0.304
        89 -13.4091    172.9991     45.9769   2.8344625621e+01   3.5862750954e+01    0.8234531     0.690602   2.88  0.002500783    1.383    0.277
        90 -10.8476     13.4952    248.0394   1.0117717631e+02   2.2361770149e+01       0.1449   0.07758074 -86.36  0.001037711    1.604    0.377
        91 -10.9752    235.1944    244.3933   6.1795137880e+01  -9.1214848891e+00    0.1591606   0.09228278  41.31 0.0005021006    1.662    0.398
        92 -13.8609    138.4958     71.0940   4.3601992923e+01   4.0365675829e+01     2.773161     1.719313 -50.68   0.01180061    1.861    0.463
        93 -13.0209    151.0415     62.1937   3.7822338106e+01   3.8898079475e+01     1.388915    0.8333028  54.84  0.006009191    1.641    0.391
        94 -10.5350    180.2602    242.9934   7.1460556674e+01  -3.5674639281e-01    0.1344379    0.1072483 -36.60 0.0006252438    1.549    0.355
        95 -11.9469    247.9911    235.7499   5.8183879337e+01  -1.0012596362e+01    0.3000147    0.1514589 -19.36  0.001649495    2.161    0.537
        96 -14.1803     10.1812     69.4073   8.4709926527e+01   5.9867168931e+01     1.250257     1.008003  87.39  0.007688964    1.480    0.324
        97 -10.6810    219.0270    240.1687   6.3973066762e+01  -6.1888460792e+00    0.1934633    0.1751326  12.76  0.001020751    1.278    0.218
        98 -10.5936     15.8980    238.4580   1.0034893557e+02   2.3768300167e+01    0.1522675    0.1171147 -86.03  0.000652791    1.344    0.256
        99 -10.2517    159.8108    219.8466   7.1995554724e+01   6.5842468417e+00    0.1821106    0.1572263  27.66 0.0003584163    1.129    0.114
       100  -9.0272    219.2836    125.7203   4.1189698928e+01   1.1370639181e+01    0.1384082    0.1160432 -69.99 0.0006926477    1.513    0.339
       101 -12.2813    152.7822    124.2140   5.4889231525e+01   2.6537496237e+01    0.2929015    0.2881409 -81.30  0.000355333    1.056    0.053
       102 -13.2778     29.5403     59.0735   7.5157557562e+01   6.0665224317e+01     0.824882    0.6244262   3.88 0.0003475143    1.479    0.324
       103 -10.0810    225.5403    121.0471   3.8953411085e+01   1.0832052965e+01    0.2683941    0.1903071  30.50 0.0004725962    1.566    0.361
       104  -9.5493    173.8645    117.8928   4.8431279866e+01   2.3065482038e+01    0.2023062    0.1843774 -86.89 0.0002531749    1.255    0.203
       105  -9.7132    248.2157    117.5335   3.4362334827e+01   6.7080551565e+00    0.2408287    0.1417583  59.33  0.001110776    2.101    0.524
       106 -13.2268     55.0696     70.5172   6.8985550728e+01   5.5679243532e+01    0.9998782     0.514947 -59.84  0.002711945    2.141    0.533
       107 -12.8699     58.8709     60.7025   6.4705171512e+01   5.7195464595e+01     1.001883    0.6752088 -72.07  0.003494405    2.455    0.593
       108 -10.1078    204.1076    116.2558   4.1745664278e+01   1.6418200225e+01    0.2768782    0.2125349  71.97 0.0008826641    1.633    0.388
       109 -10.0232    177.4044    114.8651   4.6880196875e+01   2.2841112613e+01    0.2253713    0.1483345 -25.88 0.0009451294    1.731    0.422
       110  -9.8437    210.5726    113.1588   3.9750378795e+01   1.5506912594e+01    0.3134321    0.1927947 -21.17 0.0009437402    1.932    0.482
       111 -12.7159     82.0802     40.7263   4.9512733500e+01   5.7227028869e+01    0.5782865    0.5327801   8.36  0.002614497    1.125    0.111
       112 -10.1975    166.6599     89.2508   4.2350044004e+01   3.0303812616e+01    0.2608702    0.2153609  67.61 0.0006530258    1.327    0.247
       113  -9.3809    231.7878    112.8885   3.5934857197e+01   1.0871791040e+01    0.1921957    0.1109296 -32.22 0.0007783438    1.650    0.394
       114 -10.9706     24.0081     85.6941   8.3220521147e+01   5.5412886518e+01    0.2773667    0.1440126 -76.84  0.001357544    2.172    0.540
       115 -12.7798    196.2965     84.8830   3.5107140206e+01   2.3844606553e+01    0.6286969    0.4906798  -7.95  0.003004191    1.536    0.349
       116 -11.9131     73.2860     75.0190   6.4050168675e+01   5.2288416452e+01    0.4248126    0.3074248  44.14  0.001625691    1.590    0.371
       117 -12.0351     71.7042     71.5145   6.3542567955e+01   5.3244481484e+01    0.6401633    0.3775136  26.86  0.003090174    1.918    0.479
       118 -10.8930     71.3406     87.4785   6.8138324025e+01   4.9908752748e+01    0.4120902    0.2790194 -12.23  0.001972392    2.021    0.505
       119 -11.9952    132.8041    111.8874   5.6752237870e+01   3.3485663074e+01    0.3941311    0.3382059  69.82  0.001838904    1.316    0.240
       120 -10.7913    230.9515     83.2858   2.8873724114e+01   1.5907140750e+01    0.2640969    0.2161278 -54.24 0.0003661432    1.222    0.182
       121 -11.3915    186.6310     86.8481   3.7494375421e+01   2.5865360499e+01    0.3103496      0.23083  63.11  0.001285492    1.432    0.301
       122 -11.6756    162.4693     84.2052   4.1847053576e+01   3.2254081179e+01    0.5397256    0.3785951  58.32  0.001729893    1.490    0.329
       123  -9.7594    245.2538     85.0750   2.7223239792e+01   1.2460951092e+01    0.1907502    0.1543171 -36.15 0.0003044692    1.132    0.117
       124 -12.1315      5.4567     86.0154   8.9233043338e+01   5.6538708363e+01    0.4622758    0.2537845 -46.23  0.002462928    1.598    0.374
       125  -9.9255    246.4807     81.3200   2.6165898515e+01   1.2774708754e+01     0.365771    0.2026283 -72.89  0.001331611    3.536    0.717
       126 -12.0959    169.5044     80.0237   3.9100110530e+01   3.1289877509e+01    0.5972717    0.4976349 -70.02  0.001983041    1.399    0.285
       127 -10.8142    164.4894     73.5575   3.8293971299e+01   3.3662912084e+01    0.3883494    0.2487297 -40.32  0.001024398    1.581    0.367
       128 -12.1543    162.5035     66.7767   3.6699970175e+01   3.5309126566e+01    0.7976429    0.4940433  40.27  0.003422064    1.700    0.412
       129 -12.2864     30.6609     80.9290   8.0038668409e+01   5.5932545739e+01    0.3333597    0.2801898 -15.70  0.002187765    1.318    0.241
       130 -13.7266    205.2325     59.9573   2.6850086659e+01   2.5667991454e+01     1.964165    0.8045474  61.30    0.0072231    2.465    0.594
       131 -10.4397    232.7655     78.8603   2.7515213133e+01   1.6192941179e+01    0.2491596    0.2352462  68.53 0.0004139516    1.118    0.105
       132  -9.6414    237.7031     81.0242   2.7326218845e+01   1.4744939333e+01    0.2133916    0.1146472  -9.98 0.0004183508    3.911    0.744
       133 -10.8716    155.2112     76.7800   4.1321754018e+01   3.5365324026e+01    0.4325444    0.2763816  44.06  0.001410662    1.558    0.358
       134 -10.9806    249.8180     75.0953   2.4259162471e+01   1.2998526867e+01     0.314095    0.2259697 -15.30   0.00162485    1.645    0.392
       135 -11.0011     96.8353    110.4261   6.6202057071e+01   4.0760204482e+01    0.3765146     0.181958 -36.46  0.001304556    2.599    0.615
       136 -11.0966    238.6588     72.6909   2.5177077883e+01   1.5812125694e+01    0.4931128    0.2461383  72.59  0.001970842    2.717    0.632
       137  -9.7575    240.7094     69.6484   2.4167687138e+01   1.5810793257e+01    0.2564761    0.1351625 -27.61 0.0006429651    1.998    0.500
       138  -9.3730    151.0329     72.6945   4.1061488266e+01   3.7104238031e+01    0.2080144    0.1967118  48.80 0.0003886288    1.052    0.050
       139 -11.9147    176.1864     70.8206   3.5062382198e+01   3.1216783477e+01    0.6024709    0.3452963  53.73 0.0009724516    1.701    0.412
       140 -11.7359    245.0047     57.9216   2.0833585145e+01   1.6562870222e+01    0.7260237    0.2949141  56.97  0.002014027    2.527    0.604
       141 -10.8127    118.4228    110.6710   6.0251807697e+01   3.6700056220e+01    0.2894872    0.1948382  38.63  0.000718648    1.536    0.349
       142  -9.5544    243.8649     65.0073   2.2649707025e+01   1.5793932270e+01    0.1813533    0.1678972 -78.93 0.0007309353    1.086    0.079
       143 -10.6333    175.2239     61.9043   3.2654954959e+01   3.2910613948e+01     0.324609    0.2124429 -30.75  0.001000853    1.588    0.370
       144 -10.5066    181.7158     61.8734   3.1413879255e+01   3.1274993746e+01    0.2708046    0.2146953  70.77 0.0003689043    1.312    0.238
       145  -9.8771    124.8848     53.8145   4.1478199195e+01   4.6450596633e+01    0.2223535    0.1833449 -82.61 0.0005873423    1.653    0.395
       146 -11.5547    127.4818     58.5978   4.2401030986e+01   4.5073636625e+01    0.5494959    0.3045686  34.00  0.001769838    2.060    0.515
       147 -12.4296    134.5427     53.0440   3.8768381823e+01   4.4342391629e+01    0.9297736    0.6541411 -54.03  0.003439821    1.741    0.426
       148  -9.5213    120.4424     44.1498   3.9306228985e+01   4.8956062601e+01    0.3838013    0.2501232  70.00  0.001688762    2.138    0.532
       149 -12.6631    127.6720     44.3255   3.7514312516e+01   4.7278602454e+01     1.084245    0.5691231  21.32  0.003680096    3.457    0.711
       150 -11.1905    133.5698     46.2391   3.6720896140e+01   4.5613973221e+01    0.4762144    0.2458263  51.90  0.001999601    1.833    0.454
       151 -10.9943    136.1343     42.4737   3.4834924000e+01   4.5550707936e+01    0.3408082    0.3085162 -60.81 0.0007709591    1.274    0.215
       152 -10.5670     46.8547     60.5261   6.9053556544e+01   5.8679075186e+01    0.2736872    0.1752761 -26.98  0.001493121    1.571    0.363
       153 -10.7534    159.9995     50.7595   3.2316239187e+01   3.8466565285e+01    0.4075583    0.2636946 -10.26 0.0002846072    2.031    0.508
       154 -11.0019    162.8146     58.3723   3.4084944607e+01   3.6594303625e+01    0.4725606    0.3770299  -0.02   0.00208495    1.484    0.326
       155 -10.5982    161.3165     54.3195   3.3149894312e+01   3.7598835161e+01    0.3435039     0.234336  34.13 0.0009621857    1.627    0.386
       156 -10.9504    100.5235     54.4509   4.8598279932e+01   5.1513360645e+01    0.4958685    0.4383836  10.55  0.002825281    1.072    0.067
       157 -10.8759    109.2199     56.4724   4.6711695514e+01   4.9409320435e+01    0.3122754    0.2472605 -39.68  0.001098945    1.303    0.233
       158 -11.6434    237.1262     86.1037   2.8639350491e+01   1.4076039576e+01     0.532877    0.2846867  63.58  0.001502573    2.177    0.541
       159  -9.7267    111.7414     52.1663   4.4499989979e+01   4.9602790118e+01    0.1918467    0.1549014   5.24 0.0004610574    1.300    0.231
       160 -12.1127     90.5050     50.8698   5.0471017045e+01   5.4034441230e+01    0.3241943    0.2317526  18.53   0.00166637    1.506    0.336
       161 -10.5812    249.4497     50.0475   1.8482521929e+01   1.6677551985e+01    0.2358112      0.19135  73.79 0.0005735809    1.280    0.219
       162  -9.5048    241.0658     47.9102   1.8936837497e+01   1.8845813593e+01    0.1873438    0.1578454  27.39 0.0005890736    1.514    0.339
       163 -10.0626     99.6573     47.0406   4.6230561516e+01   5.2919427827e+01    0.3143449    0.2438877  26.72  0.001252635    1.258    0.205
       164  -9.8800    104.8277     44.6014   4.3803727858e+01   5.2258566403e+01    0.4296501    0.2454393  -2.58   0.00162055    2.996    0.666
       165  -9.8584    142.5013     46.1655   3.4607207807e+01   4.3480483922e+01    0.3848951    0.1609352  41.51  0.001367914    2.586    0.613
       166  -9.9383     32.5276     43.5099   6.9326945231e+01   6.3452463356e+01    0.1984792    0.1889788 -31.87 0.0007117716    1.297    0.229
       167 -10.5490     35.5258     42.5711   6.7783701425e+01   6.3337823305e+01    0.2127782    0.1983392  81.79 0.0005730139    1.599    0.375
       168 -11.1205    247.9159     42.3412   1.6876717836e+01   1.8055383470e+01    0.3293813    0.2228131 -67.86  0.001036587    1.518    0.341
       169 -10.3285     96.1109     42.8377   4.5778235407e+01   5.4285435383e+01    0.3143215     0.181112  48.56 0.0008564232    1.818    0.450
       170 -10.8563    240.9457     40.1493   1.7121041850e+01   1.9913658930e+01    0.2119211    0.1813646 -40.87 0.0002547738    1.154    0.134
       171  -9.5307    101.4992     40.4204   4.3248909296e+01   5.3579916305e+01    0.1438464    0.1224501  13.47  0.000102096    1.097    0.088
       172  -9.4543    119.2880     39.0367   3.7790154640e+01   4.9959163771e+01    0.1922185    0.1707167  18.08 0.0004892671    1.059    0.056
       173  -9.7877    123.8388     37.3743   3.6034676648e+01   4.9154975286e+01     0.377198    0.2006611  32.90  0.001552261    2.162    0.538
       174 -11.1336    233.9500     36.3738   1.6999162558e+01   2.2018344470e+01    0.5158985    0.2970687 -85.48   0.00218266    2.122    0.529
       175  -9.9799    114.5143     38.4830   3.8853998637e+01   5.1100994234e+01    0.2697489    0.1350241  51.93 0.0007528987    1.952    0.488
       176  -9.7437    109.2265     36.8098   3.9686588248e+01   5.2488464054e+01    0.1956263    0.1696655  -1.65 0.0003768035    1.111    0.100
       177 -10.0247    112.1654     33.4176   3.7623918675e+01   5.2319326174e+01    0.3723928    0.1971649 -19.74  0.001602829    2.170    0.539
       178  -9.8122    217.0940    109.5274   3.7662013824e+01   1.4672838633e+01    0.2251296    0.1912094 -34.36 0.0005580091    1.128    0.114
       179 -12.3988     91.9035     33.7017   4.3616798806e+01   5.6473008351e+01    0.4399767    0.3174332  15.61  0.001544294    1.418    0.295
       180  -9.9991    200.1480    109.8186   4.0897460567e+01   1.8497125361e+01    0.5120543    0.1883006  60.04 0.0008803872    4.252    0.765
       181 -10.3356    195.5861    107.2618   4.1139861826e+01   2.0028002749e+01    0.4143032    0.2207525 -49.50  0.001602061    2.120    0.528
       182 -11.0015     65.6073    110.2493   7.5254096134e+01   4.5540863500e+01    0.2038752    0.1113562 -49.76 0.0009529331    1.654    0.396
       183 -10.6178    226.5288     18.4643   1.3493467413e+01   2.5950422188e+01    0.2068063    0.1683617  82.76 0.0006050841    1.139    0.122
       184  -9.7450    212.0999     33.8964   1.8982253636e+01   2.7584470269e+01    0.2086876    0.1626584 -63.73 0.0002722527    1.273    0.214
       185 -11.6680    131.5774     33.5652   3.2826798647e+01   4.7852760039e+01     0.282137     0.229914 -54.80 0.0002077492    1.473    0.321
       186  -9.9706    122.2366     33.0276   3.4877127868e+01   5.0108504772e+01    0.1859896    0.1709147 -15.94 0.0003378203    1.134    0.118
       187 -10.7027    223.1084     16.8223   1.3444194566e+01   2.6952005163e+01    0.2337912    0.1938762 -78.96 0.0003975015    1.087    0.080
       188 -11.7572     86.6353     28.6625   4.3293694722e+01   5.8187156530e+01    0.2893958    0.2318851  14.55 0.0005790388    1.137    0.120
       189 -10.2434    183.6636    105.5225   4.3115362717e+01   2.3163759512e+01    0.2672474    0.2464133 -56.40 0.0006923521    1.142    0.124
       190 -11.3729    125.5575     25.0404   3.1192721249e+01   5.0333649977e+01    0.6336795    0.2876793  46.17  0.001959996    1.988    0.497
       191 -10.1818    104.6910     28.5930   3.7849507208e+01   5.4570493369e+01     0.270447    0.1752537 -36.07  0.001367132    1.657    0.397
       192 -10.8501    234.6351     24.1669   1.4030674257e+01   2.3377515520e+01    0.4256546    0.2366818  61.18  0.001431998    1.784    0.440
       193 -10.0555    241.9729     22.7625   1.2991814695e+01   2.1859211572e+01    0.3032236    0.1295132  74.20  0.001328318    2.401    0.584
       194  -8.8974    244.3324     20.0214   1.2153303850e+01   2.1649711143e+01    0.3081812     0.198846 -47.94  0.001092073    1.392    0.282
       195 -10.5326    176.2378     24.5231   2.1399980134e+01   3.7783910512e+01    0.3347761    0.1753767 -34.58  0.001151342    1.967    0.492
       196 -10.8502    144.4258    102.8628   5.1395338339e+01   3.2844757253e+01    0.4068767    0.2966002  24.51   0.00158018    1.630    0.386
       197  -9.8844    161.0000     24.6664   2.3933840980e+01   4.1655626639e+01    0.3798577    0.1973292 -32.27  0.001677856    2.014    0.503
       198 -11.9608    110.2953    102.5478   6.0389338195e+01   4.0066431656e+01    0.4734929    0.2542088 -32.46  0.001817711    2.322    0.569
       199 -10.3713    135.5413     25.4721   2.9118290880e+01   4.7901788934e+01    0.4422125    0.3104126 -80.54  0.001856338    2.087    0.521
       200  -9.6973    138.2775     22.7672   2.7606519633e+01   4.7547771507e+01    0.3736382    0.2091083  60.32  0.001180225    1.669    0.401
       201 -10.8676    209.6616     22.7133   1.6390944029e+01   2.9548226426e+01    0.3138826    0.1835195 -45.23  0.001535993    1.680    0.405
       202  -9.2066    241.0000    102.9604   3.2089385452e+01   1.0538396320e+01    0.2384495   0.07515811 -34.68 0.0007987274    2.917    0.657
       203 -10.5131     97.9632     21.8649   3.7115824528e+01   5.6821758542e+01     0.253043    0.1983697 -12.19  0.000881122    1.258    0.205
       204 -10.4021    165.5393    102.2472   4.6195252654e+01   2.8087799241e+01    0.2977051    0.1503193 -43.45 0.0006331273    2.003    0.501
       205 -10.3663    201.7868     20.0556   1.6641645899e+01   3.1811316039e+01    0.2782907    0.1831692  60.18 0.0005208785    1.431    0.301
       206 -10.7910    129.9357     19.5404   2.8234624888e+01   4.9921410488e+01    0.4684562    0.2156947  45.56  0.001792362    1.967    0.492
       207 -10.1641     14.5520     19.7476   6.8843689668e+01   6.9187478017e+01    0.2036138    0.1178238 -46.51 0.0008822606    1.502    0.334
       208  -9.9920     18.2277     19.6205   6.7032671169e+01   6.8917999933e+01    0.2543966    0.1297902  -0.09  0.001042175    2.415    0.586
       209 -10.7313    139.1288     17.9007   2.5759100500e+01   4.7871911836e+01    0.2476429    0.1900433 -24.26  0.001348411    1.414    0.293
       210  -9.7963    111.8890     16.8741   3.1428291498e+01   5.4390495918e+01    0.2123214    0.1592809  30.42 0.0008646256    1.230    0.187
       211 -12.3523    117.3527     93.4683   5.5930500329e+01   4.0620063129e+01    0.4361455    0.3508076 -36.75  0.001535034    1.224    0.183
       212 -10.1958    126.4543     15.1776   2.7416246944e+01   5.1211272165e+01    0.3316926    0.1955734  73.98  0.001499995    2.099    0.524
       213 -13.3982    126.7765     91.6109   5.2821192550e+01   3.9037746778e+01     1.387716    0.8111711  -9.55  0.001168275    4.150    0.759
       214 -13.0397    132.4779     96.3032   5.2637829176e+01   3.6842276590e+01    0.8072793    0.5944543 -38.20  0.003797284    1.356    0.263
       215 -11.0017    109.9749     86.9800   5.6164065178e+01   4.3447497307e+01    0.2783402    0.2095258  15.88 0.0007677961    1.591    0.371
       216  -9.5794    133.6737     13.3036   2.5244370646e+01   4.9671896931e+01     0.222043    0.1623332  87.98  0.001137399    1.706    0.414
       217 -12.5245    114.0052     81.1821   5.3290359089e+01   4.3820346719e+01    0.6929405    0.4260428 -48.34  0.002541631    1.686    0.407
       218 -11.2347    116.1408     88.8654   5.4955103099e+01   4.1824299149e+01    0.2972575    0.2163085 -34.73 0.0004393929    1.378    0.274
       219 -12.5901    122.1012     85.9652   5.2450721055e+01   4.1179250128e+01    0.5860341    0.5057862   5.83  0.002102239    1.259    0.206
       220  -9.6255     93.0073     12.4875   3.4705587199e+01   5.8904449120e+01    0.1771792   0.08910182  30.92 0.0007941911    2.068    0.516
       221 -10.8638    126.4969     81.4899   4.9919710201e+01   4.1123865524e+01    0.3680506    0.2526045 -22.18  0.001219944    1.700    0.412
       222  -9.4988    237.9755    102.5123   3.2454145581e+01   1.1256061330e+01     0.193871    0.1423659  53.48 -4.293694e-05    1.472    0.321
       223  -9.7410    179.8391     11.7884   1.7171218500e+01   3.8242565192e+01    0.1758056   0.09767717  63.80 0.0008217903    1.584    0.369
       224 -12.8852     96.4350     90.3183   6.1103490160e+01   4.5277941865e+01     1.058464    0.6459413  73.51  0.003584255    3.990    0.749
       225 -11.7659    100.7140    101.3073   6.2799459771e+01   4.2119029485e+01    0.5351599    0.2674797 -47.30  0.001485649    1.904    0.475
       226 -11.8588    106.5274     96.4772   5.9833299536e+01   4.2102371628e+01    0.3595718    0.2770113 -23.64 0.0007476587    1.448    0.309
       227 -12.5738    106.1288     92.8505   5.8948721196e+01   4.2956157968e+01    0.7077429    0.3659755  29.61  0.002712634    2.475    0.596
       228 -11.4812     96.3762    100.9852   6.3978873024e+01   4.2958490141e+01    0.3841759    0.2712443 -28.57  0.001365685    1.615    0.381
       229 -12.6411     86.8013     98.6340   6.6217906878e+01   4.5091096453e+01    0.5677336    0.4107644  14.16  0.002345952    1.746    0.427
       230 -11.7473    151.7122     97.1068   4.8020366482e+01   3.2341440729e+01    0.6335902    0.3593831 -54.50  0.002429935    2.165    0.538
       231 -10.0444    194.4141     98.7441   3.9155296427e+01   2.1855110187e+01    0.2227653    0.1476939 -23.66 0.0009549432    1.697    0.411
       232 -11.0184    169.8742     97.3940   4.3901562684e+01   2.7994063942e+01    0.3541601    0.3225407  -7.84 0.0008825858    1.156    0.135
       233  -9.8852    166.1864     95.3940   4.4172678832e+01   2.9258351730e+01    0.2643747    0.2372943  85.16 0.0001221413    1.258    0.205
       234 -11.1146    200.3784     96.2735   3.7363018208e+01   2.0873808897e+01    0.3513684    0.2732476 -58.37 0.0008029242    1.438    0.304
       235 -11.5600    140.4558     97.5340   5.0924670750e+01   3.4826101815e+01    0.4107167     0.298664  80.65  0.001595109    2.031    0.508
       236 -11.5766     12.4042     97.3993   8.8852459588e+01   5.3611301481e+01     0.236761    0.1951025 -62.19  0.000614844    1.065    0.061
       237 -11.6274     73.8414     96.5322   6.9646801868e+01   4.7542972872e+01    0.2940071    0.2508072  41.95 0.0009667824    1.295    0.228
       238 -12.9741     48.1846     95.0815   7.7358585600e+01   5.1096366987e+01    0.6138623    0.3539009  47.55  0.002922277    2.153    0.535
       239 -10.0019    229.3160     96.3294   3.2335407394e+01   1.4163732196e+01    0.1477925    0.1122011  10.74 0.0006390475    1.679    0.405
       240 -10.6138     27.7132     95.9526   8.3950504555e+01   5.2828904337e+01     0.181618    0.1725179 -53.52 0.0004497819    1.164    0.141
       241 -10.6074    207.4756     94.5995   3.5620550063e+01   1.9482598370e+01    0.2594502    0.2470425 -28.40 0.0007215248    1.027    0.026
       242 -10.2149    177.7083     94.6689   4.1461114732e+01   2.6621127387e+01    0.2431933    0.2195711  21.95 0.0004377347    1.162    0.140
       243  -9.7080    157.0163     95.4983   4.6308661125e+01   3.1417052037e+01    0.2354492    0.1535054  47.99 0.0004590215    1.522    0.343
       244 -12.8059     61.5104     90.4309   7.2041711600e+01   5.0578364743e+01    0.5560272    0.3709115 -72.04   0.00213104    1.788    0.441
