#   1 NUMBER                 Running object number                                     
#   2 MAG_AUTO               Kron-like elliptical aperture magnitude                    [mag]
#   3 X_IMAGE                Object position along x                                    [pixel]
#   4 Y_IMAGE                Object position along y                                    [pixel]
#   5 X_WORLD                Barycenter position along world x axis                     [deg]
#   6 Y_WORLD                Barycenter position along world y axis                     [deg]
#   7 A_WORLD                Profile RMS along major axis (world units)                 [deg]
#   8 B_WORLD                Profile RMS along minor axis (world units)                 [deg]
#   9 THETA_WORLD            Position angle (CCW/world-x)                               [deg]
#  10 FWHM_WORLD             FWHM assuming a gaussian core                              [deg]
#  11 ELONGATION             A_IMAGE/B_IMAGE                                           
#  12 ELLIPTICITY            1 - B_IMAGE/A_IMAGE                                       
         1 -14.1491     28.6973     59.8559   9.3704250049e+01   6.3000521212e+01     1.633639     1.161545  70.01  0.007969427    2.362    0.577
         2 -12.3346     74.3933     40.1470   6.6029926906e+01   5.9703950389e+01    0.4663521    0.2653834 -28.54  0.001430116    1.914    0.478
         3 -11.5985    222.4492     13.3870   3.1937454725e+01   2.9173605451e+01    0.3026303    0.1702259 -52.83  0.001161156    1.474    0.321
         4 -12.3837    216.5527     11.5485   3.1956507406e+01   3.0563498411e+01    0.3978618    0.3055587  26.19   0.00113019    2.097    0.523
         5 -11.4514     65.1451     10.6203   5.6190501997e+01   6.5400905763e+01    0.3169266    0.1871741  43.16 0.0009849337    1.444    0.308
         6 -10.6934     36.6233     11.1076   6.8748885632e+01   7.0619148054e+01    0.1935922    0.1476694  33.84 0.0003393913    1.256    0.204
         7 -10.5788    202.5410      6.9340   3.1949427552e+01   3.3968575372e+01    0.2238435    0.1433466  63.18  0.001361715    1.631    0.387
         8 -10.7275    114.8923      7.1995   4.2158475154e+01   5.4417806014e+01    0.1842796    0.1557447  81.27 0.0002617482    1.139    0.122
         9 -11.2342    126.7558      5.9302   3.9762910340e+01   5.1664964553e+01    0.2646836    0.1633899  76.59 0.0006867039    1.489    0.328
        10 -11.7001    190.1313      4.4476   3.2325038430e+01   3.6911604498e+01    0.3138841    0.1956524  86.60 0.0008590753    1.435    0.303
        11 -11.7159    149.3288    222.0847   8.9364436679e+01   7.7601988551e+00    0.4330881    0.3374214 -80.40  0.002384495    2.095    0.523
        12 -10.2286     55.4608    223.2621   1.1114553870e+02   2.0249867309e+01    0.1654679    0.1122719  81.74 0.0009320893    1.587    0.370
        13 -10.5874    173.8453    220.6504   8.3913580979e+01   4.5165455078e+00    0.1856227    0.1476663  -9.57   0.00114083    1.161    0.139
        14  -9.9745     97.7453    221.0251   1.0100376964e+02   1.5319368299e+01    0.1559301     0.115737 -62.77 0.0007140786    1.531    0.347
        15 -12.0793    239.0314    215.7636   7.0895747882e+01  -3.1610540161e+00    0.3822517    0.1564267 -45.44  0.001744435    3.271    0.694
        16 -10.9966    180.1290    216.7104   8.1982022902e+01   4.2910323871e+00    0.2083631    0.1757279 -41.69  0.001307342    1.419    0.295
        17 -11.0069    234.7752    215.6016   7.1582802401e+01  -2.6421547669e+00    0.1490497    0.1018744  33.32 0.0009499112    1.702    0.412
        18 -10.2210    156.4505    212.3043   8.6276500634e+01   8.4855895342e+00    0.2472049     0.109397  33.84  0.001078362    2.052    0.513
        19 -10.3979    192.7858    209.9958   7.8312949751e+01   3.6234306781e+00    0.1834857    0.1572705 -74.73  0.001079731    2.028    0.507
        20 -10.7760    176.5142    209.5537   8.1533535791e+01   6.0203144678e+00    0.2200662    0.1270326 -54.58  0.001037318    2.410    0.585
        21  -9.9970     87.4074    205.2077   1.0153456221e+02   2.0090678471e+01    0.1721809    0.1308218 -84.47 0.0003880301    1.531    0.347
        22  -9.6079      2.3259    203.2639   1.2206054261e+02   2.9867807689e+01    0.1070121   0.08774561 -43.52  0.000297787    1.565    0.361
        23 -10.2464     80.3878    201.2085   1.0278996983e+02   2.1939528558e+01    0.1882576    0.1292963 -83.96 0.0009485331    1.727    0.421
        24 -11.7767      3.7000    196.8057   1.2141777959e+02   3.1214732396e+01    0.3308709    0.2004171  55.41  0.001090331    1.439    0.305
        25 -11.4481    161.6756    193.7859   8.1979055812e+01   1.1138339756e+01    0.3912917    0.3000109  50.29  0.002081883    1.588    0.370
        26 -10.5131    172.8828    191.1683   7.9067766924e+01   9.8601981551e+00    0.2022157    0.1927308  46.71  0.001238289    1.320    0.242
        27 -10.3926     66.5130    195.0096   1.0558536497e+02   2.5182659693e+01    0.1929214    0.1087883  77.05 0.0008094245    2.456    0.593
        28 -10.6268    183.3138    184.0090   7.5545769373e+01   9.5265337471e+00    0.2870571    0.1643186 -47.67  0.001362528    1.899    0.473
        29 -11.5484     64.6642    179.3238   1.0414200914e+02   2.9155315663e+01    0.3432843    0.2019141  54.98  0.001330022    1.826    0.452
        30 -11.0724     62.0245    177.0000   1.0456771053e+02   3.0059595185e+01    0.3753009    0.1729788  36.29  0.001397721    2.009    0.502
        31 -11.4600     43.3065    183.1320   1.1038056147e+02   3.0765027049e+01    0.2322041    0.1905357  11.10   0.00133625    1.421    0.296
        32 -10.6654    147.6197    178.6193   8.2411284835e+01   1.6456164580e+01    0.4336183    0.1304884 -46.33   0.00142651    3.322    0.699
        33 -10.7341     37.3057    179.6484   1.1164021439e+02   3.2251579110e+01    0.1461987   0.08853642  63.18 0.0004412692    1.708    0.415
        34 -10.6804    192.0926    177.9364   7.2606996898e+01   9.2299580085e+00    0.2686269    0.2162687  89.91  0.001379721    2.272    0.560
        35 -10.0940    129.3166    176.9987   8.6561735905e+01   1.9892380677e+01    0.2239002    0.1257839 -75.84 0.0007039353    4.198    0.762
        36 -10.3790    159.4813    175.5093   7.9070472394e+01   1.5077098453e+01    0.2501362    0.1381926 -57.19  0.001027244    2.390    0.582
        37 -10.6222     24.1877    174.9534   1.1474595237e+02   3.4676417335e+01    0.3169529    0.1455803  58.85    0.0013703    2.345    0.574
        38 -11.4095     11.6364    172.7364   1.1793695336e+02   3.6279297009e+01    0.4091493    0.1686665 -66.00  0.001861889    2.155    0.536
        39 -12.8984     29.6288    168.6965   1.1266753817e+02   3.5722695880e+01    0.5181561     0.305426  60.97  0.001773901    1.757    0.431
        40 -10.4206    175.6862    171.4881   7.4715361201e+01   1.3114550016e+01    0.2587011    0.1228477 -42.68  0.001089316    2.046    0.511
        41 -11.8019     44.4917    171.3475   1.0877309095e+02   3.3536337686e+01    0.3459724     0.211466  82.51  0.001628497    1.852    0.460
        42 -10.0718    192.3285    165.6685   7.0135058579e+01   1.1409829183e+01    0.1298302    0.1122113 -80.86 0.0007051642    1.715    0.417
        43 -10.3477    138.8260    164.7135   8.1837606613e+01   2.0934353951e+01    0.2762404    0.2044449 -83.43  0.001233244    2.101    0.524
        44 -11.3087     97.1204    164.7058   9.2856955904e+01   2.8039441979e+01    0.5409825    0.2698831  30.01    0.0014288    2.047    0.511
        45 -10.6789     79.1705    163.3220   9.7715664548e+01   3.1115534212e+01    0.3248212    0.1757554  89.98  0.001092302    3.479    0.713
        46 -10.2217     47.3239    164.6665   1.0716245540e+02   3.4898967362e+01    0.1511362   0.09675255  63.20 0.0007050764    1.709    0.415
        47 -10.4887    121.4870    169.9955   8.7260734239e+01   2.2774766679e+01    0.2020327      0.13516 -83.85 0.0008099141    2.500    0.600
        48 -12.3266    118.6121    157.7503   8.5651172829e+01   2.6079181255e+01    0.5645233    0.3190635  30.77  0.001292847    1.824    0.452
        49 -11.4959    167.9261    156.4355   7.3309770344e+01   1.7424831364e+01    0.4351625    0.3680435 -64.24  0.002319459    1.454    0.312
        50 -10.7585    218.8818    156.5949   6.3419004562e+01   8.6933513038e+00     0.253318    0.1704828 -40.31 0.0007432099    1.365    0.268
        51 -10.7255    189.8073    149.9862   6.7378393246e+01   1.4740613372e+01    0.2260933    0.1630208 -64.71  0.001085781    1.984    0.496
        52 -11.4911    109.2097    147.1235   8.6065743998e+01   3.0237436671e+01    0.7520676    0.3327305  56.29  0.002090477    4.553    0.780
        53 -10.8394    149.0302    145.4856   7.5283191314e+01   2.3213751299e+01    0.3294075    0.2416887 -87.60  0.001409559    2.264    0.558
        54  -9.8370    250.5142    144.4867   5.6124433362e+01   5.8725583540e+00    0.1235674   0.09815948 -29.16 -1.686536e-05    1.013    0.012
        55 -10.2021    100.0532    143.6984   8.7982503565e+01   3.2657177494e+01    0.2207772    0.1939534  35.10 0.0007970997    1.134    0.119
        56 -10.4379    181.9863    142.0068   6.7210434618e+01   1.7672146863e+01    0.2195258    0.1808436 -80.67 0.0009206379    1.701    0.412
        57 -11.1279     21.6729    139.7509   1.1195417437e+02   4.3805315024e+01    0.4016765    0.2235998  15.30  0.001667491    2.093    0.522
        58 -10.2778      1.3529    136.7887   1.1806164921e+02   4.5965902565e+01    0.1875637   0.09870689 -67.48 0.0004492882    1.605    0.377
        59 -10.5760     82.5213    131.5160   9.0769665800e+01   3.8585402957e+01    0.1497706    0.1477305 -75.46 0.0002168924    1.029    0.028
        60 -11.6103     98.0553    126.9018   8.4896757812e+01   3.7091487029e+01    0.5221205        0.362 -84.97  0.001666083    2.177    0.541
        61 -10.8432     59.1005    124.2673   9.7024349526e+01   4.3863244028e+01     0.293285    0.1924283  81.15   0.00124079    2.154    0.536
        62 -11.6577     43.1641    122.3226   1.0220126807e+02   4.6295273342e+01    0.8255501    0.3619744 -81.94  0.002643905    3.763    0.734
        63 -10.5919    189.2360    124.0071   6.1736753093e+01   1.9686553914e+01    0.2299781    0.2097518  42.82 0.0007684849    1.191    0.160
        64 -11.4904    154.4178    116.0926   6.7069905072e+01   2.8290378837e+01    0.3104057    0.2038381  63.55  0.001327123    1.986    0.496
        65 -10.5182    108.6305    116.1887   7.9109173410e+01   3.7660002030e+01    0.3840403    0.2517004 -41.93  0.001344755    1.535    0.349
        66 -12.1687    108.7419    109.6044   7.7375458941e+01   3.9146298700e+01    0.3663492    0.3009899 -34.75 0.0004175416    1.238    0.192
        67 -10.3854     72.7195    115.0199   9.0354806382e+01   4.4252822790e+01     0.400937    0.2062197  11.79  0.001305841    3.480    0.713
        68  -9.8388    185.4005    114.2075   6.0172902182e+01   2.2249775921e+01    0.2061381    0.1253206 -48.42 0.0007283061    1.631    0.387
        69 -11.3671     92.1539    111.8151   8.3092820767e+01   4.1773725187e+01    0.6826621    0.2911514 -62.73  0.002044843    3.706    0.730
        70 -11.1855     78.7566    112.7145   8.7747733099e+01   4.3862370336e+01    0.4940658    0.2972182 -78.59  0.001822701    2.745    0.636
        71 -12.0214    160.7303    110.8644   6.4347954404e+01   2.8001739881e+01    0.4759048    0.4190774  74.04  0.002526688    1.290    0.225
        72 -11.5405     14.0152    110.1642   1.1081892725e+02   5.2006450500e+01     0.560994    0.2481248 -86.04  0.002204225    2.716    0.632
        73 -12.2795    149.8149    109.0777   6.6352883101e+01   3.0685756575e+01    0.3282713    0.2581725 -60.75  0.001599375    1.419    0.295
        74 -12.2032    141.1373    106.1195   6.7654546327e+01   3.3151897613e+01    0.4204897    0.3166901 -85.66  0.001875149    1.903    0.475
        75 -12.0494     39.3405     97.3548   9.8721002398e+01   5.3076562554e+01    0.7129561    0.3667747  55.34  0.002647871    2.998    0.666
        76 -11.6069     44.0503     94.5800   9.6209555446e+01   5.3235801000e+01     1.096502     0.461373 -71.52 0.0003795444    3.570    0.720
        77 -12.0431     63.8070    102.2189   9.0461919486e+01   4.8755092617e+01    0.4265222    0.2849407 -63.86  0.001930481    1.597    0.374
        78 -10.7718     81.5972     99.8290   8.3479024296e+01   4.6474698651e+01     0.219652    0.1457796 -62.90 0.0009540593    1.740    0.425
        79 -10.5741     77.0687     97.1542   8.4339745484e+01   4.7876417577e+01    0.2214766    0.1939999 -12.06 0.0002591814    1.188    0.159
        80 -12.3576    126.9279     96.6217   6.8695738592e+01   3.8176796109e+01    0.4705484    0.2976246 -48.50  0.001347282    1.623    0.384
        81  -9.9459    134.3474     93.3187   6.5853502657e+01   3.7218070594e+01    0.1578564    0.1208145   8.20 0.0007048708    1.731    0.422
        82 -12.8796    111.1972     99.6024   7.3934143734e+01   4.0874223003e+01    0.9279607    0.6528141  82.33  0.003751743    2.365    0.577
        83 -11.6986     87.4114     87.7701   7.8056319401e+01   4.8159423205e+01    0.5013974    0.2769606  62.05  0.001689045    3.386    0.705
        84 -10.4020     79.9340     87.7038   8.0642284431e+01   4.9542224364e+01    0.2109972    0.1897296  27.86 0.0004579201    1.111    0.100
        85 -11.1814     48.6161     84.9315   9.1927723990e+01   5.5005744241e+01    0.4792158    0.2788971  75.33  0.001515484    4.748    0.789
        86 -11.1271    103.7234     83.7516   7.1552385386e+01   4.5772953290e+01    0.3963191    0.3307217  41.56   0.00202401    1.186    0.157
        87 -11.4504     24.2330     79.6141   1.0109194812e+02   5.8874322187e+01     0.563551    0.2403238 -73.54  0.002100248    3.083    0.676
        88 -11.4295     61.0574     76.3836   8.4371932018e+01   5.5201041247e+01    0.4665465    0.2909404 -20.36  0.002013075    2.088    0.521
        89 -10.8922      6.6801    103.3394   1.1263761981e+02   5.4188063229e+01    0.2128595    0.1412506  62.54  0.001116569    1.758    0.431
        90 -11.5292     82.1680     72.8000   7.5199694522e+01   5.2312811993e+01    0.4323192    0.2706563 -69.08  0.001666116    2.840    0.648
        91 -11.3283     51.5631     70.3325   8.6433117687e+01   5.7932310830e+01    0.3459996    0.2482211 -76.23  0.001316543    2.053    0.513
        92 -11.1326     47.5481     57.4052   8.3897080477e+01   6.1223680085e+01    0.3477473    0.2446805  31.93   0.00123188    1.440    0.305
        93 -13.4060      9.6357     49.2879   1.0049186238e+02   6.6893599354e+01    0.7800776    0.4292319 -15.38  0.001307154    1.927    0.481
        94 -12.5930     41.4381     66.3583   8.9671377358e+01   6.0142711595e+01    0.6265429    0.3507969  40.57  0.002179618    2.036    0.509
        95 -12.4979     44.3095     51.8146   8.3380383900e+01   6.2795209361e+01    0.5273746    0.3549637  -8.87  0.001549856    1.697    0.411
        96 -10.4609    227.0589    250.0000   7.8392896419e+01  -6.3340586706e+00    0.2878624   0.05318615  31.18  0.001049155    4.914    0.797
        97 -11.6867      8.3734     66.1219   1.0543563660e+02   6.3192242113e+01     0.376286    0.1851655  14.67  0.001498125    2.197    0.545
        98 -11.5975      2.3811     64.3527   1.0800195811e+02   6.3915494585e+01    0.3237709    0.2373778   3.57  0.001408642    1.475    0.322
        99 -10.6882    130.3478     58.2606   5.6327646165e+01   4.4433720977e+01     0.264886    0.1898963  54.00   0.00055923    1.336    0.252
       100 -10.4853     93.1653     48.8333   6.3063785565e+01   5.4427562939e+01    0.2951357    0.1733306  69.49  0.001153553    2.760    0.638
       101 -10.3210    112.4947     47.0088   5.6926272299e+01   5.0351289882e+01    0.2052722    0.1134144 -56.08 0.0008104605    2.585    0.613
       102 -10.2995     42.9870     45.3076   8.1528895797e+01   6.4230404902e+01    0.1906194    0.1592117   9.18 0.0005315857    1.107    0.097
       103 -12.3904     37.7291    244.3538   1.1660303909e+02   1.7934275735e+01    0.4451469    0.2771425 -52.52  0.002138446    2.051    0.513
       104 -10.8785    126.7519     35.1979   4.9596610037e+01   4.8584331388e+01    0.2220843    0.2050078  78.31 0.0004660164    1.059    0.056
       105 -11.2775    147.2627     32.9798   4.5114050711e+01   4.3897939281e+01    0.2588162    0.1802662  67.85 0.0003854454    1.334    0.250
       106 -12.5011     36.4957     56.4646   8.8781518171e+01   6.2862625377e+01    0.5585186    0.4323885   0.14  0.001987877    1.273    0.215
       107 -11.8998      2.0588     29.3387   9.8593265164e+01   7.1485837016e+01    0.4292317    0.1670268 -53.97  0.001999328    2.144    0.534
       108 -10.8638    152.4554     28.4702   4.2948965299e+01   4.3179543581e+01    0.2270517    0.1966641  71.49 0.0009222929    1.071    0.067
       109 -10.3395    178.1476     25.8658   3.8846975449e+01   3.7408259322e+01    0.1990149    0.1536302 -77.23 0.0007101825    1.205    0.170
       110  -9.6795    123.6709     23.2761   4.6175129596e+01   5.0733325776e+01    0.1348548   0.09885714 -76.76 0.0003140865    1.593    0.372
       111 -11.6639    206.0389     21.4930   3.4990608896e+01   3.1698385016e+01     0.237904     0.172587 -40.37 0.0008521392    1.332    0.249
       112 -10.7700     31.4904     20.8504   7.6652291923e+01   7.0019145559e+01    0.2755511    0.1495846  17.25   0.00135751    2.044    0.511
       113 -12.5950     90.5163     18.7206   5.2005544062e+01   5.9044717691e+01    0.2844636    0.2200603  55.58  0.000478439    1.171    0.146
       114 -10.8449     38.8823     19.1201   7.1815166309e+01   6.9177920414e+01    0.3847648    0.2697273  63.42  0.001924468    2.773    0.639
       115 -10.2845    196.8287     19.1126   3.5251873845e+01   3.3950266001e+01    0.1486276    0.1373307  64.85 0.0004002396    1.280    0.219
       116 -11.1319     25.4994    246.9352   1.1927216142e+02   1.8682773091e+01    0.1558623    0.1035156 -84.40 0.0005118572    1.551    0.355
       117 -10.0890     61.5735    246.4607   1.1169633785e+02   1.4884457469e+01    0.1212947   0.09742578  48.61  0.000105294    1.034    0.033
       118 -10.5907    131.2424     14.0309   4.1744564680e+01   4.9846120436e+01    0.2401226    0.1638901  68.60  0.000644609    1.294    0.227
       119 -11.6411    210.3038    237.6069   7.9485924292e+01  -2.8073467965e+00    0.2580787    0.2199123  56.80  0.001682683    2.237    0.553
       120 -10.3018     46.8630     11.4891   6.3965705107e+01   6.8831574099e+01    0.1850437    0.1093214  41.64  0.000488747    1.509    0.337
       121 -13.5365     19.8671    237.1171   1.1992589624e+02   2.1153861711e+01    0.6831236    0.2056507  37.58  0.001087902    2.392    0.582
       122 -10.9261     71.5187    230.4438   1.0811161586e+02   1.6834294193e+01    0.3284149    0.1091695 -61.02  0.001371989    3.158    0.683
       123 -11.0595    127.3553    230.0039   9.5361605364e+01   9.4499166434e+00    0.3522312    0.1591822 -54.04  0.001612858    2.576    0.612
       124 -11.3910     35.8244    223.3159   1.1563738063e+02   2.2405488494e+01     0.295284    0.1797059 -89.25  0.001070061    1.688    0.408
