#   1 NUMBER                 Running object number                                     
#   2 MAG_AUTO               Kron-like elliptical aperture magnitude                    [mag]
#   3 X_IMAGE                Object position along x                                    [pixel]
#   4 Y_IMAGE                Object position along y                                    [pixel]
#   5 X_WORLD                Barycenter position along world x axis                     [deg]
#   6 Y_WORLD                Barycenter position along world y axis                     [deg]
#   7 A_WORLD                Profile RMS along major axis (world units)                 [deg]
#   8 B_WORLD                Profile RMS along minor axis (world units)                 [deg]
#   9 THETA_WORLD            Position angle (CCW/world-x)                               [deg]
#  10 FWHM_WORLD             FWHM assuming a gaussian core                              [deg]
#  11 ELONGATION             A_IMAGE/B_IMAGE                                           
#  12 ELLIPTICITY            1 - B_IMAGE/A_IMAGE                                       
         1 -10.5779     60.8386     47.9132   5.1518169758e+01   6.3004347121e+01      1.26481    0.6215552 -29.43  0.004354986    3.104    0.678
         2 -11.2752    110.1562     40.5709   3.1994487954e+01   5.2467219626e+01     1.177235     0.832621  23.40  0.005307382    2.018    0.505
         3 -12.0432    160.0645     29.6982   2.0106577131e+01   4.1282600280e+01    0.4237196    0.3259786 -31.42 0.0004230519    1.315    0.240
         4 -12.1642    164.3178     27.6691   1.9031378570e+01   4.0500286202e+01    0.4576868     0.349888  39.99 0.0004591285    1.709    0.415
         5 -12.3650    104.6593     13.6280   2.1707400190e+01   5.7289994705e+01    0.5972673     0.517359 -52.57  0.003436632    1.152    0.132
         6 -12.4009    105.5293     20.4845   2.4568457599e+01   5.6327392985e+01    0.4048811    0.3225239 -62.38 0.0003872024    1.246    0.197
         7 -11.1631      6.2686     10.7739   6.8826423266e+01   7.9363830061e+01    0.6106292    0.4679066  34.50  0.003675903    1.412    0.292
         8 -10.2237     12.8503      8.8561   5.9908551614e+01   7.8919118705e+01    0.5561624    0.2541676 -56.28  0.001672165    3.063    0.674
         9 -11.7600     26.2342     28.5751   6.1768888399e+01   7.3208985656e+01    0.5208299    0.3935613 -42.42  0.002514299    1.296    0.229
        10 -11.9794     20.2255     22.1100   6.2664878458e+01   7.5383760025e+01    0.7102393    0.3798395 -37.39   0.00198153    1.937    0.484
        11 -11.8043     16.2884     14.0110   6.0589515339e+01   7.7497748232e+01    0.7258134    0.3600809 -27.69  0.003011173    2.766    0.639
        12 -12.0192     22.4247     11.2940   5.2874480524e+01   7.7021151982e+01    0.5603985    0.3827858  18.97  0.002517911    1.602    0.376
        13 -10.7183    135.1868     21.4262   2.0307623779e+01   4.8468241413e+01    0.5422619    0.3911124 -38.50  0.002520396    1.337    0.252
        14 -11.2667    126.9931     16.7003   1.9629252912e+01   5.1100129887e+01    0.5822808     0.334932 -15.56  0.002306275    2.118    0.528
        15 -10.7956    134.8013     14.9624   1.8024072658e+01   4.9256730493e+01    0.8279306    0.4097064  80.95  0.003664294    1.972    0.493
        16 -11.5215     36.1926     18.5467   4.8246793092e+01   7.3336689069e+01    0.7008085    0.4217482 -40.65  0.003206554    1.730    0.422
        17  -9.7430     47.4132     18.7929   4.1973418028e+01   7.0985038317e+01    0.3682625    0.1955892 -26.54  0.001288324    2.154    0.536
        18 -12.2116     47.6094     12.7323   3.7721089271e+01   7.1772210546e+01    0.7527355    0.3716742  58.25  0.003314984    1.986    0.497
        19 -12.8125    164.0348     18.7976   1.6355157806e+01   4.1565308707e+01    0.4502511    0.2951503  43.66  0.002315518    2.019    0.505
        20 -11.4841     67.5532     18.1313   3.3080417790e+01   6.6381222002e+01    0.5693274     0.448244 -74.57   0.00246057    1.490    0.329
        21 -12.1212    238.7392     16.2528   1.1113510901e+01   2.6189042855e+01    0.5321865    0.2122966  87.40  0.002798697    2.924    0.658
        22 -11.8119    228.6798     15.9364   1.1486846979e+01   2.8052106984e+01    0.3136011    0.2503207 -48.01 0.0003758332    1.109    0.098
        23 -11.0453    225.6919     13.6956   1.1115498100e+01   2.8841327402e+01    0.2413812    0.1768234 -47.65 0.0006966179    1.034    0.033
        24 -10.1585    147.9251     16.1381   1.7021859228e+01   4.5800367205e+01    0.3994767     0.190182  49.07  0.001688087    2.601    0.615
        25 -11.4705     85.8830     13.7612   2.5496465326e+01   6.2216811625e+01    0.5268185    0.4241144 -36.17   0.00178175    1.304    0.233
        26 -10.5946     87.5663      7.5411   2.1945304604e+01   6.2378364271e+01    0.6547096    0.3432161  74.31  0.002926646    1.785    0.440
        27 -10.1370    219.2459     12.4926   1.1130657426e+01   3.0198629481e+01    0.2363742     0.206726 -35.65  0.001106608    1.281    0.219
        28 -11.0065    192.2632      8.6390   1.1514581438e+01   3.6139609595e+01    0.5911358    0.3201938  -2.85  0.002648693    3.278    0.695
        29 -12.2823    245.5547      5.0947   8.4975615377e+00   2.6095693932e+01    0.6579695    0.4128572 -64.46   0.00467851    1.351    0.260
        30 -11.6235    212.3184      8.8480   1.0583602784e+01   3.1929629657e+01    0.5526567    0.3309111  -7.21  0.002955572    2.504    0.601
        31 -10.8751    218.5470      3.7061   9.1149542576e+00   3.1194285270e+01    0.2736522    0.2370099 -61.50  0.001155318    1.200    0.167
        32 -11.4166    223.8108      2.8165   8.7206690463e+00   3.0263199582e+01    0.3401231    0.2118858 -80.61 0.0002348466    1.549    0.355
        33 -11.3981    232.4537      7.3154   9.4155075704e+00   2.8215645380e+01    0.3832041    0.1611783 -70.80  0.002062204    2.314    0.568
        34 -12.0044    233.3365      2.6673   8.3681184533e+00   2.8498676669e+01    0.3957219    0.1876928 -57.49 0.0009786224    1.624    0.384
        35  -9.9590    120.8763     11.7946   1.8525714446e+01   5.3192172416e+01    0.3536526     0.220339  87.69 0.0008518946    1.541    0.351
        36 -10.5194    122.2387      6.3673   1.6217528264e+01   5.3333158299e+01    0.4757908    0.1501144 -33.37  0.001828362    2.740    0.635
        37 -10.6772    169.9242      9.2815   1.3041979193e+01   4.1134944026e+01     0.338523     0.184819  63.88   0.00166381    1.956    0.489
        38 -10.4387    145.4673      9.4211   1.4997034369e+01   4.7083373193e+01    0.2272678    0.2119463  57.44 0.0003100059    1.261    0.207
        39 -10.0647      1.0000      7.4521   7.2978119882e+01   8.0539020784e+01    0.3270932    0.1086914 -56.35  0.001337473    2.764    0.638
        40 -10.8498      2.6455      1.9741   6.6096465426e+01   8.1442875043e+01      0.38736    0.2327132   5.00  0.002032117    1.884    0.469
        41 -10.3874    184.9060      6.5366   1.1350422278e+01   3.7963122284e+01    0.3679529    0.1868258 -53.93   0.00108066    1.603    0.376
        42  -9.7639     78.0136      7.5082   2.3995974236e+01   6.4874312535e+01    0.2537141    0.1591095  78.09 0.0007872289    1.563    0.360
        43 -10.9325     74.1702      3.2667   2.2479342264e+01   6.6236793920e+01    0.7385309    0.3660845  64.31   0.00335826    1.754    0.430
        44 -10.1208     62.0986      6.8111   2.7954374206e+01   6.8984950041e+01    0.2970849    0.1944236  52.74  0.001523749    1.385    0.278
        45 -10.6323    176.7885      5.8685   1.1623057850e+01   3.9864377918e+01    0.3392148    0.1672899 -76.71 0.0008742281    1.955    0.488
        46  -9.1698    163.4511      6.4665   1.2639371360e+01   4.2938840284e+01    0.1308562    0.1101953 -64.56 8.519211e-05    1.027    0.026
        47  -9.2342    154.3208      6.6829   1.3363299145e+01   4.5135687154e+01    0.1467712   0.07905852 -58.24 0.0007041888    1.662    0.398
        48 -10.9483    105.7441      2.5422   1.6617890470e+01   5.7993710598e+01    0.5217168     0.273599 -64.81  0.002321765    2.038    0.509
        49 -11.3244    113.5891      2.6941   1.5718319808e+01   5.5911128066e+01    0.4127226    0.2817855  69.36  0.002044713    1.354    0.262
        50 -10.1341     41.1699      4.3644   3.4567305796e+01   7.4210229788e+01    0.3538323    0.2139305  20.03  0.001458801    2.105    0.525
        51 -11.0517    206.5099      2.9616   9.4069823348e+00   3.3672879101e+01     0.387942    0.2481755 -78.53  0.002438683    1.446    0.308
        52 -10.0131    141.4811      3.7440   1.3396717290e+01   4.8601900590e+01    0.2598784     0.222825  85.98  0.001589738    1.129    0.114
        53 -11.4828    134.0667      2.7546   1.3674997855e+01   5.0574954554e+01    0.4517795    0.2570217  84.92  0.001502742    1.619    0.382
        54  -9.2893    128.7445      1.3463   1.3629668221e+01   5.2060801257e+01    0.1837942    0.1114995  72.72 0.0006436191    1.525    0.344
        55  -9.8744     25.8689      3.8179   4.3511044477e+01   7.7502384606e+01    0.1822508    0.1650659  23.23 0.0002360731    1.028    0.027
        56 -10.6136     22.3353      3.0519   4.5564008969e+01   7.8277496922e+01    0.2357557    0.2120508  -2.07 0.0005380884    1.081    0.075
        57 -10.5606    154.0735      1.9027   1.1849115946e+01   4.5621485715e+01    0.5460544    0.1798343 -80.54  0.001900567    3.634    0.725
        58 -10.2982     13.0261      1.9429   5.3229856551e+01   8.0046944067e+01    0.2496559    0.1672265  30.53  0.000731817    1.413    0.293
        59  -9.2628     33.5556      1.5205   3.6270210146e+01   7.6197015642e+01    0.1301164    0.1173624  32.58 0.0001862192    1.010    0.010
        60 -11.1441     30.1041    132.8780   8.7464599140e+01   4.5250409511e+01    0.4325147      0.34615  -7.00  0.001211316    1.508    0.337
        61 -10.4324     50.8543    249.8561   9.0961906387e+01   1.5978130910e+01    0.1727175    0.1048846  45.06  0.001083183    1.338    0.253
        62  -9.6364     47.4479    134.6553   8.1350825935e+01   4.2818898764e+01    0.3111003    0.1431336 -68.51  0.001089152    2.119    0.528
        63  -9.7870     39.3158    133.4558   8.4135072481e+01   4.4112752151e+01    0.2530611     0.150738  18.41 0.0005714932    1.855    0.461
        64  -9.5443     62.6177    131.1929   7.5382164337e+01   4.1717241927e+01    0.2305655    0.1320421 -53.03 0.0009517877    1.755    0.430
        65  -9.4435     93.2894    129.6231   6.4896667840e+01   3.7136415394e+01    0.2531673    0.1814055  68.58  0.001105702    1.741    0.426
        66 -11.0199     10.5450    127.1730   9.4306196844e+01   4.8497987564e+01    0.5782201    0.2637878 -70.54   0.00167641    1.986    0.496
        67  -9.4327     26.6169    127.3109   8.8133865385e+01   4.7146335333e+01    0.2031368    0.1274976 -65.25 0.0003375774    1.516    0.340
        68  -9.7897     22.8849    127.0282   8.9539777666e+01   4.7566685774e+01    0.2158341    0.1926898  78.56 0.0003416879    1.025    0.024
        69 -10.1553     73.0699    133.1681   7.2159356728e+01   3.9612255866e+01    0.5780489    0.3329499 -15.04  0.001823499    3.858    0.741
        70  -9.8313      2.2249    125.8415   9.7404948950e+01   4.9391543309e+01    0.2833474    0.1767802  63.14 0.0009993536    1.493    0.330
        71  -9.9311     82.7551    124.5999   6.7173685707e+01   4.0251286487e+01    0.4616662    0.2819961   3.20  0.001584249    3.134    0.681
        72  -9.0249     53.3353    125.6760   7.7751206604e+01   4.4524992340e+01    0.1677454    0.1092842  62.80 0.0007050978    1.713    0.416
        73 -11.8281    104.1790    122.2386   5.9912308361e+01   3.6939511432e+01    0.3803149    0.3390004  57.00 0.0007002634    1.152    0.132
        74 -10.1456     49.5893    123.1120   7.8709462970e+01   4.5732196418e+01    0.3006094    0.2107168  -3.46  0.001312413    1.911    0.477
        75  -9.6587     56.2322    122.3785   7.6077635778e+01   4.5029418874e+01    0.2256544    0.1328291  41.37 0.0008020871    1.659    0.397
        76 -10.0946     48.7695    112.1648   7.7019599899e+01   4.8878856417e+01    0.4266822     0.364333 -40.91  0.002163879    1.260    0.207
        77 -10.1156     44.9845    119.7762   7.9909091125e+01   4.7249972593e+01    0.2792636    0.2408201  80.95 0.0006901563    1.137    0.120
        78 -10.1756     43.5306    116.4861   7.9916532241e+01   4.8350569816e+01    0.3174801    0.2690704  58.37  0.000913976    1.166    0.143
        79 -10.2215      7.2707    115.4367   9.4669157741e+01   5.2011861443e+01    0.4451688    0.2188841 -62.57   0.00155291    1.883    0.469
        80 -12.3773      2.5482    111.6308   9.6346884707e+01   5.3354291420e+01    0.5253837    0.3252046 -89.39  0.002188638    1.470    0.320
        81 -11.3852      5.1869    105.3454   9.4705588596e+01   5.4986889441e+01    0.4883802    0.3928513  34.03  0.001910498    1.295    0.228
        82  -9.9022     79.0501    114.6984   6.6184179697e+01   4.3454760042e+01    0.3091226    0.2270415 -49.32  0.001191045    1.371    0.271
        83  -9.1606     67.5150    114.9977   7.0382919524e+01   4.5323118170e+01    0.2216808    0.1354975  86.93 0.0008086094    2.424    0.587
        84  -9.5608     57.9708    114.9805   7.3968584338e+01   4.6803750847e+01     0.268323    0.1807534  69.98  0.001135973    1.778    0.437
        85 -11.9694      9.6458     97.0807   9.1830061073e+01   5.7065973243e+01    0.6306949    0.5148001  14.87  0.003420439    1.347    0.257
        86 -10.3626     34.9904     91.7172   7.8841388959e+01   5.6313031741e+01    0.6700122    0.3345348 -87.53  0.002344759    2.773    0.639
        87 -11.0561     26.7961     85.7142   8.1584830325e+01   5.8877770775e+01    0.7822731    0.6269956  31.69  0.003695316    1.297    0.229
        88 -11.7378     43.2077     84.9624   7.3324952045e+01   5.7116714409e+01    0.9277425    0.4133499  20.14   0.00296232    2.874    0.652
        89 -11.8517     20.8340     92.7563   8.5849986981e+01   5.7460427118e+01     1.136962     0.575557  70.81  0.003031098    2.520    0.603
        90 -12.0004     28.6867    105.6099   8.4312479785e+01   5.3087614384e+01     1.560582    0.8265432  -3.68   0.00578944    2.837    0.648
        91 -12.6454     17.6903    100.5679   8.8513902157e+01   5.5505956118e+01    0.3724021    0.3337402  81.19 0.0004092232    1.061    0.057
        92 -11.4037     21.4735    114.6759   8.8682821642e+01   5.1182325607e+01    0.6139506    0.2965038   2.67  0.002288103    2.843    0.648
        93 -11.6242     28.6171    112.6090   8.5411786114e+01   5.1109145597e+01    0.4414729    0.3504611 -32.11  0.002114256    1.435    0.303
        94  -9.5961    107.4005    112.2140   5.6476463995e+01   3.8689792961e+01    0.2356351    0.2084298 -61.39 0.0007206643    1.129    0.114
        95  -9.3469    104.4719    112.5713   5.7434227645e+01   3.9190534612e+01    0.2371769    0.1896662  75.91 0.0005444213    1.489    0.328
        96  -9.4693    170.3790    111.2333   4.1417766981e+01   2.6115344704e+01    0.2776433    0.1671437 -46.17  0.001315303    1.555    0.357
        97  -9.7741    120.5206    109.1090   5.1993034037e+01   3.6714837165e+01    0.3416479    0.2622752   7.09  0.001541411    1.800    0.445
        98 -10.2839    103.7653    108.2423   5.6516020589e+01   4.0357797028e+01    0.5277143    0.3625579   1.95  0.002019722    2.553    0.608
        99 -11.3413     79.9621    108.3804   6.4325946052e+01   4.4921707808e+01    0.5742187    0.3613833  34.14  0.001260724    1.651    0.394
       100 -11.2249     16.5229    109.5491   9.0171103629e+01   5.3042815361e+01    0.3660415    0.2517392  48.15 0.0004639117    1.445    0.308
       101 -10.6351    182.2709    104.6993   3.7753921744e+01   2.4967810592e+01    0.2870843    0.2569596  -8.75  0.001166003    1.207    0.172
       102  -9.7233    143.2952    105.9872   4.5592647487e+01   3.2601752150e+01    0.2705811     0.213531  86.47  0.001313719    1.625    0.385
       103  -9.3013    118.4148    105.4682   5.1583195783e+01   3.7963392468e+01    0.1538587     0.147233 -55.36   0.00014025    1.013    0.013
       104 -10.9369     87.9102    104.4648   6.0566862172e+01   4.4419017781e+01    0.4953415    0.2710889  51.41 0.0009714492    2.017    0.504
       105  -9.0721     45.5123    105.5796   7.7047772817e+01   5.1142700781e+01    0.1519382    0.1465106 -84.49 5.147459e-05    1.024    0.023
       106  -9.3041     64.6708    101.7085   6.8337912447e+01   4.9334374426e+01    0.3007945     0.216346  -5.92 0.0005800744    2.010    0.502
       107  -9.0370     64.6880     98.6833   6.7560095388e+01   5.0132190473e+01    0.2691471    0.1828583 -37.26  0.000587782    1.699    0.411
       108 -11.4623     68.8631     95.5560   6.5078761443e+01   5.0227542819e+01     0.416997    0.3418449  41.05 0.0005699201    1.233    0.189
       109  -9.7761     50.7752    101.9789   7.4060242069e+01   5.1414792876e+01    0.3925043    0.2030372 -65.87  0.001529173    1.917    0.478
       110 -10.0038     52.8245     97.7713   7.2213044345e+01   5.2264078995e+01    0.5001787    0.1865131 -55.04  0.001217897    2.471    0.595
       111  -9.1850    120.4516    101.4843   4.9942864055e+01   3.8407216223e+01    0.1539209    0.1484169 -50.06 0.0001033116    1.027    0.026
       112  -9.5480     28.1662     99.8552   8.3591007195e+01   5.4769452814e+01    0.3040356    0.1914684 -40.29  0.000818865    1.753    0.429
       113  -9.6733     31.5508     96.5962   8.1442256990e+01   5.5335960366e+01    0.5136635    0.2703649  62.95  0.001936399    2.433    0.589
       114  -9.1777    158.7585     99.6289   4.0691535689e+01   3.0587252293e+01    0.1831524    0.1395696  66.88 0.0001693343    1.534    0.348
       115 -10.0626     80.9989     98.3025   6.1290282299e+01   4.7287233558e+01    0.3005817    0.2148605  57.10 0.0005800157    1.529    0.346
       116 -11.1822     89.7568     88.3135   5.5291099005e+01   4.7961668765e+01    0.8406485    0.4036942 -41.04  0.003023501    2.280    0.561
       117  -9.7355     77.6383     96.7379   6.2074124895e+01   4.8318980152e+01    0.2632101    0.2147347  -2.31 0.0005531141    1.581    0.368
       118 -11.1124     80.9327     92.9814   5.9795895065e+01   4.8624374861e+01    0.9728794    0.5022271  45.24  0.003735077    1.966    0.491
       119 -12.5781    125.1064     94.4352   4.6737229773e+01   3.8900225002e+01    0.6135747    0.4400239  76.67  0.002710262    1.820    0.451
       120  -9.2795    140.8257     95.9703   4.3438094368e+01   3.5126758857e+01    0.2446603     0.173073 -13.50 0.0009126741    2.016    0.504
       121 -10.9697     42.6547     93.8157   7.5751732932e+01   5.4777472521e+01    0.4872325    0.4320076  71.84  0.002542071    1.151    0.131
       122  -9.9704    120.1794     85.3021   4.5280447682e+01   4.1906287938e+01    0.3914646    0.2351333  37.49  0.001594818    1.999    0.500
       123 -11.3738     99.1916     91.2591   5.3111736868e+01   4.5276577719e+01     0.539719    0.2966788  54.25  0.002084992    2.016    0.504
       124 -10.4591     49.4591     91.1499   7.2037919912e+01   5.4555289663e+01    0.3837909     0.301488  72.85  0.001323454    1.423    0.297
       125 -11.6684      7.0238     88.7406   9.2126968709e+01   5.9579052210e+01     0.619333    0.4368382  10.77  0.002179903    1.571    0.364
       126  -9.3175    156.1372     89.5838   3.8505070750e+01   3.2992950682e+01    0.2444208    0.1660815 -34.94 0.0007293539    1.418    0.295
       127  -9.7952     66.4606     88.6314   6.4077223287e+01   5.2437273198e+01    0.3833712    0.2659378  -3.37  0.001413592    2.299    0.565
       128  -8.8726    199.6675     88.2932   3.1198295354e+01   2.4307889145e+01     0.133844   0.09096993 -60.85 0.0003947568    1.635    0.388
       129  -9.5544    183.3317     87.1256   3.3226113133e+01   2.7689596319e+01    0.3867463   0.07607951 -42.87   0.00110605    4.299    0.767
       130 -10.2221    103.8941     87.3843   5.0478563932e+01   4.5127189451e+01    0.2679799     0.192386 -40.64  0.001205126    1.420    0.296
       131 -10.5341    143.2641     84.5138   3.9652664768e+01   3.6790614268e+01    0.2668583    0.2424334 -50.29 0.0003717681    1.029    0.028
       132  -9.3544    133.9653     85.1531   4.1877890976e+01   3.8784463072e+01    0.2577949    0.1763959 -89.78  0.001074809    2.112    0.526
       133 -10.3637     72.5490     78.1629   5.8347895263e+01   5.3886005622e+01    0.4548669     0.413031 -63.83  0.002338768    1.093    0.085
       134 -10.3425     76.6497     79.5348   5.7205434334e+01   5.2739140937e+01    0.6983879    0.2955232 -52.33  0.002426073    2.385    0.581
       135 -11.0252    112.7707     82.9942   4.6541967049e+01   4.4078760227e+01     0.541263    0.3002034  60.22   0.00176475    2.104    0.525
       136 -10.0856     66.6688     81.6546   6.1869143091e+01   5.4159292844e+01    0.4604294    0.3242772  33.17  0.002074189    1.499    0.333
       137  -9.3406     46.4955     75.9930   6.9203152610e+01   5.9016208986e+01    0.3018402    0.2111043 -41.50  0.001382035    1.494    0.330
       138 -12.0322     53.1869     74.0463   6.5372092271e+01   5.8447302044e+01    0.6830388    0.3837409 -60.29  0.000914564    1.819    0.450
       139 -11.0077     58.0550     77.9943   6.4412671107e+01   5.6622843840e+01    0.6238568    0.3991046 -79.53  0.002487285    2.161    0.537
       140  -9.2851      1.3916     79.5385   9.3995207732e+01   6.2435354848e+01    0.3999189    0.1195531 -78.43  0.001350317    2.970    0.663
       141 -11.2987      2.0143     71.5644   9.2655678849e+01   6.4615159948e+01    0.8174325    0.2051761 -75.75  0.002611412    3.399    0.706
       142 -11.3174      9.5350     62.4986   8.6503112925e+01   6.6680871695e+01    0.5220884     0.298692 -43.71  0.001436137    1.686    0.407
       143 -12.6595      4.4090     61.5595   8.9614318288e+01   6.7227465105e+01     0.798468    0.4490271 -45.62 0.0009547184    1.671    0.401
       144  -9.4808    103.4940     80.0296   4.8252773144e+01   4.6821667256e+01     0.236627    0.1522673 -45.92 0.0003901388    1.526    0.345
       145  -9.3956     88.5712     73.4944   5.0813979024e+01   5.1591289973e+01    0.2480689    0.1963795 -41.28 0.0002001932    1.289    0.224
       146 -10.5301     88.8612     77.9222   5.2238265726e+01   5.0544524368e+01    0.7408966    0.3398271  49.87  0.002672114    2.264    0.558
       147  -9.6401     94.2923     76.1983   4.9840458535e+01   4.9726141349e+01    0.4148072    0.3412204  62.48  0.001614475    1.259    0.206
       148  -9.9448     92.6713     72.3464   4.9035042456e+01   5.0922881853e+01    0.3007564    0.2388056 -81.35 0.0007391634    1.488    0.328
       149 -11.7659     13.6523     74.3323   8.6376157496e+01   6.3177718191e+01    0.5272214    0.4119309  81.04  0.002104682    1.327    0.247
       150  -9.6628    233.2127     77.6158   2.4938237549e+01   1.9861281722e+01    0.1387732    0.1130303  46.99 0.0005685022    1.612    0.380
       151  -9.1410    134.7354     77.5558   3.9405381663e+01   4.0058537964e+01     0.205865    0.1464967  72.28 0.0009425701    1.606    0.377
       152  -9.0519    158.9486     76.4954   3.4327887094e+01   3.4676415676e+01    0.1939429    0.1439116  60.93 0.0003707525    1.453    0.312
       153  -9.3940    112.4161     75.3491   4.4163141202e+01   4.5734335140e+01    0.2584852    0.1463621  53.45 0.0006092255    1.804    0.446
       154  -9.7948    103.4123     74.8397   4.6546319624e+01   4.7937607716e+01    0.3418396    0.2446418  80.27  0.001470379    1.811    0.448
       155 -10.7763    186.8026     72.0649   2.8861211404e+01   2.9345504792e+01    0.4125311     0.266333 -37.67  0.001802244    1.334    0.251
       156  -9.9588     81.2706     73.0657   5.3255612214e+01   5.3275809532e+01    0.4364347    0.2075769 -40.27  0.001175625    2.294    0.564
       157 -11.3332     83.1651     47.2051   4.2354042128e+01   5.8121224869e+01    0.4401799    0.3446282  17.52  0.002094407    1.660    0.398
       158 -10.6299     78.5902     67.5968   5.2273161599e+01   5.5068736434e+01    0.5635161    0.3835642 -75.74  0.002309393    2.080    0.519
       159 -12.6253     74.4057     51.7064   4.7500431086e+01   5.9306806780e+01     1.016159    0.4461355 -51.43  0.002385203    2.647    0.622
       160 -11.9227     40.7347     70.1511   7.0311797045e+01   6.1375741393e+01     1.535921    0.6611105  20.16  0.001732083    3.213    0.689
       161 -10.1919    153.5611     72.8398   3.4227318855e+01   3.6524602284e+01     0.420693    0.1747234  48.02  0.001562108    2.768    0.639
       162  -9.9938     14.9212     67.7561   8.4296631693e+01   6.4879472146e+01    0.4156983     0.299061  -7.75  0.002089181    1.564    0.361
       163  -9.1564    162.1187     71.1674   3.2269295504e+01   3.4851653670e+01    0.2035086    0.1563066 -66.66 0.0006048775    1.344    0.256
       164 -11.4109    123.1691     68.9541   3.9300139124e+01   4.4412101563e+01    0.5052647    0.3304417  50.80  0.001545249    1.582    0.368
       165 -10.8396     32.7516     74.0493   7.5699011704e+01   6.1404995397e+01    0.6160783    0.3156967  51.39  0.001953085    2.381    0.580
       166 -10.4201    219.5691     66.9570   2.3866120224e+01   2.3672565125e+01    0.3680618    0.1851342  70.43  0.001893525    2.534    0.605
       167  -9.0448    192.5024     65.5401   2.6453290536e+01   2.9132186377e+01     0.136387     0.111851 -50.14 0.0003160758    1.039    0.038
       168 -11.3053    157.4933     63.5662   3.0811077424e+01   3.7142603188e+01     0.437829    0.2632039  43.67 0.0008993211    2.069    0.517
       169 -10.3648     88.2001     55.9196   4.4319984969e+01   5.5303055768e+01    0.5628489    0.2425307 -35.44  0.001453139    2.610    0.617
       170  -9.8519     91.7472     57.5452   4.3814072600e+01   5.4150281344e+01    0.2943434    0.2245883  62.93 0.0006258893    1.342    0.255
       171  -9.9533     96.3212     65.0439   4.5231973911e+01   5.1595924504e+01    0.2838235    0.2310377  50.71 0.0007230578    1.236    0.191
       172 -10.6694     91.7567     62.7167   4.5811555779e+01   5.3132126003e+01    0.4190237    0.2945542  63.41  0.001269577    1.531    0.347
       173 -10.3487     35.6909     71.6903   7.3456399139e+01   6.1662437637e+01    0.3530186    0.3224743  30.21  0.001504012    1.136    0.120
       174  -9.6215    201.7730     64.5964   2.5146631774e+01   2.7389379542e+01    0.1675213    0.1194416 -87.25 0.0006523407    1.645    0.392
       175 -10.1966     59.0895     63.7115   5.8954752389e+01   5.9904853875e+01    0.4026541     0.301657 -89.95  0.001381943    1.806    0.446
       176  -9.7069     64.7427     61.4240   5.5527599906e+01   5.9325543708e+01    0.4332223    0.3763763  40.45  0.001304461    1.161    0.139
       177 -10.2861     51.0403     56.6490   6.0066978628e+01   6.3015802308e+01    0.7473524    0.2665548 -53.75  0.002477413    2.938    0.660
       178 -11.0900     40.4130     56.9050   6.5863934351e+01   6.4729166944e+01    0.4868454    0.2904968  33.44 0.0009167506    1.702    0.412
       179 -10.3274    214.6405    248.5918   5.8509950392e+01  -8.2703998799e-01    0.2449944    0.1191247  33.46  0.001571392    2.315    0.568
       180 -10.0584     55.7866     50.5205   5.5084302247e+01   6.3482205077e+01    0.2535138      0.22374  39.55 0.0004407931    1.130    0.115
       181 -11.3036     45.6333     48.9306   5.9633386109e+01   6.5713540532e+01    0.5878198    0.4312049 -47.06   0.00244881    1.350    0.259
       182 -11.2853     43.0695     62.2380   6.6395163253e+01   6.3021383040e+01    0.3356149    0.2816699 -51.53 0.0006805766    1.158    0.136
       183 -11.5289     46.1352     58.9351   6.3523046223e+01   6.3328081618e+01    0.6956255    0.3824514  59.50  0.002542042    2.835    0.647
       184 -11.0814     44.0334     43.9716   5.8236954552e+01   6.7074146243e+01    0.2876931    0.2453103  28.70 0.0003276117    1.180    0.153
       185 -11.5517     40.0345     43.9741   6.0563664076e+01   6.7763151906e+01    0.5844594    0.3408313  21.93 0.0004218014    2.143    0.533
       186  -9.5163    106.2497     63.4398   4.1726765929e+01   4.9540744962e+01    0.3480667    0.1827336  41.59  0.001322505    2.230    0.552
       187 -10.5005    105.7754     58.2791   3.9956679471e+01   5.0619135326e+01    0.6350414     0.351145  82.39  0.002049742    3.495    0.714
       188 -10.8127    234.6794     61.3859   2.1251770721e+01   2.1723182780e+01    0.2606002    0.1838422 -25.25  0.001670051    1.387    0.279
       189  -9.6865    113.9941     61.2668   3.8896106597e+01   4.8057749699e+01    0.3549816    0.1990225 -46.42  0.001469983    1.756    0.430
       190  -9.5540     84.4627     61.6555   4.7869172666e+01   5.5030023056e+01    0.2852744    0.2278257 -73.54  0.001357517    1.438    0.305
       191 -10.2420    124.9859     56.6886   3.4704655763e+01   4.6139338787e+01    0.3960919    0.3113277  -3.79  0.001666794    1.731    0.422
       192 -11.5333    117.9915     55.7369   3.5940469531e+01   4.8043007158e+01     1.386316    0.5035795 -51.91  0.004129741    3.707    0.730
       193  -9.2932    113.4803    249.4749   7.7397180754e+01   9.4277312071e+00     0.117094   0.09060878  18.97 0.0001834027    1.031    0.030
       194 -10.5689    112.4904     50.5251   3.5316504237e+01   5.0299934215e+01    0.3190845    0.3039433  43.63 0.0008619694    1.155    0.134
       195 -11.8162    117.7563     44.7239   3.1925937626e+01   4.9890072475e+01    0.7159601    0.5128001  76.36  0.002833569    1.435    0.303
       196 -11.5224    119.5130     37.4816   2.8810613882e+01   5.0504515756e+01    0.3908701    0.3419878 -41.32  0.001214156    1.159    0.137
       197 -11.2814     25.3425     57.6000   7.5114108231e+01   6.6572162908e+01    0.7752743    0.5937186  42.91  0.003261965    1.397    0.284
       198  -9.5875     30.6502     53.3278   7.0290547354e+01   6.6993425276e+01    0.2696235    0.1715957  59.23 0.0008565241    2.108    0.526
       199 -10.0187     33.6351     52.1279   6.7981071975e+01   6.6877599285e+01    0.3502124    0.2550181 -20.01  0.001120984    1.620    0.383
       200  -9.3306    135.3264     59.3440   3.3464723153e+01   4.3140814291e+01    0.2269412    0.1793994  19.64  0.001093336    1.737    0.424
       201 -10.5082     79.6508     83.7070   5.7431010719e+01   5.1137000343e+01    0.4978985    0.4804463 -73.32  0.002524739    1.011    0.011
       202 -10.9436    157.8844     55.1888   2.8235862277e+01   3.8348434258e+01    0.4878477    0.3754016 -65.92   0.00250691    1.267    0.211
       203  -9.7702    154.4424     51.0618   2.7491908809e+01   3.9783367346e+01    0.3272353    0.1989576 -14.13  0.001083814    2.376    0.579
       204  -9.3502    219.8330     56.1994   2.1341340612e+01   2.5040966627e+01    0.1536988    0.1298271 -24.45 0.0002563089    1.287    0.223
       205 -10.2535     52.1146     48.2059   5.5869605473e+01   6.4683914232e+01    0.2663401    0.2640851 -50.87 0.0006202722    1.033    0.032
       206  -9.6710    201.3343     53.2070   2.2344389294e+01   2.9034479170e+01    0.1874666    0.1752405  61.79 0.0005505788    1.319    0.242
       207 -10.3558    145.5516     49.2816   2.8322083805e+01   4.2208226349e+01    0.5587894    0.2839621 -17.17  0.002014497    3.149    0.682
       208 -10.4520    240.4425     50.7302   1.8486457471e+01   2.2050980945e+01    0.1939722     0.179412 -22.41 0.0009552414    1.342    0.255
       209 -10.1772    173.6128     48.0507   2.4000178088e+01   3.5716795457e+01    0.4854254    0.2562012 -53.40  0.002245333    1.796    0.443
       210 -11.4014    139.4572     43.7774   2.7496117892e+01   4.4524970414e+01    0.9937049     0.414913  37.77  0.002633822    6.102    0.836
       211 -11.8721    120.1778     40.8756   2.9969290945e+01   4.9846512667e+01    0.5410402    0.3810425  53.08 0.0007489907    1.468    0.319
       212 -10.1884     26.2581     48.6028   7.1317882022e+01   6.8704099368e+01    0.2933534    0.2115821 -39.79  0.001487014    1.365    0.267
       213  -9.6694      1.9353     49.2207   8.8893632919e+01   7.0613291555e+01    0.1982569    0.1803949  58.78 0.0005943513    1.212    0.175
       214 -10.2759     20.1336     46.4297   7.4711415387e+01   6.9938510020e+01    0.5197736    0.3224699 -24.21  0.002392781    1.895    0.472
       215 -10.3278     26.2867     43.0318   6.9006685262e+01   7.0025538700e+01    0.2985083     0.257766 -51.80 0.0009376199    1.134    0.118
       216 -10.3880    200.2386     45.2397   2.0432406537e+01   3.0297058604e+01    0.3712738    0.2027985 -82.35  0.001818426    2.259    0.557
       217  -9.8400    161.1259     44.5296   2.4540123605e+01   3.9113140624e+01    0.4175921    0.2503023 -55.01  0.002008395    1.584    0.369
       218  -9.1374     13.5330     46.4787   7.9521781774e+01   7.0559272934e+01    0.1400097    0.1264697 -40.75 0.0001467066    1.025    0.024
       219  -9.9024     23.3504     37.2480   6.8498341261e+01   7.1733105739e+01    0.5077175    0.2717392  47.97  0.002171742    2.342    0.573
       220 -10.5637    155.6180     42.4957   2.4651250015e+01   4.0715784236e+01    0.3175307     0.262451 -31.44  0.001396831    1.255    0.203
       221  -9.7308      4.7422     43.2886   8.5290958830e+01   7.1992940017e+01    0.4157484    0.1469406 -48.12  0.001008254    2.438    0.590
       222  -9.6231     91.5523     41.4840   3.7191676961e+01   5.7049701567e+01    0.3017505    0.1997349 -82.02  0.001261862    2.107    0.525
       223  -9.7329    234.5264     41.5238   1.6876069929e+01   2.4169779929e+01    0.1211321    0.0877682 -46.68 8.572669e-05    1.032    0.031
       224  -9.2980    188.7249     40.5193   2.0280269479e+01   3.3339544008e+01    0.2407257    0.1012276 -31.81  0.001057117    2.084    0.520
       225  -9.5682     57.3176     41.6149   5.0156964471e+01   6.4982354612e+01    0.2886817    0.1382208  50.65  0.001126445    2.161    0.537
       226 -10.6745     79.7584     38.9982   3.9793716123e+01   6.0358732069e+01    0.5114841    0.3329949  85.85  0.002116503    2.242    0.554
       227 -11.3528     78.9044     33.7262   3.7551232934e+01   6.1410618826e+01    0.6791698     0.351678  45.14  0.002793078    1.999    0.500
       228 -10.8913     61.3572     35.8123   4.5349743454e+01   6.5181573918e+01    0.4891308    0.3693458   1.33   0.00180326    1.767    0.434
       229 -10.0305     67.0134     32.4918   4.1241618051e+01   6.4453588860e+01    0.3523231    0.2291583  32.40  0.001427199    1.828    0.453
       230 -11.1451      4.5399     36.1972   8.3322642053e+01   7.3774838574e+01    0.4440454    0.3270083   0.79   0.00182568    1.404    0.288
       231  -9.4786    231.5907     37.2156   1.6107093259e+01   2.5195577052e+01    0.1562749   0.09742495 -25.17  0.000308817    1.587    0.370
       232  -8.9939    206.4613     37.4809   1.7951048249e+01   2.9984273040e+01    0.1274866    0.1012018 -49.78 0.0001109767    1.012    0.012
       233 -11.1040    176.2281     34.7498   1.9910722986e+01   3.6854563561e+01    0.6406943    0.2848159 -42.52  0.001869927    1.851    0.460
       234  -9.8097    170.1898     30.3639   1.9244052017e+01   3.8788959984e+01    0.4074406    0.1826618 -36.01  0.001283651    1.899    0.473
       235 -10.4419    153.0605     36.1618   2.2985865488e+01   4.2183514551e+01    0.2462277    0.1826954 -46.31            0    1.216    0.177
       236  -9.5872    132.1490     36.8305   2.6289107014e+01   4.7345231880e+01    0.3105478    0.1618644 -75.95  0.001156421    2.719    0.632
       237  -8.9476     94.3013     35.7168   3.3873850017e+01   5.7253350098e+01    0.1496247    0.1105046 -72.66 0.0003392341    1.552    0.356
       238 -10.2530    174.6475    246.9118   6.5102217246e+01   3.2289136521e+00    0.2241217    0.1469232   7.40  0.001567887    1.223    0.183
       239 -11.9908    126.0432    241.5686   7.3940174040e+01   9.2555355928e+00    0.3741529    0.2707482  43.28  0.002230481    1.523    0.344
       240 -11.3786     69.3454    239.9212   8.6180329990e+01   1.5849785220e+01    0.5764782    0.2758052   3.98  0.002292537    3.872    0.742
       241 -11.5734    147.2836    238.0339   6.9193169771e+01   7.3952439560e+00    0.4176159    0.2646978  28.03  0.002541002    1.336    0.252
       242 -11.6012    106.4514     32.4160   2.9487441896e+01   5.4593417639e+01    0.6738232    0.4268181  22.51  0.002705663    2.506    0.601
       243 -12.2723    114.6365     25.0449   2.4815091845e+01   5.3399489344e+01    0.7890919    0.3282458  63.77  0.001970317    2.198    0.545
       244  -9.9089    240.3917     32.3780   1.4518219655e+01   2.4179478357e+01    0.2823715    0.1404211  62.54   0.00164098    2.548    0.608
       245  -8.7573    216.6900     32.3159   1.5950550874e+01   2.8557815105e+01     0.132207   0.06804272 -54.45  0.000497036    1.635    0.388
       246 -10.8725    189.0353     28.4165   1.6999030754e+01   3.4737588148e+01    0.4474713    0.2807545  -8.10  0.002223375    2.319    0.569
       247  -9.1105    183.3054     32.3042   1.8549296076e+01   3.5549448470e+01    0.1190894    0.1016308  27.59 0.0002794786    1.600    0.375
       248 -10.1350     59.8187     23.6823   3.9282320304e+01   6.7481761378e+01    0.4227189    0.2165149 -26.39   0.00112294    2.265    0.559
       249 -10.5772     43.0061     28.0757   5.0281790729e+01   7.0389607680e+01    0.2039448    0.1916267  15.23            0    1.021    0.021
       250 -11.0940     56.8295     30.9868   4.4796133753e+01   6.7008511884e+01    0.3722564    0.3200318  -6.37 0.0007895999    1.292    0.226
       251 -11.5311     48.7464     30.6235   4.8599573634e+01   6.8787379346e+01    0.9003875    0.3041117  43.56  0.003129964    2.922    0.658
       252 -10.8811     32.4578     30.8013   5.8567439848e+01   7.1780840118e+01    0.3613874     0.240726 -55.55 0.0004221282    1.675    0.403
       253 -11.0929    167.3664    237.9209   6.5288793921e+01   5.1924949410e+00    0.2285279    0.1693703 -18.70 0.0007970872    1.277    0.217
       254 -10.8504    197.3289    232.0870   5.9107184681e+01   2.7974308308e+00    0.1976105    0.1199843  10.56  0.001324364    1.393    0.282
       255  -8.9205    205.6601    233.7038   5.7931137142e+01   1.7569185724e+00    0.1123754   0.06358679  -3.58 0.0004055789    1.658    0.397
       256 -10.5771    131.0511    240.7002   7.2804270650e+01   8.8241799060e+00    0.1734692    0.1241587  18.77 0.0007900822    1.116    0.104
       257  -9.3005    197.6348    228.2963   5.8516162802e+01   3.2497319147e+00   0.09515764   0.08189359  32.49 0.0007031304    1.719    0.418
       258  -9.0495    181.2999    228.3242   6.1405733945e+01   4.9906189735e+00    0.1171159    0.0708487  -6.22 0.0006135528    1.631    0.387
       259 -10.4422    198.1039     28.7814   1.6390484080e+01   3.2740892458e+01    0.3788055    0.2549588 -25.20  0.002183361    1.532    0.347
       260  -9.8661      7.8771     30.4226   7.8191917933e+01   7.4926635914e+01    0.4279089    0.2421616  15.42  0.001618584    1.822    0.451
       261  -9.5072     12.5049     29.4945   7.3602375402e+01   7.4725792670e+01    0.3324418     0.244181 -81.08  0.001763656    1.713    0.416
       262 -12.0004    126.0079     28.4062   2.4203759320e+01   5.0020933038e+01     0.540373    0.3960602  88.86  0.002780972    1.341    0.254
       263  -9.0512     70.6101     34.1850   4.0723652460e+01   6.3335688711e+01    0.2856807    0.2301125 -64.60  0.001368341    1.417    0.294
       264  -9.9054    147.9910     28.4819   2.1126226476e+01   4.4400405640e+01    0.3116905    0.2196607  75.08  0.001119304    1.393    0.282
       265 -11.5632    143.8242     25.0647   2.0492160579e+01   4.5851800758e+01    0.7074234    0.4840153  77.59  0.003689106    1.415    0.293
       266  -9.2630     15.4003    233.7866   9.8198250348e+01   2.2253756232e+01    0.1437736    0.1038727 -70.22 0.0009430525    1.682    0.406
       267  -9.5896    104.3284    238.3299   7.8230785021e+01   1.2246059770e+01    0.1209373   0.08291201  -7.01 0.0007051355    1.711    0.415
       268 -10.2115    233.9804    223.3160   5.1970404824e+01   2.6453821033e-01     0.145886    0.1015478  -2.82 0.0004782421    1.069    0.065
       269 -10.4165    183.3925     25.7338   1.6725917183e+01   3.6297939047e+01    0.3253105    0.2065202 -42.42  0.001807297    1.312    0.238
       270  -9.4520    187.4850     22.9617   1.5646879500e+01   3.5696952772e+01    0.1779465    0.1758489  38.45 0.0005211297    1.320    0.242
       271  -9.1699     65.6877     27.8143   3.9250930015e+01   6.5495780169e+01    0.2014616    0.1262205 -42.28 0.0009264353    1.673    0.402
       272  -9.8544    230.3111     26.9452   1.3878944914e+01   2.6582335093e+01    0.1719692    0.1177318 -40.98 0.0006992519    1.125    0.111
       273 -10.1077    155.1437     24.5050   1.9005432322e+01   4.3093660297e+01    0.3613762    0.1652894 -79.80  0.001207273    2.750    0.636
       274  -9.3791    212.7792     24.6227   1.4357382992e+01   3.0193650288e+01    0.1647538   0.09948251 -78.27 0.0007340666    1.676    0.403
       275  -9.9965     90.8110     23.0313   2.8915167154e+01   5.9879530272e+01    0.2970939    0.2576964  31.81  0.001611689    1.284    0.221
       276  -9.2180    247.4777    231.4950   5.1203138000e+01  -1.8417869760e+00    0.1002975   0.06739096  -8.40 3.588562e-05    1.018    0.018
       277  -9.2019    144.4945    214.5234   6.6660009499e+01   1.1403209368e+01     0.124741    0.1025285   7.79  0.000810069    1.026    0.025
       278  -9.4440    164.5002    211.9575   6.2213515661e+01   9.3267477241e+00    0.1785621    0.1378324  14.66 0.0004833224    1.112    0.101
       279  -9.0963     13.8416     23.1519   6.9020039040e+01   7.5980733679e+01    0.1821663    0.1419048 -20.79 0.0005785502    1.265    0.209
       280  -9.6412    223.3870     21.9997   1.3129910529e+01   2.8412583684e+01    0.1936672    0.1309875 -65.63 0.0006773224    1.312    0.238
       281 -10.6480    178.8274     20.8758   1.5734114441e+01   3.7873670709e+01    0.4206895    0.2246028  46.48  0.001957072    2.642    0.622
       282  -9.1953      5.4250     22.2047   7.6774062378e+01   7.7010366688e+01    0.1592109    0.1244138 -77.22 0.0003451654    1.492    0.330
       283  -9.3311    216.4437     20.7379   1.3213241282e+01   2.9889921554e+01    0.1574897    0.1045725 -22.26 0.0009433897    1.619    0.382
       284  -9.3648     61.2801    206.7269   8.5401404267e+01   2.3281220346e+01    0.1669846    0.1455355   0.57 0.0009070269    1.298    0.230
       285  -9.5188     16.9983    206.1604   9.6793821471e+01   2.7872654164e+01    0.3076755    0.1033954  61.21  0.001236975    2.915    0.657
       286 -10.1921    235.9898     19.9674   1.2043203334e+01   2.6296603249e+01     0.214538    0.1401612 -30.44 0.0003444491    1.379    0.275
       287 -10.5781      4.5350    204.2300   9.9906720875e+01   2.9321362139e+01    0.3585713   0.09339527 -76.11  0.001375153    3.792    0.736
       288  -9.8191     78.4786    203.9271   8.0725015787e+01   2.1831631494e+01    0.2553107    0.1518086  42.13 0.0006126285    1.496    0.332
       289  -9.7070    233.9610    196.8128   4.7866823064e+01   3.4548436329e+00    0.1935775    0.1235598 -26.21 0.0008971255    1.251    0.201
       290 -10.2365     75.3104     19.1386   3.1148539497e+01   6.4325250506e+01    0.4273845    0.2375995  35.65  0.001802463    2.214    0.548
       291  -9.7105     80.8470     19.2831   2.9629507323e+01   6.2901660396e+01    0.3062322    0.1871713  86.29  0.001342321    1.987    0.497
       292  -8.7967      1.4807     20.5143   8.0129736853e+01   7.7680807481e+01    0.1329148    0.1113364 -32.42 0.0008094793    1.060    0.057
       293  -9.2043     83.5200    195.5406   7.8477101688e+01   2.2983394785e+01    0.1368579    0.1193257  38.29 7.536723e-05    1.035    0.034
       294  -9.5779    119.9886     16.3055   2.0438157762e+01   5.2973334473e+01    0.2406023    0.1856796   0.55  0.001261546    1.653    0.395
       295 -10.0135     81.3413    187.3128   7.8045124771e+01   2.5080031592e+01    0.1402521    0.1041711 -16.51 0.0007046665    1.701    0.412
       296 -11.9233      4.4425    184.3919   9.9308110480e+01   3.3919880236e+01    0.6197171    0.3875279  73.66  0.002603165    1.442    0.306
       297  -9.1051    250.6748    176.6654   4.2190161790e+01   4.2063795225e+00    0.1129271   0.06492382  -9.80 0.0007051249    1.714    0.417
       298  -9.4048     28.2737    175.9512   9.2008973755e+01   3.3976214729e+01     0.191268    0.1669751  75.91 0.0006097123    1.093    0.085
       299 -10.1501     51.7235    172.9904   8.4762683498e+01   3.2215424945e+01    0.4931254    0.2240966  84.87  0.001743253    3.317    0.698
       300  -9.5683     39.5020    173.9086   8.8501841495e+01   3.3354917044e+01    0.2012093    0.1341617 -79.99 0.0006469973    1.535    0.348
       301  -9.2327     35.6738    169.3138   8.9255247806e+01   3.4916729787e+01    0.1555304   0.08886845  55.62 0.0005758826    1.667    0.400
       302 -10.7373     14.2134    159.4229   9.5238474384e+01   3.9451278773e+01     0.326177    0.2717138 -71.64 0.0005943512    1.250    0.200
       303 -11.7748      8.9387    166.9005   9.7288017061e+01   3.7923331131e+01    0.5694993    0.2708895  30.07  0.002380422    1.869    0.465
       304 -11.2871     11.0093    162.5149   9.6427024260e+01   3.8895473708e+01    0.4554145     0.207992  72.77  0.001933317    2.164    0.538
       305 -10.4283     18.9776    164.7845   9.4071486651e+01   3.7660006065e+01    0.3484127    0.2319085  12.81  0.001768712    1.677    0.404
       306  -9.7373    205.0141    163.2112   4.6488176878e+01   1.1614162295e+01    0.2098631    0.1477195 -27.09 0.0006102619    1.189    0.159
       307  -9.7178    187.0015     15.0699   1.3542200698e+01   3.6649251974e+01    0.1922986    0.1611639 -55.52 0.0005312117    1.064    0.060
       308  -9.9207     38.3333    161.2223   8.7674741512e+01   3.6724778604e+01    0.4497671    0.2167998  82.26  0.001745294    2.534    0.605
       309 -10.9258     28.1376    161.4306   9.0938857176e+01   3.7702907157e+01    0.3891219    0.2969064 -62.96  0.001524121    1.382    0.276
       310  -9.4732     66.1673     10.4389   2.8945263445e+01   6.7606065506e+01    0.2686482    0.1194427  60.22  0.001052558    1.983    0.496
       311 -10.7610      9.3233    155.5754   9.6591185842e+01   4.0839149797e+01     0.275939     0.234556  79.78  0.001042682    1.075    0.070
       312 -10.1138    104.3999    154.6962   6.6675224945e+01   2.9180815282e+01    0.2889493     0.263506 -19.59   0.00158593    1.159    0.137
       313 -12.6594     22.8058    149.3744   9.1691549041e+01   4.1402839533e+01    0.7267416    0.4330043 -43.39  0.001625189    2.015    0.504
       314 -11.0437     16.6147    147.9953   9.3687431460e+01   4.2302674474e+01    0.3707942    0.2317026 -74.42 0.0004518809    1.532    0.347
       315 -10.3045      4.1577    153.6644   9.8172986557e+01   4.1707306922e+01    0.3085746     0.126514  33.84  0.001203616    2.106    0.525
       316 -11.3168     47.4220    147.1195   8.3089293750e+01   3.9433874879e+01    0.7414647    0.4537241 -44.75  0.003283322    1.881    0.468
       317 -10.6912     30.4454    152.2604   8.9378145448e+01   3.9908543175e+01    0.3462064    0.2324082 -44.61  0.001667507    1.735    0.424
       318 -10.4308     63.7858    150.7735   7.8200528320e+01   3.6354904776e+01    0.7143481     0.367206   3.20  0.002232173    4.040    0.752
       319 -10.3869      3.0836    147.6685   9.8248392203e+01   4.3372866461e+01    0.2616846    0.1872037 -76.59 0.0008104815    1.346    0.257
       320 -11.6032      5.6970    142.3357   9.7082129346e+01   4.4641190634e+01    0.7716139    0.3220615  68.39 0.0009098269    2.383    0.580
       321 -10.8708      2.1876    141.1985   9.8243929780e+01   4.5172761181e+01    0.4673594    0.1850941 -77.84  0.001881123    2.290    0.563
       322  -9.5761    249.8162    145.2963   3.6745094176e+01   8.3198082314e+00    0.2658878   0.05764123 -39.22  0.001027712    3.695    0.729
       323 -10.2956    104.9509    148.1332   6.5275610576e+01   3.0624814792e+01    0.4144116    0.2817369  14.83  0.001488645    1.829    0.453
       324 -11.0921     33.3364    144.3483   8.7591658089e+01   4.1758232095e+01    0.4419224     0.281916  46.70 0.0008085001    1.471    0.320
       325  -9.2503    217.4961    139.0170   3.9843154357e+01   1.3516329261e+01    0.1839662    0.1001677 -34.97 0.0003935214    1.495    0.331
       326 -10.2801     80.0770    138.3055   7.0838906680e+01   3.7167517700e+01    0.3698218    0.2655886  47.91 0.0009080751    1.388    0.280
       327 -10.5387     40.2439    137.9494   8.4393121293e+01   4.2766855389e+01    0.3211644    0.2733265  60.46 0.0009355215    1.112    0.101
       328 -11.3728     12.2869    136.4396   9.4360671169e+01   4.5797311367e+01    0.6762405    0.3931881 -54.48  0.003134446    1.804    0.446
       329  -9.9946     31.8815    137.7798   8.7377972070e+01   4.3711180592e+01     0.398558    0.2371871  33.39  0.000899667    1.604    0.376
       330 -11.7967     23.7951    136.7266   9.0198580364e+01   4.4777092441e+01    0.5797593     0.351659  43.26 0.0004673906    1.549    0.354
