#   1 NUMBER                 Running object number                                     
#   2 MAG_AUTO               Kron-like elliptical aperture magnitude                    [mag]
#   3 X_IMAGE                Object position along x                                    [pixel]
#   4 Y_IMAGE                Object position along y                                    [pixel]
#   5 X_WORLD                Barycenter position along world x axis                     [deg]
#   6 Y_WORLD                Barycenter position along world y axis                     [deg]
#   7 A_WORLD                Profile RMS along major axis (world units)                 [deg]
#   8 B_WORLD                Profile RMS along minor axis (world units)                 [deg]
#   9 THETA_WORLD            Position angle (CCW/world-x)                               [deg]
#  10 FWHM_WORLD             FWHM assuming a gaussian core                              [deg]
#  11 ELONGATION             A_IMAGE/B_IMAGE                                           
#  12 ELLIPTICITY            1 - B_IMAGE/A_IMAGE                                       
         1 -14.4756     23.8513    223.9310   1.4515401413e+02   2.5472059860e+01     1.415289    0.6290863 -79.76  0.007723319    2.012    0.503
         2 -15.4441     16.7780    109.7395   1.3399641325e+02   5.1263945058e+01     2.020354     1.158848 -71.52  0.003804846    1.605    0.377
         3 -14.3798     86.1450     66.7659   1.0120035138e+02   5.1706665004e+01     1.749205     1.009414  -9.43  0.006974209    2.957    0.662
         4 -15.5059      7.0407     69.7265   1.2941695581e+02   6.0257441057e+01     1.334502    0.6829315 -56.85  0.004311353    1.565    0.361
         5 -15.1465    119.7602     54.9552   8.7861269993e+01   4.7015677069e+01     1.452661     0.829255  29.92   0.00634445    2.085    0.520
         6 -14.9407    122.3755     36.9432   8.1485146561e+01   4.8898507466e+01       1.4512    0.5214117  43.46  0.004058593    2.655    0.623
         7 -14.9658     42.5286      8.4848   9.5041732318e+01   6.6588210532e+01     1.572838    0.9789996  -7.23  0.009000791    1.474    0.322
         8 -13.4766      8.5976      3.0805   1.0737460931e+02   7.0997159324e+01     0.584558    0.4381317  18.44  0.004670167    1.491    0.329
         9 -13.2467     25.5493     31.5527   1.1113846247e+02   6.5568548306e+01    0.7054287    0.5866981 -79.91  0.004510013    2.612    0.617
        10 -13.9565     25.2775     14.2548   1.0456478722e+02   6.8000357919e+01    0.5449578    0.3430273  15.72  0.002640574    1.420    0.296
        11 -15.0889      8.3160     29.3337   1.1770342182e+02   6.7351681023e+01    0.9031854    0.6845914  20.14  0.006842101    1.556    0.357
        12 -15.3273     14.6591     18.9584   1.1112268739e+02   6.8393330564e+01     1.162671    0.5862509 -20.89  0.006974778    1.848    0.459
        13 -12.5551    186.4829     14.1927   6.3823633779e+01   3.6297063560e+01    0.6162989    0.3733863  53.38  0.002388268    1.589    0.371
        14 -13.7376    189.9137     26.8105   6.6464702376e+01   3.4093794887e+01     1.207196      0.56278 -59.46  0.004260935    2.859    0.650
        15 -12.0221    194.8895     23.7205   6.5067704160e+01   3.3258744600e+01    0.3826543    0.2725377 -33.17  0.001724396    1.596    0.374
        16 -14.5536    166.6586     30.3244   7.0810327619e+01   3.9305057158e+01     1.331817    0.6013093  64.30  0.003791973    1.987    0.497
        17 -13.2943    215.0453     21.2758   6.2152101099e+01   2.8807280622e+01    0.4947535    0.3968291 -12.59  0.002109733    1.766    0.434
        18 -13.6756    218.7927     15.0936   6.0422347929e+01   2.8649875870e+01    0.5639644    0.4928538  16.20  0.003673503    1.680    0.405
        19 -13.3460    215.1407      9.5188   5.9590238325e+01   3.0086452073e+01     1.244986    0.4129078  49.72  0.004615065    4.137    0.758
        20 -15.6644     99.6606     12.9053   7.8868572379e+01   5.6326464208e+01     1.328472    0.6330779  52.01  0.003147367    1.772    0.436
        21 -11.6681    201.9895     11.4913   6.1381648164e+01   3.2916048113e+01    0.2111106    0.1863696 -49.26 0.0004299924    1.276    0.216
        22 -11.0732    153.5137      8.0692   6.6779369410e+01   4.4732636267e+01    0.2038547    0.1460162  64.49  0.000442316    1.163    0.140
        23 -12.1544    232.1488      2.4171   5.6610659460e+01   2.7037959418e+01    0.3941417    0.2183409  50.72  0.002056147    2.281    0.562
        24 -12.0318    120.9793      4.0969   7.1198036452e+01   5.2531449126e+01    0.2902088    0.1569275  69.30  0.001368318    1.873    0.466
        25 -11.6120     26.5337      3.9717   9.9610062484e+01   6.9080959396e+01    0.2077621    0.1326641  18.49  0.000676573    1.325    0.245
        26 -12.1238     80.6573      1.8132   7.9720692175e+01   6.0997139225e+01    0.5440683    0.1187842  50.74  0.002118856    3.326    0.699
        27 -10.8477     62.4907      1.5097   8.5000325694e+01   6.4235937638e+01    0.1799638    0.1247968  18.55 0.0006176448    1.202    0.168
        28 -11.0080     59.4929      1.5201   8.5982516737e+01   6.4727810411e+01    0.2193793    0.1135884  35.38  0.001139986    1.589    0.371
        29 -11.2773     67.7227      3.8252   8.4294855226e+01   6.3151588968e+01    0.2138195    0.1594944  21.50 0.0009988111    1.077    0.071
        30 -12.0235    248.5582    195.2733   9.5071167504e+01  -6.1139782363e+00    0.2486151    0.1157683 -40.54    0.0011444    2.118    0.528
        31 -13.2305     55.2538    246.8685   1.4133922738e+02   1.7167513558e+01    0.8939371    0.5177819  26.25  0.004700824    2.795    0.642
        32 -13.6077     28.0033    246.6101   1.4603944676e+02   2.0579881296e+01    0.4881106    0.3716696  71.32   0.00303476    1.078    0.072
        33 -11.8846      2.7234    249.8244   1.5031547703e+02   2.2700870713e+01    0.2858003    0.1530759  57.29  0.001996268    1.459    0.314
        34 -14.2274      8.9192    245.5611   1.4910648680e+02   2.2857474866e+01    0.7331972    0.3950896  62.87  0.003273072    1.446    0.309
        35 -11.9282    201.2873    191.6756   1.0334068582e+02   2.8561374037e+00    0.3406811    0.3033095  18.33  0.001956769    1.053    0.051
        36 -10.4763     81.2494    193.3930   1.3026133601e+02   2.4606161891e+01    0.1956074    0.1133412  49.94 0.0009536096    1.654    0.395
        37 -11.8889     98.4127    187.5848   1.2547296928e+02   2.3180627938e+01    0.3014884    0.2485777 -19.26  0.001607204    1.696    0.410
        38 -11.2802    122.2396    181.6786   1.1889651065e+02   2.0306281368e+01    0.4733255    0.2780194  82.95  0.001618138    3.570    0.720
        39 -12.4874     48.8595    180.8911   1.3592647066e+02   3.1878466661e+01     0.533536    0.2783273 -58.26  0.002708778    1.794    0.442
        40 -12.5440     86.6028    181.2043   1.2723486748e+02   2.6544621099e+01    0.7056666     0.175604  42.97   0.00227608    3.723    0.731
        41 -13.3455     57.3593    202.3598   1.3659989243e+02   2.6000436022e+01     1.144717    0.3467001 -66.44  0.004474945    3.125    0.680
        42 -10.9596    194.4934    177.5225   1.0186823714e+02   6.8289165681e+00    0.1467641    0.1370555  10.04 -2.48024e-06    1.031    0.030
        43 -12.9759    124.1442    166.7895   1.1563753872e+02   2.3297714924e+01    0.7220895    0.4611293 -65.29  0.003184268    1.799    0.444
        44 -11.4379     27.6132    158.7955   1.3813457281e+02   3.9252771735e+01    0.2679799    0.2046397 -77.42  0.001714598    1.086    0.080
        45 -12.5348     25.6515    155.5116   1.3819988330e+02   4.0189515972e+01    0.4716939    0.3167349 -32.26  0.002691776    2.033    0.508
        46 -12.5815     77.7015    157.2439   1.2548343812e+02   3.3493971233e+01    0.4133786    0.3168953  32.77  0.001238713    1.448    0.309
        47 -13.1730     74.1578    153.5086   1.2574139369e+02   3.4895183061e+01    0.7386433    0.5083688  31.04  0.003242282    1.643    0.391
        48 -12.4269    111.0966    155.2958   1.1658933475e+02   2.8383182420e+01    0.5891819     0.367645  89.44  0.002209566    2.832    0.647
        49 -11.6475     55.4757    156.1968   1.3095052831e+02   3.6782117034e+01    0.3863561    0.2613905   3.72  0.001900128    2.401    0.584
        50 -11.9735     85.4347    153.6950   1.2286169476e+02   3.3143929783e+01     0.505206    0.2821755 -44.24  0.002227228    1.936    0.484
        51 -11.9565    103.5532    149.8959   1.1742916817e+02   3.0999405632e+01    0.3736815    0.3035652 -25.77  0.001895442    1.485    0.327
        52 -12.3589      6.1942    148.3121   1.4199500439e+02   4.3441771005e+01    0.4554014    0.2871026 -80.58  0.002839114    1.317    0.241
        53 -10.7993     60.2507    149.4332   1.2864781660e+02   3.7763281666e+01    0.1744595    0.1229147  49.77 0.0004735218    1.517    0.341
        54 -11.4524     38.2524    145.9604   1.3378687994e+02   4.1142045708e+01    0.1977382    0.1881988  54.87 0.0006650993    1.207    0.171
        55 -11.0624     44.4674    145.3019   1.3208472181e+02   4.0625942839e+01    0.1918152    0.1617366   5.20 0.0005281239    1.524    0.344
        56 -11.2797    149.2207    141.1297   1.0399607005e+02   2.3933544029e+01    0.4178951    0.2841386  77.06  0.001661129    2.261    0.558
        57 -11.3656     88.6717    140.9011   1.1952558081e+02   3.5631297000e+01    0.2488145    0.2078759  20.08 0.0009484834    1.388    0.280
        58 -11.5010     38.9923    136.4780   1.3214357364e+02   4.3259955953e+01    0.2159629    0.1622459  43.32  0.000820139    1.494    0.330
        59 -12.4719     42.3938    139.9657   1.3179261471e+02   4.2093252059e+01    0.3280903    0.2468278 -46.50  0.001300991    1.330    0.248
        60 -11.0776     46.5003    135.8353   1.3001719569e+02   4.2600967668e+01    0.4530582    0.1939219 -42.25  0.001850793    2.761    0.638
        61 -12.4359     43.7580    134.0086   1.3045427199e+02   4.3326317438e+01    0.2868705    0.1723606 -59.67  0.001268469    1.420    0.296
        62 -12.0281    246.2227    135.3365   8.3141104201e+01   4.3379081348e+00    0.3493813    0.2186918  85.07   0.00134824    3.552    0.718
        63 -11.9890     62.1557    134.0588   1.2541546683e+02   4.1118635342e+01    0.4166873    0.2511437  39.66 0.0009066703    1.793    0.442
        64 -12.1343    133.4964    132.5104   1.0584833080e+02   2.9171713298e+01    0.2912728    0.2356423 -72.49  0.001395019    1.430    0.301
        65 -11.8402    132.8674    127.6202   1.0483170439e+02   3.0382206659e+01    0.6704827    0.2869538 -33.62  0.002036256    3.557    0.719
        66 -11.7924    111.5234    131.5456   1.1134378112e+02   3.3773655348e+01    0.3527949    0.2164002 -47.36   0.00155216    1.601    0.375
        67 -13.0552     97.8940     93.6203   1.0556707499e+02   4.4540375400e+01    0.7201562    0.5458807  72.48  0.003473552    1.908    0.476
        68 -14.1281    105.0214    122.8791   1.1107054964e+02   3.6947076989e+01     2.365708    0.9826122  35.45  0.008466816    2.696    0.629
        69 -14.9141    104.8605    108.8074   1.0762138394e+02   4.0075659838e+01     1.744234     1.439911 -21.04  0.009041272    1.320    0.243
        70 -13.2979     84.8263    115.4960   1.1501976407e+02   4.2088700685e+01     1.080765    0.6536766  27.10  0.004930442    1.929    0.482
        71 -13.3680     91.4134    108.9581   1.1151171010e+02   4.2445497862e+01      1.22244     0.539382  33.16  0.004682217    2.571    0.611
        72 -11.8107     59.7634    125.9711   1.2452748052e+02   4.3302061643e+01    0.5409228    0.2876564 -31.15  0.002226831    2.757    0.637
        73 -14.4047     29.8256    119.6033   1.3189605812e+02   4.8001419825e+01     3.813404          nan -55.06  0.008594544    8.513    0.883
        74 -13.0291    170.8372    241.4680   1.1833683162e+02  -2.6279986091e-01    0.3179102    0.2797975 -13.10  0.002032095    1.292    0.226
        75 -13.9902      2.5142     97.0524   1.3613787553e+02   5.4925163287e+01     1.005879    0.3376264 -66.81  0.004651173    2.443    0.591
        76 -14.3727     20.9170     96.8322   1.3042527647e+02   5.3754855736e+01     1.001264    0.5348504 -64.84  0.005284476    1.679    0.404
        77 -14.3502     29.0844     92.5594   1.2695661667e+02   5.3998068802e+01     1.033893    0.6311942 -65.71  0.005184352    1.621    0.383
        78 -11.7765    180.6487    121.2171   9.2053438035e+01   2.1059286048e+01    0.3637986     0.245478  37.82  0.001172873    1.603    0.376
        79 -12.6190      4.1079    119.8463   1.3907323875e+02   4.9902833006e+01     0.437861    0.1955453  21.65  0.002154006    2.797    0.642
        80 -12.3326     45.6494    110.2082   1.2548784126e+02   4.8543229912e+01    0.5968308    0.3345345 -35.51  0.002923193    1.957    0.489
        81 -12.0912     61.6556    108.5568   1.2028601749e+02   4.7002955785e+01    0.5651135     0.320736 -63.30  0.002647798    1.880    0.468
        82 -12.7945     62.1898     99.4376   1.1798105070e+02   4.8925075217e+01     0.623798    0.4513735  80.30  0.003091796    2.216    0.549
        83 -12.0761    121.1722    111.6941   1.0388908291e+02   3.6261835423e+01    0.3907622    0.2616102  63.57  0.001490179    1.941    0.485
        84 -12.6538    137.0647     96.0865   9.5582431717e+01   3.6058920847e+01    0.4957293    0.3663343 -48.31  0.001975969    1.412    0.292
        85 -12.8964    122.2260    102.4613   1.0116803363e+02   3.7978750614e+01    0.6215149     0.388514  36.64  0.002733129    1.669    0.401
        86 -12.7356    135.9205    103.3301   9.7836425421e+01   3.4871249631e+01    0.6359237    0.3469515  46.47  0.001576163    1.812    0.448
        87 -11.8793    128.7205    102.4123   9.9439774131e+01   3.6619114438e+01     0.442772     0.257456  51.80  0.001715405    1.810    0.448
        88 -13.2142     49.3654     99.0950   1.2192876264e+02   5.0570362492e+01    0.7814572    0.5292689   6.12  0.003563772    1.843    0.458
        89 -11.8953     43.1587     91.6232   1.2218135186e+02   5.2844061662e+01    0.5885231    0.2312132 -59.24  0.002467603    2.538    0.606
        90 -11.0708     76.0377     95.7014   1.1272594015e+02   4.7759393724e+01    0.1828191    0.1695773   2.02 0.0001931682    1.092    0.084
        91 -11.5113     89.9287     87.7028   1.0628432067e+02   4.7141330132e+01    0.3636649    0.2331661  56.08  0.001663202    2.074    0.518
        92 -11.7282    124.7012     86.3204   9.6020080252e+01   4.0637310144e+01    0.4827095    0.3103653  68.69  0.001984691    2.308    0.567
        93 -13.6108    188.3612     84.4465   8.1279245842e+01   2.6115062332e+01    0.7305594    0.3605886  48.65  0.001736626    2.034    0.508
        94 -14.3551    161.1015     80.5449   8.5693399492e+01   3.3352673256e+01      1.51484     1.051102  19.98   0.00351239    2.045    0.511
        95 -14.4254    170.6005     76.9863   8.2757376149e+01   3.1676105667e+01     1.329535    0.6770371  56.17  0.005444688    1.898    0.473
        96 -12.3041    131.5721     85.6672   9.4055041922e+01   3.9263842026e+01    0.5134625    0.2953558  60.73  0.002073571    2.152    0.535
        97 -11.4025    184.9369    124.1557   9.1866092999e+01   1.9492462537e+01     0.232429    0.2068193 -88.73 0.0003753226    1.246    0.197
        98 -11.7737    242.0025     84.0226   7.2640188351e+01   1.3905320487e+01    0.3032378    0.2369331 -82.53  0.001397096    1.343    0.255
        99 -12.3946    238.2416     80.2402   7.2324528765e+01   1.5318948796e+01     0.400503    0.2944091  80.62   0.00202213    1.455    0.313
       100 -10.5879     98.2495     84.1940   1.0279116756e+02   4.6340345240e+01    0.1849752    0.1701734  84.91 0.0004329945    1.346    0.257
       101 -12.6790     39.6286     67.7011   1.1722351957e+02   5.8005580963e+01      1.50238    0.4251924  24.27  0.005377154    4.641    0.785
       102 -13.8219     64.6857     65.5346   1.0781266304e+02   5.5315970755e+01    0.8068893    0.6285517  26.68  0.004435822    1.307    0.235
       103 -13.5453     51.2369     68.8773   1.1345712934e+02   5.6475771033e+01    0.7728295    0.6189784 -75.61  0.004487103    1.884    0.469
       104 -13.5042     75.1291     74.1198   1.0696559373e+02   5.2189131694e+01    0.9814203    0.5319443  22.02  0.004351748    2.318    0.569
       105 -13.2640     98.7224    240.0712   1.3251266648e+02   1.2160839704e+01    0.8020914    0.4113115  29.83  0.003644171    2.616    0.618
       106 -12.0282     52.0707     79.9787   1.1628662131e+02   5.4229471933e+01    0.2239327    0.1870803 -26.62 0.0003273124    1.062    0.059
       107 -13.2259     56.5994     78.8266   1.1444860555e+02   5.3899101476e+01    0.5335183    0.2795554 -35.13  0.001143706    1.885    0.469
       108 -13.4347     60.8484     75.4925   1.1208182673e+02   5.3994306947e+01    0.5543566    0.3551802 -46.16  0.001986613    1.462    0.316
       109 -11.6553    219.3980     75.0228   7.3820082382e+01   2.0357862218e+01    0.2623672     0.241964 -75.89 0.0005860127    1.019    0.019
       110 -12.3697    217.0777     80.3577   7.5414687483e+01   2.0027048664e+01    0.4648908    0.4351775  70.29  0.001633739    1.107    0.097
       111 -12.4622    210.4404     77.5462   7.5785577217e+01   2.2026461168e+01    0.4657508     0.327817 -65.38  0.001999323    1.546    0.353
       112 -13.4770     95.5446    236.6964   1.3274674290e+02   1.3306566520e+01    0.4797167     0.412672  23.62  0.001446701    1.519    0.342
       113 -13.0597    134.8974     79.6289   9.1487465801e+01   3.9621351903e+01    0.8550202    0.4013236  53.63  0.002726383    2.198    0.545
       114 -13.3360    133.8112     67.5820   8.8224008473e+01   4.1925256758e+01     1.067501    0.6466931  20.45  0.004249849    2.565    0.610
       115 -11.8169    113.9409     80.4023   9.7199341343e+01   4.3995191965e+01     0.365083    0.3393924 -49.37  0.001725263    1.169    0.144
       116 -11.7051     90.4043     80.0958   1.0394402930e+02   4.8536539753e+01    0.4076731    0.2947058   3.90  0.001938161    1.684    0.406
       117 -12.1307     41.8081     77.2956   1.1906878304e+02   5.5918463842e+01    0.3133512    0.2236708 -47.32 0.0008543928    1.237    0.192
       118 -13.3834    199.3466     70.1072   7.5762379005e+01   2.5850093077e+01    0.7377734    0.4247034  51.06  0.002055634    1.747    0.428
       119 -10.5367    152.3354     71.3084   8.5026952090e+01   3.7008443222e+01    0.1529529    0.1128432  22.99 0.0003886979    1.676    0.403
       120 -11.3920    158.3793     64.1113   8.1711574896e+01   3.6718563252e+01     0.291944    0.1757431 -49.78  0.001294505    1.877    0.467
       121 -14.2815     91.6908    232.2385   1.3299338755e+02   1.4777937250e+01    0.7656656    0.4547496 -83.69  0.003951104    2.017    0.504
       122 -12.2951    109.6168     54.2069   9.0296077249e+01   4.9273200314e+01    0.4285696    0.3094265 -33.26  0.001828108    1.447    0.309
       123 -14.2231    101.4931     50.2715   9.1263999998e+01   5.1499489908e+01    0.8709555    0.5886266  59.26  0.002265268    1.798    0.444
       124 -13.7952    112.0843     40.6130   8.5207076525e+01   5.0663495012e+01    0.7974768    0.4855361  21.17  0.002818417    2.059    0.514
       125 -12.0749    147.0245    238.5890   1.2267825703e+02   4.3612392395e+00    0.2365858    0.2047736 -60.28 0.0009231229    1.351    0.260
       126 -11.2930     99.8556     65.0291   9.6509426501e+01   4.9497564965e+01    0.2424931    0.2125773  50.40 0.0009275479    1.262    0.208
       127 -13.1105     78.7393     61.0769   1.0173902389e+02   5.3933619091e+01    0.5266036    0.4389991  -1.99  0.002291053    1.122    0.109
       128 -11.5664     82.4255     56.7737   9.9154429358e+01   5.4025763993e+01    0.3365624    0.1735438 -43.11  0.001168806    2.054    0.513
       129 -13.7588    178.0032     57.6716   7.6208527101e+01   3.2928395758e+01    0.7265688    0.5854561 -79.41  0.002278766    1.342    0.255
       130 -11.6485     38.9228     60.5683   1.1541464034e+02   5.9400821456e+01    0.2577192    0.2261747  63.65  0.001698224    1.739    0.425
       131 -12.2395     24.5988     60.1488   1.2060545512e+02   6.0832578147e+01    0.2595682    0.1784751 -43.87 0.0008455061    1.214    0.176
       132 -12.8494     63.6354     57.5528   1.0563884002e+02   5.6857863954e+01    0.4017766    0.3407319  -6.84  0.002564663    1.027    0.026
       133 -11.6181    248.2466     54.7935   6.5663391683e+01   1.7031669081e+01    0.3709066    0.1914611 -64.03  0.001723945    2.179    0.541
       134 -13.3372     66.5733     49.6609   1.0199794540e+02   5.7714581455e+01    0.5806114    0.4551147 -18.89  0.003600859    1.156    0.135
       135 -11.3310     86.0224     50.3273   9.5871668795e+01   5.4405542119e+01     0.322988     0.187963 -23.76  0.001581864    1.862    0.463
       136 -11.6146      6.0661     50.7322   1.2512576156e+02   6.3889227089e+01    0.2639838    0.1637197 -33.35  0.001216611    1.282    0.220
       137 -11.5826    250.1398     48.6680   6.4204174342e+01   1.7495776845e+01    0.2202768    0.1778739 -37.83 0.0007692983    1.371    0.271
       138 -13.7938    157.1974     45.0222   7.6558049982e+01   3.9762421897e+01     1.299241    0.3570434  49.09  0.004244019    3.339    0.701
       139 -11.1318    169.1752     43.3683   7.3923834966e+01   3.7078182741e+01    0.2366914    0.1643431  77.44 0.0006967904    1.499    0.333
       140 -12.0419    144.9130    231.6160   1.2208509281e+02   5.9797931334e+00    0.2948838    0.1741546 -41.80  0.001463871    2.063    0.515
       141 -13.4156      8.6386     42.9135   1.2188675272e+02   6.5100605454e+01      0.75828     0.565174  39.79  0.005313547    1.973    0.493
       142 -12.6690    105.6319    246.6515   1.3192922913e+02   9.8382124507e+00    0.3219921    0.2286461  84.08  0.001910953    1.555    0.357
       143 -13.9786      8.7939    211.0082   1.4694388755e+02   2.9647440405e+01    0.8356902    0.6365095  64.38  0.006211082    1.203    0.169
       144 -12.9965     33.9292     32.7984   1.0816492724e+02   6.4523012205e+01    0.4300411    0.2954251  39.44  0.002552379    1.936    0.483
       145 -13.3077     16.5654    196.2227   1.4433263829e+02   3.2001042931e+01     1.030536    0.2326447 -66.39  0.004222832    3.309    0.698
       146 -13.6059     22.6192    181.3285   1.4173432477e+02   3.4657968403e+01    0.5461475    0.4534631  65.12  0.002545465    1.202    0.168
       147 -15.1149      7.8648    183.7720   1.4502295341e+02   3.5486691167e+01     1.078607    0.8651694  83.07  0.007887251    1.082    0.076
       148 -13.6452     67.2670    223.2438   1.3685255514e+02   2.0209288367e+01    0.7864523    0.6070923  31.11  0.004864399    1.615    0.381
       149 -14.7070     62.7842    214.9683   1.3686896621e+02   2.2557999421e+01     1.677163    0.6586342  47.57  0.007694092    2.285    0.562
       150 -13.0343     94.5141    218.4907   1.3073869246e+02   1.7115442718e+01    0.3585842    0.2815869  61.58  0.001620965    1.123    0.110
       151 -13.9212    217.9400     42.0756   6.6456018065e+01   2.5543830027e+01     1.069849    0.4282763  63.00  0.004585074    2.292    0.564
       152 -12.9641    205.3854     40.3610   6.7664162235e+01   2.8716415413e+01     0.579619    0.3344215  89.88  0.002228442    2.054    0.513
       153 -10.8524     25.6819     43.0089   1.1501501229e+02   6.3743637550e+01    0.1656618     0.118771 -31.02 0.0004038356    1.127    0.113
       154 -12.1058    104.9552     36.3458   8.5642099014e+01   5.2694534118e+01    0.3979556    0.1953823 -25.40  0.001817342    2.277    0.561
       155 -12.8858     75.7715     37.4778   9.4639070632e+01   5.8028952654e+01    0.3441411    0.2242925  35.90 0.0008452107    1.423    0.297
       156 -12.3155     70.4558     36.7540   9.6127777620e+01   5.9006630243e+01    0.2892967    0.2019414  22.98 0.0005748426    1.320    0.242
       157 -12.3717    242.4371     36.2310   6.2463463478e+01   2.0820946650e+01    0.6263329    0.2411069  74.79   0.00262425    2.844    0.648
       158 -13.1336     56.0307     27.6360   9.7741113081e+01   6.2432320097e+01    0.5199482    0.2846343  32.61  0.001706813    1.700    0.412
       159 -11.7882     45.4461     36.5092   1.0500518272e+02   6.2629848990e+01    0.2283888    0.1442095   9.13 0.0006934041    1.612    0.380
       160 -12.4908     47.0241     32.4751   1.0291927465e+02   6.3012472757e+01    0.4171791    0.2218856  -3.18   0.00196382    2.724    0.633
       161 -11.1337     51.8077     36.4583   1.0259585706e+02   6.1813057245e+01    0.2840638    0.1083764  33.31  0.001301658    2.607    0.616
       162 -11.1869     85.3223    215.8718   1.3232985496e+02   1.9097483305e+01    0.2411921    0.1588238  54.30  0.001325484    1.367    0.268
       163 -12.5293    138.9635     21.6864   7.3209398658e+01   4.6843873936e+01    0.6058069    0.3662878  77.29  0.001834403    1.947    0.486
       164 -12.7485    152.2679     31.4100   7.3593066454e+01   4.2641188957e+01    0.4078079    0.2741068 -22.80  0.001152748    1.753    0.430
       165 -14.4325    145.8080     30.7746   7.4612987123e+01   4.4249199038e+01     1.045365    0.5362519  61.08  0.003763571    1.751    0.429
       166 -10.8905    211.3908     33.2656   6.5256770941e+01   2.8211527490e+01    0.1751228    0.1115781 -49.73 0.0004387677    1.545    0.353
       167 -12.5603    116.5997     29.5906   8.0458882868e+01   5.1038562118e+01    0.5918218    0.3302287   3.92  0.002009252    2.910    0.656
       168 -11.6487    121.5195     27.5081   7.8643126377e+01   5.0192312366e+01    0.2503999    0.1582442  54.16 0.0008411657    1.398    0.285
       169 -11.9897    223.0266     21.4354   6.1348519000e+01   2.6964398645e+01    0.3432583    0.2431415 -81.61 0.0007355217    1.272    0.214
       170 -12.8240    216.7845     27.8319   6.3407156214e+01   2.7628890494e+01    0.3113037    0.2726407 -52.33 0.0008801917    1.223    0.182
       171 -11.6270    238.0000    214.9882   1.0073429921e+02  -7.4415189061e+00    0.2040569   0.06853081 -37.85  0.000806796    2.973    0.664
       172 -10.8262    157.4984    213.5272   1.1657405935e+02   7.0751203412e+00    0.1406725    0.1263772  43.89  2.63044e-05    1.021    0.021
       173 -10.5166    136.7035    211.3213   1.2067660472e+02   1.1341868891e+01    0.1412039    0.1041508  73.13 0.0004026416    1.618    0.382
       174 -10.2961     89.2787     30.3150   8.7899794004e+01   5.6525281546e+01    0.1306105   0.08735946  16.19 0.0002390577    1.570    0.363
       175 -11.9175     96.9627     27.2141   8.4633943056e+01   5.5398686751e+01    0.2888737    0.2382438  30.03  0.001199225    1.035    0.034
       176 -12.0523     72.2856    207.4815   1.3404579794e+02   2.2826864993e+01    0.4305299    0.2894643 -81.53  0.002406337    1.462    0.316
       177 -14.1995     30.0054    169.4531   1.3884082242e+02   3.6587072000e+01     1.047594    0.8001271  69.24  0.001250544    1.271    0.213
       178 -11.3336     70.8354     16.9978   8.8550071121e+01   6.1345261716e+01    0.1957327    0.1480829  31.64 0.0004344115    1.151    0.131
       179 -13.3246     98.7781    216.0208   1.2951914283e+02   1.6943377170e+01    0.5330337    0.3893438 -65.05  0.003029584    1.426    0.299
       180 -10.2769    149.4981    206.5683   1.1710875899e+02   9.9232009717e+00    0.1422178    0.1290324  41.47 0.0001336724    1.029    0.028
       181 -12.2450     45.5907    197.5719   1.3854866499e+02   2.8539843535e+01    0.4145485    0.2739268 -82.60  0.002444284    1.352    0.260
       182 -12.6847     41.8668    201.1307   1.3969162779e+02   2.8208239823e+01    0.2756774    0.2138612 -82.21  0.001248827    1.123    0.109
       183 -12.6160    198.6641     37.1964   6.7810539365e+01   3.0728227672e+01    0.5095675    0.2980424 -86.99  0.001982615    2.069    0.517
       184 -13.1710     39.0662    195.3198   1.3967838985e+02   2.9807073958e+01    0.4847881    0.3676642  86.31   0.00253465    1.110    0.099
       185 -15.4457     15.3951    175.4162   1.4269984925e+02   3.6649299883e+01     2.384627     1.166386  79.94   0.01189129    2.304    0.566
       186 -11.4356    164.7045    196.0179   1.1190284947e+02   9.1115673199e+00    0.4455492    0.2785299  87.73  0.001479329    4.214    0.763
