#   1 NUMBER                 Running object number                                     
#   2 MAG_AUTO               Kron-like elliptical aperture magnitude                    [mag]
#   3 X_IMAGE                Object position along x                                    [pixel]
#   4 Y_IMAGE                Object position along y                                    [pixel]
#   5 X_WORLD                Barycenter position along world x axis                     [deg]
#   6 Y_WORLD                Barycenter position along world y axis                     [deg]
#   7 A_WORLD                Profile RMS along major axis (world units)                 [deg]
#   8 B_WORLD                Profile RMS along minor axis (world units)                 [deg]
#   9 THETA_WORLD            Position angle (CCW/world-x)                               [deg]
#  10 FWHM_WORLD             FWHM assuming a gaussian core                              [deg]
#  11 ELONGATION             A_IMAGE/B_IMAGE                                           
#  12 ELLIPTICITY            1 - B_IMAGE/A_IMAGE                                       
         1 -13.3935    228.6653      3.0721   3.7233731998e+01   2.7522173439e+01     1.777583    0.6139183  59.75  0.004868837    2.837    0.648
         2 -13.8669    185.0453     45.6263   5.3622121648e+01   3.3136578717e+01     1.210392    0.9734027  20.36 0.0009933913    1.531    0.347
         3 -14.1049    195.3765     37.5552   4.9743431060e+01   3.1614402396e+01     1.477632      1.20146 -23.60  0.003929391    1.344    0.256
         4 -14.7016    205.1276     26.8666   4.5532230220e+01   3.0525156856e+01     1.742348     1.359909  26.66  0.001770455    1.667    0.400
         5 -12.2005     60.0321      3.1796   6.7596512999e+01   6.6896723524e+01    0.4425945    0.2796439  40.32  0.002618182    1.490    0.329
         6 -12.2434     32.9018      4.0244   7.9718231928e+01   7.0848469931e+01    0.3458202      0.27829  55.51  0.002218236    2.331    0.571
         7 -11.2029     52.7483    171.4611   1.1640670325e+02   3.2846762432e+01    0.6659733    0.2161208 -60.95  0.002755606    2.701    0.630
         8 -11.5233    139.6194    248.8594   1.0765633719e+02   4.8497088159e+00    0.3517253    0.2365391 -77.74  0.002098045    2.186    0.543
         9 -11.5625    117.3752    249.3401   1.1177811675e+02   8.1920739459e+00    0.3345047    0.2517743  73.76  0.002267175    1.393    0.282
        10 -16.5866     73.4921    151.0485   1.0862532495e+02   3.4904717115e+01     22.62338     11.03667  83.63   0.01256261    4.912    0.796
        11 -18.0676      7.0160    239.9401   1.3011294488e+02   2.3841329052e+01     6.183772     1.798647 -76.92   0.02955168    2.981    0.664
        12 -10.1115    161.2929    165.6545   9.0104076765e+01   1.5944500138e+01    0.2575972    0.1821195 -58.18 0.0005750742    1.629    0.386
        13 -12.1431     91.2791    154.8986   1.0476283950e+02   3.1304721524e+01    0.5972893    0.4392069 -26.95   0.00191539    1.966    0.491
        14 -10.3758     81.6761    195.0207   1.1276115082e+02   2.3730746890e+01    0.2607587     0.239331  76.93 0.0007911946    1.146    0.127
        15 -11.3815    133.6948    144.3619   9.2074927186e+01   2.6071783637e+01     1.129366    0.3032768 -54.74  0.002818399    5.174    0.807
        16 -10.6481    174.3918    148.8499   8.3596897179e+01   1.6644543517e+01    0.3185675    0.2739833  87.66  0.001173056    1.446    0.309
        17 -10.8138    143.9603    146.2545   8.9997024520e+01   2.3570542127e+01    0.3930368    0.2545823 -76.93  0.001523772    2.487    0.598
        18  -8.8581    109.4523    147.4712   9.8797165651e+01   2.9966823566e+01    0.1477983    0.1377199  89.33 9.076703e-05    1.026    0.025
        19 -10.1964     86.6234    145.6041   1.0432461449e+02   3.4248759509e+01    0.2584576    0.2094286  70.87 0.0005042819    1.260    0.206
        20 -11.2048    104.5734    139.7914   9.8515351267e+01   3.2641850240e+01     0.598961    0.3546652 -40.49  0.002348029    1.942    0.485
        21 -12.3469     91.9610    139.9818   1.0187746056e+02   3.4741930621e+01    0.2925741    0.2543981 -53.00 0.0004054623    1.158    0.137
        22 -11.5698    146.0010    183.5760   9.6906847165e+01   1.5289532534e+01    0.4643101    0.2801751  69.88  0.001857415    2.737    0.635
        23 -14.9681     85.3809    229.7785   1.1574781189e+02   1.6288682508e+01     1.636236     1.101768 -82.32  0.007676577    1.552    0.356
        24 -10.6803    105.9037    130.7722   9.6253581095e+01   3.4540331564e+01    0.3609125    0.3084232 -77.76  0.001137652    1.201    0.167
        25 -10.5454    112.9550    130.3851   9.4283590122e+01   3.3330108486e+01    0.3432811    0.2974303   4.50  0.001445125    1.416    0.294
        26 -11.2433    135.5762    127.8517   8.7820896709e+01   2.9406443608e+01    0.5641097     0.150734 -48.38  0.001565952    3.769    0.735
        27 -11.5247    119.1911    124.3224   9.1220105194e+01   3.3543042231e+01    0.7346168    0.4522095 -24.42   0.00276937    2.587    0.613
        28 -11.2405    100.0267    126.7475   9.6964371289e+01   3.6543521555e+01    0.3660897    0.2664792 -22.69 0.0007746025    1.886    0.470
        29 -10.1352    160.7996    127.9259   8.1721749608e+01   2.3931136698e+01    0.3034578    0.2250604 -62.72  0.001360165    1.584    0.369
        30 -11.2860     24.9057    120.7780   1.1711116313e+02   4.7706654273e+01    0.2523944    0.1562735  39.88  0.001440775    1.834    0.455
        31 -10.0643    108.8830    119.1481   9.2771156046e+01   3.6731891314e+01    0.2158469    0.2095887 -58.31 0.0003370473    1.028    0.028
        32  -9.7828    167.4668    112.3138   7.6195592153e+01   2.5670188562e+01    0.3370073    0.2444777 -74.16  0.001097607    1.925    0.481
        33 -11.9446    118.2823    109.4250   8.7735767440e+01   3.7145858402e+01    0.6530617    0.5545577 -69.76   0.00327475    1.271    0.213
        34 -12.4834     20.2291    111.3968   1.1713883354e+02   5.0311274831e+01     0.638969    0.3273076  73.33  0.002936186    2.685    0.628
        35 -11.5468     16.6777    111.3220   1.1816040439e+02   5.0592638748e+01    0.2704652    0.1662444  82.80  0.001281358    1.729    0.422
        36  -9.9679    205.5894    110.1161   6.7782829208e+01   1.7247470569e+01    0.2727759    0.2215395  40.04 0.0006406025    1.300    0.231
        37 -16.0811     51.5919    203.4363   1.1987022459e+02   2.5999865544e+01     3.308078     2.098603  77.85     0.020037    1.410    0.291
        38 -11.4533    208.1207    196.1638   8.6415799193e+01   1.5411720121e+00    0.2768467    0.1900668 -39.81  0.001117424    1.594    0.373
        39 -10.5206    134.5603    104.7751   8.2132545269e+01   3.4749126741e+01    0.5892898     0.151445 -44.58  0.001597875    3.801    0.737
        40 -12.2741     72.8045    175.6796   1.1232257417e+02   2.9256203815e+01    0.4391059    0.2783407 -44.19  0.002218572    2.052    0.513
        41 -11.5390     42.1626     91.8849   1.0680425821e+02   5.2999126966e+01    0.2886701    0.2355306  13.18 0.0009911845    1.479    0.324
        42  -9.3434    157.1174     81.1338   6.9752512883e+01   3.4317877809e+01    0.2153535    0.1870687 -71.75 0.0004128854    1.288    0.224
        43  -9.4005    184.3139     77.0467   6.2881072795e+01   2.8322987177e+01    0.2172107    0.1993916 -37.75 0.0005347231    1.071    0.066
        44 -10.2893     62.1566     69.1416   9.3885681089e+01   5.5754500655e+01     0.242164    0.2292714 -70.34 0.0006912193    1.238    0.192
        45 -10.9928    152.1991     55.3956   6.2805578896e+01   4.0038327804e+01    0.4010568    0.2826293 -79.35 0.0005154976    2.001    0.500
        46 -15.5060     10.5957    206.5143   1.2789744507e+02   2.9814808852e+01    0.6831241     0.497937 -69.56  0.003009669    1.519    0.342
        47 -12.3515    193.3723    195.3167   8.9129743500e+01   4.3134863906e+00     1.070583    0.6048741 -65.32  0.003591046    5.085    0.803
        48 -12.1454     76.8569    170.9500   1.1074780839e+02   2.9758380557e+01    0.3300161     0.270758 -47.22 0.0009013473    1.448    0.310
        49 -11.6109    140.4957    174.5040   9.6498537555e+01   1.8181005604e+01    0.3174668    0.2264522  59.07  0.001558966    1.498    0.333
        50 -10.7294    154.4138     49.3437   6.0371156883e+01   4.0422991751e+01     0.287745     0.245436 -74.85 0.0003273411    1.319    0.242
        51  -9.2465     36.7949     37.6449   9.3210702807e+01   6.5094240560e+01    0.1572836    0.1102955  35.45 0.0007174292    1.745    0.427
        52 -11.4331     47.5545    172.8905   1.1774407292e+02   3.3141393928e+01    0.3731398    0.2154345 -64.46 0.0008315073    1.596    0.374
        53 -10.9644     33.0326     16.4841   8.5953003661e+01   6.9077782498e+01    0.1689626    0.1082925  24.41  0.001037781    1.606    0.377
        54  -9.8280    189.7941     15.0768   4.4128429490e+01   3.5740900342e+01    0.2146496    0.1731891 -64.86 0.0006625278    1.212    0.175
        55 -16.4924     57.6362    247.5600   1.2220309696e+02   1.6824108756e+01     4.706439     1.572363  32.43   0.01898298    4.534    0.779
