#   1 NUMBER                 Running object number                                     
#   2 MAG_AUTO               Kron-like elliptical aperture magnitude                    [mag]
#   3 X_IMAGE                Object position along x                                    [pixel]
#   4 Y_IMAGE                Object position along y                                    [pixel]
#   5 X_WORLD                Barycenter position along world x axis                     [deg]
#   6 Y_WORLD                Barycenter position along world y axis                     [deg]
#   7 A_WORLD                Profile RMS along major axis (world units)                 [deg]
#   8 B_WORLD                Profile RMS along minor axis (world units)                 [deg]
#   9 THETA_WORLD            Position angle (CCW/world-x)                               [deg]
#  10 FWHM_WORLD             FWHM assuming a gaussian core                              [deg]
#  11 ELONGATION             A_IMAGE/B_IMAGE                                           
#  12 ELLIPTICITY            1 - B_IMAGE/A_IMAGE                                       
         1 -12.3979    207.5764      3.6560   6.1013477482e+01   3.2943157536e+01     1.273603     1.006877  -0.59  0.002258458    1.844    0.458
         2 -16.0654    208.1901     65.1270   7.5954624189e+01   2.4784439362e+01     10.97129     5.853111  84.82   0.04033172    2.946    0.661
         3 -17.5912    246.9248     27.3669   6.2400308346e+01   2.1152204181e+01     6.477802     3.627265 -27.40    0.0147627    2.248    0.555
         4  -9.9227     92.1751     16.1568   8.4595456826e+01   5.8184994631e+01     0.441215    0.1711622 -25.98  0.001972886    2.692    0.628
         5  -8.6112    166.6618     13.5108   6.8541305711e+01   4.1806832573e+01    0.3668056    0.1337679  58.38  0.001521093    2.238    0.553
         6  -9.6339    180.8103      5.7515   6.4522191664e+01   3.9141406263e+01    0.3752506    0.2715177  66.39  0.001477266    1.193    0.161
         7  -7.7844     79.4869      7.4742   8.4770039005e+01   6.1400431329e+01    0.1212696   0.09854667  21.53 3.728646e-05    1.004    0.004
         8  -8.2699    195.4898      4.7275   6.2542181649e+01   3.5709814326e+01    0.3557016    0.1548026  57.64  0.001654035    2.060    0.514
         9  -9.9574    165.6197      3.3105   6.5848688130e+01   4.3022773607e+01    0.3225612    0.2137048  -1.62  0.001736768    2.081    0.519
        10 -10.0827    137.0616      3.3382   7.0245846495e+01   4.9752256852e+01    0.3719724    0.2429391   0.87   0.00204243    1.925    0.481
        11  -9.5930    158.8044      2.9609   6.6706517095e+01   4.4682201094e+01    0.2999774    0.2373372  11.14  0.001561307    1.562    0.360
        12  -8.4763    171.8441      2.6320   6.4835507717e+01   4.1589603926e+01    0.2351783    0.1418275 -49.26 0.0006608309    1.832    0.454
        13 -14.1885    242.0860     17.8161   6.0844045197e+01   2.3416509423e+01    0.4117956    0.3361202 -14.67  0.001614519    1.766    0.434
        14  -8.7438     88.6452    239.3182   1.3680103344e+02   1.3840937385e+01    0.1337469   0.07621314  68.32 0.0007046104    1.749    0.428
        15  -8.4799     27.7151    230.3387   1.4679175716e+02   2.3704657152e+01    0.1756452    0.1222141 -88.60 0.0003089672    1.169    0.145
        16 -11.3169     64.0159    152.9543   1.3090594146e+02   3.6258962138e+01     0.561639    0.3736903 -82.58  0.001509038    1.526    0.345
        17  -9.8136    184.5101    141.5346   9.9550480570e+01   1.6021100925e+01    0.2852924    0.2663912 -65.48 0.0007403408    1.103    0.093
        18 -11.2041    186.7916    137.7433   9.8174275566e+01   1.6291581554e+01    0.6040507    0.4233856 -66.73  0.001552539    1.825    0.452
        19 -10.0776    180.9001    134.4225   9.8635652943e+01   1.8308541354e+01    0.3100528    0.1952612  35.00 0.0008642593    1.833    0.455
        20  -8.5927    117.0075    134.3280   1.1378012473e+02   3.2051506646e+01    0.1987712    0.1886213  52.61 0.0002940047    1.093    0.085
        21 -10.0335    135.8695    129.9467   1.0799163262e+02   2.9251551730e+01    0.5070292    0.1941678 -44.42  0.001696229    2.615    0.618
        22  -7.8956     97.8387    132.2008   1.1830078794e+02   3.6039371774e+01    0.1901198    0.1671087 -30.75  0.000363991    1.268    0.211
        23 -10.0957    188.5887    130.6970   9.6111728172e+01   1.7327258901e+01     0.313945    0.1975281  52.16  0.001007728    1.639    0.390
        24 -10.9902    160.5473    127.8394   1.0156490878e+02   2.4318442299e+01    0.6192109    0.3357678 -49.01  0.002432923    1.868    0.465
        25  -7.5457    129.3605    129.6689   1.0955232936e+02   3.0665820301e+01    0.1635545    0.1214208  86.13 0.0007040679    1.800    0.445
        26  -8.9836    151.1734    119.1749   1.0159178824e+02   2.8295291076e+01    0.2877309    0.1937758 -64.39 0.0005172557    1.823    0.451
        27  -9.8150    177.6381    118.8825   9.5514273689e+01   2.2274141696e+01    0.3006099    0.2750163   5.82 0.0007774945    1.234    0.189
        28 -11.4798    168.1087    114.0119   9.6359630207e+01   2.5501384858e+01    0.6441244    0.5641064  87.59 0.0009598232    1.257    0.205
        29 -10.1140    175.1165    114.8836   9.5044112802e+01   2.3682454675e+01    0.3941221    0.2690316 -66.18 0.0009782373    1.860    0.462
        30 -10.3427    156.5667    113.1465   9.8767588688e+01   2.8354062184e+01    0.4697345    0.3619039 -79.14   0.00172273    1.641    0.391
        31  -9.8312    127.2746    112.2345   1.0574341385e+02   3.4988049180e+01    0.6021189    0.2610322 -55.28  0.001468148    2.807    0.644
        32 -10.3549    122.9157    103.3165   1.0452181129e+02   3.7816194197e+01    0.9701434    0.4106409  56.72  0.003022791    3.598    0.722
        33 -11.0720    134.5664    109.4215   1.0314022406e+02   3.4053449623e+01     1.627125    0.2143543 -44.85   0.00324078    7.439    0.866
        34  -9.5131    132.9061     98.2907   1.0055195408e+02   3.6755382018e+01     0.288557    0.2503009 -67.87 0.0009818184    1.263    0.208
        35  -8.8641      2.3151    104.6615   1.3958613304e+02   5.3199516743e+01    0.1133379   0.07694462  80.17 0.0001233172    1.699    0.411
        36  -9.4314    145.7580    102.2299   9.8436609694e+01   3.3091553618e+01    0.2810498    0.2473294  37.06 0.0006022389    1.178    0.151
        37 -11.9117    168.4254     88.6844   8.9540673206e+01   3.0436395554e+01     1.086467    0.7320613  -3.43  0.004231302    2.534    0.605
        38 -11.0511    160.2300     86.9546   9.0846430576e+01   3.2729396647e+01    0.7528984    0.4111427 -30.89  0.002839964    2.095    0.523
        39  -9.5561    138.9594     92.3865   9.7377941059e+01   3.6615246408e+01    0.3490459    0.2850462  70.70 0.0007556622    1.401    0.286
        40  -9.9073    172.8842    204.7147   1.1510989849e+02   5.7482743605e+00    0.2217006    0.2148911 -36.70 0.0004021295    1.120    0.107
        41 -10.8855    155.0222     96.7249   9.4736155158e+01   3.2072027107e+01    0.6568645    0.3826729  35.16  0.002589457    2.085    0.520
        42 -10.7023    151.8429     87.4270   9.2882612057e+01   3.4625001550e+01    0.3353697    0.2747734 -37.60 0.0005032556    1.233    0.189
        43  -9.0554    130.6186     76.7808   9.4930178602e+01   4.1455377440e+01     0.259924    0.1805714 -46.97  0.000640047    1.498    0.333
        44  -8.4165    146.9433    158.1829   1.1171949101e+02   2.0583121411e+01    0.2295226    0.1982334  80.03 0.0003919365    1.245    0.197
        45 -10.0113    164.4383     84.3273   8.9191535774e+01   3.2208561240e+01    0.4608101    0.3014869  39.11  0.001323918    1.685    0.406
        46 -10.0824    118.9485     64.4874   9.4168163982e+01   4.6148519842e+01    0.3846928    0.1378959  48.38  0.001367523    2.750    0.636
        47 -12.0054     68.6590    144.8594   1.2839410681e+02   3.7548157760e+01     1.225896    0.9778165  62.25  0.004891686    1.323    0.244
        48 -11.1501     50.5566    162.3340   1.3550815561e+02   3.5758542245e+01    0.3779311    0.3336323 -47.60 0.0009469237    1.361    0.265
        49 -10.1443    203.4043    150.3534   9.7687104486e+01   1.0096161660e+01    0.4791103    0.2064776 -39.56  0.001766272    2.302    0.566
        50  -9.5532    235.6232    161.7598   9.4099218611e+01   1.3950619423e+00    0.2653474    0.1716307  30.87   0.00127545    1.733    0.423
        51  -8.7408    119.0612    149.7382   1.1661936281e+02   2.8078618238e+01    0.2408765    0.2052193 -58.16 0.0005069075    1.139    0.122
        52 -12.2018     58.0229    157.3884   1.3304311294e+02   3.5992822654e+01    0.8459673    0.7694502  78.73  0.003628101    1.132    0.117
        53  -8.7509     53.5941     29.3814   1.0219083206e+02   6.2961617158e+01    0.3614357    0.1028181 -39.45  0.001453793    3.372    0.703
        54 -10.4417    112.8016     29.5508   8.4099895021e+01   5.2525588359e+01    0.2696176    0.2058293  33.76  0.001292504    1.207    0.171
        55 -10.2334    160.7354     28.3412   7.3741887525e+01   4.1632233715e+01    0.5711461     0.306585  43.37  0.002076515    1.947    0.486
        56  -9.5029    133.8839    147.2916   1.1246671246e+02   2.5723510300e+01    0.5328317    0.2071074 -56.08   0.00172055    2.986    0.665
        57  -9.5182    159.9191     22.9317   7.2300137009e+01   4.2447544778e+01    0.3972262    0.2630966 -78.90 0.0003495544    1.930    0.482
        58  -8.5938     57.1912     28.3711   1.0049157216e+02   6.2604042463e+01    0.1889247    0.1291331 -32.22 0.0009688234    1.412    0.292
        59  -9.6632    101.5988     25.7859   8.5635265333e+01   5.5278414766e+01    0.2197531    0.1585405 -32.05 0.0007891572    1.495    0.331
        60  -8.4526    171.1766     22.8468   7.0471571148e+01   3.9713986716e+01    0.2043649    0.1706144 -79.23 0.0006394733    1.230    0.187
        61  -8.4114    205.0077    163.0050   1.0017786396e+02   7.2962746677e+00    0.1785481    0.1656299 -28.92            0    1.059    0.056
        62  -9.3033    191.9032    193.1047   1.0904567422e+02   4.2332606909e+00    0.7780014    0.3911447 -65.38  0.001997879    7.130    0.860
        63 -10.6417     12.2330    194.0652   1.4685595861e+02   3.2747706827e+01    0.2708618    0.1516342 -70.77   0.00169359    1.495    0.331
        64 -11.9989      5.3288    176.0384   1.4673738776e+02   3.7235559142e+01     1.009043    0.5006912 -88.72  0.005761317    1.704    0.413
        65 -10.5461    214.6024    187.8370   1.0349076981e+02   8.0954222468e-01    0.5420052    0.2551058  45.87  0.001797896    2.142    0.533
        66 -10.5512    217.5422    182.4314   1.0182540270e+02   1.2031700729e+00    0.5798497    0.2491321  33.86  0.002167375    2.775    0.640
        67 -12.7533     23.7219    178.1686   1.4322080742e+02   3.5084107273e+01    0.8413689     0.642186 -86.64  0.003658786    1.015    0.015
        68 -11.1066    220.3415    176.6781   1.0009943316e+02   1.6882756260e+00     0.522884    0.4457578  57.25   0.00279183    1.363    0.266
        69 -11.7423    225.1155    171.9529   9.8203963040e+01   1.6096821435e+00     1.098989    0.5823926  53.70  0.004670658    2.298    0.565
        70  -8.9981    242.5301    173.9521   9.5444138646e+01  -1.9914735577e+00    0.2453194    0.1993386  62.80  0.001362461    1.628    0.386
