#   1 NUMBER                 Running object number                                     
#   2 MAG_AUTO               Kron-like elliptical aperture magnitude                    [mag]
#   3 X_IMAGE                Object position along x                                    [pixel]
#   4 Y_IMAGE                Object position along y                                    [pixel]
#   5 X_WORLD                Barycenter position along world x axis                     [deg]
#   6 Y_WORLD                Barycenter position along world y axis                     [deg]
#   7 A_WORLD                Profile RMS along major axis (world units)                 [deg]
#   8 B_WORLD                Profile RMS along minor axis (world units)                 [deg]
#   9 THETA_WORLD            Position angle (CCW/world-x)                               [deg]
#  10 FWHM_WORLD             FWHM assuming a gaussian core                              [deg]
#  11 ELONGATION             A_IMAGE/B_IMAGE                                           
#  12 ELLIPTICITY            1 - B_IMAGE/A_IMAGE                                       
         1 -15.0659    167.6759     45.8460   7.0528298382e+01   3.7353718717e+01     1.488788     1.167227   0.48  0.004007498    1.358    0.264
         2 -15.3122    188.7088     11.7790   5.5873144221e+01   3.5669884454e+01     3.179216     1.447231  63.82  0.008759202    2.033    0.508
         3 -14.0176    102.8266    240.2446   1.2185357998e+02   1.7832120145e+01    0.4688585    0.2099028 -56.67  0.003022555    2.891    0.654
         4 -19.7734     68.6319    161.9611   1.2045516013e+02   3.4853731434e+01     14.27751     5.861642 -69.39   0.07151338    2.531    0.605
         5 -12.0208     11.5231    205.9873   1.3416575080e+02   3.3189254559e+01     0.221239    0.1408391  46.70  0.001432795    1.443    0.307
         6 -12.7529    152.4270    193.9747   1.0832887131e+02   1.6824459453e+01     0.619006    0.4573128  11.37  0.003789176    1.872    0.466
         7 -13.0891    152.7260    184.9895   1.0696312402e+02   1.8080916965e+01    0.6223111    0.2992952  41.71  0.002425841    1.768    0.434
         8 -12.6610    125.0364    171.9578   1.1033023257e+02   2.4811807807e+01    0.3955393    0.3330532  50.58  0.001729131    1.044    0.042
         9 -11.7979    149.1293    179.7441   1.0684063937e+02   1.9489428116e+01    0.2514739    0.2127298  82.49 0.0007160582    1.401    0.286
        10 -14.8470    141.9542    171.9722   1.0700973545e+02   2.1950203432e+01     1.421735    0.7319219  45.42  0.006468691    1.677    0.404
        11  -9.8989    120.6855    196.9218   1.1449073403e+02   2.1481355356e+01    0.1466128    0.1185696  60.60 0.0004414495    1.087    0.080
        12 -10.9372    112.9997    195.8130   1.1576134491e+02   2.2815290532e+01    0.3454781     0.254007  -3.29  0.001975452    2.800    0.643
        13 -10.4280    111.3060    191.6642   1.1558274035e+02   2.3726935948e+01    0.4816094    0.2014311  56.76  0.001749436    2.674    0.626
        14 -11.9464    169.2517    193.7723   1.0527632276e+02   1.3998830913e+01    0.1868329    0.1544651 -44.59  0.001195879    1.502    0.334
        15 -10.2969    134.9679    241.1929   1.1688019380e+02   1.3277881190e+01    0.1136792   0.09068611  40.65 0.0002369969    1.206    0.171
        16 -11.2658    125.2468    237.9645   1.1811042758e+02   1.5060076481e+01    0.1793877    0.1147496 -57.94   0.00131709    2.062    0.515
        17  -9.9506    136.5838    185.4597   1.1004788711e+02   2.0727769719e+01    0.1191955    0.1006967  50.36 8.534367e-05    1.012    0.011
        18 -11.1273    160.5467    237.6863   1.1245514216e+02   9.9356472656e+00    0.2598957    0.1658287  63.65  0.001474361    1.917    0.478
        19 -11.9636     29.7764    183.4165   1.2985457530e+02   3.5266753907e+01    0.2368513    0.1354348  52.81  0.001199888    1.447    0.309
        20 -10.5690     25.7579    184.7806   1.3065945998e+02   3.5416007418e+01   0.07688146   0.06832099 -88.22            0    1.365    0.267
        21 -10.1275    150.7639    239.4681   1.1420383680e+02   1.1186827052e+01    0.1332355   0.07793111  38.69 0.0002677343    1.374    0.272
        22  -9.8913    135.6754    237.2130   1.1637355377e+02   1.3663837665e+01    0.1030006   0.05996847  55.65 0.0003014779    1.495    0.331
        23 -13.3232    189.0404    177.2855   9.9060641437e+01   1.2699224809e+01    0.5674034    0.3990834 -51.55  0.002683334    1.949    0.487
        24 -11.6660    185.5102    169.0005   9.8233576981e+01   1.4479913247e+01    0.2618096    0.2427302 -41.72 0.0009930738    1.315    0.240
        25 -11.9556      4.2418    178.6039   1.3411255510e+02   3.8376651314e+01    0.1996113    0.1442119  66.82  0.001085558    1.108    0.097
        26 -12.4033    169.4746    178.1622   1.0277825011e+02   1.6131548314e+01    0.4218304    0.1444252  51.74  0.001602739    3.176    0.685
        27 -11.7431    203.5897    174.3484   9.5958932038e+01   1.0407555253e+01    0.3700203    0.2009268 -52.02  0.001671447    3.256    0.693
        28 -11.9415    195.4295    172.7795   9.7119169376e+01   1.2118404032e+01    0.3282744    0.2680892 -49.45  0.001385342    1.614    0.381
        29 -11.6930    225.3350    176.7037   9.2679146144e+01   6.1721899646e+00    0.2030359    0.1477719 -35.73  0.001242193    1.703    0.413
        30 -10.8162     11.1701    174.2627   1.3265271641e+02   3.8567717804e+01     0.129402   0.09971984  87.69 0.0006133383    1.156    0.135
        31 -11.1482    207.6911    171.5781   9.4736324217e+01   9.9977159065e+00    0.3273626    0.1953676 -49.76  0.001502643    2.579    0.612
        32  -9.7836     28.4079    235.0618   1.3287829010e+02   2.7184234723e+01    0.1056415   0.07200848 -81.67 0.0009364837    1.534    0.348
        33 -11.1764     35.9822    168.4135   1.2761007088e+02   3.7337445595e+01    0.1986338    0.1285481 -89.13 0.0007425139    1.326    0.246
        34 -11.8608    230.2704    167.0448   9.0045912788e+01   6.3765730726e+00    0.2759276    0.1375811 -41.97  0.001296642    2.776    0.640
        35 -11.6291    140.1353    163.1212   1.0593712641e+02   2.3716721714e+01     0.235848    0.1860577  60.54 0.0003705074    1.254    0.203
        36 -10.6352     13.3234    163.1244   1.3159102549e+02   4.0396403012e+01    0.1391577    0.1126422  80.73 0.0003259375    1.130    0.115
        37 -10.4487     98.3093    248.0490   1.2316613390e+02   1.7407250470e+01    0.1428768   0.08752292  52.68 0.0004009823    1.159    0.137
        38 -10.9373     97.0238    240.0921   1.2274826313e+02   1.8612926528e+01    0.2557928     0.139282 -61.87  0.001290345    2.305    0.566
        39 -12.1461    188.6804    154.4027   9.4888100484e+01   1.5937364884e+01    0.5303665    0.3538693  47.89  0.002591698    1.389    0.280
        40 -10.0210    177.9771    156.2259   9.7264641658e+01   1.7759526560e+01    0.1837612    0.1505079  39.88 0.0003148853    1.074    0.069
        41 -10.2877    126.1450    227.8046   1.1696840826e+02   1.6248133234e+01    0.1561477    0.1103069  56.80 0.0007531153    1.183    0.155
        42 -12.5104    164.2612    152.2397   9.9168907311e+01   2.1029320973e+01    0.3306441    0.2749528  49.34 0.0008907962    1.131    0.116
        43 -11.2053    174.4624    148.9923   9.6529074727e+01   1.9546959020e+01     0.255585    0.2119519  55.13 0.0006265639    1.245    0.197
        44 -10.3160    127.6281    223.3012   1.1625715951e+02   1.6633809671e+01    0.1062501    0.1033553 -73.20 0.0002812527    1.360    0.265
        45 -12.6167    160.5712    127.7035   9.4869297256e+01   2.5810576910e+01    0.4444322    0.3622489 -76.80  0.001377419    1.621    0.383
        46 -10.9407    231.2696    113.6968   7.8365355347e+01   1.2706372920e+01     0.259674    0.2111604  20.06 0.0007933164    1.121    0.108
        47 -11.3453    168.1375    113.1321   8.9899778221e+01   2.6666064398e+01    0.3766883    0.2931553 -82.65  0.001409222    1.879    0.468
        48 -14.1505    117.7041    110.3169   1.0063728568e+02   3.7443376116e+01    0.8928859    0.5820833  54.13  0.004455675    1.618    0.382
        49 -10.9972    205.2578    110.1926   8.1960579695e+01   1.8870850040e+01    0.3515129    0.2113778  38.97  0.001131745    1.599    0.375
        50 -12.9722     18.0985    108.8451   1.2593934423e+02   5.0685056855e+01    0.3877896    0.2193344   8.78  0.002217837    2.985    0.665
        51 -11.4965    218.1856    220.6192   1.0105569097e+02   2.7663066540e+00    0.2728138    0.1396994 -41.55  0.001575073    2.889    0.654
        52 -12.1329      6.9936    102.4755   1.2809470274e+02   5.2797268362e+01      0.29533    0.1936912 -88.33 0.0009105846    1.261    0.207
        53 -11.2133     22.8317    219.9456   1.3302904965e+02   2.9967555826e+01    0.1826467    0.1010193 -70.12  0.001426068    1.963    0.491
        54 -10.7078    146.6500     81.9882   8.6350009442e+01   3.6798495606e+01    0.2098324    0.1901986 -24.64 0.0004982296    1.100    0.091
        55  -7.3675     23.5655    215.3614   1.3269878084e+02   3.0603144117e+01   0.09047429   0.06578892  66.24 0.0004223075    1.078    0.073
        56 -10.5090    119.4946    212.4366   1.1647839407e+02   1.9346308442e+01    0.1114239    0.0856416  53.42 8.360481e-05    1.017    0.017
        57 -11.4450     95.8966     80.0218   9.8790419632e+01   4.7354092619e+01    0.3303267     0.190346  46.10 0.0004519269    1.857    0.462
        58 -10.9937    113.3335    207.7745   1.1704696807e+02   2.0933512973e+01    0.1829285    0.1423989  65.99 0.0006449668    1.172    0.146
        59 -14.5339    155.5195     60.0163   7.7636131261e+01   3.8344058211e+01     1.374173     1.127153  32.70 0.0009616891    1.212    0.175
        60 -10.5992    163.4974    249.0641   1.1323240190e+02   8.2452033594e+00    0.1172239    0.1053188 -38.27 0.0007342818    1.571    0.363
        61 -13.1724    172.3551     37.7268   6.6967554144e+01   3.7198097422e+01    0.4594286    0.4042664  16.08 0.0008649428    1.126    0.112
        62 -10.8915     13.7058     60.0335   1.2004159327e+02   6.1274051867e+01    0.1978816    0.1596988  78.52  0.000700696    1.396    0.284
