#   1 NUMBER                 Running object number                                     
#   2 MAG_AUTO               Kron-like elliptical aperture magnitude                    [mag]
#   3 X_IMAGE                Object position along x                                    [pixel]
#   4 Y_IMAGE                Object position along y                                    [pixel]
#   5 X_WORLD                Barycenter position along world x axis                     [deg]
#   6 Y_WORLD                Barycenter position along world y axis                     [deg]
#   7 A_WORLD                Profile RMS along major axis (world units)                 [deg]
#   8 B_WORLD                Profile RMS along minor axis (world units)                 [deg]
#   9 THETA_WORLD            Position angle (CCW/world-x)                               [deg]
#  10 FWHM_WORLD             FWHM assuming a gaussian core                              [deg]
#  11 ELONGATION             A_IMAGE/B_IMAGE                                           
#  12 ELLIPTICITY            1 - B_IMAGE/A_IMAGE                                       
         1 -12.3539    215.8828     25.3803   4.0204736491e+01   2.7559706307e+01      1.01965    0.7617223  34.76  0.005727696    1.743    0.426
         2 -12.6172    202.9721     37.7997   4.4775180206e+01   2.9102442162e+01     1.207784    0.9775443  46.25  0.006333121    1.419    0.296
         3 -10.6184    240.9440      2.5955   3.2938194645e+01   2.4441756786e+01    0.6336886    0.2780797  81.31  0.003193805    2.413    0.585
         4 -10.8365    151.5357    226.2269   9.4834689789e+01   9.3082220839e+00    0.3472607    0.2023284  31.51  0.002081002    1.368    0.269
         5 -13.6689     85.5572    223.5032   1.0793403252e+02   1.8832809734e+01     6.475916    0.6782152  38.87    0.0135224    4.497    0.778
         6 -14.6027      5.3376    172.1347   1.2272811454e+02   3.7855914257e+01     12.95707     1.047844 -81.96   0.02818952   12.200    0.918
         7  -8.2859    109.6579    201.2340   1.0038508986e+02   1.9418740103e+01    0.1514397    0.1167221 -46.32 0.0003089238    1.572    0.364
         8  -9.3580     62.0438    199.8508   1.1102316148e+02   2.6191279847e+01    0.2402199    0.1675475 -67.76 0.0005693359    1.616    0.381
         9  -7.5405     73.6578    199.2857   1.0830998924e+02   2.4823829652e+01    0.1334717   0.07609697  56.18 0.0007018278    1.641    0.390
        10  -9.0435    192.9988    193.8487   8.2195931177e+01   7.7629680404e+00    0.2821775    0.1674127 -62.02  0.001086452    5.277    0.810
        11 -13.3108      9.3117    207.1779   1.2313345041e+02   3.0329089771e+01     1.322989     0.963323  -8.70  0.003868036    2.329    0.571
        12  -7.7818     99.5276    180.5197   1.0006291458e+02   2.4886474389e+01    0.1336329     0.116146  46.67 0.0003196454    1.005    0.005
        13 -10.2918     65.1986    176.7368   1.0807135448e+02   3.0557570288e+01    0.3950487    0.2700231 -33.39  0.001780309    2.207    0.547
        14 -10.3300     70.2183    171.3986   1.0620377721e+02   3.1046775409e+01    0.3179443    0.2793896  14.34 0.0008135303    1.369    0.270
        15  -9.4331     40.3671    177.7753   1.1439385084e+02   3.3315164887e+01    0.2196622    0.1928405 -45.73 0.0006147947    1.481    0.325
        16 -11.0468     85.9825    155.5608   9.9951340113e+01   3.2276124529e+01    0.8277301    0.6093639 -58.29  0.001530418    1.447    0.309
        17 -11.1783     79.1744    161.7684   1.0265595803e+02   3.1909693719e+01    0.9211078    0.4143745  52.30 0.0005621507    2.330    0.571
        18 -11.8486     67.2151    157.6304   1.0532137358e+02   3.4532058009e+01    0.6063806    0.4662153 -16.43  0.001496702    1.906    0.475
        19 -12.2326     68.6858    144.6757   1.0314442916e+02   3.7340024754e+01     1.492433    0.7240651  65.66  0.005553164    3.050    0.672
        20  -8.7693    134.0000    145.9810   8.5894819761e+01   2.6035450625e+01    0.3784581   0.08278651 -48.41  0.001044552    4.873    0.795
        21  -8.6048    102.2823    139.3263   9.2767464466e+01   3.3249174360e+01    0.2561431    0.2008142 -36.72 0.0009357228    1.484    0.326
        22 -10.4399     88.0726    140.3151   9.6903882823e+01   3.5420184068e+01    0.2758858    0.2597516 -28.22 0.0004238915    1.229    0.186
        23  -8.5848     99.4831    141.4958   9.3937382557e+01   3.3246111582e+01    0.2652313      0.23926  43.72  0.000832314    1.066    0.062
        24 -10.5480     23.4785    154.5808   1.1704114573e+02   4.0255813482e+01    0.4335698    0.1661466 -63.09  0.001944316    2.537    0.606
        25  -8.9305     33.2918    156.1977   1.1447907350e+02   3.8923066220e+01    0.2202287    0.1698844  49.38  0.001125797    1.169    0.144
        26 -10.3255     57.5079    127.4523   1.0392182320e+02   4.3029011749e+01    0.3319885    0.2196414 -72.51  0.001664747    1.482    0.325
        27 -14.7618      8.3876    240.3982   1.2430282049e+02   2.4420899371e+01     2.894428     2.633201  83.91   0.02559123    1.440    0.305
        28  -8.4151    105.8665    131.1404   9.0168801765e+01   3.4449917737e+01    0.2375842    0.1968877  72.75 0.0007759795    1.314    0.239
        29  -8.5375    110.5031    130.5110   8.8764030283e+01   3.3735646261e+01    0.2540807    0.1416012  28.61 0.0006625551    2.159    0.537
        30  -9.0079     97.8467    126.6867   9.1519464893e+01   3.6912483935e+01    0.3081186    0.2383327   6.57  0.001040055    1.744    0.427
        31  -8.4474     54.6470    120.3016   1.0370538289e+02   4.5174274506e+01    0.1518407   0.09713409  63.58 0.0007038693    1.702    0.412
        32  -8.0207    107.1486    119.4570   8.7292265355e+01   3.6849312160e+01    0.2092493    0.1443975  40.10 0.0003496387    1.421    0.296
        33 -12.5874     39.8807    202.1736   1.1622412741e+02   2.8305305737e+01     1.050714    0.6391206  74.97  0.002528123    1.569    0.363
        34 -10.1597     18.9283    111.8017   1.1465580029e+02   5.1049286455e+01    0.2443604    0.1738338 -80.56  0.001013469    1.240    0.194
        35  -8.1055    205.6827    109.9746   6.3020063729e+01   1.8170199924e+01     0.196069    0.1682026 -28.14 0.0006072563    1.080    0.074
        36  -8.6502    246.6661    108.6638   5.6780302338e+01   1.0745718353e+01    0.1285461   0.08783236   4.96  0.000705206    1.741    0.426
        37  -7.9715     41.9675    103.4835   1.0528170830e+02   5.0946206470e+01    0.2095899   0.09153559  50.49 0.0008102134    2.588    0.614
        38 -13.2509     49.3623    192.6572   1.1337844066e+02   2.9157644459e+01     2.178559     1.151738  65.32  0.009858467    1.877    0.467
        39  -8.0498     41.3477     91.7127   1.0336041715e+02   5.3994979444e+01    0.1455057   0.09886247  63.73 0.0007022619    1.656    0.396
        40  -8.1695    112.3159     81.6553   7.5779458809e+01   4.4118681364e+01    0.1604453    0.1229022 -85.03 0.0007048154    1.716    0.417
        41 -13.5904     43.0650    249.8378   1.1815940746e+02   1.9457511225e+01     4.710111     1.121693  26.02   0.01249818   10.143    0.901
        42  -8.7437     51.2699     64.0264   9.2315787688e+01   5.9529542497e+01    0.2604379    0.2042766  45.68 0.0008556636    1.373    0.271
        43 -10.4714     13.3610     59.7289   1.0935362148e+02   6.4521292293e+01    0.3923773    0.1949061 -72.41  0.001781431    1.812    0.448
        44 -10.9037    191.0126     52.5345   5.0352351013e+01   3.0033291404e+01    0.4321718    0.3175087 -33.78  0.001948576    1.287    0.223
        45  -9.9021     59.7921    231.9500   1.1389960205e+02   2.0556600734e+01    0.2260009    0.1621456  60.68 0.0004353877    1.213    0.176
        46 -11.5268    194.1908     44.2968   4.7609231010e+01   3.0374136501e+01    0.4936254    0.4485385  86.71  0.001457914    1.119    0.106
        47 -12.4983     23.8024    225.5706   1.2083728653e+02   2.5549904946e+01     1.480519    0.4212041  59.66  0.005792447    3.121    0.680
        48  -9.0899    138.6995     44.6436   5.6696969316e+01   4.4417659950e+01     0.324243    0.2507108 -76.30   0.00043043    1.480    0.324
        49  -8.3374    142.6790     40.0231   5.4276375267e+01   4.4059110498e+01    0.2044633    0.1920692 -47.05 0.0003959586    1.071    0.067
        50 -12.1483     58.4038    242.4706   1.1483191956e+02   1.8960116528e+01    0.6562151    0.3473853  44.31 0.0009245815    1.352    0.260
