#   1 NUMBER                 Running object number                                     
#   2 MAG_AUTO               Kron-like elliptical aperture magnitude                    [mag]
#   3 X_IMAGE                Object position along x                                    [pixel]
#   4 Y_IMAGE                Object position along y                                    [pixel]
#   5 X_WORLD                Barycenter position along world x axis                     [deg]
#   6 Y_WORLD                Barycenter position along world y axis                     [deg]
#   7 A_WORLD                Profile RMS along major axis (world units)                 [deg]
#   8 B_WORLD                Profile RMS along minor axis (world units)                 [deg]
#   9 THETA_WORLD            Position angle (CCW/world-x)                               [deg]
#  10 FWHM_WORLD             FWHM assuming a gaussian core                              [deg]
#  11 ELONGATION             A_IMAGE/B_IMAGE                                           
#  12 ELLIPTICITY            1 - B_IMAGE/A_IMAGE                                       
         1 -12.5681    103.2507     81.0315   5.9822523730e+01   4.6412662948e+01     2.120909     0.808171 -42.40   0.00733282    2.775    0.640
         2 -11.7666     54.2872     34.6534   6.1505699375e+01   6.3772747400e+01    0.5622593    0.2667858 -42.29  0.001375735    2.515    0.602
         3 -10.6851     45.6155     29.6885   6.3407562228e+01   6.5967890682e+01    0.8663474    0.5067494  13.54  0.004043732    1.920    0.479
         4 -11.3420     16.4030     25.3458   7.7896772359e+01   7.0572697297e+01    0.9295672    0.5389605  23.89  0.005252955    1.583    0.368
         5 -10.7635      7.4322     21.4687   8.2157434260e+01   7.2061523944e+01     0.390604    0.2521324 -25.42   0.00170777    1.293    0.227
         6 -10.9105     28.8412     18.3148   6.7010930574e+01   7.0148791867e+01    0.5788057     0.396144  -4.39   0.00347162    1.360    0.265
         7 -12.4757     15.2984     13.9808   7.3296735022e+01   7.2493192775e+01    0.7910243    0.3013866  21.06  0.001202447    2.559    0.609
         8 -10.3972     24.5483     13.1560   6.6965191078e+01   7.1457914524e+01    0.2711523    0.1888451 -12.76 0.0004435906    1.328    0.247
         9 -11.0329     15.4125      3.3382   6.7516872722e+01   7.3956716448e+01    0.8775852     0.480718  46.83  0.004261735    3.204    0.688
        10 -11.4032     36.5556      2.4614   5.4543693093e+01   7.0863195161e+01    0.7366789    0.2618964  41.93  0.003386029    2.230    0.552
        11 -11.6933     30.5977     29.9104   7.1382712624e+01   6.8157474339e+01    0.6562188    0.3185279 -44.81  0.001560552    2.316    0.568
        12 -10.8477     34.8487     27.3336   6.7887167343e+01   6.7974228034e+01    0.4346687    0.3318608  -5.10  0.001190207    1.160    0.138
        13 -11.3110     32.2969      8.4270   5.9997765765e+01   7.0915035599e+01    0.7840744    0.4832687  49.49  0.004282968    2.094    0.523
        14  -9.8595     39.6821      9.1078   5.6500422141e+01   6.9616771998e+01    0.2409918    0.1685367  14.43 0.0003826432    1.273    0.215
        15 -10.4176      8.3038      8.9124   7.5580668192e+01   7.3992691675e+01    0.2409305     0.165316 -15.68 0.0003918172    1.212    0.175
        16 -11.9510      3.9295      4.0431   7.6258951574e+01   7.5135673297e+01    0.5206315    0.3708834  13.18  0.003555323    1.228    0.185
        17 -10.3071    221.3142     15.5419   2.2959442454e+01   2.9652414889e+01    0.2242586    0.1551909 -60.96 0.0001692752    1.192    0.161
        18 -11.8777    239.4731     19.1643   2.2414140932e+01   2.5964322400e+01    0.6321115    0.4826354 -61.67  0.002572755    1.046    0.044
        19 -10.3479    223.4190     21.8991   2.4029603014e+01   2.8595529622e+01    0.3868927    0.2354636 -64.52   0.00179555    1.436    0.303
        20 -10.7974    226.8730     17.8943   2.3019039482e+01   2.8371269709e+01    0.3604004    0.2614938  41.18  0.002176752    2.135    0.532
        21 -10.5134    179.4610     21.7194   2.7907440984e+01   3.7539767311e+01    0.3975458    0.2538522 -71.71  0.002111112    1.568    0.362
        22 -11.3977    132.0033     29.6558   3.6689787853e+01   4.7532049522e+01    0.3240471    0.2721575 -35.28            0    1.350    0.259
        23 -10.8717     40.6736     16.4649   5.9703503673e+01   6.8576802562e+01    0.6980392    0.3171614  32.15  0.003339261    1.936    0.484
        24  -8.7149     72.0772      7.9305   4.3099780641e+01   6.3390432117e+01    0.3675866    0.2301699  87.42  0.001651603    3.115    0.679
        25 -10.4237     75.0489     20.2224   4.7348004016e+01   6.1551360898e+01     0.383972    0.2395924 -36.23  0.001182819    1.929    0.482
        26 -10.0055     76.0556     13.3932   4.4187072530e+01   6.2030935336e+01    0.3200063    0.2534614   7.17  0.001504207    1.371    0.270
        27 -11.3176    100.4689     15.8005   3.8607334034e+01   5.6322971804e+01     1.032144    0.5001804  57.82  0.005013554    1.671    0.401
        28 -10.8972     92.1523      9.8227   3.8365373230e+01   5.8767897375e+01    0.9351963    0.3200397  56.28  0.003996457    2.197    0.545
        29 -11.2086     89.1260      3.2760   3.6583287949e+01   5.9987574947e+01    0.4712393    0.2807863  69.61  0.001201503    1.587    0.370
        30 -11.7869    111.0250     19.0306   3.7412850185e+01   5.3560727133e+01    0.4319957    0.2705344  46.87  0.001958353    1.427    0.299
        31 -11.0431     66.4997     22.3221   5.1223007860e+01   6.3088328854e+01    0.4914261    0.3408279  27.29  0.001546588    1.315    0.240
        32  -9.8749     51.2711     22.8038   5.7666718703e+01   6.5940425935e+01    0.3632131    0.2128523 -33.40  0.001364787    1.920    0.479
        33 -11.7911     55.5804     19.3379   5.4211558952e+01   6.5572819769e+01    0.3638434    0.2681338   0.34  0.001281245    1.399    0.285
        34 -11.3985     58.8611     12.5912   4.9783445574e+01   6.5683489739e+01    0.6761969     0.292364  44.81  0.002990341    1.840    0.457
        35 -10.2932    164.6130     22.1615   2.9715268969e+01   4.0782377079e+01    0.3630628    0.2502229  36.98  0.002082181    1.877    0.467
        36 -11.7012     45.9831      9.1994   5.3553597837e+01   6.8491017493e+01    0.2847413    0.2152094  14.68 0.0003164964    1.179    0.152
        37 -10.9844    193.1380     17.4435   2.5596992921e+01   3.5063323289e+01    0.2840534     0.239665  58.59  0.001157473    1.365    0.267
        38 -10.1592     86.8971     16.6832   4.2356383869e+01   5.9327348925e+01    0.6636677    0.3222765 -52.49  0.002626991    3.840    0.740
        39 -10.7462     81.1472     19.5243   4.5139249106e+01   6.0311683429e+01     0.317564     0.218415 -33.34 -0.000117067    1.723    0.420
        40 -11.3028    151.6916     17.6657   3.0198348699e+01   4.4175489234e+01    0.6001438    0.3091987  49.87  0.002398302    1.965    0.491
        41 -10.0263    149.1781     12.0362   2.9013654739e+01   4.5281775649e+01    0.2303472    0.1655019  64.14 -0.0006383859    1.217    0.178
        42 -10.2214    156.6182      9.8250   2.7523814815e+01   4.3777588445e+01    0.2604936     0.169271 -42.09  0.000838762    1.633    0.387
        43 -10.4654    153.1919      9.7845   2.7916937369e+01   4.4562333925e+01    0.2684165    0.1932896  88.17 0.0003015778    1.246    0.197
        44  -9.1601    176.4047     12.2793   2.6010786824e+01   3.9140603875e+01    0.2634727    0.1791535 -47.65 0.0002281184    1.458    0.314
        45  -9.9760    189.1107      8.1320   2.3914457044e+01   3.6809917695e+01    0.4985509    0.3351635 -78.10  0.003259977    1.314    0.239
        46 -12.5087    187.1112     13.6811   2.5314688738e+01   3.6703641759e+01    0.2610933     0.199301 -85.09 0.0003774433    1.112    0.101
        47 -12.1710    181.9516     12.3275   2.5487391319e+01   3.7935270528e+01    0.3389031    0.3305876  29.29  0.001675183    1.353    0.261
        48 -10.0438    116.7783      8.7534   3.2908112775e+01   5.3136463077e+01    0.2623547    0.1835947  89.49 0.0006487571    1.526    0.345
        49 -10.2752    131.3387     13.3282   3.1910900062e+01   4.9319480272e+01    0.3075651    0.2009455  73.06 0.0009592092    1.337    0.252
        50 -10.1540    136.6890      1.6987   2.7756858665e+01   4.9041577785e+01    0.5444821    0.1605829  68.42  0.002247686    2.644    0.622
        51 -11.8646    123.1981     11.1470   3.2566132719e+01   5.1424677214e+01     0.578151    0.2452013  52.57  0.001991538    1.993    0.498
        52 -12.0463    128.1495      4.5672   2.9771453288e+01   5.0808324785e+01    0.4449754    0.3412988  75.96  0.001442796    1.106    0.096
        53  -9.7927    143.3427     12.4290   2.9893358054e+01   4.6596252792e+01    0.3220255    0.2664042 -13.24  0.001358232    1.535    0.349
        54  -9.2798    200.7612     11.4258   2.3668614436e+01   3.4091092300e+01    0.2896991    0.1156906 -39.92  0.001482649    2.250    0.556
        55 -11.3671    208.8334     10.2704   2.2818921391e+01   3.2588110670e+01    0.5113956    0.3462583  42.10  0.001132167    2.192    0.544
        56 -11.1555    216.0700      7.8154   2.1829294352e+01   3.1416572203e+01     0.249823    0.2240754 -55.89 0.0003873277    1.273    0.214
        57 -10.5983    218.2943      2.9708   2.0757096718e+01   3.1450335149e+01    0.2386193    0.1769784 -69.53 0.0008061219    1.060    0.056
        58 -10.3079    104.8137      7.4918   3.4731136248e+01   5.6040036297e+01    0.3192197    0.1756067  50.61 0.0003937338    1.512    0.339
        59 -10.4126    105.8415      2.4423   3.2781150665e+01   5.6193836125e+01    0.8054329    0.4196726 -73.24  0.003390747    3.387    0.705
        60  -9.7723    238.2979      6.9345   2.0307423612e+01   2.7405954585e+01    0.2796041    0.1340848 -62.99  0.001175788    1.779    0.438
        61 -10.9569    168.1617      5.7957   2.5283374422e+01   4.1543259628e+01    0.3835287    0.3152483   4.54  0.001934796    1.728    0.421
        62  -9.2744    247.0286     13.7951   2.1012037209e+01   2.5208447793e+01    0.1739762    0.1211049 -48.44 0.0006511536    1.241    0.194
        63  -8.9821    225.2267      6.9748   2.1081887532e+01   2.9768366915e+01    0.1840927   0.08041023 -56.72 0.0008986892    1.960    0.490
        64  -8.6256    179.0227      6.7189   2.4475993231e+01   3.9086981000e+01    0.1557487    0.1226018 -88.01 0.0001936147    1.048    0.046
        65  -9.6930    176.0295      3.1172   2.3915876463e+01   4.0052968714e+01    0.2170678    0.1471794 -41.10 0.0005958567    1.538    0.350
        66 -10.0740     78.5743      5.8254   4.0298913548e+01   6.2153510778e+01    0.4554653    0.2345154  47.58  0.002376861    1.529    0.346
        67  -8.6887    248.5457      5.7847   1.9560651626e+01   2.5746555501e+01    0.1465775   0.08009602 -42.75  0.000752031    1.553    0.356
        68  -9.5594    246.2821      1.8988   1.9016892841e+01   2.6504600314e+01    0.1984022    0.1386241  89.51  0.001116695    1.302    0.232
        69  -8.8978    242.3094      1.3098   1.9115020067e+01   2.7243565193e+01    0.1698213    0.0790556  80.80 0.0007218185    2.007    0.502
        70  -9.5211    204.7806      3.2533   2.1695505574e+01   3.4054200129e+01    0.2874528    0.1620098  51.39   0.00110743    2.262    0.558
        71 -10.3765    199.4336      4.7450   2.2381777230e+01   3.4992144985e+01    0.3873518    0.2014725 -72.84  0.002240103    1.853    0.460
        72  -8.8221    185.5120      4.6536   2.3450175596e+01   3.7886308709e+01    0.1878032   0.09198173  77.70 0.0008395997    1.779    0.438
        73  -9.2453    153.6064      3.2823   2.6171459615e+01   4.5024338787e+01     0.249255    0.1413218  51.79  0.001396477    1.780    0.438
        74  -9.9679     48.8613      2.9238   4.9131428146e+01   6.8573506310e+01    0.2753707    0.2286783  71.05  0.001069614    1.730    0.422
        75  -8.0800     23.3313      4.2830   6.2932038558e+01   7.2765468940e+01    0.1264213   0.07492945  11.12 0.0002803721    1.611    0.379
        76  -9.7018    118.7894      1.6158   3.0285124308e+01   5.3227560310e+01    0.5169318    0.1705161  75.15  0.001931672    3.271    0.694
        77  -9.1602     64.1957      1.8133   4.2895318099e+01   6.5580910458e+01    0.1789806    0.1559701  50.74  0.001207288    1.191    0.161
        78  -8.7752    237.9487      1.4717   1.9367040400e+01   2.7990648438e+01    0.1439666   0.08420052  85.40 0.0004515386    1.543    0.352
        79  -9.1492    229.9649      2.0506   1.9901068029e+01   2.9366191064e+01    0.1547123    0.1165303 -70.13 0.0003244092    1.002    0.002
        80  -9.7335     25.6813    106.9883   9.6303720335e+01   5.2073384847e+01    0.2538671    0.2194034  13.61 0.0004100935    1.210    0.174
        81  -8.1742     74.6348    111.6898   7.8207526639e+01   4.5065776169e+01    0.1657972    0.1137111 -13.70  0.000703866    1.755    0.430
        82 -10.6551     35.0443    106.7669   9.2450589505e+01   5.1315614986e+01    0.6406471     0.298869 -69.01 0.0009937664    2.421    0.587
        83 -10.2713    120.2269    107.8887   6.2355756728e+01   3.7531135095e+01    0.3255278    0.2289494  38.50 0.0002620263    1.379    0.275
        84  -8.8400    101.7907    108.5823   6.8112158417e+01   4.1027657392e+01    0.3219995    0.1472795  32.46  0.001153678    2.275    0.561
        85  -8.5753    152.2115    106.4061   5.3773839054e+01   3.1166979859e+01    0.1898845    0.1399576  57.11 0.0002630486    1.486    0.327
        86  -9.3679    127.0973    105.8704   5.9908854195e+01   3.6533587690e+01    0.2203511    0.2065275  88.24 -0.0006383859    1.245    0.197
        87  -8.8954     58.0008    106.5184   8.3215001105e+01   4.8741937120e+01    0.2194479    0.1419192  27.82  0.000666138    1.523    0.343
        88  -9.6145     55.5647    102.1361   8.3115913735e+01   5.0124905326e+01     0.499919    0.2899013  50.75  0.002029604    2.369    0.578
        89 -10.0569    131.6240    104.5941   5.8361396368e+01   3.5845810149e+01    0.3467403    0.1819811  38.34  0.001172832    1.928    0.481
        90 -11.7976     80.8376    103.1650   7.3774531346e+01   4.6041618359e+01    0.3377506    0.2747782  13.01 0.0003869553    1.212    0.175
        91  -9.1174      1.8594    104.7746   1.0559458394e+02   5.4042725813e+01    0.1984468    0.1569947 -39.66 0.0005670259    1.136    0.120
        92 -11.3893    108.0265    103.1472   6.4697157801e+01   4.0988840304e+01    0.3275753     0.259175  32.95  0.001607141    1.213    0.176
        93 -10.0755    112.5055    101.4540   6.2878396049e+01   4.0443393091e+01    0.2447428    0.1931004  45.05 0.0005054559    1.271    0.213
        94  -9.9949     61.8710    102.1826   8.0638215601e+01   4.9247354411e+01    0.2799503    0.2487753  -6.74 0.0003595857    1.047    0.045
        95 -10.4381     61.6656     96.8777   7.9349982105e+01   5.0523452103e+01    0.4896519    0.3555742 -68.39  0.001283725    1.763    0.433
        96 -10.2644    120.9661    101.7725   6.0510826196e+01   3.8639318942e+01     0.456558    0.2463923 -45.45 0.0003249608    1.933    0.483
        97 -10.4224    117.5379     98.3903   6.0563036693e+01   4.0035793115e+01    0.3447457    0.2748711 -50.99  0.001706312    1.378    0.274
        98 -10.4089    121.7412     94.6160   5.8331740672e+01   3.9902014725e+01    0.4413567    0.3049028  -9.66    0.0010998    2.023    0.506
        99  -8.7127     93.7604    102.4017   6.9078541654e+01   4.3903933132e+01    0.2244595     0.142143  25.12 0.0007222664    1.661    0.398
       100  -8.2273     83.5178    249.4585   9.7619963555e+01   1.1472407979e+01    0.1289993    0.1081211  23.51 0.0001693099    1.042    0.040
       101 -12.0464    111.0260     65.8210   5.2815103066e+01   4.7436148744e+01    0.2913784    0.2806455  55.93 0.0003224917    1.108    0.097
       102 -10.4098    109.1318     60.6355   5.1700296264e+01   4.8693663993e+01    0.4406414    0.2315108 -31.77  0.001889025    2.157    0.536
       103 -12.1229    101.6531     97.9148   6.5250765327e+01   4.3355872993e+01    0.4361862    0.2852151  28.55 0.0002527508    1.564    0.361
       104  -9.8708     97.7003     95.4499   6.5835374484e+01   4.4647919770e+01    0.3400977    0.2659283   0.54 0.0009838614    1.442    0.307
       105  -9.6904     68.0612     99.3244   7.7499921049e+01   4.8999523262e+01    0.2179531    0.1897189  15.91 0.0005573925    1.095    0.087
       106  -8.5946     20.8544     92.1167   9.5512778429e+01   5.6130538372e+01    0.1915195    0.1648202 -30.22 0.0004522515    1.023    0.022
       107 -10.0416     26.8024     96.9879   9.3912536728e+01   5.4476199072e+01    0.3728977     0.252222  -7.99  0.001014026    1.524    0.344
       108  -8.8946     22.7786     95.8008   9.5406117835e+01   5.5085744647e+01    0.2430718    0.1720672  87.87  0.001203111    1.873    0.466
       109 -10.1452     16.8307     96.5340   9.8106199858e+01   5.5320934538e+01    0.4044922    0.2443016 -76.31 0.0006270391    1.838    0.456
       110  -9.0322     51.1973     97.1786   8.3659136432e+01   5.1875794498e+01    0.2186626    0.1814777 -21.40 0.0004041243    1.131    0.116
       111  -9.4344    144.7204     95.9621   5.2827786041e+01   3.4713682835e+01    0.2073581    0.1911446 -31.07  0.001142864    1.100    0.091
       112  -9.1751     35.5223     95.3103   8.9808414055e+01   5.4095752819e+01    0.2342661    0.2022916 -88.05 0.0006180225    1.447    0.309
       113 -10.0440    137.3680     93.9107   5.4050219721e+01   3.6682350759e+01    0.3008881    0.2557146 -16.96  0.000733501    1.278    0.217
       114  -9.0719     87.5555     93.3033   6.8657931670e+01   4.7029000930e+01    0.3405016    0.1822282 -32.97  0.001104531    2.171    0.539
       115  -9.6802     87.0000     89.0399   6.7614408990e+01   4.8033611006e+01    0.4109739    0.1998643 -38.12  0.001590153    2.211    0.548
       116  -8.9840     84.5586     86.5723   6.7748571057e+01   4.9001493098e+01    0.2706758     0.214371  56.09 0.0004413268    1.536    0.349
       117  -8.8905      3.7511     94.3751   1.0335085096e+02   5.6552439442e+01    0.3623126    0.1244627   1.64  0.001354183    3.383    0.704
       118 -10.4281     42.7024     91.3667   8.5783004145e+01   5.4276709016e+01    0.7461246    0.2830015  35.84  0.002765871    2.743    0.635
       119  -9.5957     57.0114     89.4419   7.9231833587e+01   5.2898781236e+01    0.5455229    0.1948928  35.09   0.00193607    2.702    0.630
       120  -9.5479     52.0438     91.3080   8.1800711447e+01   5.3146016018e+01    0.3712562    0.2853577 -89.09  0.001379148    1.966    0.491
       121  -9.4620     47.9559     88.9434   8.2906086707e+01   5.4216933361e+01    0.3463613    0.2707262  85.15 0.0009734784    1.933    0.483
       122  -9.4466    126.1134     91.1895   5.6189641843e+01   3.9625926572e+01    0.2273505    0.1981705  15.25 0.0004132622    1.198    0.165
       123 -12.5589     34.6122     89.3511   8.8820228980e+01   5.5617029512e+01    0.3890919    0.3554088  46.31  0.002261528    1.321    0.243
       124  -9.5303      9.5390     89.7954   1.0008153049e+02   5.7402534026e+01    0.3072034    0.1513776 -45.57  0.000809776    1.694    0.410
       125 -10.0224     12.9867     88.0858   9.8229575448e+01   5.7626947281e+01    0.2545325    0.1820872 -22.66 0.0003099246    1.307    0.235
       126 -10.1089    139.1530     87.5034   5.1883291222e+01   3.7462887791e+01    0.3475756    0.2257046 -50.34 0.0005020085    1.702    0.412
       127 -10.0592    110.2351     88.0068   5.9763239995e+01   4.3616309108e+01    0.3009691    0.2455638  -1.12 0.0004298701    1.376    0.273
       128 -10.1317    124.8353     85.8786   5.5035465141e+01   4.0893936897e+01    0.3929631    0.3434796  48.48 0.0008170399    1.121    0.108
       129 -10.2962    120.3829     87.2065   5.6619297051e+01   4.1611790436e+01     0.376607     0.255096 -43.32  0.001634312    1.557    0.358
       130 -10.4640    120.8370     82.4743   5.5132008668e+01   4.2388169072e+01    0.2888278    0.2582251  39.42 0.0002888684    1.057    0.054
       131  -9.6058     76.4742     86.7492   7.0764268660e+01   5.0416913914e+01    0.4335229    0.3287936 -75.25  0.001234417    2.017    0.504
       132 -10.8224     79.4190     81.0870   6.7955633007e+01   5.1072139020e+01    0.6054741    0.2913455  28.20 0.0004106761    2.269    0.559
       133 -11.1288    131.3098     86.0497   5.3406888446e+01   3.9446888162e+01    0.2573848    0.2439017  23.94 0.0002400491    1.036    0.035
       134 -10.0228    156.9322     85.3854   4.7382081613e+01   3.3929509359e+01    0.3032072    0.2410187 -16.15  0.001147371    1.482    0.325
       135  -8.8177     59.8665     84.5990   7.6685364684e+01   5.3569117539e+01    0.2311265    0.1758249 -52.21 0.0005609465    1.431    0.301
       136  -9.1503     39.7006     85.4686   8.5599175557e+01   5.5994892006e+01    0.3470507    0.1380807  20.72  0.001218878    2.576    0.612
       137  -8.2863    187.7022     83.2794   4.1279921533e+01   2.7735824346e+01    0.1302952   0.09786643 -72.63 0.0001689718    1.538    0.350
       138  -9.0654      2.0019     83.0030   1.0230296206e+02   5.9391505960e+01    0.2022905    0.1668709 -39.58 0.0005789074    1.021    0.020
       139 -11.0014     54.2350     80.8548   7.7963294000e+01   5.5206880146e+01    0.3306369    0.2604052   8.64  0.000269632    1.201    0.168
       140  -8.6035     19.9668     82.0974   9.3798888382e+01   5.8601988259e+01    0.2706277   0.09079418 -44.21  0.000584434    2.511    0.602
       141 -12.7051    137.6205     70.6961   4.7569007108e+01   4.0660504180e+01     1.192899    0.8990719 -44.21  0.006250517    1.404    0.288
       142 -11.9776    152.3009     73.0390   4.5079599981e+01   3.6976105473e+01    0.9790933    0.5325295 -19.10 0.0004345127    3.015    0.668
       143 -11.2277    159.0260     73.7780   4.3954261498e+01   3.5360174420e+01    0.6503356    0.3094452 -47.95    0.0021031    2.284    0.562
       144 -10.8568    146.9938     61.8534   4.3102953212e+01   3.9887064730e+01    0.3409024    0.2897605 -36.98 0.0004999496    1.251    0.201
       145 -12.5787    150.7191     57.5135   4.1192611535e+01   3.9662578250e+01    0.3997479    0.3138929 -62.74 0.0002014362    1.392    0.282
       146 -11.6476    165.4377     69.5518   4.1685477211e+01   3.4591106260e+01     1.391399    0.4065919 -34.15  0.004648151    3.772    0.735
       147  -9.2284     45.5232     80.3125   8.1613079002e+01   5.6484145881e+01    0.2887385    0.1616628  27.33  0.001311894    1.732    0.423
       148  -8.9616     40.3672     79.1848   8.3619306420e+01   5.7355414457e+01    0.2938545    0.1468104 -38.91 0.0008825739    1.926    0.481
       149  -9.5100    121.5298     77.6870   5.3547810975e+01   4.3092337354e+01    0.2666236    0.1468241 -32.53 0.0008107513    2.040    0.510
       150  -8.7885      3.5565     72.5822   9.9659075480e+01   6.1790729961e+01    0.1837964    0.1427248 -39.79 8.669068e-05    1.056    0.053
       151  -8.9173      1.9789     77.5484   1.0136065245e+02   6.0691812810e+01    0.2260813    0.1336728 -40.31  0.000827541    1.404    0.288
       152 -11.2836      8.2078     74.4550   9.7761891409e+01   6.1132907024e+01    0.3934256     0.293039  -7.25 0.0004900918    1.292    0.226
       153  -8.7851    187.4199     76.7144   3.9797086514e+01   2.8801813676e+01    0.1830409    0.1242149 -26.97 0.0005003208    1.669    0.401
       154  -8.6120     36.4519     77.4903   8.4952844076e+01   5.8174045415e+01    0.1442972    0.1219894 -18.59 0.0003164038    1.032    0.031
       155 -10.8888     81.1346     65.3159   6.2233925173e+01   5.3779568882e+01    0.4943148    0.3326686  13.34  0.001202993    1.768    0.434
       156  -8.9583     77.4486     71.2788   6.5578393901e+01   5.3371147124e+01     0.309092    0.2288878 -51.27  0.001011991    1.606    0.377
       157 -10.1640     83.1158     73.5666   6.4235567456e+01   5.1866938117e+01    0.4374524    0.2738448  24.37  0.001330589    1.702    0.413
       158  -9.7867     77.1757     75.3235   6.6987254049e+01   5.2635614594e+01    0.3367747    0.2318463  37.65 0.0007891767    1.384    0.277
       159  -9.2540     73.3101     74.6987   6.8263097717e+01   5.3453495945e+01    0.2527426    0.2272278  33.61 0.0004952247    1.168    0.144
       160  -9.3179     57.1982     75.7030   7.5145707048e+01   5.5883827293e+01    0.4079288    0.1804663  35.37  0.001344396    2.180    0.541
       161  -9.3117     57.0375     72.0607   7.4072900361e+01   5.6666551835e+01    0.2688416     0.193847 -31.65 0.0003200301    1.362    0.266
       162 -11.2344     46.6333     73.3164   7.9067831617e+01   5.7873758379e+01    0.5349489    0.3986417  60.68  0.001250129    2.079    0.519
       163 -10.5268     51.1620     70.1665   7.6049691122e+01   5.7919807065e+01    0.3038499    0.2625188 -54.15 0.0004829069    1.392    0.282
       164 -11.5726    112.1329     81.8387   5.7392197863e+01   4.4386042329e+01       0.8807    0.5008391  27.74  0.003222577    2.202    0.546
       165 -10.5415     88.6897     74.7382   6.2643736508e+01   5.0560833640e+01    0.3161545    0.2400108  31.45 0.0003370357    1.225    0.184
       166  -9.9782    127.9822     73.1669   5.0563938184e+01   4.2430691411e+01    0.3207264    0.2215007 -21.24  0.001517512    1.760    0.432
       167 -10.4972     17.7787     70.9548   9.2240819222e+01   6.1343184325e+01    0.3166612    0.2380687 -60.18 0.0005433038    1.387    0.279
       168 -10.7218    120.1958     71.0541   5.1930207449e+01   4.4527903295e+01    0.6222543    0.4917618 -44.71  0.003262637    1.377    0.274
       169 -11.3131     60.9090     58.1425   6.7712606619e+01   5.8753690963e+01    0.5125712    0.4594402  -5.58  0.001173147    1.095    0.087
       170 -10.0409     64.1218     70.6074   7.0614437922e+01   5.5839175774e+01    0.4848392     0.255443  34.29   0.00101196    1.784    0.440
       171  -9.9118     59.9681     66.6796   7.1061018256e+01   5.7291332972e+01    0.4108627    0.2784071  26.35    0.0013981    1.371    0.271
       172  -9.4806     97.1682     69.8616   5.8259718638e+01   4.9731050901e+01    0.4426299    0.2145157 -34.09  0.001767112    2.325    0.570
       173  -8.9370     27.0562     66.4233   8.6385625116e+01   6.1576488020e+01    0.3467229    0.2266226 -74.97  0.001652395    2.292    0.564
       174 -10.2836     30.5980     71.0598   8.5951113738e+01   6.0216384460e+01    0.2416743    0.1833524   8.09 0.0001410572    1.246    0.197
       175  -8.8064     27.4769     56.4203   8.3128084648e+01   6.3648136905e+01    0.2418626    0.1460094  13.75  0.000573613    1.570    0.363
       176 -11.3579     30.7970     53.3236   8.0358046519e+01   6.3917892061e+01    0.5455874    0.4083574 -69.11  0.001500031    2.005    0.501
       177  -9.4148     35.1562     51.2201   7.7355368379e+01   6.3817230822e+01     0.212064    0.1834859 -30.83 0.0003630861    1.227    0.185
       178 -11.3689     34.5052     67.3545   8.2973157801e+01   6.0613740028e+01    0.3099365    0.2829672  51.44 0.0006137494    1.450    0.310
       179 -10.1225     33.9732     63.2318   8.1972055159e+01   6.1545700921e+01    0.5179113    0.2706595   8.01  0.002274521    2.129    0.530
       180 -10.7956    181.0419     64.2365   3.7821486346e+01   3.1974801600e+01     0.534126    0.2981755 -30.55  0.002093434    1.983    0.496
       181 -10.4790    176.9817     63.9759   3.8379356805e+01   3.2885247919e+01    0.2952416    0.2142222 -49.17 0.0003119157    1.354    0.262
       182  -9.9264    146.9159     81.5237   4.8488669761e+01   3.6788420307e+01    0.2161118    0.1371072  52.40 0.0006009771    1.534    0.348
       183  -9.9078     71.7872     66.8165   6.6270103984e+01   5.5251349189e+01    0.5034925    0.3168014  39.79  0.002391565    1.525    0.344
       184  -9.2364     10.1152     66.6806   9.5081444921e+01   6.2811527556e+01    0.3732485    0.2170095  48.36  0.001761235    2.553    0.608
       185  -8.9601     14.5164     66.4843   9.2775190671e+01   6.2579025571e+01    0.2283296    0.1742429  -5.87 0.0006814318    1.213    0.176
       186 -10.1890     89.5414     65.6773   5.9404353628e+01   5.2043321615e+01    0.4424274    0.2873129 -54.96   0.00140551    2.078    0.519
       187  -9.1299     42.4022     66.4918   7.8911998330e+01   5.9860480794e+01    0.2772598    0.1954207 -32.39 0.0006798084    1.334    0.251
       188 -10.9553     43.3351     61.0664   7.6699436871e+01   6.0846083455e+01    0.4445757    0.3752553 -14.41  0.001768961    1.062    0.058
       189  -9.1412    194.5871     65.3822   3.6151418278e+01   2.8974571685e+01    0.2950918    0.1117642 -39.59 0.0009443485    2.427    0.588
       190 -10.0330    201.4243     49.7602   3.1815292296e+01   2.9665301894e+01    0.3134545    0.1954909  68.16  0.001817543    1.592    0.372
       191  -9.0268    192.9351     61.2224   3.5428697598e+01   2.9892051847e+01    0.2582774    0.1636399  72.74 0.0006873488    1.664    0.399
       192  -8.4414    189.6346     61.7232   3.5991972662e+01   3.0509540768e+01    0.1945614    0.1697021  49.46 0.0005540079    1.279    0.218
       193 -11.0579    199.4611     55.8442   3.3385985326e+01   2.9276689451e+01    0.5465828    0.3736173  25.61  0.002865301    2.469    0.595
       194 -10.1082    161.2885     64.7653   4.1191493184e+01   3.6225443845e+01      0.28276    0.2187895 -56.58 0.0005253653    1.351    0.260
       195 -10.0866      2.4782     64.1328   9.8450706177e+01   6.3773379887e+01    0.2359613    0.1939775 -36.31  0.000521818    1.032    0.031
       196 -10.6633      7.2146     58.3358   9.4569553795e+01   6.4829487832e+01    0.5942167    0.3022049 -18.21   0.00178871    1.909    0.476
       197  -9.4381    203.5459     63.0102   3.4457762097e+01   2.7492028521e+01    0.2308576    0.1602906  87.67 0.0003824739    1.595    0.373
       198  -9.0540     99.9530     62.6353   5.5039725936e+01   5.0379306229e+01    0.2420974    0.1971254 -11.07 0.0007965181    1.359    0.264
       199 -11.3709     21.8891     61.0973   8.7492749693e+01   6.3193245724e+01    0.3367764    0.2096355 -14.43   0.00173472    1.555    0.357
       200  -9.2620    172.2075     62.9055   3.8870206973e+01   3.4077229142e+01    0.2036318    0.1688972 -67.26 0.0006494708    1.219    0.180
       201  -9.9333    167.7061     61.3562   3.9214809097e+01   3.5289623770e+01    0.2696735    0.2264678 -17.08  0.001160754    1.421    0.296
       202 -10.3134    218.9927     59.2859   3.1879419895e+01   2.4996869449e+01    0.2534596    0.2167882 -82.03 0.0005320318    1.118    0.105
       203  -9.9037    222.4080     55.4495   3.0741786177e+01   2.4854775064e+01    0.2637686    0.1828149 -59.83 0.0007681691    1.301    0.232
       204  -9.1413    115.2313     60.8984   5.0123573928e+01   4.7286962286e+01    0.2393314    0.1907436 -27.03 0.0006351795    1.379    0.275
       205 -10.0901     77.9933     55.6669   6.0035984447e+01   5.6065721242e+01    0.3947119    0.2612727 -35.73 0.0009430762    1.627    0.385
       206 -10.3275     81.8406     53.4954   5.7872165479e+01   5.5656254406e+01    0.7686806    0.2608486 -38.91  0.002764564    3.212    0.689
       207 -10.8965     84.7749     47.0517   5.4532669947e+01   5.6051158109e+01    0.6790469    0.3633461 -41.28  0.003087436    2.153    0.536
       208  -9.5233     79.0390     44.4585   5.5555496649e+01   5.7619570304e+01    0.3008437      0.22936  44.32 0.0009059089    1.216    0.178
       209 -11.7623     84.7256     38.9560   5.1556811056e+01   5.7211588929e+01    0.3004556    0.2776895 -44.26 0.0002063529    1.321    0.243
       210 -11.7512     90.8653     43.8945   5.1411833465e+01   5.5211969224e+01    0.3049203    0.2469802  36.81 0.0002989706    1.081    0.075
       211 -11.2075     89.4057     38.4108   4.9868492218e+01   5.6276683938e+01    0.4854377    0.3858269 -81.38  0.001263896    1.877    0.467
       212 -11.3347    161.2212     56.5591   3.9067098037e+01   3.7411879959e+01    0.4531994    0.3486696  88.36  0.001998469    1.397    0.284
       213  -9.2115    162.4583     52.4836   3.7801651992e+01   3.7688152264e+01    0.2485982    0.1719162  84.97 7.175687e-06    1.612    0.380
       214 -10.5792    184.9389     55.0071   3.5070801825e+01   3.2412901918e+01    0.5237848    0.2323921 -41.70  0.002218978    2.134    0.531
       215 -10.6208    174.3863     53.8176   3.6285810176e+01   3.4854943979e+01    0.3757262     0.230937 -45.17  0.001210158    1.609    0.378
       216 -10.5565    179.3083     53.2660   3.5439080852e+01   3.3854651856e+01    0.4926693    0.2578677 -44.25  0.002455098    1.859    0.462
       217 -10.4509     94.4109     56.7401   5.4796538466e+01   5.2523598799e+01    0.4625834    0.3220815  41.72  0.002344377    1.290    0.225
       218  -8.7775    239.0057     56.2358   2.9298195096e+01   2.1768565351e+01      0.15568    0.1272284 -61.31  0.001142052    1.022    0.021
       219 -12.2346    140.2646     37.8911   3.7612928404e+01   4.4649328456e+01    0.3724994    0.3010613  11.46 0.0002775791    1.586    0.370
       220 -12.7427    137.9066     47.2099   4.0754797436e+01   4.4028200491e+01    0.6253072    0.4286011  71.83 0.0008310513    1.493    0.330
       221 -10.6608    145.1149     41.3669   3.7738269901e+01   4.3096599884e+01    0.7150394      0.28451  49.31  0.002947986    2.427    0.588
       222 -11.0245    128.1528     53.2078   4.4591212201e+01   4.5474630118e+01    0.5636506    0.4588747   3.45 0.0004257701    1.502    0.334
       223 -10.8049    117.6688     51.8370   4.6642335959e+01   4.8085476197e+01    0.8017529    0.4915302  48.81  0.003904146    1.462    0.316
       224 -11.7278    122.4255     49.6162   4.4802538441e+01   4.7301229366e+01    0.5715966    0.4005381  58.12   0.00298701    1.316    0.240
       225 -10.8172      7.5502     49.7719   9.2074503741e+01   6.6642500792e+01    0.5610641    0.4639279  44.74  0.003497374    1.657    0.396
       226  -9.2512      1.9458     51.0811   9.5642462026e+01   6.6665224151e+01    0.2537465    0.1553828 -30.83 0.0005140867    1.338    0.252
       227  -9.5001     19.0227     43.0749   8.3280824308e+01   6.7118929521e+01    0.4534979    0.3115779  63.16  0.002134793    3.186    0.686
       228  -9.5026     19.5357     55.5177   8.7083683146e+01   6.4574079182e+01    0.2018952    0.1603451 -26.94 0.0005124665    1.069    0.064
       229 -10.4255     24.7077     49.5789   8.2342461110e+01   6.5303322452e+01    0.8195292    0.4015336 -18.19  0.003488896    2.496    0.599
       230 -10.1085     16.5480     52.4839   8.7794487363e+01   6.5449488029e+01    0.2856635    0.2096651   9.81 0.0008477832    1.291    0.225
       231 -11.5983     18.1248     48.3501   8.5596231344e+01   6.6161547424e+01    0.3091605     0.237635  -6.08 0.0003100002    1.111    0.100
       232  -8.5017     68.7276     54.2885   6.3091986982e+01   5.8057724704e+01    0.2120441    0.1325708 -48.30 0.0002041769    1.974    0.493
       233  -9.7410     64.9357     51.6641   6.3663145540e+01   5.9192082402e+01    0.2519099    0.2297343 -34.95 0.0004970176    1.301    0.231
       234  -9.4396     62.7916     47.9476   6.3153249773e+01   6.0195652488e+01    0.3287795    0.1330936 -40.38  0.001321108    2.676    0.626
       235  -8.5449     50.7267     54.5071   7.0926026619e+01   6.1053393163e+01    0.1861886    0.1231116  37.23 0.0008806123    1.529    0.346
       236  -8.4892     44.4148     52.7957   7.3291222452e+01   6.2297030599e+01    0.1992626    0.1150789 -31.29 0.0009487438    1.756    0.431
       237  -9.8139    147.3400     50.3650   3.9852563540e+01   4.1423063064e+01    0.2879351    0.2303278  72.43  0.001645969    1.203    0.169
       238  -9.2712    213.7796     57.1825   3.2012277326e+01   2.6265494081e+01    0.1837134     0.141853 -64.88 0.0006599465    1.181    0.153
       239 -10.6752    211.6335     49.3646   3.0608403476e+01   2.7683521109e+01    0.2768164    0.2074949 -83.84 0.0005871878    1.296    0.229
       240  -8.7583     73.9462     50.0250   5.9495956036e+01   5.7776988909e+01    0.2276675    0.1560591  13.40 0.0009749464    1.639    0.390
       241  -9.5475     54.7634     49.9491   6.7397593667e+01   6.1232246861e+01    0.2409233     0.185699  33.64 0.0006852098    1.265    0.210
       242 -11.5011    233.0918     48.2636   2.8310738143e+01   2.3801961643e+01    0.2063646    0.1638569 -61.29 0.0002991011    1.034    0.033
       243  -9.4380    205.6132     53.1831   3.2079262093e+01   2.8385390530e+01    0.2371179    0.1739849 -19.42 0.0009091073    1.773    0.436
       244 -10.0958    104.9794     57.9301   5.2001601553e+01   5.0039166463e+01    0.3530994    0.2754419  26.06  0.001863554    1.314    0.239
       245  -9.7452    246.3636     47.6644   2.7077411007e+01   2.1563850518e+01     0.183997    0.1543034 -52.46 0.0006054941    1.138    0.122
       246 -10.0335     45.1883     44.5520   6.9804441423e+01   6.3665483765e+01    0.2856956    0.1843135 -43.98  0.000349839    1.738    0.425
       247 -11.9931    163.6740     42.7016   3.5082725489e+01   3.8673257065e+01    0.4230702    0.2840893  81.90  0.002297457    1.541    0.351
       248  -9.1892     73.0730     44.7010   5.7826016865e+01   5.8777478694e+01    0.2685035    0.2291405  73.17 0.0006990246    1.654    0.396
       249 -10.0464     67.3958     44.4884   5.9943379818e+01   5.9902376653e+01    0.3467914     0.262794  35.13  0.001139771    1.174    0.148
       250  -9.9817     34.2919     44.0222   7.5145287595e+01   6.5266347165e+01    0.4677885    0.2824198  19.01  0.002438522    1.515    0.340
       251  -8.7669    191.2782     44.3432   3.1793358972e+01   3.2438351258e+01    0.1722952    0.1060236  80.23 0.0009401868    1.674    0.403
       252  -9.6279    177.1009     43.3063   3.3337117900e+01   3.5609896124e+01    0.4534507    0.2313753 -89.58  0.001906768    2.935    0.659
       253 -10.4894    107.5379     43.5962   4.6534452124e+01   5.1540816504e+01    0.4346733     0.227287  59.40 0.0007904249    1.882    0.469
       254  -9.1986    209.1160     42.8315   2.9498240512e+01   2.8983479053e+01    0.1891994    0.1387423 -69.18 0.0009012899    1.252    0.201
       255 -10.8957     62.1877     37.8998   5.9449098660e+01   6.1871494630e+01    0.5679072     0.385673  24.50  0.001734099    1.357    0.263
       256  -8.9823    107.0624    246.5314   9.1743328351e+01   9.1454661420e+00    0.1827244    0.1731645  -9.95 0.0008670282    1.192    0.161
       257  -9.1719    218.1939     41.5189   2.8341265652e+01   2.7376292440e+01     0.197614    0.1449561 -46.94 0.0005552083    1.235    0.191
       258 -10.5791    201.8991     37.9603   2.9200456053e+01   3.1011659997e+01    0.3280585    0.2169801 -43.08 0.0009220149    1.429    0.300
       259  -9.4416     28.2549     41.9908   7.7640868346e+01   6.6366210131e+01    0.2261992    0.1710715  21.32  0.000532533    1.278    0.218
       260  -9.9939    240.1570     39.8031   2.6127399393e+01   2.3562291755e+01     0.303677    0.2489369   4.58  0.002137305    2.028    0.507
       261 -10.5177    230.5917     39.3038   2.6807530481e+01   2.5325875566e+01     0.249685    0.1832225 -68.95 0.0005616313    1.179    0.152
       262  -9.1442    226.5228     38.0073   2.6900510633e+01   2.6223880378e+01      0.21861    0.1282404 -40.07  0.001027122    1.553    0.356
       263  -9.4632     98.5026     40.8329   4.8046981543e+01   5.3948607790e+01    0.3179202    0.1774223  33.48  0.001037091    1.955    0.488
       264  -9.4383    149.4583     33.5186   3.4829137806e+01   4.3021166292e+01    0.2374953     0.213317  42.37 0.0007334317    1.228    0.185
       265 -10.3854    157.7205     39.0268   3.5025758001e+01   4.0474112558e+01     0.428663    0.3092862  31.95  0.001825873    1.780    0.438
       266 -10.8962    154.3152     35.8556   3.4704606969e+01   4.1630302848e+01    0.5547917    0.4658477 -59.23  0.002500238    1.226    0.184
       267  -8.8404    123.1225     39.7528   4.1564129639e+01   4.8433082747e+01    0.2355108    0.1476552  60.75    0.0011847    1.444    0.307
       268 -11.5854    127.0453     34.7438   3.9187951731e+01   4.8118979120e+01    0.5382587    0.3317736 -56.84            0    2.059    0.514
       269 -10.2106    123.5712     30.4147   3.8539963523e+01   4.9429526973e+01    0.3121191    0.2116845  65.03 0.0009155609    1.323    0.244
       270  -8.7277    113.6595     39.6670   4.3695468382e+01   5.0644893655e+01    0.2193151    0.1447982  30.07 0.0009882121    1.737    0.424
       271  -9.3187     75.0269     40.1785   5.5366052076e+01   5.9054417189e+01    0.2549132    0.1617035  31.68 0.0005619741    1.463    0.316
       272 -10.0984    194.6702     37.2319   2.9807163715e+01   3.2584229826e+01    0.2289052    0.1799969 -68.19 0.0003777447    1.151    0.131
       273  -9.9829     32.9683     37.1417   7.3131781236e+01   6.6647584774e+01    0.1993259     0.162769 -15.13 0.0002532558    1.131    0.115
       274  -9.2784      2.0803     38.0655   9.1844035241e+01   6.9344240650e+01    0.1896996    0.1426088 -22.39 0.0003923747    1.036    0.035
       275 -11.3077    246.5444     32.5447   2.4336272579e+01   2.3289472789e+01    0.4437376    0.2011547 -57.56  0.001356733    1.953    0.488
       276  -8.1638    207.3145     37.3447   2.8523809620e+01   2.9993974489e+01    0.1085297   0.08991058  31.88 0.0007047569    1.713    0.416
       277 -10.8997    169.9482     32.8121   3.1705506330e+01   3.8434905994e+01    0.4475997    0.3197425 -20.29  0.001097764    1.772    0.436
       278 -10.3383     69.3650    217.0892   9.7691889050e+01   1.9906208216e+01    0.5528998    0.3743463  73.31  0.002789292    1.876    0.467
       279 -10.3545     73.9184    213.5602   9.6097728672e+01   2.0146062699e+01    0.4683583    0.3686908 -55.26  0.001940395    1.376    0.273
       280  -9.7094     76.5264    222.5560   9.6460714888e+01   1.7835529544e+01    0.2479963    0.2052798  28.40 1.447273e-05    1.072    0.067
       281 -11.4561     77.1671    219.1863   9.5909455611e+01   1.8493686540e+01    0.7169776    0.3995412   6.40  0.002558592    2.342    0.573
       282  -9.0948     91.5020    214.5080   9.1601802719e+01   1.7691212927e+01    0.2843773    0.1252923  28.10 0.0007007761    2.018    0.504
       283  -9.5528    123.9664    206.0050   8.1925751541e+01   1.4993013642e+01    0.2032935    0.1783975   9.76  0.001145256    1.003    0.003
       284  -8.8516     90.5974    206.2604   9.0728018784e+01   1.9649089822e+01    0.2679913    0.1543179  38.47  0.001229465    1.624    0.384
       285 -11.4000      5.4366    202.6849   1.1289166348e+02   2.9421426537e+01    0.3493341    0.1874421  89.82  0.001809976    1.837    0.456
       286  -9.7554      1.3671    184.7528   1.1288199899e+02   3.3929333283e+01    0.3522453    0.1113574 -79.71  0.001353127    2.983    0.665
       287  -9.5804     25.0316    173.9600   1.0542870839e+02   3.4874212585e+01    0.1938512    0.1862746  81.53            0    1.010    0.010
       288  -9.3713      6.3702    168.2682   1.1037786940e+02   3.7661001663e+01    0.2253142    0.1772693   7.14  0.001174172    1.421    0.296
       289 -10.4327      8.7667    163.5958   1.0930568973e+02   3.8683481579e+01    0.2452904    0.2147427 -10.53 0.0007578568    1.270    0.213
       290 -10.2383      4.7528    163.0287   1.1044784875e+02   3.9073234136e+01     0.238277    0.2148218 -51.20 0.0005082408    1.130    0.115
       291  -9.9429      5.9470    159.7728   1.0983456010e+02   3.9823108153e+01     0.182422    0.1392588   9.71 0.0004329263    1.452    0.311
       292  -9.7218    185.0673     35.6239   3.0522698781e+01   3.4801757879e+01    0.3070076     0.139083  71.75  0.001279026    2.174    0.540
       293  -9.4417    115.4567     35.5170   4.1915878041e+01   5.0738133966e+01    0.2705199    0.2257749  72.36  0.001120991    1.207    0.172
       294  -9.9617    114.7120     32.3373   4.1042625467e+01   5.1285645285e+01    0.7133626     0.377104  83.14   0.00258485    3.578    0.721
       295  -9.7034    106.6529     35.1331   4.3893989690e+01   5.2821717793e+01    0.2628867    0.1832446  34.63 0.0004152215    1.451    0.311
       296 -10.3900     97.2560     33.6200   4.5832916112e+01   5.5144546156e+01    0.2890347    0.2250846 -42.41 0.0009361488    1.523    0.343
       297 -10.0696     73.9674     35.6252   5.3969501517e+01   5.9902022155e+01    0.2407328    0.1983333   2.48 0.0002640756    1.239    0.193
       298  -9.1514     89.9862     33.4771   4.7866273111e+01   5.6781565108e+01     0.223356    0.1882859 -57.05 0.0006335282    1.531    0.347
       299  -8.8191     11.5771     33.3616   8.4224908631e+01   6.9601547114e+01     0.271459    0.2161419  62.11  0.001581381    2.267    0.559
       300 -11.4984    236.4005     29.4382   2.4496023223e+01   2.5403099228e+01    0.3356806    0.3064356 -14.62  0.002664432    1.560    0.359
       301 -11.8486     17.9658    158.3701   1.0603260306e+02   3.9389373359e+01    0.5631958    0.2989637 -67.74  0.002606417    1.713    0.416
       302 -11.7722     13.2467    152.2029   1.0690378214e+02   4.1297355988e+01    0.7195737    0.3171978 -26.50  0.002765334    3.126    0.680
       303 -10.8049      2.6114    153.8819   1.1036861186e+02   4.1504284392e+01    0.3200498    0.2997791  69.24  0.001229449    1.094    0.086
       304 -10.6487     29.3564    150.9332   1.0155784069e+02   4.0418901327e+01    0.4431923    0.2222163 -42.81  0.001518703    2.054    0.513
       305 -10.1999    180.2891     29.2242   2.9578254664e+01   3.6557894912e+01    0.4114434    0.2663921 -68.46  0.002333695    1.572    0.364
       306  -9.8001    183.0164     25.0260   2.8296969704e+01   3.6422899116e+01    0.2265885    0.2176242  60.44 0.0007129214    1.263    0.209
       307  -9.9839     30.9596    147.0207   1.0052647152e+02   4.1299591145e+01    0.2544356    0.2326146 -55.67  0.000306979    1.036    0.035
       308  -8.9230    249.3196    150.3309   4.5835446363e+01   6.5894769428e+00    0.1210289   0.08014599 -13.46 0.0007048376    1.692    0.409
       309  -9.3607    224.0184     30.8704   2.5719738354e+01   2.7505418886e+01    0.1684942    0.1345273 -72.22 0.0005734558    1.042    0.040
       310 -10.8303      5.8456    147.7251   1.0883304366e+02   4.2894107705e+01    0.4474575    0.2494853  30.15  0.001805685    1.867    0.464
       311  -9.7542    216.1573     29.3333   2.6068023777e+01   2.9171635799e+01    0.2383208    0.1838056  79.63 0.0008363735    1.251    0.201
       312  -8.9638    201.1984     29.8497   2.7526637899e+01   3.2082761457e+01     0.176303    0.1278155 -66.13 0.0003490852    1.237    0.191
       313  -8.8123    147.0017     29.2525   3.4037666504e+01   4.4067889997e+01    0.1724526    0.1476749  73.18 0.0002309038    1.022    0.021
       314  -9.1536      3.0382     28.9839   8.8136353958e+01   7.1038456266e+01    0.2503337    0.1772051  28.74  0.001544798    1.684    0.406
       315 -10.7911     11.2839    144.9209   1.0680825574e+02   4.3295445219e+01     0.334456    0.2666385  40.77 0.0007609743    1.337    0.252
       316 -10.3120     72.0923     25.8797   5.0697714937e+01   6.1527816452e+01    0.5516482    0.2311435  39.27  0.002358827    2.155    0.536
       317 -10.5550     81.8750     26.5992   4.7724226961e+01   5.9375399254e+01    0.4566935    0.3643887  82.20  0.002571933    1.715    0.417
       318 -10.0868      4.1794    131.5033   1.0782297359e+02   4.7140155082e+01    0.3339101    0.2503097   9.86  0.001467868    1.468    0.319
       319 -10.4648      2.6042    142.2026   1.0937689171e+02   4.4478219278e+01    0.4149549    0.3024614 -78.86   0.00234977    1.260    0.207
       320  -9.1529    206.7991     25.9189   2.6180785124e+01   3.1384576051e+01    0.1549817    0.1458932 -68.12 0.0007962602    1.228    0.185
       321 -10.3931    189.2838     25.7654   2.7810681745e+01   3.5005238847e+01     0.194347    0.1720178  83.64 0.0003011509    1.121    0.108
       322  -9.1334    120.1559     25.9848   3.7822824292e+01   5.0713735623e+01    0.2359665    0.1732736  23.50   0.00131039    1.648    0.393
       323  -9.3121      1.1804    135.9296   1.0927248728e+02   4.6150782682e+01    0.4022332    0.1273008 -81.32    0.0012569    3.282    0.695
       324  -8.9803     60.7226    148.1198   9.0692109288e+01   3.7868395596e+01    0.2026288    0.1818117 -37.45 0.0003017602    1.089    0.082
       325  -9.8729     36.6090    147.2440   9.8660642670e+01   4.0732759051e+01    0.2920959    0.1634955 -62.35  0.001315467    1.667    0.400
       326 -11.0691    112.0162     15.2113   3.5927709800e+01   5.3689212758e+01    0.1915539    0.1666204  61.92            0    1.045    0.043
       327 -10.9423    110.3322     22.7045   3.8801097740e+01   5.3356348947e+01    0.2440517    0.1943655  55.64 0.0003257437    1.059    0.056
       328  -9.5504     36.1926    142.4510   9.8119756434e+01   4.2021302943e+01     0.285396     0.187567 -61.10  0.001385906    1.428    0.300
       329  -9.9263      8.4980    137.7753   1.0699866327e+02   4.5300186972e+01     0.342457    0.1836056  69.87 0.0007234311    2.323    0.569
       330 -10.3011     25.3472    116.8398   9.8130682338e+01   4.9592304447e+01     0.344289    0.2757972 -88.45  0.001055547    1.411    0.291
       331 -10.6456     20.1288    118.7753   1.0043596054e+02   4.9478769687e+01    0.3883511    0.2716905   0.69  0.001358159    1.525    0.344
       332 -11.1359     15.0136    115.6761   1.0193863689e+02   5.0608750436e+01     0.604536     0.360238  25.40  0.002464751    1.782    0.439
       333 -10.0913    212.1671     22.2388   2.4971510655e+01   3.0717241041e+01    0.2379907    0.2073653 -49.87 0.0009495174    1.236    0.191
       334 -12.3007     19.8187    141.2192   1.0355395413e+02   4.3687612693e+01     1.085077    0.4739815  33.45  0.003216318    2.313    0.568
       335 -11.5918      7.9270    122.6152   1.0550770227e+02   4.9231377824e+01     1.023313    0.5609928  38.65  0.004890966    2.036    0.509
       336  -8.3498    104.0378     23.9362   4.0657282456e+01   5.4690895864e+01     0.157423    0.1256311  54.93            0    1.063    0.059
       337  -9.3402     99.3254     23.8793   4.1786085967e+01   5.5781210256e+01    0.2646139    0.1674809  52.01  0.001056668    1.313    0.238
       338 -10.0389    248.5029     22.3164   2.2402901095e+01   2.4072511329e+01    0.1902684    0.1383153 -68.35 0.0002702891    1.092    0.085
       339  -8.5366    158.8044     23.0727   3.0685767547e+01   4.2005139211e+01    0.1651509    0.1317024  51.87 0.0005955244    1.312    0.238
       340  -9.9918      1.7846     21.3565   8.6051739473e+01   7.2506697101e+01    0.3333293    0.1255309 -44.14  0.001366385    2.192    0.544
       341  -8.8390    143.4358     22.2234   3.2622208778e+01   4.5637767578e+01    0.2154557    0.1393269 -86.48 0.0006693509    1.710    0.415
       342 -10.1155    188.3139     20.9492   2.6826208824e+01   3.5719005487e+01    0.2031242    0.1693024  82.22 0.0003482964    1.105    0.095
       343 -10.2904     11.9715    128.9454   1.0480842716e+02   4.7377912506e+01    0.4396417    0.2158745  20.99 0.0003157253    2.131    0.531
       344 -10.1527      6.6608    109.2945   1.0429457623e+02   5.2691268159e+01    0.3865999    0.2829638  20.93  0.001167817    1.499    0.333
       345  -9.6174      9.0767    104.9461   1.0271882142e+02   5.3668477503e+01    0.5524819    0.2839879  83.13  0.002254217    2.834    0.647
       346 -11.1708     13.0877    134.7780   1.0510252432e+02   4.5803881326e+01    0.4129953    0.2503507 -46.00 0.0004482729    1.544    0.352
       347  -9.9217     17.5359    133.5597   1.0340572431e+02   4.5833540014e+01    0.2568173    0.2322552  89.33 0.0005123997    1.146    0.128
       348  -9.1200     57.0991    141.4358   9.0751763929e+01   4.0039888077e+01    0.3166471    0.1776763 -45.14  0.001344541    1.753    0.430
       349 -10.0995     44.5070    141.5577   9.5117083243e+01   4.1432423080e+01    0.2830493    0.2478521  51.14 0.0007035895    1.238    0.192
       350  -9.2200    117.8020     19.2120   3.6107242455e+01   5.1954008682e+01    0.1909016    0.1620203  76.20  0.001084223    1.132    0.117
       351  -8.4646     51.7181    141.3182   9.2585366033e+01   4.0705318011e+01    0.1475018    0.1123169  63.62 0.0002132509    1.582    0.368
       352 -11.1453     30.9940    125.0898   9.7326297044e+01   4.7003862657e+01    0.4293163    0.3884445  69.38 0.0009471523    1.246    0.197
       353 -10.2285     23.5116    125.0613   1.0009866393e+02   4.7613019673e+01    0.3505409    0.2442502 -87.04 0.0009103198    1.610    0.379
       354 -10.4911     30.0542    133.9872   9.9033307387e+01   4.4773457400e+01     0.506165    0.2502493 -55.82  0.002046152    1.793    0.442
       355 -10.8875     26.6926    130.2871   9.9699548791e+01   4.6012045076e+01    0.4794687    0.3257734   6.05 0.0005948084    1.585    0.369
       356  -8.7641     35.7284    132.3928   9.6759039248e+01   4.4685259536e+01    0.1916378    0.1349407  -1.13 0.0006332265    1.549    0.354
       357  -9.1636    126.1877     15.1509   3.3303254027e+01   5.0364326632e+01    0.1938189     0.167704  82.75 0.0005590118    1.113    0.102
       358 -10.9564     48.7905    126.4511   9.0967206968e+01   4.4879826738e+01    0.5447548    0.3653409 -37.33  0.001192007    1.480    0.325
       359  -9.6314     41.3838    128.1313   9.3995073862e+01   4.5241529751e+01    0.2493207    0.1981398  -1.77 0.0008331146    1.304    0.233
       360  -9.4529     97.8404    125.8485   7.3725673354e+01   3.7804129798e+01    0.2598277    0.2347427  11.18 0.0006046348    1.057    0.054
       361 -10.0413     37.2757    124.6143   9.4905546989e+01   4.6555821136e+01    0.3216354    0.1992773 -68.16  0.001485281    1.639    0.390
       362  -9.8063    230.0154    123.6731   4.3511627375e+01   1.3573354980e+01    0.4389993    0.2310115 -55.02  0.002100235    2.355    0.575
       363  -9.7393     67.1924    123.6801   8.3689482313e+01   4.3241387086e+01    0.3128324    0.2210218 -19.19 0.0008674486    1.590    0.371
       364  -8.8409    135.9494    121.4951   6.1531266990e+01   3.1495652710e+01    0.2323347    0.1989316 -35.99 0.0004583835    1.167    0.143
       365  -9.4650     82.8581    119.4876   7.7192931075e+01   4.1876021581e+01    0.3310751    0.2107946 -40.21 0.0008808784    1.587    0.370
       366  -9.5335     40.3208    120.7531   9.3069433044e+01   4.7249915859e+01     0.263369    0.2169595  73.79  0.001137724    1.479    0.324
       367  -9.4760     52.6990    117.4001   8.7700993042e+01   4.6725321926e+01    0.4330059    0.2214998 -38.82  0.001737684    2.027    0.507
       368 -10.0294     58.7941    118.0602   8.5545119229e+01   4.5789989562e+01    0.4860242    0.2493832  31.27  0.001295827    1.911    0.477
       369 -10.2584     46.6528    116.6883   8.9863608363e+01   4.7611665710e+01    0.3649421    0.2287939 -41.72  0.001680765    1.525    0.344
       370  -9.5218     98.8380    117.4749   7.1354477338e+01   3.9574338604e+01    0.2531194    0.2306213 -18.70  0.000348649    1.076    0.070
       371  -8.3850    102.4390    117.4856   7.0206394765e+01   3.8908696771e+01    0.2599048    0.1497023  35.47 5.098305e-05    1.685    0.406
       372  -9.8407     67.4862    118.0576   8.2328213098e+01   4.4595609276e+01    0.3355984    0.2188497  23.58 0.0007372187    1.527    0.345
       373  -9.8918     31.1097    116.5028   9.5841272752e+01   4.9204967253e+01    0.3185647    0.1943925 -67.35  0.001084562    1.630    0.386
       374 -10.0940      1.7048    112.6452   1.0663521913e+02   5.2064842009e+01    0.4990726    0.1386503 -70.64  0.001653744    2.977    0.664
       375  -8.4189    103.2467    113.9520   6.9050909952e+01   3.9556123990e+01    0.1915919    0.1327968 -47.14 0.0002931696    1.490    0.329
       376  -9.0647     40.0591    114.4612   9.1975841858e+01   4.8881623255e+01    0.2201728    0.1414643  15.70  0.001030161    1.599    0.375
       377  -9.0829     84.2153    112.9712   7.5121358571e+01   4.3197503606e+01      0.21075    0.2055708  53.91 0.0002612642    1.170    0.145
       378  -8.5682    116.7970    112.6155   6.4583403131e+01   3.7219308775e+01     0.213843    0.1420259  47.77 0.0003295244    1.580    0.367
       379 -10.3242     62.6721    111.9014   8.2694627237e+01   4.6790483314e+01    0.2653473    0.2378426  17.25 0.0001417262    1.101    0.092
       380  -9.6160     49.8654    111.8866   8.7614230512e+01   4.8448520928e+01    0.2182032     0.208647 -19.09  0.001228266    1.065    0.061
       381 -10.2939     46.5696    109.4575   8.8383916299e+01   4.9437977810e+01     0.332268    0.3040334 -41.39 0.0009590928    1.077    0.072
       382 -11.6822     46.1079    103.8243   8.7321733382e+01   5.0884096204e+01      0.42276    0.2802178 -52.34  0.000332647    1.437    0.304
       383 -10.9937     21.6591    110.4379   9.8523597036e+01   5.1502787779e+01     0.719553    0.3108111  29.51  0.003007015    2.375    0.579
       384  -9.9138     15.9147    103.9597   9.9775456704e+01   5.3526853862e+01     0.335565    0.3066587  76.35  0.002004591    1.274    0.215
       385 -11.0307     21.5371    105.1807   9.7674466802e+01   5.2841399395e+01    0.3212136    0.2862335 -52.11 0.0004428634    1.075    0.070
       386 -10.1655     28.6711    109.9028   9.5625240766e+01   5.1093829752e+01    0.3304181    0.2663391 -20.15  0.001267495    1.203    0.169
