#   1 NUMBER                 Running object number                                     
#   2 MAG_AUTO               Kron-like elliptical aperture magnitude                    [mag]
#   3 X_IMAGE                Object position along x                                    [pixel]
#   4 Y_IMAGE                Object position along y                                    [pixel]
#   5 X_WORLD                Barycenter position along world x axis                     [deg]
#   6 Y_WORLD                Barycenter position along world y axis                     [deg]
#   7 A_WORLD                Profile RMS along major axis (world units)                 [deg]
#   8 B_WORLD                Profile RMS along minor axis (world units)                 [deg]
#   9 THETA_WORLD            Position angle (CCW/world-x)                               [deg]
#  10 FWHM_WORLD             FWHM assuming a gaussian core                              [deg]
#  11 ELONGATION             A_IMAGE/B_IMAGE                                           
#  12 ELLIPTICITY            1 - B_IMAGE/A_IMAGE                                       
         1 -13.7757    195.8723     44.0953   4.0382382538e+01   3.1125934212e+01     1.211406    0.9056814  38.83  0.004524251    1.728    0.421
         2 -12.7766    201.2721     38.4012   3.8362518208e+01   3.0650107534e+01    0.6047094    0.5090714 -88.34  0.001252884    1.064    0.060
         3 -13.4394    223.7613     13.6316   3.0735572171e+01   2.8706487430e+01    0.8369896    0.6743212 -67.87  0.004017143    1.063    0.059
         4 -12.3397     48.6241      3.9935   6.0092777735e+01   6.8184280417e+01    0.4343651    0.2123375  48.68  0.002293252    2.006    0.502
         5 -10.6969    244.6039      2.0930   2.7066046546e+01   2.5761448082e+01    0.4011438    0.1216415  87.27  0.001603409    4.228    0.763
         6 -10.0152     62.0000    242.8579   1.1182300457e+02   1.5142719499e+01    0.1601734   0.06765666 -69.43 0.0004110264    2.548    0.607
         7 -10.6178    150.3748    249.7888   9.3750873000e+01   1.3549092421e+00     0.276645     0.215908  41.50  0.001705856    1.260    0.206
         8 -19.4720     13.6862    149.8973   1.1456031432e+02   4.1896588151e+01     19.80162     5.410753 -76.69   0.06704935    3.605    0.723
         9 -10.5477     75.3199    247.8259   1.0948485730e+02   1.2438033218e+01    0.4340408    0.1243339 -57.51  0.001747634    3.695    0.729
        10 -10.4579    162.5921    202.7763   8.3589573513e+01   8.0978219646e+00    0.4352997    0.1623395  27.64  0.001397034    3.544    0.718
        11 -10.6502    192.8418    194.7842   7.5503617611e+01   4.5673977299e+00    0.8457849    0.4383129 -63.10   0.00235272    6.602    0.849
        12 -10.3348     59.9588    197.4727   1.0772518698e+02   2.5378194456e+01    0.1936485    0.1632384  79.60  0.001135332    1.111    0.100
        13  -9.3488     91.7840    195.3617   9.9483873795e+01   2.1427000322e+01    0.2293561    0.1857213 -89.77 0.0007159739    1.342    0.255
        14  -9.5861    167.0317    226.0005   8.6593664970e+01   2.9833338778e+00     0.212282    0.1498253  -4.91  0.000521283    1.613    0.380
        15  -9.7242     83.1468    194.7349   1.0157619720e+02   2.2860345476e+01    0.3027359     0.187596  25.61 0.0008764256    1.770    0.435
        16 -11.7718     52.5937    191.2547   1.0883786812e+02   2.7780385831e+01        0.474    0.2812054 -37.94  0.001345787    2.325    0.570
        17 -10.5101     54.9959    184.9759   1.0748681302e+02   2.9014520820e+01    0.4504589    0.2056136  54.59  0.001536889    2.512    0.602
        18 -10.0767     34.4961    190.8114   1.1326093428e+02   2.9929539690e+01    0.2115899    0.1538788  66.58 0.0004633716    1.290    0.225
        19  -8.2733     72.2852    188.6159   1.0350353031e+02   2.5869814839e+01    0.1507957    0.1002437  71.27  0.000701041    1.739    0.425
        20  -9.6598     85.4180    186.1769   9.9752148688e+01   2.4573864401e+01    0.2724225    0.1964608  78.38  0.001009933    1.637    0.389
        21  -9.4407     91.6354    185.2951   9.7996384588e+01   2.3843425592e+01    0.2380446    0.1638564  68.95  0.001096383    1.766    0.434
        22 -10.7126     78.7093    183.0743   1.0104638375e+02   2.6312972899e+01    0.4400781    0.3510434  30.42  0.001701178    1.300    0.231
        23 -10.4520    145.3080    183.1348   8.3980868122e+01   1.5226595046e+01    0.2859081    0.2145654  43.00 0.0007038416    1.339    0.253
        24 -10.2028    183.7859    179.3560   7.4383007332e+01   9.0821638564e+00    0.5119355    0.1802245 -51.24  0.001614289    3.735    0.732
        25  -9.9302     88.8249    179.4912   9.7816634750e+01   2.5684423181e+01    0.2280391    0.1919685  71.47  0.000456144    1.249    0.199
        26 -11.4802     45.1030    221.3462   1.1358516083e+02   2.1726114527e+01     0.394747     0.221244 -85.94  0.001019517    1.841    0.457
        27 -10.0264    179.9444    174.4846   7.4222905454e+01   1.0747933940e+01    0.2607373    0.2086965 -59.08 0.0006176517    1.511    0.338
        28 -10.5408    137.4392    173.3122   8.4003172149e+01   1.8855252959e+01    0.2985763    0.1428686 -45.15  0.001139609    2.121    0.529
        29  -9.5843     50.4565    215.0942   1.1182458235e+02   2.2480493197e+01    0.3774022    0.1797566 -76.56  0.001761955    2.181    0.541
        30 -10.2225     84.1474    177.3956   9.8732225989e+01   2.6908389830e+01    0.2710551    0.2231274  82.02 0.0005254216    1.300    0.231
        31 -10.3336     46.4176    171.7872   1.0811147733e+02   3.3301589559e+01    0.4658423    0.2815912 -76.92  0.002109978    1.603    0.376
        32 -10.2281    186.6019    165.9207   7.0991393739e+01   1.1254423819e+01    0.5253845    0.1967335 -36.49  0.001789337    2.884    0.653
        33 -10.1196    191.5793    166.1720   6.9994908226e+01   1.0290492487e+01     0.339287    0.2638056 -48.44 0.0009658804    1.356    0.262
        34  -9.2107    120.4500    165.3260   8.6798605656e+01   2.3822874796e+01    0.1995791    0.1510272 -65.17 0.0009263265    1.467    0.318
        35 -11.0821     86.8507    155.4311   9.4187224560e+01   3.1987317478e+01    0.2959614    0.2741642 -48.42   8.8208e-05    1.074    0.069
        36 -11.4124    134.3215    147.3061   7.9287898841e+01   2.5464552807e+01     1.065343    0.3070376 -54.00  0.002740782    4.533    0.779
        37 -12.1358     93.3609    148.7154   9.0991537045e+01   3.2626555296e+01    0.7444512    0.5345222 -31.76  0.003410623    1.601    0.375
        38  -9.9152    110.9764    149.2538   8.6062958283e+01   2.9429141424e+01    0.3715611    0.2282275  56.88  0.001481537    2.063    0.515
        39  -9.5788    174.7287    148.8507   6.9839963408e+01   1.7041379792e+01    0.2853425    0.2077251 -59.58 0.0008915375    1.627    0.386
        40  -9.9341     76.9796    232.4654   1.0760847657e+02   1.5309375467e+01    0.2848323    0.1642371 -51.05 0.0009286581    2.035    0.509
        41 -11.0691    106.0179    135.4659   8.4428007167e+01   3.3703661116e+01    0.6293985    0.3163227 -29.97   0.00199309    3.312    0.698
        42 -10.8681    105.8367    130.3575   8.3290848438e+01   3.4978345417e+01    0.7524899    0.3778626 -51.22  0.002888468    1.957    0.489
        43 -11.6335     93.5524    135.3225   8.8098928993e+01   3.5942215513e+01    0.2953645    0.2722594 -25.07 0.0003287878    1.109    0.098
        44 -10.9671    135.7185    127.2923   7.4174933177e+01   2.9791817165e+01    0.7883649    0.1777957 -50.40  0.001804124    5.491    0.818
        45 -10.7525    113.6243    128.0597   8.0467268325e+01   3.4057759596e+01      0.34656     0.270247 -28.25 0.0006922482    1.395    0.283
        46 -10.3028    100.9937    123.6005   8.3116068556e+01   3.7499727069e+01     0.289132     0.242108 -14.22  0.000643688    1.331    0.249
        47  -9.4854    161.3173    128.6650   6.8156689765e+01   2.4084760822e+01    0.1576158     0.125069 -83.70 0.0007048241    1.696    0.410
        48  -9.4659    109.1858    117.4719   7.9121892178e+01   3.7410444510e+01    0.2668625    0.2124775 -47.32 0.0003001214    1.239    0.193
        49  -9.6534    127.0149    116.5282   7.3779868422e+01   3.4032780448e+01    0.2388809    0.1552491  41.84 0.0003863416    1.551    0.355
        50  -9.7414     75.0907    209.0546   1.0541902902e+02   2.0672866639e+01    0.3478406    0.1854375 -83.98  0.001481893    2.487    0.598
        51  -9.6065    205.5115    110.3438   5.4766454805e+01   1.8352003329e+01    0.2365956    0.2233052  78.48 0.0006246226    1.145    0.127
        52 -10.8874    118.5208    109.5216   7.4306817366e+01   3.7359357081e+01    0.3129682    0.2066844  45.89   0.00114359    1.550    0.355
        53  -9.9724    134.4452    106.1675   6.9025247512e+01   3.4711844778e+01    0.3781421    0.1431992 -51.52  0.001152069    3.222    0.690
        54 -10.6996    120.1390    104.3373   7.2434501057e+01   3.8164435527e+01     0.231329    0.2006197 -27.69  0.001153871    1.175    0.149
        55 -10.1877     57.0922    210.8854   1.0988094309e+02   2.2619788533e+01    0.2954542     0.176242  49.76  0.001252241    1.544    0.352
        56  -8.9002     84.5847    209.8192   1.0323687940e+02   1.9161884801e+01    0.1860854    0.1274393 -85.52 0.0009322191    1.691    0.408
        57 -11.7179     51.3297     75.7107   8.7483964174e+01   5.6366507653e+01    0.4184555    0.3001975  23.14  0.002248659    1.433    0.302
        58 -12.4761    179.9342     56.6473   4.5815479524e+01   3.3054804500e+01    0.5125516     0.475005 -68.18 0.0008449801    1.051    0.048
        59 -11.8858    246.4008    248.3771   7.4758044868e+01  -1.1209695978e+01    0.4581648    0.2632771  30.95  0.002861978    1.777    0.437
        60 -11.7265     71.2757    240.9568   1.0969178041e+02   1.4331312781e+01    0.2139497    0.1831481 -77.36 0.0005409239    1.263    0.208
        61  -8.6548     61.6558    210.7681   1.0880069829e+02   2.2069349326e+01    0.1194631    0.1024041  -9.68 0.0002736875    1.551    0.355
        62  -9.8209     87.2607    206.4943   1.0215779423e+02   1.9527115860e+01    0.2351227    0.2038939 -84.19 0.0003172157    1.184    0.155
        63 -11.3863     30.7726     42.5849   8.5519006895e+01   6.5306981992e+01     0.319673    0.1939566  30.24  0.001786203    1.748    0.428
        64  -8.5613     54.5346    206.2370   1.0999984604e+02   2.4002928832e+01    0.1456005   0.07967704  55.96 0.0006826672    1.823    0.451
        65 -10.5173     60.2425     21.0127   6.3415801569e+01   6.4331226410e+01    0.2183428     0.160979  31.52 0.0005236497    1.172    0.146
        66 -10.0156     48.1084    241.0175   1.1455313347e+02   1.7215397080e+01    0.1273114    0.1042623  61.96 0.0008487997    1.007    0.007
        67 -10.6490    152.0802    238.3205   9.1745782951e+01   3.0825932445e+00    0.1975333    0.1503753  29.77  0.000757131    1.135    0.119
