#   1 NUMBER                 Running object number                                     
#   2 MAG_AUTO               Kron-like elliptical aperture magnitude                    [mag]
#   3 X_IMAGE                Object position along x                                    [pixel]
#   4 Y_IMAGE                Object position along y                                    [pixel]
#   5 X_WORLD                Barycenter position along world x axis                     [deg]
#   6 Y_WORLD                Barycenter position along world y axis                     [deg]
#   7 A_WORLD                Profile RMS along major axis (world units)                 [deg]
#   8 B_WORLD                Profile RMS along minor axis (world units)                 [deg]
#   9 THETA_WORLD            Position angle (CCW/world-x)                               [deg]
#  10 FWHM_WORLD             FWHM assuming a gaussian core                              [deg]
#  11 ELONGATION             A_IMAGE/B_IMAGE                                           
#  12 ELLIPTICITY            1 - B_IMAGE/A_IMAGE                                       
         1 -13.5681    160.1720     54.6079   7.7953133316e+01   3.8137821625e+01      1.34822     1.184247   8.45  0.004704418    1.363    0.266
         2 -13.7894    172.9622     39.0497   7.1363363707e+01   3.7204900580e+01      1.01919    0.9269899 -11.69  0.003770726    1.330    0.248
         3 -13.7125    189.9533      7.7116   6.1055461946e+01   3.6729345266e+01    0.9542681    0.8115977  74.53  0.004314251    1.107    0.097
         4 -11.3741    217.3088      3.0482   5.7245267549e+01   3.0887829190e+01    0.3293677    0.1545696  88.44  0.001594743    2.110    0.526
         5 -11.3897    210.5083      2.4033   5.7730466294e+01   3.2496098074e+01    0.2897855    0.1583924  83.14  0.001568759    1.600    0.375
         6 -11.5543     10.2953    215.3131   1.4657826849e+02   2.8093300154e+01    0.2185652    0.1105649 -54.85  0.001202759    2.487    0.598
         7  -9.7303    150.7335    250.5966   1.2308225320e+02   7.6464200290e-01    0.2322466    0.1079918  38.28 0.0005110881    1.882    0.469
         8 -19.7030     56.3387    165.0800   1.3164036576e+02   3.4353553274e+01     20.40869     4.915787 -66.37   0.06188583    4.230    0.764
         9 -12.1629     11.4061    206.7293   1.4576493492e+02   2.9804996744e+01    0.3846573    0.2186848  62.58  0.002233662    1.544    0.353
        10  -9.3839    169.9623    182.9810   1.0765989370e+02   1.0167112137e+01    0.1915176    0.1667642  41.80   0.00100405    1.114    0.103
        11 -11.6340    193.3872    195.5313   1.0513187687e+02   3.0573139169e+00     1.171367    0.6383929 -67.59  0.003571645    5.063    0.802
        12  -9.6099     26.8332    179.9411   1.4030720509e+02   3.4229241069e+01    0.1546623    0.1421724 -72.41 0.0007492217    1.284    0.221
        13  -9.2544     17.5730    180.6121   1.4236441471e+02   3.4989794429e+01    0.1183466   0.09438044 -71.92 0.0007879089    1.206    0.171
        14 -10.5564    202.2461    169.9649   9.8092151176e+01   6.2999596810e+00    0.4664069    0.2400895 -47.95  0.001427823    2.012    0.503
        15 -10.4193    204.5710    166.8419   9.6954479848e+01   6.4495440316e+00     0.551083    0.2980593 -56.83   0.00214189    2.455    0.593
        16 -11.9547    194.3638    167.5875   9.9206922354e+01   8.3764066178e+00    0.6613732    0.4383942 -61.68  0.002895458    1.930    0.482
        17  -9.4150    164.0687    170.1077   1.0634451657e+02   1.4127207295e+01       0.2418    0.1887845  87.42 0.0007236346    1.663    0.399
        18 -11.1585    121.1340    164.4550   1.1538293680e+02   2.4072288480e+01    0.3677272     0.268445  67.22 0.0009852882    1.553    0.356
        19 -10.1067    163.5609    202.6972   1.1281505935e+02   7.3642769389e+00    0.3224755    0.2028322  69.25  0.001319393    2.498    0.600
        20 -11.1800    113.6465    160.2225   1.1641024394e+02   2.6490708620e+01    0.3700862    0.2505206 -68.84  0.001052635    1.604    0.377
        21 -10.1221    120.2774    156.4266   1.1397356508e+02   2.6140810830e+01    0.2161057    0.1417308  52.66 0.0009475726    1.586    0.369
        22 -12.1503    134.0349    146.0780   1.0828393189e+02   2.5837564520e+01     1.409831    0.3463781 -54.59  0.003180858    5.886    0.830
        23 -10.1724     10.6675    152.3540   1.4105648233e+02   4.2083269770e+01     0.254101    0.2002443  17.78  0.001449875    1.725    0.420
        24 -10.5726     16.7969    151.4357   1.3949082945e+02   4.1793412899e+01    0.2226694    0.1798918 -46.79  0.001224408    1.404    0.288
        25  -9.7837    174.7604    148.9148   9.9292878046e+01   1.6461419242e+01    0.2900766    0.2168963 -64.90 0.0008107676    1.545    0.353
        26 -10.6495    143.8558    145.7122   1.0577314150e+02   2.3869015906e+01     0.318889    0.2111243 -75.81  0.001251129    2.179    0.541
        27 -12.5551    113.1042    138.4229   1.1195221032e+02   3.1802792023e+01    0.8159636    0.5640449 -15.39  0.003322499    2.357    0.576
        28 -11.8801    103.7190    137.2876   1.1420494484e+02   3.3817224945e+01     0.302249    0.2931096  30.01 0.0004411642    1.117    0.105
        29 -11.8769    106.1899    130.9850   1.1211883485e+02   3.4863440238e+01    0.4906119    0.4112176 -85.84  0.001505376    1.331    0.249
        30 -10.6779    107.5186    124.6370   1.1026777571e+02   3.6105403202e+01    0.2893098    0.2550655 -20.85 0.0005306592    1.268    0.212
        31 -11.4215    135.3073    121.9767   1.0223343440e+02   3.1100472648e+01    0.7206011    0.2091083 -50.25  0.002004486    3.745    0.733
        32 -11.0744    118.8778    128.8953   1.0821547857e+02   3.2919698524e+01    0.3187756    0.2628553 -33.47 0.0006101719    1.305    0.234
        33 -10.4878    160.2532    127.1702   9.7438888595e+01   2.4430055115e+01    0.4046963    0.2750133 -65.04  0.001098898    1.795    0.443
        34  -8.9384    167.3085    133.6832   9.7399641210e+01   2.1421115457e+01    0.1608412    0.1250692 -85.49 0.0004592005    1.634    0.388
        35  -9.9539    113.3897    118.3107   1.0711052786e+02   3.6438033473e+01     0.256758    0.2374562  35.59 0.0004609742    1.126    0.112
        36  -9.8409    168.5111    113.4956   9.2129516682e+01   2.5444636476e+01    0.3579864    0.2391296 -82.78  0.001367608    2.397    0.583
        37 -10.0868    205.2168    110.4034   8.3914178761e+01   1.7531244868e+01    0.3714062    0.2491017  34.37  0.001236176    1.896    0.473
        38 -10.4395    134.6828    105.4811   9.8113736520e+01   3.4837435092e+01    0.5012702    0.1410956 -44.38  0.001443903    3.530    0.717
        39 -12.1178    153.4479    194.9254   1.1361863846e+02   1.0917421636e+01    0.4845843    0.3519447 -86.04  0.002096014    1.911    0.477
        40  -9.2586    148.4270     80.4786   8.7821013180e+01   3.6653640569e+01    0.1480625    0.1453918  66.95 9.635135e-05    1.010    0.010
        41 -10.1993     89.3832     78.2531   1.0313226776e+02   4.9397683050e+01    0.2836384    0.2149943  47.40 0.0009768908    1.455    0.313
        42 -10.7505    179.9915    208.9815   1.1045607021e+02   3.0315000507e+00    0.2275548    0.1706175   1.17  0.001137599    1.701    0.412
        43  99.0000     13.1559    245.1055   1.4796998278e+02   2.1792645345e+01    0.1964235    0.1192445 -66.60  0.001317179    1.793    0.442
        44 -10.5153    153.1384    186.1336   1.1203940191e+02   1.2858424464e+01    0.2262307    0.2065694  -0.64 0.0005562627    1.249    0.199
        45  -9.9110     13.4938     59.5401   1.2431059965e+02   6.2172059978e+01    0.2001384    0.1558822 -40.83 0.0005942098    1.045    0.043
        46  -8.9724    155.3082     38.2812   7.4229852745e+01   4.1581019109e+01    0.1383405   0.09917894  35.69 0.0002194728    1.561    0.360
        47 -12.1535    177.0239     31.9895   6.8848922845e+01   3.7115787432e+01    0.3656987    0.3462421  31.95 0.0008930526    1.251    0.201
        48  -8.9734    125.4916     26.5388   7.6651254558e+01   4.9942301009e+01    0.1311934    0.1181985  55.80 0.0002903758    1.073    0.068
        49 -11.1408    167.4489    231.6995   1.1692562000e+02   1.1488188920e+00    0.3898478    0.2641794 -24.11  0.001133198    2.000    0.500
        50  -9.4442     21.5727    234.5718   1.4589132377e+02   2.2945122376e+01     0.107967   0.08798696 -89.08 0.0007908008    1.257    0.204
