#   1 NUMBER                 Running object number                                     
#   2 MAG_AUTO               Kron-like elliptical aperture magnitude                    [mag]
#   3 X_IMAGE                Object position along x                                    [pixel]
#   4 Y_IMAGE                Object position along y                                    [pixel]
#   5 X_WORLD                Barycenter position along world x axis                     [deg]
#   6 Y_WORLD                Barycenter position along world y axis                     [deg]
#   7 A_WORLD                Profile RMS along major axis (world units)                 [deg]
#   8 B_WORLD                Profile RMS along minor axis (world units)                 [deg]
#   9 THETA_WORLD            Position angle (CCW/world-x)                               [deg]
#  10 FWHM_WORLD             FWHM assuming a gaussian core                              [deg]
#  11 ELONGATION             A_IMAGE/B_IMAGE                                           
#  12 ELLIPTICITY            1 - B_IMAGE/A_IMAGE                                       
         1 -12.9061     38.0361     49.5316   7.2396439424e+01   6.4193751671e+01    0.8429233    0.7405913 -18.82  0.005241192    1.109    0.099
         2 -11.0371    101.8669     29.0251   4.1457126242e+01   5.4647735573e+01    0.3544514    0.2567894 -67.80  0.001922121    1.733    0.423
         3 -10.5659      5.4071     11.4015   7.4770031624e+01   7.4514785211e+01    0.2443257    0.1610508 -18.26 0.0009750955    1.348    0.258
         4 -10.3926      9.7527      9.2489   7.0516977269e+01   7.4343158230e+01    0.3377488    0.2631642  37.87   0.00227561    1.659    0.397
         5 -10.8219     18.4183     16.3616   6.8623709029e+01   7.2268485409e+01    0.4303593    0.2525141   0.18  0.002312379    1.954    0.488
         6 -12.4190      3.7177     17.7609   7.9186007676e+01   7.3690497358e+01    0.5891459    0.4363733 -67.48  0.002654684    2.347    0.574
         7 -10.9790     10.6550     14.7871   7.2862310834e+01   7.3442945554e+01    0.3907124    0.2012184  -7.53  0.001647851    2.614    0.617
         8  -9.7085     14.7563     13.6290   6.9526214193e+01   7.3122942892e+01    0.1786819    0.1359359   4.27 0.0005635916    1.054    0.051
         9  -9.6291     27.5431      9.5087   5.9599937320e+01   7.1846403809e+01    0.1703318    0.1453054  -9.47 0.0005482494    1.247    0.198
        10 -10.3938     28.4604     19.7537   6.4447145173e+01   7.0390696257e+01    0.2765485    0.1841716  -6.59 0.0008410994    1.582    0.368
        11  -9.9951     35.0858     14.7636   5.8412884105e+01   6.9993724342e+01    0.3071409    0.1702757  21.12  0.001279009    1.964    0.491
        12 -11.4683     30.9244     12.9782   5.9634872239e+01   7.0891717982e+01    0.3714241    0.2095226 -34.79 0.0004919632    1.981    0.495
        13 -11.4509    161.1359     21.2412   2.9264824725e+01   4.1723847236e+01    0.3632357    0.2340812  25.03  0.001819429    2.824    0.646
        14 -10.9538    129.0699     18.8803   3.2927062845e+01   4.9376883202e+01    0.3975864    0.2109695 -17.78  0.001910242    2.646    0.622
        15 -11.4608    128.9944     10.5963   3.0457636866e+01   5.0186290090e+01    0.4978053    0.2962317 -76.37  0.001333383    1.889    0.471
        16 -12.8325    237.9919     17.4632   2.2088863587e+01   2.6535070635e+01    0.2939408    0.1912006 -70.93 0.0004924424    1.207    0.172
        17 -12.1166    234.5674     10.6924   2.1064552392e+01   2.7875202533e+01    0.2693112    0.2367769 -41.56  0.001261356    1.496    0.332
        18 -11.2268     60.8216     13.2880   4.6854738595e+01   6.5341119551e+01    0.4461191    0.3696064  49.67  0.002908058    1.127    0.113
        19 -11.0787     55.4812     12.6728   4.8493340576e+01   6.6480449965e+01    0.2651244    0.2147327  -3.33  0.001065493    1.328    0.247
        20 -10.0808     75.8805     15.3884   4.3005024705e+01   6.1947236493e+01    0.2866053    0.1724852  47.72   0.00109773    1.389    0.280
        21 -11.5373     78.0884     10.3401   4.0316269143e+01   6.1938002626e+01    0.5573137    0.1687595  54.56 0.0007393966    2.468    0.595
        22 -10.6206     70.6303     13.2831   4.3668647684e+01   6.3286733519e+01    0.3188521    0.2178319   2.45  0.001436549    1.810    0.447
        23 -11.5682    155.5270     11.3035   2.7350408483e+01   4.4001511221e+01    0.4477627    0.2058331 -41.31  0.002317387    2.137    0.532
        24 -10.5127    138.6436     11.5862   2.9434132722e+01   4.7849417092e+01      0.28053    0.1770526 -55.55   0.00160321    1.643    0.391
        25 -11.2840    177.4210     10.8794   2.5100855162e+01   3.9190214372e+01    0.2718003     0.179931 -33.65 0.0009251313    1.685    0.407
        26  -9.9169     23.1851     11.7614   6.3302458902e+01   7.2231021110e+01    0.1633383    0.1137667   7.43 0.0003630206    1.318    0.241
        27 -11.2174    164.6181      6.5881   2.5245805000e+01   4.2407918148e+01    0.4547295    0.1587626 -33.40  0.002146802    2.844    0.648
        28 -11.9303    145.8448      7.8442   2.7519501495e+01   4.6531632827e+01    0.4113054    0.2677312 -27.45  0.002455806    1.837    0.456
        29 -10.2974    118.3696      9.2417   3.1632833652e+01   5.2789921072e+01    0.2554855    0.2090822 -57.33 0.0009975658    1.327    0.246
        30 -10.0568     39.9828     10.2600   5.3731898987e+01   6.9665480907e+01     0.310124    0.1525519  46.98  0.001282479    1.791    0.442
        31  -9.8784     36.6787      6.8219   5.3467258552e+01   7.0617242290e+01    0.3177865    0.1995428  44.58   0.00126237    1.399    0.285
        32 -11.0234    241.2096      9.0796   2.0422139088e+01   2.6870155103e+01    0.1740239    0.1177761 -80.57 0.0005278659    1.228    0.185
        33 -12.2380    213.3838      5.2612   2.1274302160e+01   3.2380730782e+01    0.6505064    0.2943796 -64.93  0.003726209    1.924    0.480
        34  -9.3222    160.2901      8.6942   2.6187928162e+01   4.3175877839e+01    0.1242303   0.07550552 -68.37 0.0002407958    1.573    0.364
        35 -10.1081     50.3292     14.3938   5.1318442798e+01   6.7303070966e+01    0.4261155    0.2870345 -32.68  0.002529863    1.723    0.419
        36 -10.4622    100.3562      6.5417   3.3845907995e+01   5.7212214452e+01    0.1901064    0.1689087  37.03 0.0001998282    1.227    0.185
        37 -11.1182     91.7264      6.7330   3.5650873866e+01   5.9180073721e+01    0.2297864    0.1773769  53.10 0.0003121327    1.112    0.100
        38 -10.6104    223.0164      5.1152   2.0684857233e+01   3.0566060495e+01    0.1882817    0.1234341 -47.81 0.0005935363    1.342    0.255
        39  -9.9352     73.5902      6.1672   3.9784365287e+01   6.3287031612e+01    0.2064962    0.1405641  37.10 0.0005634932    1.379    0.275
        40 -10.1291     74.3105      2.0366   3.7845108469e+01   6.3460027865e+01    0.3444626    0.2082427  85.44   0.00176762    2.220    0.549
        41  -9.7779     68.6285      5.7356   4.0989111976e+01   6.4398248453e+01    0.1447534    0.1149538 -33.49 0.0003070395    1.523    0.343
        42 -11.6324     27.6044      2.8498   5.5834339533e+01   7.2578271596e+01    0.2825722     0.227235  57.86  0.001339125    1.744    0.426
        43 -10.8590     11.7109      2.9904   6.5553373288e+01   7.4921213654e+01    0.2667462    0.1764745 -19.88  0.001117938    1.464    0.317
        44 -10.4140     32.6397      1.0000   5.2205626752e+01   7.1907870367e+01    0.4452621   0.06788128  47.74  0.001431101    4.864    0.794
        45 -11.2423     18.0206      4.1787   6.2150030232e+01   7.3911001872e+01     0.530651    0.2792803  38.49  0.003037042    1.720    0.419
        46 -10.0749     22.3211      1.3615   5.7901709434e+01   7.3582448194e+01      0.18636   0.09586709  34.85 0.0006936948    1.599    0.374
        47 -10.2498    108.2160     10.3776   3.3718206486e+01   5.5061694240e+01    0.1820429    0.1654787  23.11  0.000733561    1.297    0.229
        48  -9.5275    108.3345      4.7928   3.1815475629e+01   5.5503623197e+01    0.3625282    0.1949275 -88.00  0.001740707    2.273    0.560
        49 -10.6199     59.4506      5.1685   4.3572333721e+01   6.6382387781e+01    0.3338964      0.14064  55.62  0.001280543    1.958    0.489
        50 -10.8501    192.1609      4.1385   2.2436647317e+01   3.6733512600e+01    0.1636108    0.1375557  80.77 0.0005728694    1.260    0.206
        51 -11.0438    178.6731      3.5372   2.3315053408e+01   3.9627387005e+01     0.231412    0.1614246 -73.99  0.000225717    1.188    0.159
        52  -9.2357    171.6625      4.3432   2.4077156104e+01   4.1067049167e+01    0.1295241   0.06921022 -66.53 0.0007049568    1.770    0.435
        53 -10.3093    243.2156      2.4585   1.9174471130e+01   2.7204003483e+01     0.182515    0.1091432 -48.88 0.0005248322    1.337    0.252
        54 -10.0060    201.8859      3.2278   2.1588561135e+01   3.4843601696e+01    0.2492636    0.1018671  56.29  0.001243297    3.041    0.671
        55  -9.6954    126.2063      2.7678   2.8498169737e+01   5.1505542767e+01    0.1601171    0.1260374  50.38 0.0005060258    1.334    0.250
        56 -10.8199    236.9158      1.9006   1.9377002332e+01   2.8362386169e+01    0.1918001     0.114346 -82.62  0.001373796    1.394    0.282
        57 -10.0211     90.9583      2.0166   3.4038990996e+01   5.9727115567e+01    0.1765432    0.1479371  60.59 -0.003769674    1.030    0.029
        58  -9.6897     58.8486    181.8402   9.4560812504e+01   2.9052403469e+01    0.2170274    0.1977439 -25.49 0.0005807009    1.202    0.168
        59 -11.1995    247.5522    249.8375   6.2514209815e+01  -8.8012726106e+00    0.2171042    0.1394676  -8.05  0.001564345    1.198    0.165
        60 -12.4541    226.3068    246.2729   6.5523443060e+01  -6.3430584888e+00     0.698415    0.3424189 -18.82  0.003853583    2.024    0.506
        61 -12.4413    233.0984    246.0723   6.4327964270e+01  -6.9739998330e+00    0.5815253    0.2760665 -34.26   0.00345456    1.769    0.435
        62 -10.2421    109.8790    249.3332   8.9938318531e+01   6.9610194723e+00     0.234523    0.1906072 -40.32  0.001445427    1.381    0.276
        63 -11.9455     89.2363    249.3335   9.4713742018e+01   9.5866284581e+00    0.3792004    0.2474185  27.16 0.0008594605    1.330    0.248
        64 -10.1342     72.2818    250.2144   9.8737266666e+01   1.1498243883e+01    0.2124721    0.1580362  17.79 0.0008784725    1.340    0.254
        65 -12.0286     18.8825    237.2953   1.1008383800e+02   2.0077214634e+01    0.5546998    0.3495689  38.44  0.003252762    1.361    0.265
        66 -11.8285     28.5253    245.5972   1.0840201608e+02   1.7347476752e+01    0.5654361    0.2886524  76.68  0.002837939    2.191    0.544
        67 -12.7313      6.5973    245.1831   1.1320886516e+02   1.9528431215e+01    0.6966371    0.5200665  75.97  0.003819692    1.210    0.174
        68 -12.0443     22.5006    248.6601   1.0992280659e+02   1.7308411186e+01    0.4715561    0.2690571  34.04  0.002087211    1.493    0.330
        69 -10.7732     17.3477    247.2791   1.1097767778e+02   1.8095672267e+01    0.2333315    0.1759568 -58.57 0.0009484547    1.585    0.369
        70 -11.6433     14.4740    244.9861   1.1148757704e+02   1.8848499177e+01    0.3512557    0.2202782 -83.03  0.001325288    1.615    0.381
        71 -10.0453     22.4676    179.6297   1.0492017711e+02   3.3595943774e+01    0.4058563    0.1502845  42.19  0.001586078    2.535    0.606
        72  -9.4564      1.8019    180.1385   1.1079431981e+02   3.5136884716e+01     0.177479    0.1429497 -53.71 0.0006372919    1.322    0.244
        73  -9.0760     38.6831    190.6782   1.0139972333e+02   2.9137497898e+01    0.1427938     0.102593 -35.55  0.000704241    1.664    0.399
        74 -10.0812    167.6143    182.8025   6.6112637941e+01   1.1994837741e+01    0.1950286     0.130357 -52.85 0.0009468836    1.638    0.389
        75 -10.5286     18.5512    173.0398   1.0544601049e+02   3.5660900389e+01    0.2711672    0.1690909  44.44 0.0009752872    1.577    0.366
        76 -10.8689     35.3772    161.2848   9.9004815582e+01   3.7194072356e+01    0.3845041    0.2833099 -12.52 0.0002074226    1.657    0.396
        77 -11.3794     37.0179    165.9884   9.9082445679e+01   3.5766471553e+01    0.5241967    0.3451452  75.07   0.00244637    1.717    0.417
        78 -10.8791     33.1822    166.1969   1.0029652966e+02   3.6106328612e+01    0.2486273    0.2345853 -56.79 0.0003214302    1.087    0.080
        79  -9.7589     25.5007    169.5248   1.0302086693e+02   3.5966216700e+01    0.1394226    0.1300096 -74.44 -6.474212e-05    1.055    0.052
        80  -9.4466    177.2657    168.6639   6.1305818983e+01   1.3282800991e+01    0.1321119    0.1109955 -73.27 0.0002339675    1.588    0.370
        81 -10.2714      5.1738    168.2889   1.0897148109e+02   3.7949507797e+01    0.2039835    0.1663517 -27.87  0.001178106    1.436    0.304
        82 -11.8244     51.9939    162.2684   9.3882890904e+01   3.5054230877e+01    0.7522603    0.5784229 -78.09  0.003189699    1.328    0.247
        83  -8.7940     93.3072    166.6952   8.2003604241e+01   2.8000240443e+01    0.1562209    0.1184565  66.39 0.0003592961    1.606    0.377
        84  -9.7353     67.1696    165.3567   8.9627583892e+01   3.2256044540e+01    0.2308004    0.1271386  39.39  0.000952074    1.782    0.439
        85 -10.4873     44.5915    162.7213   9.6283168098e+01   3.5808605211e+01    0.2957492    0.1275412 -62.41   0.00114206    2.133    0.531
        86  -9.1737     10.3345    162.2987   1.0692055114e+02   3.9145449830e+01    0.1419782   0.09402917 -41.64 0.0007032291    1.652    0.395
        87  -9.8094    222.1674    161.1475   5.1597783694e+01   7.7436568005e+00    0.2681364    0.1537405  47.33  0.001410756    2.237    0.553
        88 -11.7247     21.3365    156.7633   1.0292772160e+02   3.9734643115e+01    0.5134283    0.4018557 -14.84  0.002753525    1.500    0.334
        89  -9.6567    247.6690    157.3386   4.7086654796e+01   4.9032013529e+00    0.1148193   0.08428787 -60.22 0.0007051884    1.740    0.425
        90  -9.1372      7.6950    157.3209   1.0728150118e+02   4.0651213306e+01    0.1446518   0.09179273  61.68 0.0003524137    1.635    0.388
        91  -9.3131    216.3017    154.6852   5.1312905845e+01   9.7358309357e+00    0.1226675   0.09673361 -64.82 0.0002673178    1.615    0.381
        92 -10.7128     10.6122    152.9519   1.0594856095e+02   4.1601726211e+01    0.3443801    0.2066027  19.45 0.0009981127    1.821    0.451
        93  -9.3964    222.6339    151.7923   4.9740516974e+01   9.2945771127e+00    0.1823141    0.1015902 -47.36 0.0005285086    1.633    0.388
        94  -8.9870    105.6889    152.6909   7.5667796771e+01   2.9432294811e+01    0.1600744    0.1206598 -16.44 0.0006156266    1.623    0.384
        95  -9.8761    176.8339    150.0401   5.7583412413e+01   1.7088581490e+01    0.2114093     0.190076 -68.47 0.0006292734    1.281    0.220
        96  -9.9955    207.2484    146.5755   5.1221449549e+01   1.2600911241e+01    0.1683429    0.1258668  24.69 0.0009441911    1.605    0.377
        97 -10.3513      8.4562    145.3383   1.0588064141e+02   4.3779663492e+01    0.2317012     0.131192  15.52  0.001091506    1.976    0.494
        98  -9.3737    187.4791    144.3736   5.4305261385e+01   1.6335329601e+01    0.1355342    0.1247415 -30.21 0.0001246298    1.033    0.032
        99 -10.8998    218.1381    144.8457   4.9099773169e+01   1.1186522861e+01    0.3662302    0.1664588  33.59  0.001580933    3.133    0.681
       100 -10.0997    239.9705    140.1889   4.5000886509e+01   8.7236444756e+00    0.1781999    0.1417798 -50.98 0.0004634265    1.224    0.183
       101  -9.7822     13.8230    140.1329   1.0350499033e+02   4.4789399666e+01    0.1931948    0.1493231 -42.26 0.0003086062    1.307    0.235
       102  -9.4683    143.9704    137.0598   6.2014298248e+01   2.5943079721e+01    0.1872776    0.1655611 -43.55 0.0004906973    1.095    0.086
       103  -9.6036     32.7942    137.1368   9.6495960112e+01   4.3953313883e+01    0.2051333    0.1538142 -44.43 0.0004768703    1.314    0.239
       104 -10.6031      9.2419    136.1784   1.0462550324e+02   4.6167105473e+01     0.222751     0.195116 -63.80 0.0003191862    1.042    0.040
       105 -10.8098    241.2866    134.3219   4.3727321424e+01   9.4903324812e+00    0.2183779    0.1660441 -46.78 0.0004498048    1.134    0.118
       106  -9.9069     20.7291    134.5923   1.0039690222e+02   4.5734991966e+01    0.2418019    0.1591249  81.25 0.0007870275    1.724    0.420
       107 -10.0823      2.7833    134.4039   1.0666648868e+02   4.7041227559e+01    0.1779797    0.1272845 -13.30 0.0004148441    1.619    0.382
       108 -10.3087     53.4576    132.5250   8.8381742209e+01   4.2815685310e+01    0.2876053    0.2500131 -28.60 0.0005469494    1.184    0.156
       109 -11.1864     59.1833    131.6065   8.6185487060e+01   4.2290686994e+01    0.4662953    0.2590505  12.71  0.001797529    2.328    0.570
       110  -9.7622     79.7658    132.2051   7.9290852758e+01   3.9019040619e+01    0.2109365    0.1781033 -16.27  0.000411945    1.302    0.232
       111 -11.9382     36.2252    130.7551   9.4243378735e+01   4.5313235071e+01     0.605871    0.4122578 -23.70  0.002837783    1.706    0.414
       112  -9.6893    127.1608    129.8379   6.4578205763e+01   3.0857684708e+01    0.2104228    0.1827832  -2.35 0.0004588352    1.296    0.228
       113 -11.0541     73.9053    128.9258   8.0531814138e+01   4.0801923987e+01    0.3477932    0.3412972  -6.05  0.001146039    1.016    0.016
       114  -9.5350     56.7165    126.6557   8.6056970666e+01   4.3927355902e+01    0.1985868    0.1371172  35.94 0.0002791395    1.476    0.322
       115 -11.0946     15.2001    125.5622   1.0116022603e+02   4.8575858747e+01     0.453189    0.2388459  22.96  0.002061016    2.007    0.502
       116 -11.2136     10.5870    123.0500   1.0253151607e+02   4.9564015587e+01    0.4034111    0.2615235 -69.43  0.001600472    1.382    0.276
       117  -9.3814     45.6059    125.2540   8.9819657903e+01   4.5719940790e+01    0.1550873    0.1074164  54.75 0.0006957823    1.690    0.408
       118  -9.4771    219.5933    124.1865   4.4779088876e+01   1.4536629592e+01    0.1855146    0.1064392 -33.55 0.0009426792    1.677    0.404
       119 -10.1788    243.6755    122.0820   4.1128887094e+01   1.1108004553e+01    0.1784146    0.1236578 -42.24 0.0005565688    1.136    0.120
       120 -10.0709     20.3501    121.7370   9.8675282552e+01   4.9192716607e+01    0.2107004    0.1105565 -57.55 0.0007654447    1.660    0.397
       121  -9.5186     43.5032    121.4910   8.9871317363e+01   4.6959863630e+01    0.1485213    0.1395649 -42.76 -0.0001739737    1.010    0.010
       122  -9.3496     70.9668    121.0000   7.9758591817e+01   4.3285310153e+01    0.2503763   0.08759626  31.75 0.0007783265    2.891    0.654
       123 -10.4978      1.3848    118.5816   1.0541078864e+02   5.1284344577e+01    0.2446688    0.1161795 -72.46 0.0002024817    1.846    0.458
       124 -11.5279     30.2667    117.7972   9.4221912248e+01   4.9351011146e+01    0.3372657    0.2198912   1.51 0.0005454478    1.782    0.439
       125 -10.0244     86.3640    116.4580   7.3411327857e+01   4.1810809356e+01    0.2971742    0.1916341 -56.57 0.0008377045    1.614    0.380
       126 -10.7184     52.3205    115.0549   8.5206629649e+01   4.7524727772e+01    0.4316146    0.2328083 -74.47 0.0008740691    2.507    0.601
       127 -12.3236     15.6760    114.2952   9.9323748241e+01   5.1512472033e+01     0.553105    0.4075783 -71.98  0.001109932    1.287    0.223
       128 -12.1322     15.8408    108.3424   9.8296932647e+01   5.3049023813e+01    0.6415575    0.3315136   1.38  0.002362046    2.333    0.571
       129  -9.5911    213.7702    115.6563   4.3897684045e+01   1.6981596881e+01    0.1568697    0.1214255  69.18 0.0003828089    1.572    0.364
       130 -10.1478    183.0201    114.3049   4.8586875407e+01   2.2886518643e+01    0.1895213    0.1822949 -85.17 0.0008769839    1.097    0.089
       131 -10.6466     72.4624    116.3118   7.8128521789e+01   4.4222255140e+01    0.3892728    0.2592682 -68.55   0.00098912    1.775    0.437
       132 -10.9221    249.5709    111.8857   3.8529637512e+01   1.1829543500e+01    0.2393563    0.1672552 -47.69 0.0005797471    1.129    0.114
       133 -10.4897     94.4303    112.3584   6.9747264229e+01   4.1300958253e+01    0.3196994    0.2901193 -18.43  0.001046042    1.147    0.128
       134  -8.9508    121.2865    111.6702   6.1649936343e+01   3.6100163477e+01    0.1537055    0.1224447 -87.41  0.000462768    1.615    0.381
       135  -9.3542    115.3402    111.7237   6.3305543115e+01   3.7311997880e+01    0.1546576    0.1222696  78.12 0.0003173234    1.617    0.382
       136 -10.2873     49.2091     99.7745   8.2844796719e+01   5.1771621788e+01    0.3768121    0.2079261 -12.73  0.001339828    3.043    0.671
       137 -11.4689     54.8876    109.0193   8.2851138201e+01   4.8704682844e+01    0.4423217     0.275885 -59.30 0.0009836262    1.607    0.378
       138 -11.3104     52.0853    103.6236   8.2645734643e+01   5.0435479158e+01    0.4694782    0.3414185   1.44  0.002242851    1.570    0.363
       139 -11.6790     24.6974    105.9853   9.4256300295e+01   5.2937242375e+01     0.613991    0.4097417 -17.63  0.001869011    1.666    0.400
       140 -10.8853      1.7636    108.5230   1.0399300638e+02   5.3877262162e+01    0.4596644    0.2652172 -39.95  0.001795755    1.644    0.392
       141  -9.8639      2.6742    104.6998   1.0309805973e+02   5.4813008080e+01    0.1676392    0.1277627  27.50 0.0009381669    1.468    0.319
       142 -10.3197     83.3159    107.8472   7.2233510224e+01   4.4417641586e+01    0.3309381    0.2505987  26.38  0.001167559    1.366    0.268
       143 -10.0725    111.9568    105.7388   6.2689948305e+01   3.9322887106e+01    0.2138617    0.1900656  42.74 -0.000430966    1.119    0.106
       144  -9.5326    108.0262    106.1984   6.3953406788e+01   4.0027242916e+01    0.2805073     0.171554  43.68 0.0007390822    1.625    0.385
       145  -9.6070    119.4595    104.4690   6.0256636430e+01   3.8033127951e+01    0.1512984    0.1472128   0.90 0.0005744349    1.060    0.057
       146 -10.2908     37.8293    102.6335   8.8156036642e+01   5.2465559701e+01    0.2746899    0.2366353 -85.59  0.001085802    1.332    0.249
       147 -10.6763    144.1954     98.9385   5.2665983614e+01   3.3852714882e+01    0.3582167     0.269291 -62.15  0.001084102    1.449    0.310
       148 -10.8543    107.9167     99.5334   6.2173956964e+01   4.1498546295e+01    0.2639515    0.2350052 -54.13 0.0003067099    1.159    0.137
       149 -11.5869     62.3036     98.6184   7.7389955387e+01   5.0151318565e+01    0.3874266    0.3128516   4.37  0.001149996    1.328    0.247
       150  -9.7716     66.6566     97.7350   7.5497072606e+01   4.9665223548e+01    0.2262952    0.1965322 -20.66 0.0001450429    1.166    0.142
       151 -10.1380     23.0364     99.3203   9.3646560702e+01   5.4779064091e+01    0.3669313    0.1743506   5.43  0.001459592    2.617    0.618
       152 -11.5409     14.9509     96.9094   9.6649442363e+01   5.6032210762e+01    0.4668356     0.272882  47.83   0.00216984    2.123    0.529
       153 -10.9290      9.8023     98.4699   9.9143437994e+01   5.5989276020e+01    0.3345433    0.1829505 -75.68   0.00109792    1.874    0.466
       154  -9.4375     75.6596     97.7114   7.2177312382e+01   4.8143304141e+01    0.1559573    0.1170022  -7.85  0.000431172    1.643    0.391
       155  -9.0350     96.2500     96.3519   6.4835507777e+01   4.4561316057e+01    0.1524218    0.1178034 -14.53 0.0002000848    1.593    0.372
       156 -11.9767    158.8127     90.5098   4.7447750046e+01   3.2258390780e+01    0.6078001    0.5338764 -79.28  0.002367191    1.152    0.132
       157 -10.0338    153.5456     83.5011   4.6690629016e+01   3.4659199565e+01    0.3155876    0.2275888 -79.25 0.0009941625    1.705    0.413
       158 -10.9099    156.8268     82.3701   4.5761805398e+01   3.4131356359e+01    0.3810163     0.310528  30.57  0.001646999    1.519    0.342
       159  -9.9594    227.1718     92.8107   3.7485735441e+01   1.8396460453e+01    0.1914425    0.1393705 -59.42  0.000569582    1.241    0.194
       160 -10.0540     66.2816     93.1965   7.4385518262e+01   5.0779345574e+01    0.1987983    0.1744502  63.21 0.0004191535    1.344    0.256
       161 -10.1470     31.1644     91.5985   8.8444460339e+01   5.5919729026e+01    0.4050373    0.1693444 -56.21  0.001629969    2.138    0.532
       162 -10.6640      2.2847     92.5917   1.0142104921e+02   5.7894257949e+01    0.3052309    0.1933406 -19.76  0.001591893    1.638    0.389
       163 -10.9177     37.5850     91.6008   8.5655628519e+01   5.5212314692e+01    0.3256854    0.2844027 -18.54 0.0005060299    1.092    0.084
       164  -9.3181     38.8525     86.1423   8.3701559779e+01   5.6361880662e+01    0.2637979    0.1477975 -38.11 0.0007438347    1.785    0.440
       165  -9.5802     25.3979     91.1556   9.0882505543e+01   5.6596650361e+01     0.189391    0.1319529 -77.26 0.0005176101    1.676    0.403
       166 -10.1045     10.6478     90.7708   9.7386961752e+01   5.7861661368e+01    0.2177796    0.1665958 -15.22  0.000632179    1.317    0.241
       167 -10.7527     83.7006     88.8532   6.6805814966e+01   4.8634921311e+01    0.3585083    0.2934836  69.22  0.001604471    1.513    0.339
       168  -9.7689     73.9618     89.6415   7.0496000901e+01   5.0262127130e+01    0.2722052    0.1919977 -36.53 0.0006683898    1.466    0.318
       169 -11.0153     22.2429     87.4223   9.1452858547e+01   5.7792379912e+01    0.4131398    0.2145085 -48.22 0.0006743227    1.693    0.409
       170 -10.5609     96.6441     88.6705   6.2495150849e+01   4.6109979978e+01    0.4117857    0.2564204  43.66  0.001829645    1.566    0.361
       171 -10.3038     78.6674     87.6027   6.8195749103e+01   4.9851515187e+01    0.2989033    0.1907907 -49.31  0.001348157    1.621    0.383
       172 -11.6319     66.3220     85.8716   7.2254748491e+01   5.2420060816e+01    0.5279847    0.3063903 -37.40   0.00228531    1.830    0.454
       173 -10.0688    111.6209     85.0828   5.7007761582e+01   4.3669373222e+01    0.5742722    0.3462147  77.25  0.001979861    3.396    0.706
       174 -10.0036      9.2735     85.9508   9.7080470104e+01   5.9134659023e+01     0.255612    0.1779397  58.73 0.0008266588    1.878    0.467
       175 -10.6035      7.3636     81.4398   9.7072503516e+01   6.0345784041e+01    0.3449701    0.2098909 -37.60  0.001789438    1.476    0.323
       176 -11.9028    166.7835     83.4665   4.4204608338e+01   3.1766652235e+01    0.6864777    0.3619422  58.59  0.002393241    1.966    0.491
       177 -11.6934     29.9237     82.0457   8.6635564674e+01   5.8332249182e+01    0.4574705    0.2884485 -20.34   0.00167662    1.747    0.428
       178 -10.3583     74.2191     82.1728   6.8162216917e+01   5.1828176466e+01    0.3146132    0.1956517 -34.99 0.0005102339    1.742    0.426
       179  -9.5369     15.9944     83.5176   9.3452558418e+01   5.9251456380e+01    0.1948981    0.1311312  10.61 0.0009463923    1.545    0.353
       180 -11.0318     47.8917     87.5458   8.0189785293e+01   5.4868308993e+01    0.4132949    0.2205977 -46.97  0.001235539    1.782    0.439
       181 -10.8617     42.3292     81.5912   8.0924549491e+01   5.6979825351e+01    0.2693205    0.2223682 -63.52  0.001096753    1.362    0.266
       182 -11.7531     14.3613     75.3589   9.2354503137e+01   6.1307958694e+01    0.5811059     0.387235  24.09  0.001342685    1.578    0.366
       183 -13.9137     16.8197     67.4720   8.9111047963e+01   6.2910941882e+01     0.842905    0.5534604 -77.49 0.0008145639    2.047    0.511
       184 -11.7755      6.7702     73.3131   9.5636709593e+01   6.2306848449e+01    0.6070979    0.2881872  11.81  0.002466749    2.206    0.547
       185 -12.4533      3.6440     63.1817   9.4893539653e+01   6.4809657349e+01    0.8770068    0.4743716 -72.92  0.003518035    2.143    0.533
       186 -11.9716     10.7788     61.6288   9.0676472568e+01   6.4683387790e+01    0.3114433    0.2608198  32.28 0.0001230677    1.396    0.284
       187 -10.8287     12.0592     57.0613   8.8686716377e+01   6.5573114053e+01    0.2827551    0.2321255  60.05 0.0003653144    1.711    0.416
       188 -11.5594      3.5200     48.6074   9.1033852819e+01   6.7964947731e+01    0.4779463    0.4346628 -88.78  0.002327616    1.482    0.325
       189 -10.3950      7.1809     41.8594   8.6670230617e+01   6.9068528264e+01    0.4378342    0.1599589 -55.06  0.001939494    2.557    0.609
       190 -11.8101     12.6003     50.1164   8.6235370334e+01   6.6977047377e+01    0.5779684    0.3935002 -34.94  0.002642252    1.283    0.220
       191 -10.6596     10.8843     44.0906   8.5212115941e+01   6.8329152775e+01    0.2225944    0.2087981  23.08 0.0007263839    1.332    0.249
       192 -10.0490      2.9087     78.6348   9.8641266899e+01   6.1270350085e+01    0.3063033    0.1303542 -52.42  0.001392534    1.871    0.466
       193 -12.1793     44.9409     74.7512   7.7753486177e+01   5.8153848728e+01    0.4397467    0.2720432  43.90   0.00155495    1.848    0.459
       194  -9.4730    116.9848     83.5263   5.5096447669e+01   4.2797345547e+01    0.2246405    0.1425439  49.03 0.0008012949    1.533    0.348
       195 -10.4485     99.0497     75.2640   5.7689482062e+01   4.8255552495e+01    0.3089208    0.1945881 -59.94  0.001325883    2.090    0.521
       196 -10.0334     74.3375     74.7027   6.5765690731e+01   5.3340981704e+01    0.3144573    0.2116248  -1.02  0.001348261    2.181    0.542
       197 -11.3755     55.3529     74.4404   7.3155106545e+01   5.6678267124e+01    0.4006771    0.3215683  57.80  0.002092549    1.576    0.365
       198 -12.4079     50.8281     68.3652   7.3124109146e+01   5.8644527873e+01    0.5484933    0.4076883  -6.98  0.000810933    1.473    0.321
       199 -10.8341     51.9369     62.7703   7.0745745363e+01   5.9591297613e+01    0.3360139    0.2488045  -9.06  0.001484968    1.484    0.326
       200 -11.1428     46.7252     59.2029   7.1820090760e+01   6.1094464632e+01    0.5831496    0.3262784 -47.75  0.002257398    1.871    0.465
       201 -10.2783    167.9344     73.4724   4.1525803133e+01   3.3174095262e+01    0.2256047     0.170775 -56.77 0.0003873256    1.265    0.209
       202  -9.8838    167.8718     69.5096   4.0548763263e+01   3.3818131350e+01    0.1872952    0.1844621 -72.82 0.0004151523    1.165    0.142
       203  -9.7472     61.5989     73.7051   7.0350981275e+01   5.5812471170e+01    0.1906035    0.1394948 -56.20 0.0008274839    1.569    0.363
       204 -11.2006    103.4801     71.1511   5.5098847744e+01   4.8054235182e+01    0.4400522    0.2430156 -24.18  0.001696727    2.706    0.630
       205  -9.2998    194.5512     69.5259   3.6647552596e+01   2.8150590370e+01    0.1287141     0.111498 -65.21 9.727208e-05    1.016    0.016
       206 -11.0745    122.8557     66.6351   4.8640459975e+01   4.4489471240e+01    0.5723035    0.1953906 -40.50  0.001856694    3.002    0.667
       207 -10.1221    120.8101     60.5868   4.7301140964e+01   4.5938606779e+01    0.2713556    0.1980433  58.00  0.001401679    1.290    0.225
       208 -11.2819     43.1529     67.7771   7.6363743846e+01   5.9888957569e+01    0.2646953    0.2423195  17.11  0.001564728    1.119    0.106
       209 -11.0057     44.6836     43.5966   6.6859932147e+01   6.4237642991e+01    0.5710456    0.3825242 -71.98  0.002425167    3.508    0.715
       210 -11.8014     45.1040     38.2960   6.4477478914e+01   6.5035955505e+01    0.3389954     0.244851  54.72            0    1.842    0.457
       211 -12.1988     30.2448     62.8483   8.0943667108e+01   6.2569325615e+01    0.7035567    0.5440652 -36.08  0.003242828    1.200    0.166
       212 -10.6737     18.2879     31.1759   7.5724530198e+01   6.9967054635e+01    0.5141806    0.4732741  26.88  0.003529137    1.392    0.282
       213 -10.1444     30.1933     32.1923   6.9349234969e+01   6.8283075732e+01    0.4808295    0.2171138  36.51  0.001913685    2.093    0.522
       214 -11.9815     37.5004    243.3591   1.0621435824e+02   1.6888734518e+01     0.506005    0.3174317  80.53   0.00168077    1.713    0.416
       215 -11.4314     34.9850     41.9762   7.0968285961e+01   6.5975912310e+01    0.6187645    0.3371534   3.54  0.002573466    2.858    0.650
       216 -11.0346     27.4264     54.6995   7.9674893614e+01   6.4565777625e+01    0.3743721     0.191104 -45.07  0.001167827    1.840    0.457
       217 -12.0036     26.2138     48.6051   7.8151321745e+01   6.5900297186e+01    0.8487563    0.5007213  57.34  0.003436337    3.774    0.735
       218 -11.1280     24.1811     41.5922   7.6602220482e+01   6.7449881479e+01    0.6153405    0.3752871  46.83   0.00282115    2.328    0.570
       219 -12.9372     27.5789     37.7047   7.3145906377e+01   6.7718277093e+01    0.3070119     0.265291  24.03 0.0004137807    1.243    0.195
       220 -11.5331     24.5221     34.5351   7.3518924203e+01   6.8649946008e+01    0.2618127    0.1798678   1.23 0.0004974322    1.409    0.290
       221  -9.1919    149.0000     67.0046   4.3205902605e+01   3.8442687146e+01    0.1638623    0.1508657 -66.68            0    1.062    0.059
       222  -9.1026     81.3161     65.6919   6.0299842794e+01   5.3708162894e+01    0.2143189    0.1287591  64.88 0.0008411934    2.617    0.618
       223 -10.4223     77.0298     62.2069   6.0608929640e+01   5.5191931981e+01     0.236158    0.2100701  64.48 0.0003283627    1.295    0.228
       224 -12.3186    201.9930     62.5141   3.4168729908e+01   2.7680667288e+01    0.2346988     0.196088 -50.66 4.662449e-05    1.143    0.125
       225 -10.1975    155.9904     63.5161   4.1011992528e+01   3.7401298494e+01    0.2475353    0.1727867 -55.71 0.0003662044    1.436    0.303
       226 -10.0789    131.3130     63.5395   4.5809709160e+01   4.3051135826e+01    0.2758819     0.174716 -22.32  0.001245157    2.133    0.531
       227 -10.6767     78.5272     70.2488   6.2797161734e+01   5.3410588536e+01    0.3695287    0.2474515  63.35  0.001084919    2.061    0.515
       228 -10.5539    113.7646     61.1943   4.9203431760e+01   4.7453556403e+01    0.2576297    0.2195628 -83.28 0.0004909487    1.318    0.241
       229  -9.8030    110.4703     54.5160   4.7917030530e+01   4.9252238054e+01    0.2104787    0.1660218  26.61 0.0003328918    1.469    0.319
       230 -11.7192     97.4641     59.4397   5.3061334545e+01   5.1388183971e+01    0.4652422    0.3468198  75.96  0.001060603    1.696    0.410
       231 -12.6711    105.1833     52.4557   4.8605118445e+01   5.0767438175e+01    0.4511981    0.3150812  35.93 0.0002481239    1.530    0.347
       232 -10.1061    159.0884     59.7111   3.9492807799e+01   3.7276173835e+01    0.2218593     0.170672 -57.84 0.0005470542    1.263    0.208
       233  -8.9985    138.2512     60.3068   4.3438212376e+01   4.1955433451e+01    0.1284838    0.1086023  19.84 0.0001685532    1.509    0.337
       234 -10.9831     85.7458     57.7691   5.6103710095e+01   5.4181783198e+01    0.4142644    0.2051327 -36.05  0.001757222    2.216    0.549
       235 -11.2155     88.6266     53.0868   5.3555438144e+01   5.4331675553e+01    0.5113503    0.2657526 -40.45   0.00227686    2.084    0.520
       236 -10.3103    127.1992     58.9809   4.5366162302e+01   4.4715807197e+01    0.2256247    0.1852585  61.25 0.0002431623    1.140    0.123
       237 -11.0383     58.4606     58.9132   6.6599037693e+01   5.9242069505e+01    0.3599807    0.2264496  31.91  0.001587227    1.514    0.339
       238  -9.9417     69.5634     58.5211   6.2049840958e+01   5.7296209903e+01    0.1409542    0.1281611  17.49 0.0002121938    1.016    0.015
       239 -10.8431     80.9845     55.4379   5.6862576766e+01   5.5559681684e+01    0.4455613    0.2808089   3.60  0.001575186    2.779    0.640
       240  -9.5224    147.4235     56.5288   4.0648972896e+01   4.0407361011e+01    0.1349532    0.1242603  88.63 9.851492e-05    1.019    0.019
       241 -10.1078    115.0113     56.5249   4.7431626043e+01   4.7904859290e+01    0.3276407    0.1358711  61.03   0.00120694    2.637    0.621
       242 -11.0343     75.1800     55.7502   5.8990743524e+01   5.6683186932e+01    0.3134218     0.221796 -31.65 0.0002732795    1.522    0.343
       243  -9.5735     72.7238     51.0092   5.8144165365e+01   5.7958211673e+01     0.472214    0.2519813  39.01   0.00214496    1.761    0.432
       244 -10.3342     77.9837     50.8352   5.6226340132e+01   5.6924527417e+01    0.3104871    0.2004938  57.47  0.001471069    1.707    0.414
       245 -10.4072     78.4483     47.1273   5.4702751099e+01   5.7407761068e+01    0.2304395    0.2109679  -9.47 0.0003028216    1.152    0.132
       246  -9.6308    230.5132     54.9981   2.9677644141e+01   2.3300671759e+01    0.1769436   0.09550403 -42.24 0.0008996591    1.570    0.363
       247  -9.8426    182.2760     54.7384   3.4853291082e+01   3.2879475071e+01    0.1510406    0.1469602  48.66  0.000288251    1.302    0.232
       248  -8.9127    156.7015     53.3213   3.8210035046e+01   3.8746611191e+01    0.1394935   0.09448562 -71.32 0.0002934322    1.622    0.384
       249 -10.5246     61.9914     52.5985   6.2835797719e+01   5.9740810718e+01    0.2229379     0.194769 -35.56 0.0002957069    1.240    0.193
       250 -10.4196     61.9413     48.3079   6.1227756837e+01   6.0471363262e+01    0.2740227    0.2364615  30.20  0.001250656    1.063    0.059
       251 -10.8005     57.2722     50.9934   6.4168704587e+01   6.0863593044e+01    0.2821524    0.2436419 -20.15  0.001105738    1.170    0.145
       252 -10.9398     57.2901     43.9537   6.1420923724e+01   6.2028946104e+01     1.044149     0.467673  23.26  0.003310115    4.472    0.776
       253 -11.3436     51.7767     47.0264   6.4998234737e+01   6.2491068939e+01    0.5939872    0.3228134 -51.52  0.002521605    2.404    0.584
       254 -10.8190     54.4931     40.4730   6.1192078454e+01   6.3080821031e+01    0.3939078    0.2699311   0.67  0.001582132    1.778    0.438
       255 -12.3146     57.4364     33.9777   5.7262612618e+01   6.3504334049e+01    0.4177552    0.3231456   6.64 0.0005789632    1.351    0.260
       256 -11.9998    129.8699     49.6619   4.2027673547e+01   4.5471856951e+01    0.6236321    0.3740094  61.99   0.00305914    1.552    0.356
       257  -9.8633    120.0541     52.3602   4.4947755479e+01   4.7368013259e+01    0.2160306    0.1516373  43.00 0.0008513922    1.463    0.317
       258  -9.2962     96.2501     52.0133   5.0907369083e+01   5.2836097808e+01    0.1583198    0.1215878 -34.44            0    1.420    0.296
       259  -9.9280     68.5176     47.4412   5.8350729552e+01   5.9359700579e+01     0.300883    0.2142532 -74.86 0.0007511629    2.607    0.616
       260 -10.1885    104.1441     47.0559   4.7078671052e+01   5.1796853406e+01    0.2913855    0.1825555  48.18 0.0009687111    1.464    0.317
       261 -11.1777     95.8162     42.2224   4.7629823900e+01   5.4357476211e+01    0.4692737     0.313559 -12.21  0.002305221    2.034    0.508
       262  -9.7720     91.6865     45.3211   4.9892347722e+01   5.4839326938e+01    0.2588717    0.1781413 -64.61   0.00100578    2.075    0.518
       263 -10.9562     91.4350     41.6852   4.8665608913e+01   5.5408220207e+01     0.409918    0.3062049 -85.85  0.002102112    1.877    0.467
       264 -11.3032     81.9733     40.4087   5.1041460473e+01   5.7647298816e+01    0.6304585    0.2501239 -34.95   0.00256353    2.782    0.641
       265 -10.2799     82.6134     34.0809   4.8445851785e+01   5.8357980917e+01    0.3243306    0.1811796  60.64  0.001111451    1.835    0.455
       266 -10.1572     80.0269     26.2342   4.6174045178e+01   5.9880027596e+01    0.2332257     0.193245 -19.12 0.0006846197    1.370    0.270
       267 -11.7093     75.1149     35.1406   5.1236573275e+01   5.9819905737e+01    0.4622093    0.3319534  28.01  0.001236335    1.423    0.297
       268 -10.2300     79.7021     30.3905   4.7905902103e+01   5.9453211323e+01    0.2305074    0.2142309 -51.82 0.0006039581    1.273    0.215
       269 -10.4701     71.6072     28.7166   4.9828130769e+01   6.1380096187e+01    0.2319237    0.1425829 -51.99 0.0002911727    2.306    0.566
       270  -9.5851    151.5140     45.5503   3.6969804555e+01   4.1006103524e+01    0.1330012    0.1176252  88.47 5.327295e-05    1.005    0.005
       271  -9.6589    143.0855     45.5093   3.8356232214e+01   4.2961943788e+01    0.1939419    0.1217262  63.74 0.0004345316    1.466    0.318
       272 -10.0788    112.8063     45.0201   4.4285213240e+01   5.0092371405e+01    0.2500312     0.191657  14.87  0.001311082    1.720    0.419
       273 -10.2087    110.8371     41.8089   4.3695860585e+01   5.0983613316e+01    0.2055115    0.1697285  83.95 0.0002232064    1.279    0.218
       274 -10.4561     72.0523     42.4622   5.5148984937e+01   5.9420495521e+01    0.3239897    0.2902529 -57.11 0.0008993392    1.373    0.272
       275 -10.2558    129.7681     41.5935   3.9636770499e+01   4.6591378669e+01       0.3462    0.1616968  42.73  0.001416552    2.608    0.617
       276  -9.9920    121.0464     41.6832   4.1405575083e+01   4.8622554204e+01    0.1953889    0.1680554  62.24  0.001155813    1.054    0.052
       277 -10.2728    148.6002     39.4434   3.5769466232e+01   4.2473620988e+01    0.3025554     0.191676 -62.13  0.000820048    1.700    0.412
       278 -10.3057    226.0650     33.0524   2.5796603003e+01   2.6905673423e+01    0.1688814    0.1312101 -64.74 0.0003054597    1.033    0.032
       279 -10.9416    224.5949     37.4651   2.6767891773e+01   2.6642148899e+01    0.3916573    0.1964926 -70.48  0.001648061    2.049    0.512
       280 -11.1230    221.7004     31.8576   2.5899546294e+01   2.7865293736e+01     0.216099    0.1537441 -53.68 0.0003106359    1.168    0.143
       281 -10.7349    184.3011     37.6767   3.0620672398e+01   3.4704593144e+01    0.3388452    0.1822384 -60.66   0.00175591    1.843    0.457
       282 -10.5270    101.1783     36.8209   4.4338375770e+01   5.3858648847e+01    0.3235097     0.230454  28.83   0.00104782    1.638    0.390
       283 -10.3352    248.1842     36.8996   2.4926571111e+01   2.2521214278e+01    0.1716236    0.1081335 -60.62 0.0005109411    1.212    0.175
       284  -9.8960    114.1898     37.3538   4.1486299161e+01   5.0782246987e+01    0.2035612    0.1527603 -77.53 0.0001646367    1.571    0.363
       285 -10.1958    111.0299     34.7570   4.1326687013e+01   5.1841851934e+01    0.3099996    0.1724464  58.45  0.001312961    1.575    0.365
       286  -9.7677      1.4051     36.8485   8.8556014889e+01   7.0463449095e+01    0.2112667    0.1129168 -59.20  0.001114184    1.983    0.496
       287  -9.5637    171.7731     36.4141   3.1780615419e+01   3.7592910433e+01    0.1802232    0.1027175  58.12 0.0009454939    1.760    0.432
       288  -9.1898    164.2829     36.3286   3.2707364561e+01   3.9277464479e+01    0.1184575   0.09712959  36.53  0.000175514    1.606    0.377
       289  -9.8685    134.4644     35.2354   3.6896975636e+01   4.6291636414e+01    0.2314065     0.135958 -25.72  0.001140567    2.090    0.521
       290  -9.8203    128.6185     35.8967   3.8137991285e+01   4.7582489644e+01    0.1841896     0.166401  14.06 0.0005659389    1.364    0.267
       291 -11.9667      8.5288     32.3169   8.2282827954e+01   7.0758277250e+01    0.3833993    0.2836617 -62.30  0.001486851    1.819    0.450
       292 -10.7836    192.5817     33.8538   2.8881542814e+01   3.3420771265e+01    0.2272992    0.1896153  77.80 0.0005581693    1.220    0.180
       293  -9.9391    177.4915     34.0491   3.0534878658e+01   3.6623763198e+01    0.1779424    0.1158575 -39.04 0.0008670293    1.562    0.360
       294 -10.5861    122.7476     32.8782   3.8314779853e+01   4.9326502966e+01    0.4671535    0.1621664  59.84  0.001860104    2.444    0.591
       295 -10.0722    204.9707     32.4921   2.7419226506e+01   3.1046569449e+01    0.1733763     0.103927  78.06  0.001032781    1.591    0.372
       296  -9.9847    167.0137     31.6687   3.1190189596e+01   3.9226442559e+01    0.1735997    0.1466028  87.86  0.001123376    1.050    0.047
       297  -9.7250      1.3119     31.6455   8.6741961932e+01   7.1459032514e+01    0.1643171   0.08890814 -43.13 0.0009098332    1.591    0.371
       298  -9.2044     88.2507     31.3133   4.5761529250e+01   5.7465032137e+01    0.1290236   0.09474321  25.73  0.000387175    1.520    0.342
       299 -11.0685     49.8695     30.7742   5.9071404900e+01   6.5343445010e+01    0.2970157    0.2215511 -27.29            0    1.429    0.300
       300  -8.8920     49.4632     26.4757   5.7329127474e+01   6.6004412843e+01    0.2704343    0.1446926  43.49 0.0005596609    1.662    0.398
       301 -10.8720     73.1845    244.6026   9.7988553983e+01   1.2532161623e+01    0.3273605    0.1941631  21.01  0.001483907    1.664    0.399
       302 -11.8684    238.0701     27.7396   2.3948159664e+01   2.5358663792e+01    0.2481392    0.2293025 -43.77 0.0003484115    1.480    0.324
       303 -11.6614    197.7836     28.1269   2.7133282267e+01   3.3022665334e+01     0.263933    0.1880645  74.35 0.0006613504    1.357    0.263
       304  -9.9296    156.9401     28.2848   3.1594717556e+01   4.1897729349e+01    0.1756954    0.1377569  77.57 0.0002358041    1.127    0.112
       305 -11.4878    112.6223     27.4068   3.8559989075e+01   5.2332484585e+01    0.5559362    0.2061435  56.57 0.0005362533    2.229    0.551
       306 -10.3869    246.2349     27.3742   2.3360676585e+01   2.3980867780e+01    0.1451906   0.08217254 -84.26 0.0009517573    1.685    0.406
       307 -10.7125    214.7653     25.0873   2.5092869826e+01   2.9984033879e+01     0.237518    0.1912644 -31.53  0.001035295    1.559    0.359
       308 -10.3012    226.7173     26.2765   2.4448856567e+01   2.7583323417e+01    0.1447169   0.07887047 -40.43 0.0008837324    1.657    0.397
       309 -10.1751    145.1504     26.4253   3.2700290089e+01   4.4821881585e+01    0.3916138   0.06705832  59.78  0.001268678    4.077    0.755
       310  -9.4160     90.5576     26.5055   4.3342879787e+01   5.7514599893e+01    0.1314584    0.1154423  55.04 4.348835e-05    1.028    0.027
       311 -13.2032     75.3019    238.3806   9.6858371532e+01   1.3570545674e+01    0.6907347    0.6546336 -39.88  0.003854029    1.202    0.168
       312  -8.9133    115.6707    244.6884   8.8032715774e+01   7.0966050477e+00    0.1344444   0.09406904  -8.34 0.0007042551    1.669    0.401
       313 -11.2769     88.7689    240.9460   9.3909601857e+01   1.1333671622e+01    0.2643814    0.1683578 -45.38  0.001390239    1.799    0.444
       314 -10.8252      1.8972     23.9387   8.3260043848e+01   7.2806100672e+01     0.392444    0.1434665 -47.12  0.001886528    2.402    0.584
       315 -10.0872    124.8594    245.6179   8.6043000738e+01   5.7215866258e+00    0.1863813    0.1029642  36.43 0.0004230271    1.634    0.388
       316 -10.1400    195.3584    238.4307   6.9987572726e+01  -1.8630029875e+00    0.2296741    0.1649662 -18.13  0.001365069    1.188    0.158
       317  -9.5098    134.6981    237.6385   8.2716521703e+01   5.9231974648e+00    0.1389803   0.09301323 -12.98 0.0007036779    1.724    0.420
       318 -10.2654     10.5547     24.5164   7.7642486152e+01   7.1921012988e+01    0.2504546    0.1722688  -7.88 0.0007018234    1.288    0.224
       319 -10.7901     14.2972     22.3926   7.4225529735e+01   7.1862960825e+01     0.303453    0.1699822 -29.13 0.0009914255    1.732    0.423
       320 -10.8956    162.9352     28.0493   3.0778639654e+01   4.0564204474e+01    0.2402951    0.1727912 -41.38 0.0004440542    1.443    0.307
       321 -11.2414     68.3549     38.9554   5.5104111929e+01   6.0675936900e+01    0.6599376    0.3625383  -3.56  0.002322401    4.215    0.763
       322 -11.5688     30.2671    234.1792   1.0725524705e+02   1.9633444767e+01    0.4574975    0.2120801  79.91  0.002010487    2.652    0.623
       323 -10.5173     22.2221     24.1652   7.0180513845e+01   7.0619286908e+01    0.2815451    0.1903128  -2.84 0.0007005273    1.452    0.311
       324  -9.8373     24.4431     20.9417   6.7314890044e+01   7.0800420493e+01    0.2124075    0.1811982  47.82  0.001227792    1.645    0.392
       325  -9.7661    177.3911    234.8242   7.3009637919e+01   8.8438304733e-01    0.1806657    0.1031012 -31.38 0.0009511768    1.698    0.411
       326 -10.3175    159.9762    235.5177   7.6787434191e+01   2.9789034387e+00    0.1943399    0.1140355  24.78 0.0004551578    1.537    0.349
       327 -10.8970     86.9808    232.9614   9.3432752679e+01   1.3233549774e+01    0.3284247    0.1370462  47.17  0.001305459    2.568    0.611
       328  -9.6822    198.1739     22.8185   2.5958544714e+01   3.3549212977e+01    0.2595007    0.0536845 -38.81  0.001029474    3.577    0.720
       329 -11.5822    186.2301     22.5932   2.6974408752e+01   3.6068014037e+01    0.2223619    0.1701578 -62.43 0.0002528436    1.138    0.121
       330 -10.4848    165.2043     23.0124   2.9243985866e+01   4.0617065540e+01    0.1505792    0.1442864  61.30 0.0005328901    1.299    0.230
       331  -9.9398     24.2523    232.1343   1.0852941589e+02   2.0690820556e+01     0.261091     0.161255  21.03 0.0009220589    1.705    0.413
       332  -9.9143     93.7828     21.6061   4.0716266938e+01   5.7318823938e+01    0.1877246     0.113642  70.02 0.0005842278    1.660    0.398
       333 -10.9123     84.0388     21.3481   4.3115641746e+01   5.9540589062e+01    0.3269041    0.2217345  53.59  0.001221893    1.249    0.199
       334  -9.2228     78.5580     22.2427   4.5018589198e+01   6.0650207760e+01    0.1290823   0.09510692  83.96 0.0003065313    1.778    0.438
       335 -10.8023     58.8071     21.2269   5.1168953982e+01   6.4884475619e+01    0.2281716    0.1824054  29.86 0.0004661228    1.094    0.086
       336 -10.7855    192.7186     21.0500   2.6045365270e+01   3.4873180880e+01    0.1645782    0.1329441 -66.43 0.0005533024    1.081    0.075
       337  -9.6423    156.0420     21.5035   2.9937758967e+01   4.2851424889e+01    0.1804435    0.1080417  73.46  0.000418071    1.468    0.319
       338 -10.4699    133.0014     18.9700   3.2351946216e+01   4.8447023836e+01    0.1889028    0.1611617  80.16 0.0003060135    1.007    0.007
       339 -10.0503    183.9721    230.2068   7.0939714404e+01   8.4602169536e-01    0.2221504    0.1282365  -2.98  0.001092183    2.057    0.514
       340  -9.3393     58.8206    229.3888   9.9975122767e+01   1.7536708048e+01    0.1842454     0.121482  15.57 0.0009391769    1.661    0.398
       341  -9.2264    120.6866     21.3207   3.5068159047e+01   5.1095790788e+01    0.1319214   0.09072185 -73.72 0.0007038882    1.653    0.395
       342  -9.6506    114.1575     21.1708   3.6209608662e+01   5.2642988827e+01    0.1871132    0.1555725  43.21 0.0005520048    1.257    0.205
       343  -9.0641     74.3356     21.2752   4.5894201650e+01   6.1669139007e+01    0.1350722   0.08494773  33.32 0.0002710882    1.605    0.377
       344 -10.3624     67.1342     20.9539   4.8079242483e+01   6.3225748455e+01    0.2163675    0.1631355  47.19 0.0003882975    1.138    0.121
       345  -9.6976     34.1670     20.2049   6.1617571793e+01   6.9449166758e+01    0.2263125   0.07995863 -46.37 0.0008107648    4.727    0.788
       346  -9.4509    169.5260    228.5390   7.3662069929e+01   2.9757092487e+00    0.1298594    0.1110475   1.71 0.0001799551    1.056    0.053
       347 -10.8371      4.1217    226.0428   1.1285501430e+02   2.3903001857e+01    0.3416304    0.1764253 -74.26  0.001812219    1.887    0.470
       348 -10.8676     42.1796     18.8657   5.7031547185e+01   6.8278130239e+01    0.3674249    0.2019896  45.97  0.001452448    1.697    0.411
       349  -9.4543     46.7094     16.6765   5.3937415632e+01   6.7725912357e+01    0.1902616   0.08702847  30.41 0.0002622803    2.432    0.589
       350 -10.5055    121.0048    226.3086   8.4309085502e+01   1.0019103150e+01    0.2587147    0.1762919  81.83  0.001162241    2.665    0.625
       351  -9.4774    190.5221    226.4874   6.9031037286e+01   6.5978552014e-01    0.1285741     0.102987  -7.46 2.743532e-05    1.016    0.016
       352 -10.0999    108.4927     17.4055   3.6042122767e+01   5.4345369432e+01    0.2009659    0.1818175  42.32 0.0005293695    1.184    0.155
       353 -10.7691    194.7987     16.7233   2.4931577492e+01   3.4911101998e+01    0.2043494    0.1470501 -74.04 0.0002731355    1.135    0.119
       354 -11.2899    169.2538     16.4909   2.7203777107e+01   4.0408296046e+01    0.2321273    0.1553796 -24.82  0.001378019    1.886    0.470
       355  -9.9174    113.4352    223.1559   8.5692206121e+01   1.1731315833e+01    0.2639366    0.1615943  56.39  0.001187112    2.202    0.546
       356 -10.0505     80.2933    222.6462   9.3884933164e+01   1.6361391689e+01    0.1442917   0.09735925  60.34  0.000703081    1.684    0.406
       357  -9.6742    143.2266    221.0248   7.8288866710e+01   7.9601882845e+00    0.2046172     0.142733  45.37  0.001057434    1.647    0.393
       358  -9.4703    143.4740     16.4564   3.0167999854e+01   4.6260718986e+01    0.1251747    0.1056309  74.59 0.0008070156    1.087    0.080
       359  -9.0907    113.2809     16.2892   3.4771234277e+01   5.3334571343e+01    0.1251116   0.08648025  42.13 0.0002435138    1.525    0.344
       360 -10.5473     24.2247    215.9853   1.0743432403e+02   2.4393188626e+01     0.202776    0.1804201  59.09 0.0004630938    1.031    0.030
       361  -9.4033     40.1565     14.2552   5.5691365740e+01   6.9186208103e+01    0.2154185    0.1093653  19.19 0.0009426003    2.777    0.640
       362  -9.3937    126.3360    220.6594   8.2205293862e+01   1.0429031180e+01    0.1402841     0.104744  59.08 0.0007050895    1.758    0.431
       363 -10.2265     70.2894     16.6989   4.5233061671e+01   6.3018862932e+01     0.187873    0.1521191  54.19 0.0001988917    1.129    0.114
       364  -9.8363     42.0166    220.5024   1.0334371850e+02   2.1489825983e+01    0.2042309    0.1203582  29.95 0.0007869191    1.571    0.363
       365  -9.4620    211.6521    219.2053   6.3810164888e+01  -6.9434640558e-01    0.1776854   0.09273803 -31.84 0.0009429987    1.680    0.405
       366  -9.1759    120.7007    219.6413   8.3414225135e+01   1.1443446337e+01    0.1457807    0.1013321 -16.48 0.0007035768    1.710    0.415
       367 -10.6501     15.8540    221.8600   1.0987083100e+02   2.3817078528e+01    0.2989551    0.1491348  38.64  0.001108111    1.718    0.418
       368  -9.9528    192.0000    217.9722   6.7333179274e+01   1.9191379522e+00     0.207049   0.06610832 -44.38 0.0008090001    2.988    0.665
       369 -11.5768     10.3488    216.9434   1.1089906479e+02   2.5449745712e+01     0.456194    0.2771735  17.20  0.002449173    1.857    0.461
       370 -10.3809     12.5173    212.0685   1.1007411010e+02   2.6405380496e+01    0.3139442    0.1805099 -88.44  0.001266895    1.685    0.406
       371 -10.5323     11.1614    208.0517   1.1015816271e+02   2.7481483063e+01    0.2504282    0.2018262 -86.41 0.0007175134    1.172    0.147
       372  -9.6499     38.0283    217.2239   1.0406726586e+02   2.2689618420e+01    0.1782434     0.102899  27.12  0.000875049    1.665    0.399
       373 -11.0841     29.1448    215.5216   1.0616907248e+02   2.4015366754e+01    0.2735194    0.2259909  46.86  0.001107506    1.097    0.089
       374 -10.8802     21.7039    219.9073   1.0833016509e+02   2.3718839925e+01     0.239838    0.1949617  88.36 0.0008914746    1.182    0.154
       375 -11.0591    236.1701    213.9331   5.8685594945e+01  -2.6358668383e+00    0.1718798    0.1393648 -29.91 0.0007967301    1.279    0.218
       376 -11.0189      1.5298    211.2241   1.1271141835e+02   2.7527176059e+01    0.3486349    0.1876489  85.27  0.001205646    1.758    0.431
       377 -12.1110      5.6704    208.5750   1.1155457546e+02   2.7819091713e+01    0.5560471    0.2656029 -78.23  0.002707689    1.964    0.491
       378  -9.7145    110.3849    212.2239   8.4868716882e+01   1.4523727456e+01    0.1875929    0.1398451 -71.81 0.0009461189    1.660    0.397
       379  -9.9860     20.1963    211.2628   1.0810499445e+02   2.5898940208e+01    0.2541206    0.1336065  66.93 0.0008686107    1.960    0.490
       380 -10.9944    237.2266    209.3692   5.7752393468e+01  -2.0568517338e+00    0.2264103    0.1116519 -30.00  0.001146982    1.706    0.414
       381 -10.0095    184.8331    208.4062   6.7136106936e+01   4.5481221599e+00    0.1854379    0.1140253  14.45 0.0009396011    1.737    0.424
       382 -10.1798    247.4887    205.9984   5.5565428121e+01  -2.6506696462e+00     0.179258   0.08994407 -37.72  0.001034376    1.597    0.374
       383  -8.9926    188.3043    204.7132   6.5792893755e+01   4.7425675813e+00    0.1132738    0.1071473  74.11  0.000400224    1.564    0.361
       384 -10.7054    175.3048    202.2978   6.8037436053e+01   7.0093739365e+00      0.23079    0.2101642   6.09 0.0004409578    1.134    0.118
       385  -9.1410     53.2537    202.3249   9.8631601087e+01   2.4561741693e+01    0.1363316    0.1031829 -37.12 0.0002706399    1.546    0.353
       386 -10.6730     20.3145    199.5059   1.0720450024e+02   2.8747934570e+01    0.3946066    0.2206083 -73.77  0.001775589    1.708    0.415
       387  -9.5018    117.6816    201.6790   8.1387861661e+01   1.5789204373e+01    0.1508872    0.1083123 -14.74 0.0005324593    1.665    0.399
       388  -9.3756    238.5211    200.5223   5.6048976806e+01  -8.3810857134e-01    0.1203543   0.09090177 -21.70 0.0001987578    1.013    0.013
       389  -9.7927     58.2079    195.8090   9.6521884435e+01   2.5578036839e+01    0.2362465    0.1516224 -28.51 0.0009692395    2.086    0.521
       390  -9.9224    215.5028    194.1608   5.8800201830e+01   2.9746737903e+00    0.1898657    0.1057421 -38.00  0.001012639    1.534    0.348
       391 -11.4444     16.1380    192.9738   1.0781420774e+02   3.0751250682e+01      0.40424    0.2754532  20.99  0.001719655    1.579    0.367
       392 -10.1451    244.8472    188.9100   5.3071187868e+01   2.4822068888e-01    0.3056432     0.126757 -48.16  0.001425651    2.658    0.624
       393  -9.7111     61.8179    184.8143   9.4098381955e+01   2.7908238595e+01    0.2072539    0.1657527  70.35  0.001010869    1.331    0.249
       394 -11.8072     15.8092    181.6406   1.0699739826e+02   3.3661123603e+01    0.4677462    0.2717206  54.73   0.00176402    1.704    0.413
       395  -9.8268    142.8148    183.5944   7.1964156665e+01   1.5833925939e+01    0.2018884    0.1331291  42.81 0.0006140385    1.610    0.379
       396  -9.4454    206.4781     10.6036   2.2780102985e+01   3.3188872741e+01    0.1130755   0.08529935 -74.42 9.858231e-05    1.022    0.022
