#   1 NUMBER                 Running object number                                     
#   2 MAG_AUTO               Kron-like elliptical aperture magnitude                    [mag]
#   3 X_IMAGE                Object position along x                                    [pixel]
#   4 Y_IMAGE                Object position along y                                    [pixel]
#   5 X_WORLD                Barycenter position along world x axis                     [deg]
#   6 Y_WORLD                Barycenter position along world y axis                     [deg]
#   7 A_WORLD                Profile RMS along major axis (world units)                 [deg]
#   8 B_WORLD                Profile RMS along minor axis (world units)                 [deg]
#   9 THETA_WORLD            Position angle (CCW/world-x)                               [deg]
#  10 FWHM_WORLD             FWHM assuming a gaussian core                              [deg]
#  11 ELONGATION             A_IMAGE/B_IMAGE                                           
#  12 ELLIPTICITY            1 - B_IMAGE/A_IMAGE                                       
         1 -13.9385    215.0658      9.2032   3.8913668803e+01   3.0064435379e+01     1.991422     1.375712  29.56   0.00940231    1.943    0.485
         2 -13.5749    190.3541     40.2503   5.0358132686e+01   3.2464726267e+01     1.217185     1.022323 -10.50  0.003988343    1.275    0.215
         3 -12.7845    195.1918     34.4529   4.8023535883e+01   3.2017540283e+01    0.6661029    0.5677724 -26.18   0.00128645    1.135    0.119
         4 -10.5187    189.7651     14.8721   4.2611844570e+01   3.5568990012e+01    0.2416321    0.2214569 -40.92 0.0007353414    1.055    0.052
         5 -10.8484     49.2293      5.5345   6.8131972927e+01   7.1094116552e+01    0.2948809    0.1552125 -16.13  0.001309732    2.231    0.552
         6 -13.0796    175.2887     54.0103   5.6765550356e+01   3.4257741170e+01     1.694814     1.140499  12.58 0.0007999804    2.143    0.533
         7  -7.5584     71.1628    200.4283   1.1183935398e+02   2.4975330878e+01    0.1789386    0.1354637  64.54 0.0006684315    1.170    0.145
         8 -12.1344    247.1603    246.4771   8.5798335440e+01  -4.2800172215e+00    0.5485639    0.3488058  -1.54  0.004433497    1.277    0.217
         9 -12.6171    248.4173    230.1141   8.3314066681e+01  -2.9733053047e+00    0.8277317    0.2729479 -26.55  0.004493075    3.068    0.674
        10 -19.5157     22.1959    146.9620   1.1889240784e+02   4.1859692198e+01     18.81707     4.985697 -80.73   0.06752221    3.727    0.732
        11 -11.0052    193.1124    195.2777   8.6786477952e+01   8.1479350168e+00    0.7488809    0.4175362 -58.72  0.003083802    4.803    0.792
        12 -10.5988     57.0768    201.3126   1.1489947112e+02   2.6510520705e+01    0.2602167    0.1973047 -29.61  0.001631936    2.129    0.530
        13 -11.7211     59.2289    195.2037   1.1394746692e+02   2.7438660773e+01    0.3465223    0.2641759 -51.22  0.001357614    1.685    0.407
        14  -9.4489     74.9524    250.6989   1.1494351432e+02   1.6087311690e+01   0.09949921   0.07189991  42.89 0.0002101993    1.086    0.079
        15  -9.8152     81.9753    194.9808   1.0899486059e+02   2.4619227146e+01    0.1811032    0.1519347  56.10 0.0003511738    1.005    0.005
        16  -9.6469     61.4376    219.8603   1.1538115867e+02   2.2610271409e+01    0.1252865   0.09724446 -54.78 0.0006302167    1.698    0.411
        17 -11.7796    149.6239    188.3112   9.3869115245e+01   1.5864168108e+01    0.3997057    0.3275994  83.69  0.001478493    1.717    0.418
        18 -10.7688     95.4873    188.8478   1.0536855492e+02   2.3942250272e+01    0.4034026    0.2715013  70.95  0.001380277    1.692    0.409
        19 -10.5470    128.7917    185.1831   9.7689299444e+01   1.9659144157e+01     0.173285    0.1461169   7.54 0.0006684277    1.350    0.259
        20 -11.5100     98.9827    181.8950   1.0373182691e+02   2.4783875102e+01    0.5485211    0.3167793 -56.66  0.001759147    1.887    0.470
        21 -10.8524    149.7464    178.0412   9.2206518300e+01   1.7565536183e+01    0.3138668    0.2168407 -57.45  0.001463751    1.781    0.439
        22 -11.6385    143.8510    178.2090   9.3452141247e+01   1.8495619000e+01     0.386517    0.2665194 -49.64  0.001541337    1.615    0.381
        23 -10.2553    188.4899    176.5762   8.4429637504e+01   1.1495381664e+01     0.345396    0.3016743 -37.81  0.001992237    1.335    0.251
        24 -10.2968     56.2546    217.7137   1.1625624354e+02   2.3583239608e+01    0.2927959    0.1266946  70.06  0.001433248    2.855    0.650
        25 -11.1264    238.3313    174.5458   7.5721603537e+01   4.1752014120e+00    0.2172419    0.1661604 -39.98  0.001436177    1.706    0.414
        26 -11.0663    139.4365    171.7634   9.3323918788e+01   2.0366352389e+01    0.3899781    0.2634162  51.16  0.001452728    1.525    0.344
        27  -8.8953    194.4954    171.9841   8.2508787804e+01   1.1202487538e+01    0.1802026    0.1170784 -32.65 0.0007612691    1.544    0.352
        28  -9.9812    163.7736    216.4007   9.5218928730e+01   9.5253549529e+00    0.1703738   0.09165189  28.50 0.0009554756    1.686    0.407
        29  -9.6579    184.8479    212.6743   9.0921955233e+01   7.0489206513e+00    0.2006379    0.1673572 -33.46  0.001458465    1.433    0.302
        30  -9.0567    240.2737    169.3288   7.4463457268e+01   4.5240109431e+00    0.1206963   0.07584699   0.77 0.0002878476    1.588    0.370
        31 -10.0290    230.4815    166.4927   7.5431330623e+01   6.3167584736e+00    0.2135147   0.09848669 -40.41  0.001040587    2.435    0.589
        32  -9.1708    187.6532    163.1080   8.2090683548e+01   1.3668075682e+01    0.2739536    0.1501161 -47.53  0.001317772    2.204    0.546
        33 -10.9351     90.5513    157.6634   1.0236282121e+02   3.1037135786e+01    0.2450849     0.235308 -60.09 0.0006987582    1.167    0.143
        34 -11.7420     96.4793    151.2729   9.9888707590e+01   3.1515970947e+01     0.563444    0.4763194  -8.93  0.003175256    1.568    0.362
        35 -10.8914    133.8973    145.6775   8.9821156844e+01   2.6312336700e+01      1.20381    0.3103547 -54.42  0.003084011    6.157    0.838
        36  -9.5826    113.5007    151.2953   9.5698086716e+01   2.8730313248e+01    0.3042144    0.2103431  79.96  0.001088905    1.995    0.499
        37  -8.9195    139.2132    150.9082   8.9631603717e+01   2.4324554926e+01     0.177368    0.1114659 -49.51 0.0006395198    1.670    0.401
        38  -9.3201    174.8756    149.1223   8.1757617651e+01   1.8177533047e+01    0.2009456    0.1885966 -86.92 0.0009092078    1.347    0.258
        39  -9.5575    108.9429    147.0213   9.6051376653e+01   3.0405853868e+01    0.2216405    0.1601273  73.48  0.000516952    1.685    0.406
        40 -10.0596    187.6259    152.1210   7.9926562080e+01   1.5399364103e+01    0.2651792    0.2259825  45.24  0.001590611    1.297    0.229
        41  -9.6507    143.5925    144.8111   8.7445846615e+01   2.4711802125e+01    0.1952016    0.1327412 -57.92 0.0009495246    1.696    0.410
        42 -11.1405    107.9976    137.9431   9.4601469556e+01   3.2541936686e+01    0.5408485    0.4032431 -49.49  0.002829427    1.376    0.273
        43  -8.8050    102.5361    133.4852   9.5151877976e+01   3.4473734240e+01    0.2024386    0.1297044  51.44 0.0005435486    1.596    0.373
        44 -10.7637    105.9642    130.8111   9.3718798963e+01   3.4479944533e+01    0.3782798    0.3271438 -68.40  0.001243037    1.155    0.134
        45 -11.7152     96.1290    137.1758   9.7540583039e+01   3.4714848077e+01    0.3152006    0.2689413  87.61 0.0003943898    1.193    0.162
        46  -9.9777    135.7879    129.5963   8.6010679463e+01   2.9219433967e+01    0.4012939    0.1155183 -46.96  0.001257805    3.492    0.714
        47 -10.4446    115.0405    128.7072   9.0926693632e+01   3.3318874104e+01    0.3218068    0.2564119  12.99 0.0007726073    1.596    0.373
        48  -9.5156    160.7956    127.7430   7.9985019684e+01   2.4669861262e+01    0.3008604    0.1962102 -49.16  0.001426144    1.622    0.384
        49 -10.4846    102.5299    124.5311   9.3334880575e+01   3.6503746950e+01    0.2713707    0.2375797 -19.67  0.001463858    1.378    0.274
        50 -10.2107    120.1015    123.0429   8.8390669165e+01   3.3611376697e+01    0.3854137    0.2578842 -17.84  0.001600755    2.421    0.587
        51  -9.9797    135.0000    120.8979   8.4207256515e+01   3.1165756497e+01    0.4044936   0.08247929 -45.82  0.001042612    4.855    0.794
        52 -10.6594     37.5101    211.8784   1.1962922640e+02   2.6686391480e+01    0.1573578    0.1085255  68.50 -9.394071e-05    1.203    0.169
        53  -9.5653    110.0744    118.0759   8.9881798651e+01   3.6597443463e+01    0.2135355    0.2063441  87.68 0.0003339983    1.015    0.015
        54 -10.0234    231.2861    113.7540   6.4245262180e+01   1.3286832407e+01    0.2599565    0.2110029 -19.44 0.0007468557    1.042    0.040
        55 -10.0730    135.0000    106.9726   8.0757851552e+01   3.4052594971e+01    0.5757381    0.1863768 -47.45  0.001814932    3.137    0.681
        56  -9.2922    167.3964    112.3680   7.4904358755e+01   2.6166424611e+01    0.3143841    0.2202734 -76.44 0.0009675086    2.350    0.575
        57 -11.2845    118.5055    110.6245   8.5864412249e+01   3.6634331980e+01    0.6018914    0.3746668  62.15  0.002534543    2.053    0.513
        58  -9.9835     55.2852    222.8931   1.1678829264e+02   2.2784181435e+01    0.1495657    0.1062032  57.30 0.0004635909    1.106    0.096
        59  -9.6153    205.6415    110.1300   6.7323078384e+01   1.8685606326e+01    0.2489314    0.1973052  34.71 0.0006555937    1.342    0.255
        60  99.0000     43.1254    209.3803   1.1835081948e+02   2.6553855033e+01    0.3644176    0.1291744  63.29  0.001628978    3.140    0.682
        61 -10.4100     43.8159    205.2265   1.1794867738e+02   2.7259123501e+01    0.1601819    0.1334073 -89.93            0    1.252    0.201
        62  -8.7572    154.4746     82.4387   6.9414940603e+01   3.4547155274e+01    0.1515738    0.1449832 -35.34 0.0001094329    1.009    0.009
        63  -8.6254    184.3035     77.3465   6.2263980125e+01   2.8490971779e+01    0.1514347    0.1133636   9.38 0.0007040396    1.691    0.408
        64 -10.0952    160.3442    205.1597   9.4289976400e+01   1.1616306273e+01    0.1806927    0.1414551  -7.77 0.0007733624    1.423    0.297
        65 -10.2996     71.8578    245.0728   1.1513007146e+02   1.7284938020e+01    0.1675657    0.1361678 -59.45  0.001196997    1.647    0.393
        66  -8.9970     93.7619    205.4266   1.0758360542e+02   2.1120282306e+01     0.182738     0.147293 -10.55  0.000893398    1.806    0.446
        67 -10.0191     58.7073    229.1489   1.1653277761e+02   2.1331849658e+01    0.1439914    0.1075475  60.32 0.0003788183    1.100    0.091
        68 -10.1981     96.4986    201.6578   1.0661286953e+02   2.1424077576e+01    0.2938253    0.2073888 -58.80  0.001422276    1.627    0.385
        69  -9.9610     66.9359    204.2468   1.1306270857e+02   2.4779413628e+01      0.28676    0.1808854 -42.83  0.000981828    2.377    0.579
        70 -11.4348     50.4367    224.7370   1.1783944656e+02   2.3003577900e+01    0.1979779    0.1221335  63.85 0.0007085036    1.389    0.280
        71  99.0000     49.2668    218.4415   1.1768291552e+02   2.4235560862e+01    0.2925411    0.1502729  79.03  0.001707227    2.096    0.523
