#   1 NUMBER                 Running object number                                     
#   2 MAG_AUTO               Kron-like elliptical aperture magnitude                    [mag]
#   3 X_IMAGE                Object position along x                                    [pixel]
#   4 Y_IMAGE                Object position along y                                    [pixel]
#   5 X_WORLD                Barycenter position along world x axis                     [deg]
#   6 Y_WORLD                Barycenter position along world y axis                     [deg]
#   7 A_WORLD                Profile RMS along major axis (world units)                 [deg]
#   8 B_WORLD                Profile RMS along minor axis (world units)                 [deg]
#   9 THETA_WORLD            Position angle (CCW/world-x)                               [deg]
#  10 FWHM_WORLD             FWHM assuming a gaussian core                              [deg]
#  11 ELONGATION             A_IMAGE/B_IMAGE                                           
#  12 ELLIPTICITY            1 - B_IMAGE/A_IMAGE                                       
         1 -14.9169    184.4573     90.1901   8.0102346962e+01   2.6458210925e+01     9.208059     2.661758 -48.50   0.02531868    3.995    0.750
         2 -15.5876    211.7529     67.1006   6.9970338335e+01   2.4060308248e+01     11.41976     3.579693 -53.88    0.0330922    4.764    0.790
         3 -14.9535    232.8922     63.6565   6.6388824872e+01   1.9903079292e+01     3.595455     1.628442 -61.91   0.01360629    2.753    0.637
         4 -13.3770    172.0833     68.4605   7.6834316296e+01   3.3178354118e+01     2.012489    0.9090115 -48.52  0.001464075    2.388    0.581
         5 -16.3417    242.9760     22.4308   5.6947457741e+01   2.3502843117e+01     8.072945     1.343691  61.55   0.02799524    4.893    0.796
         6 -13.0833    216.2161      8.2995   5.6506754034e+01   3.0891257700e+01    0.9407033    0.4978669 -38.18  0.002841526    1.978    0.495
         7 -13.1037    208.2727      4.0934   5.6360389368e+01   3.3091403411e+01     1.400749    0.8676955  13.54  0.002067316    4.243    0.764
         8 -14.0385    247.5265     45.9887   6.1119115050e+01   1.9429190737e+01     1.281745     1.043688  76.46  0.001952904    1.275    0.216
         9 -13.7526    249.2576      2.7058   5.2802425613e+01   2.4529469891e+01    0.5774741    0.3742435  75.73   0.00387669    1.420    0.296
        10 -14.4810    233.0739      6.9686   5.4800876502e+01   2.7397004244e+01    0.8874351    0.7585768 -82.94  0.003038424    1.189    0.159
        11  -9.4795    115.8161     12.4174   7.1605978052e+01   5.3362149610e+01    0.2974213    0.1749056  53.30  0.001430584    1.405    0.288
        12 -11.1922    120.2889      8.8884   6.9570816565e+01   5.2699614507e+01    0.3967361     0.385776  71.27   0.00173594    1.174    0.148
        13  -9.8973    194.8673     10.3010   5.9056624031e+01   3.5476676769e+01    0.3945694    0.2179288 -67.72  0.001784278    1.938    0.484
        14  -9.0686    129.0111      9.9695   6.8257958314e+01   5.0676058997e+01    0.2211013    0.1697698 -18.48 0.0008918149    1.545    0.353
        15 -10.9665    188.8559      3.3157   5.8113982714e+01   3.7548400475e+01    0.3132538    0.2018013 -36.86 0.0009545002    1.741    0.425
        16 -10.5774    182.8017      3.5773   5.8831866269e+01   3.8909103762e+01    0.4365045    0.2325709  71.82  0.001493588    1.553    0.356
        17  -9.6172    171.9749      2.6195   5.9852769118e+01   4.1487737699e+01    0.2598228    0.1637354 -41.33    0.0012329    1.745    0.427
        18  -8.7698    135.5419      1.5261   6.4624916854e+01   4.9916881718e+01    0.1518748     0.116462  13.42 0.0001013786    1.607    0.378
        19  -8.5443    219.2408    149.2082   8.7413363233e+01   7.3205935652e+00    0.1863124    0.1649775 -81.96 0.0003483535    1.315    0.239
        20 -12.3814     30.2470    173.2493   1.3678390530e+02   3.5369693608e+01     0.563456    0.3455495  45.45  0.003137721    1.712    0.416
        21 -11.7483     25.1050    168.6560   1.3746906043e+02   3.6982434418e+01    0.5770896    0.3055541 -58.79  0.003020309    1.672    0.402
        22 -10.4974    235.5224    173.9030   8.9657821482e+01  -3.7892405871e-01    0.3278186    0.2413799  48.42  0.000952641    1.573    0.364
        23 -10.4232    243.9892    172.4902   8.7879903680e+01  -1.5710787204e+00    0.2848575    0.2136456  -0.92  0.001548928    1.562    0.360
        24 -10.9389    230.9055    167.6347   8.9198944869e+01   1.5923538492e+00    0.4226474    0.2497523 -47.04  0.002002667    1.650    0.394
        25 -10.8301    213.4710    167.2786   9.2391503679e+01   4.8982833929e+00    0.6442686    0.3590124  65.62   0.00227823    3.585    0.721
        26 -11.9446    241.1758    242.3681   1.0155783306e+02  -1.2429345547e+01    0.2245003    0.2022749  -2.90  0.000136657    1.258    0.205
        27  -9.3366     71.7576    239.0083   1.3497879477e+02   1.5186477601e+01    0.1616903   0.09886052 -72.15 0.0008227749    1.633    0.388
        28  -8.2237    101.2194    146.3313   1.1405754514e+02   3.2143196361e+01    0.1480985    0.1113805 -34.51 0.0002481583    1.512    0.339
        29  -8.8937    222.8648    145.4869   8.5941553408e+01   7.3313360335e+00    0.2015521    0.1451952  49.82   0.00100825    1.526    0.345
        30 -10.6938    198.5195    144.2909   9.0310428932e+01   1.2542018719e+01    0.3642612    0.2921083  78.89   0.00178059    1.547    0.354
        31 -10.0000    191.8650    144.0107   9.1600433999e+01   1.4011001723e+01     0.300788    0.2192917  56.68 0.0006574817    1.499    0.333
        32 -11.4577    188.7256    138.4375   9.0969063842e+01   1.5854781056e+01    0.4423595    0.4065085 -40.56  0.001705017    1.063    0.059
        33 -11.2348    156.8324    139.9989   9.8416624974e+01   2.2478869470e+01    0.8669379    0.5411989  89.05  0.002796408    3.537    0.717
        34 -10.0261    153.5035    219.9683   1.1520772258e+02   5.6288257651e+00    0.2482005    0.2152402  39.69  0.000387708    1.064    0.060
        35 -11.9910    211.2296    136.6823   8.6128915028e+01   1.1419002811e+01    0.7233558    0.4692347  30.92  0.003189504    1.996    0.499
        36 -11.2350    166.7959    137.1589   9.5436855297e+01   2.0932415978e+01    0.5662249    0.3319602 -55.56  0.001483543    1.863    0.463
        37  -9.3297    220.0102    134.6751   8.4076269668e+01   1.0004348390e+01    0.1979723    0.1937067  77.14 0.0007033951    1.103    0.093
        38 -10.5228    160.6524    134.7845   9.6283377999e+01   2.2807475477e+01    0.4990385    0.1768793  51.16  0.001522092    3.176    0.685
        39  -8.1304     96.2829    134.2871   1.1279930116e+02   3.5933976516e+01    0.1464514    0.1162998 -22.26  0.000259606    1.525    0.344
        40 -10.9789    146.4173    137.5986   1.0035420143e+02   2.5270763181e+01    0.4768892    0.3406253 -64.35  0.002096327    1.589    0.371
        41 -11.3745    190.1820    131.5146   8.9054050889e+01   1.6982009222e+01    0.3981343    0.3348919 -88.29  0.001860344    1.370    0.270
        42 -13.5140    246.8706     36.7321   5.9364414919e+01   2.0843506576e+01    0.5735406    0.3463818 -66.84  0.001011875    1.480    0.324
        43 -11.2200    160.4970    128.3154   9.4755154322e+01   2.4265899822e+01    0.4611044    0.3769411 -35.80  0.001698521    1.267    0.211
        44 -11.3020    134.9558    123.9388   9.9900817889e+01   3.0825683221e+01     1.120718    0.3904101 -54.35  0.003186715    3.711    0.731
        45 -11.0908    221.5094    129.3310   8.2623285822e+01   1.0732704987e+01    0.5027709    0.2735806  39.76  0.002133335    2.233    0.552
        46 -12.8488    192.3851     71.2063   7.3949474658e+01   2.7897015013e+01     1.080229    0.8667364  52.26  0.003581251    1.311    0.237
        47 -10.3721    152.2722    125.2352   9.5934937398e+01   2.6768989254e+01    0.7235959    0.2659533 -51.44  0.002234613    3.047    0.672
        48 -10.3799    225.8691    122.7316   8.0410172032e+01   1.1098757167e+01     0.475095    0.2921244 -72.88   0.00154853    2.569    0.611
        49 -10.4532     37.1206    214.7438   1.3954616083e+02   2.4980109032e+01    0.2234822    0.2155795  28.17  0.001578751    1.473    0.321
        50  -9.5597    210.8898    123.3847   8.3171141967e+01   1.4118172882e+01    0.2934434    0.1923859 -26.50  0.001173319    1.850    0.460
        51  -9.5365    131.7731    119.9949   9.9728971240e+01   3.2387351318e+01    0.3680283    0.2262691 -58.46  0.001147773    1.832    0.454
        52 -10.8555     23.8208    202.2262   1.4112555272e+02   2.9279835556e+01    0.2668662    0.2194134  61.28  0.001391471    1.226    0.184
        53 -11.4407    166.8609    113.9541   8.9742829580e+01   2.5894731164e+01    0.5731188    0.5357943 -79.04  0.001285719    1.075    0.070
        54  -9.9263      6.4955    115.9891   1.3552550349e+02   5.0892691350e+01    0.1927908     0.097832 -68.22 0.0005969499    1.573    0.364
        55  -9.6117    174.4878    114.8458   8.8306180530e+01   2.3963684836e+01    0.3088988    0.2458474 -87.76  0.001034197    1.499    0.333
        56  -9.9863    156.9266    113.1034   9.1779834414e+01   2.8339811504e+01    0.5073479     0.320148 -72.12  0.001593235    2.477    0.596
        57 -10.4932    135.0000    108.5569   9.5937552677e+01   3.4197050078e+01     1.156465    0.2252389 -45.70  0.002775641    5.148    0.806
        58  -9.1128    120.5440    111.4562   1.0050486517e+02   3.6625081966e+01    0.3770542    0.2513761  88.74 0.0009917638    2.773    0.639
        59  -9.5417    126.4497    110.7391   9.8736019529e+01   3.5556280311e+01    0.2865918    0.1484562 -50.85  0.001103084    1.991    0.498
        60  -8.7311    159.7403    158.9934   1.0205603519e+02   1.7573373954e+01    0.2004208    0.1335334 -47.37 0.0004177538    1.487    0.328
        61  -9.5108    141.4861    104.4897   9.3228279647e+01   3.3625024946e+01    0.2601429    0.2080163   5.86 0.0006237539    1.634    0.388
        62  -8.3816    168.4335    157.8021   9.9796434691e+01   1.6016105852e+01    0.2028248    0.1463908 -33.93 0.0003187933    1.490    0.329
        63 -10.5938    124.3496    102.7938   9.7174584765e+01   3.7702117848e+01    0.5989603     0.332424  46.15  0.002476058    1.822    0.451
        64 -10.0833    147.7298    100.2999   9.0593201369e+01   3.3077550431e+01    0.3565868    0.3176242  82.24 0.0005349974    1.207    0.171
        65  -9.7381    133.8948     96.4067   9.2941822941e+01   3.6963066550e+01    0.3828892    0.2182809 -51.21  0.001570758    1.887    0.470
        66 -11.8563      3.1256     92.1574   1.3270538303e+02   5.6390447222e+01      0.70425    0.2315851 -67.90  0.003040889    2.719    0.632
        67 -10.9974    157.7502     93.3074   8.6410090139e+01   3.2148802563e+01    0.5591497    0.4815539  -3.83  0.002830769    1.418    0.295
        68 -10.0644    194.8240    198.2202   1.0245660722e+02   2.3553586640e+00     0.387689    0.2669794 -70.08  0.001732728    2.324    0.570
        69 -10.4474    141.0443     89.7365   8.9321709349e+01   3.6681051150e+01    0.3643395    0.3027101  77.77  0.001150913    1.372    0.271
        70  -9.3212    191.0082    191.5002   1.0193300400e+02   4.3784423815e+00    0.5735734    0.3246901 -70.06  0.001784478    4.664    0.786
        71 -10.1677    215.3031    153.1872   8.9015219970e+01   7.3160079323e+00    0.2551859    0.2310127 -76.34 0.0002299129    1.250    0.200
        72 -11.9085    155.7843     83.3239   8.4149921408e+01   3.4480157394e+01     0.549607    0.4804364  70.90 0.0008941813    1.155    0.134
        73  -9.3952    165.9608     81.4590   8.1486754577e+01   3.2415647050e+01    0.2290237    0.1434892  57.37 0.0006605954    1.573    0.364
        74  -8.0629    140.3106     78.2734   8.6272935780e+01   3.8977599166e+01    0.1461317    0.1147616  19.71 0.0002193105    1.552    0.356
        75  -8.9378    125.4967     76.3486   8.9378379415e+01   4.2631011798e+01    0.2708747    0.1824766  78.21  0.001130518    2.349    0.574
        76 -13.1678      9.4420    189.9945   1.4303932434e+02   3.3466738968e+01    0.9171875    0.6242692  85.34  0.004013765    1.196    0.164
        77 -10.3785    192.3920    153.4736   9.3623943130e+01   1.1918106571e+01    0.2705241    0.2594938 -43.89  0.001064294    1.013    0.013
        78 -11.5674      5.5463     80.8550   1.2973788694e+02   5.8653650582e+01    0.3297391    0.3038143 -51.32  0.002491467    1.201    0.167
        79 -10.0191    151.9431     72.4372   8.1982725079e+01   3.7299264384e+01     0.404475    0.2765942 -64.11  0.001848791    1.822    0.451
        80 -10.8967      6.7365     73.6086   1.2777724903e+02   6.0074588323e+01    0.2335276    0.1032508 -50.56  0.001262316    1.661    0.398
        81 -10.0596     11.5897     68.2147   1.2473265954e+02   6.0853651144e+01     0.180359   0.08021239 -48.07 0.0009589785    1.688    0.408
        82  -8.6198    154.9735     65.9871   7.9539295693e+01   3.7654286846e+01    0.2336776    0.1726563 -77.39  0.000760889    1.688    0.408
        83 -11.5535    100.9599     61.9018   9.1642192499e+01   5.0204178155e+01    0.9725559    0.4779247  30.60   0.00387245    2.578    0.612
        84  -9.6574    204.1571    152.2829   9.0973347477e+01   9.7365297891e+00    0.2583948    0.2471383 -25.81 0.0008534063    1.035    0.034
        85 -10.1947    118.0643     63.5489   8.7449453743e+01   4.6426039408e+01    0.3665297    0.1889403 -51.05  0.001486665    2.495    0.599
        86  -9.9183      2.3970     64.2057   1.2725127443e+02   6.2188129868e+01    0.1597129   0.09580496 -66.55 0.0009568196    1.715    0.417
        87  -8.5747     72.6971     58.1653   9.9267827874e+01   5.5865971961e+01    0.1887198    0.1535994 -46.88 0.0004659697    1.416    0.294
        88 -11.3096      5.7208     54.6089   1.2355210530e+02   6.3826874537e+01    0.3760092    0.1779361 -69.13  0.001754272    3.249    0.692
        89  -9.0769     83.0380     51.6939   9.3708311992e+01   5.5167362644e+01     0.200589    0.1718498 -34.47 0.0002822681    1.257    0.205
        90 -10.7691    206.9828     45.0680   6.5547305091e+01   2.8450764955e+01    0.5250908    0.3417797 -62.45   0.00201727    1.518    0.341
        91 -12.4074     14.8141    188.0591   1.4174354633e+02   3.3413788201e+01    0.8007698    0.3400029 -89.45  0.003236144    2.464    0.594
        92 -10.2887    106.8826     36.1188   8.1539378499e+01   5.2728255670e+01    0.1906718    0.1809072  85.68 0.0005943503    1.271    0.213
        93  -9.7044    160.8703     30.5312   6.8644310296e+01   4.1201050032e+01    0.3086002    0.1689754 -48.88  0.001473835    2.045    0.511
        94  -8.9605    216.6306    190.3049   9.6513111108e+01  -8.0795387314e-02    0.1348918    0.1132329  87.26 0.0007034116    1.752    0.429
        95  -9.4677    159.1503     25.2663   6.7497102624e+01   4.2210595055e+01    0.4194332    0.1306629 -34.24  0.001637858    3.305    0.697
        96  -7.8414    153.6300     22.7421   6.7700714888e+01   4.3782699741e+01    0.1357438   0.08547863  43.61 0.0002194759    1.645    0.392
        97  -8.8897    108.6970     22.6428   7.6571055433e+01   5.3889548728e+01    0.1350638   0.08577268  26.68 0.0007038903    1.716    0.417
        98  -9.7963    134.2291    148.2402   1.0584591146e+02   2.5353559993e+01    0.6187384    0.2611729 -58.05  0.001956352    2.925    0.658
        99  -9.7758    133.3938    142.9864   1.0486437001e+02   2.6759836007e+01    0.7394418    0.2421126 -57.63  0.001828284    4.926    0.797
       100  -9.4457    152.1337    149.8612   1.0181336827e+02   2.1248650303e+01    0.2408278    0.2111834 -89.24 0.0006233579    1.262    0.208
       101  -8.6866    204.7010    189.7543   9.8766687349e+01   2.1729867513e+00    0.2178653    0.1142314  51.67 0.0007698758    2.338    0.572
       102 -11.5699     36.8032    185.9219   1.3670865239e+02   3.1645156476e+01    0.4035368    0.3022223 -45.34  0.002377103    1.647    0.393
       103 -10.5580    226.1218    172.4132   9.1066378743e+01   1.5611781988e+00    0.4594113    0.3082754  43.84  0.002328734    1.618    0.382
       104  -8.6707    101.0048    175.9639   1.1983746380e+02   2.4932522005e+01    0.1965938    0.1853057  88.81            0    1.026    0.026
       105  -8.2805    102.5014    161.5503   1.1679387674e+02   2.8189881066e+01    0.1491222     0.142964 -66.48 0.0001390107    1.062    0.059
       106  -9.5611    201.0418    173.8043   9.6239413365e+01   5.9985058088e+00    0.3388408    0.2392773 -11.72  0.001440938    1.860    0.462
       107 -11.8889     68.0260    147.6128   1.2335629140e+02   3.7097124979e+01      2.09764    0.9691349 -48.39  0.008629059    2.117    0.528
       108 -12.6774     42.9579    169.1520   1.3323047771e+02   3.4972679039e+01    0.6488245    0.4351476 -67.25  0.001363699    1.285    0.222
       109 -13.4193     51.6329    163.0525   1.3021718261e+02   3.5433488078e+01     1.194876    0.8007374 -46.22  0.005563299    1.614    0.380
