#   1 NUMBER                 Running object number                                     
#   2 MAG_AUTO               Kron-like elliptical aperture magnitude                    [mag]
#   3 X_IMAGE                Object position along x                                    [pixel]
#   4 Y_IMAGE                Object position along y                                    [pixel]
#   5 X_WORLD                Barycenter position along world x axis                     [deg]
#   6 Y_WORLD                Barycenter position along world y axis                     [deg]
#   7 A_WORLD                Profile RMS along major axis (world units)                 [deg]
#   8 B_WORLD                Profile RMS along minor axis (world units)                 [deg]
#   9 THETA_WORLD            Position angle (CCW/world-x)                               [deg]
#  10 FWHM_WORLD             FWHM assuming a gaussian core                              [deg]
#  11 ELONGATION             A_IMAGE/B_IMAGE                                           
#  12 ELLIPTICITY            1 - B_IMAGE/A_IMAGE                                       
         1 -13.2578    233.3674     33.0728   3.0438803934e+01   2.4659590875e+01    0.7894331    0.6732456  68.85  0.005348613    1.318    0.241
         2 -11.5803      2.1936      8.1806   8.3465452368e+01   7.2892569043e+01    0.4623527    0.1676038 -39.82  0.002512431    2.168    0.539
         3 -12.0970    136.8463    229.9319   9.0769863068e+01   7.1003090144e+00    0.4226902    0.2771924  39.95  0.001975013    1.353    0.261
         4 -10.7015    100.6782    249.5324   1.0086941620e+02   8.8826654529e+00    0.2596141    0.1698339  33.40  0.001495267    1.426    0.299
         5 -11.6507     83.9060    218.1875   1.0092922520e+02   1.7606429222e+01     1.134405    0.5576805  83.24 0.0005803704    4.109    0.757
         6 -14.3449     53.9865    246.7657   1.0993128722e+02   1.5669640091e+01     5.830719     2.242302  22.14   0.01702838    7.888    0.873
         7 -13.8790      9.0547    205.3671   1.1593487722e+02   2.9195666461e+01    0.8696492    0.6548766 -73.42  0.001027337    1.290    0.225
         8 -11.8256     74.7249    221.5887   1.0333935498e+02   1.8154845570e+01    0.6200739    0.2620321  60.49  0.002380759    3.204    0.688
         9 -10.5353    118.9807    241.4970   9.6141513327e+01   7.6852463524e+00    0.2046981    0.1117497  36.87 0.0007422735    1.588    0.370
        10 -11.5755     53.6864    208.5412   1.0662790195e+02   2.3768874627e+01     1.043518    0.2713224  54.42  0.002740015    6.805    0.853
        11  -9.4406     49.9868    199.9054   1.0658987140e+02   2.6190332409e+01    0.2173944    0.1317357  68.87 0.0009721649    1.687    0.407
        12 -15.6545     15.9493    198.7830   1.1404378440e+02   3.0041951775e+01       8.7988      2.02881 -80.42   0.02398494    5.057    0.802
        13 -11.3444     42.6267    178.4772   1.0603747184e+02   3.2123210720e+01    0.3147743    0.2632289 -28.10  0.000621783    1.558    0.358
        14 -11.5981     50.3257    172.1332   1.0334396803e+02   3.2800000762e+01    0.2772731    0.2539482 -52.37 0.0004572649    1.213    0.176
        15  -8.1902    110.6993    167.6985   8.6813825479e+01   2.5080037561e+01    0.1487332    0.1179141 -18.41 0.0002961214    1.586    0.369
        16 -10.6506     63.3182    162.3652   9.8570824588e+01   3.3628303591e+01    0.2510137    0.2289613 -59.91 0.0003624006    1.109    0.098
        17 -12.9449     48.4150    158.7894   1.0208535121e+02   3.6335409361e+01    0.5157846    0.3226883 -34.12  0.001674291    2.105    0.525
        18 -11.9766     73.0188    155.7045   9.4847713113e+01   3.3992163077e+01    0.6590095    0.5653192  49.66  0.003650638    1.203    0.169
        19 -12.3596     68.4363    143.8694   9.4090504736e+01   3.7607519900e+01    0.8023245     0.477461  65.50  0.003068821    2.347    0.574
        20  -9.8438     88.9928    143.1033   8.7992300082e+01   3.4762088174e+01    0.2658159    0.2141611 -56.84 0.0007208207    1.182    0.154
        21 -11.6779     76.4600    140.8030   9.1177949838e+01   3.7251466079e+01    0.3217922    0.2599809 -50.68 0.0004148534    1.180    0.153
        22  -9.3563     93.0054    139.7206   8.6142808438e+01   3.4953065008e+01    0.2050047    0.1971469  29.07 0.0003976954    1.094    0.086
        23  -8.9477    136.7869    133.7878   7.2707278421e+01   2.8227095165e+01    0.2097402    0.1811185 -77.14 0.0003558694    1.325    0.245
        24 -10.4649    105.2968    131.1120   8.0704313552e+01   3.4944293215e+01    0.4307747    0.3418566  27.72  0.001368155    1.353    0.261
        25 -14.7311     14.3061    246.2907   1.1728516996e+02   2.0195135699e+01     8.341655     2.322149  30.17   0.03575904    4.088    0.755
        26  -8.8574    133.4836    128.5178   7.2300438282e+01   3.0111592662e+01    0.1560528    0.1524269 -72.03 0.0008095828    1.055    0.052
        27 -10.1194     90.0915    127.4713   8.4344138479e+01   3.8455784736e+01    0.2692994    0.2320064 -43.13 0.0003729789    1.124    0.110
        28 -10.5554    239.4096    143.8089   5.3486259746e+01   5.7663136422e+00    0.2030841    0.1147346 -30.68 0.0009560441    1.703    0.413
        29 -11.0819     52.4498    118.2425   9.4143488648e+01   4.6041195085e+01    0.4396989    0.1348284 -62.48  0.001462875    3.131    0.681
        30  -9.3288    102.8823    119.4852   7.8644521484e+01   3.8168924028e+01    0.2161169    0.1979732 -42.97 0.0003918515    1.052    0.049
        31 -11.3014    245.1417    112.1193   4.5900280327e+01   1.0261423682e+01    0.2085588    0.1765035 -23.40  0.001255597    1.247    0.198
        32  -9.2534    204.2311    110.8521   5.2186966378e+01   1.8598454167e+01    0.2837223    0.1903617  24.03  0.001242679    2.185    0.542
        33 -11.6875      2.0000     81.5080   1.0471041495e+02   5.8817367037e+01    0.6332198   0.09563368 -64.58  0.002141742    3.988    0.749
        34  -9.0353     24.7793     82.7919   9.6356858160e+01   5.7128570953e+01    0.1619014    0.1431943 -78.78 0.0003612629    1.302    0.232
        35  -9.5535     56.0173     67.4826   8.0068421590e+01   5.7148115802e+01    0.1986035    0.1291864  28.43  0.001032905    1.595    0.373
        36 -10.4597     13.2463     59.9888   9.5557092040e+01   6.2876049388e+01    0.1923144    0.1606967 -18.90 0.0004467641    1.162    0.140
        37 -12.6283    215.3884     46.7103   3.5353723596e+01   2.6710816470e+01    0.6271382    0.4207496 -38.03  0.003480903    1.486    0.327
        38  -9.1928     95.0361     42.0645   5.7484345316e+01   5.4941749889e+01    0.2046638     0.170529 -69.23  0.001000423    1.707    0.414
        39 -10.4930    248.6586    248.6586   7.1598064705e+01  -1.1987564434e+01    0.2295724      0.13129 -37.00  0.001401123    1.872    0.466
