#   1 NUMBER                 Running object number                                     
#   2 MAG_AUTO               Kron-like elliptical aperture magnitude                    [mag]
#   3 X_IMAGE                Object position along x                                    [pixel]
#   4 Y_IMAGE                Object position along y                                    [pixel]
#   5 X_WORLD                Barycenter position along world x axis                     [deg]
#   6 Y_WORLD                Barycenter position along world y axis                     [deg]
#   7 A_WORLD                Profile RMS along major axis (world units)                 [deg]
#   8 B_WORLD                Profile RMS along minor axis (world units)                 [deg]
#   9 THETA_WORLD            Position angle (CCW/world-x)                               [deg]
#  10 FWHM_WORLD             FWHM assuming a gaussian core                              [deg]
#  11 ELONGATION             A_IMAGE/B_IMAGE                                           
#  12 ELLIPTICITY            1 - B_IMAGE/A_IMAGE                                       
         1 -13.4436    194.6115     29.6111   6.9083754525e+01   3.3118544056e+01     1.237499     1.096663  65.91  0.006033256    1.120    0.107
         2 -13.8112    209.2219     10.8324   6.2681019462e+01   3.1741630183e+01     1.426045    0.9720665  43.84  0.007865101    1.815    0.449
         3 -11.6973      2.3579      3.9944   1.1439227092e+02   7.1717551379e+01    0.4516484     0.184686 -44.68   0.00269533    2.248    0.555
         4 -11.3591    101.3846    246.1879   1.3535897585e+02   1.0667701470e+01    0.2810641    0.1908327  66.99  0.001435391    1.306    0.234
         5 -11.8326    139.7235    248.3338   1.2848358185e+02   3.9796828737e+00    0.4433721    0.3223445  80.47  0.002633719    1.651    0.394
         6 -11.8382     98.4891    249.3305   1.3621486105e+02   1.0556377614e+01    0.4831483    0.2404898  47.52    0.0026146    1.635    0.389
         7 -12.8147     33.8415    246.8658   1.4710847195e+02   1.9945625105e+01     0.920017    0.7504106 -43.89  0.006576417    2.279    0.561
         8 -14.4605     11.3150    244.4315   1.5051462465e+02   2.2925072367e+01     10.02821     2.993507  31.01   0.03268179    9.532    0.895
         9 -10.7157    140.7369    230.5490   1.2590531534e+02   6.9018600315e+00    0.2645773    0.1154939  39.56  0.001137394    2.112    0.527
        10  -9.7691    156.3433    228.3113   1.2248351909e+02   4.5086156311e+00    0.1312457    0.1011795  13.39 0.0007045892    1.702    0.412
        11 -10.1373    228.7420    228.1855   1.0847942171e+02  -8.2029001761e+00     0.253394    0.1984593 -59.37  0.001153014    2.005    0.501
        12 -14.8697      8.3095    209.4849   1.4891514391e+02   2.9995211606e+01     3.911149     1.796135 -71.93    0.0168665    1.801    0.445
        13 -10.1895     81.5157    248.9651   1.3920801592e+02   1.3193705434e+01    0.1907447    0.1332898  56.51  0.001000529    1.153    0.132
        14 -10.9595     46.1086    248.3807   1.4521055004e+02   1.8156979604e+01    0.3317992    0.1415958  68.02  0.001415785    2.291    0.563
        15  -9.0807    152.6923    212.9580   1.2082622343e+02   7.9960630904e+00    0.1784768    0.1691055  78.06 0.0003399824    1.105    0.095
        16 -10.5682    199.1620    246.9870   1.1709699949e+02  -5.9689052392e+00    0.1831947    0.1482772  88.20  0.001090308    2.027    0.507
        17  -9.9343    192.3148    193.6143   1.0917757364e+02   3.9901863986e+00    0.6699302    0.3222292 -64.16  0.001538144    8.829    0.887
        18 -11.6435     62.7842    197.5452   1.3748605441e+02   2.6246690100e+01    0.3200171    0.2543459 -44.97  0.001218805    1.720    0.419
        19  -9.3132     66.9916    249.9988   1.4182377464e+02   1.5083639144e+01    0.1427732    0.1056893  68.42  0.000327264    1.009    0.009
        20 -11.9062     68.5936    189.5647   1.3531261031e+02   2.7210750612e+01    0.2799441    0.2377573 -65.12 0.0007158432    1.276    0.217
        21 -10.9589     78.4708    177.0151   1.3143797723e+02   2.8630497709e+01    0.2534538    0.2178474 -68.51 0.0004225377    1.166    0.142
        22 -13.1950     65.3493    175.0252   1.3413369588e+02   3.0963443376e+01    0.5030622    0.2757661 -46.44  0.001578959    2.262    0.558
        23 -10.1364     98.3209    174.5178   1.2648194527e+02   2.6058214513e+01    0.3675138    0.2200605 -66.60  0.000883919    1.676    0.404
        24 -11.9041     85.8933    167.7245   1.2829362808e+02   2.9650616497e+01    0.6219483    0.5628805  82.37  0.003726049    1.049    0.047
        25 -12.7882     36.2862    231.4287   1.4562202014e+02   2.2588532953e+01    0.2981633    0.2380763 -89.62 0.0007578249    1.225    0.184
        26 -10.0670     98.4548    151.7520   1.2242665432e+02   3.1353211654e+01    0.2723295    0.2565964  86.13 0.0007679152    1.047    0.045
        27 -12.1109     87.0048    151.0974   1.2517777391e+02   3.3389899644e+01    0.2928484    0.2492959 -47.29   0.00052548    1.259    0.205
        28 -12.4858     67.7396    144.0613   1.2881993210e+02   3.7894801846e+01    0.6888772    0.4836379  73.44  0.002673469    1.630    0.386
        29 -14.5817     42.3801    223.2156   1.4391131787e+02   2.3479733487e+01       1.7422     1.483663 -46.67   0.00707516    1.845    0.458
        30  -8.5978    192.2891    144.2709   9.8710180924e+01   1.3650393186e+01     0.148407    0.1209101   7.62 0.0002506551    1.508    0.337
        31 -11.3888    124.1381    250.0293   1.3159887524e+02   6.3079174609e+00    0.4519675    0.1532672  41.45   0.00191176    2.542    0.607
        32 -11.9515    126.4854    244.4032   1.3048456830e+02   6.8908441872e+00    0.4920916    0.1957984  54.14   0.00209847    2.511    0.602
        33  -9.1778    101.2448    147.7794   1.2095401486e+02   3.1809566351e+01    0.1935655    0.1675957 -33.05 0.0003534412    1.348    0.258
        34  -9.8109    110.0426    136.8553   1.1642974385e+02   3.2795986055e+01    0.3971484    0.2606609 -21.33  0.001150607    2.562    0.610
        35 -10.5480     97.1721    134.2823   1.1924422848e+02   3.5690965496e+01    0.2638011    0.2235019 -40.64 0.0004853982    1.245    0.197
        36 -15.2567      7.7474    147.9190   1.4393911875e+02   4.3264698545e+01     5.312653     1.409709 -77.49   0.01944142    3.868    0.741
        37  -9.1963    106.9880    123.7440   1.1427395304e+02   3.6400684452e+01    0.1927495    0.1852296  53.24 0.0003043079    1.085    0.079
        38 -10.9452    233.9865    237.8138   1.0918944724e+02  -1.0361749158e+01    0.2494804     0.167416 -52.25  0.001387377    2.354    0.575
        39 -10.2545    167.9233    112.9435   9.6346910550e+01   2.5725473239e+01    0.3420019    0.2810261 -77.68 0.0007679844    1.410    0.291
        40  -9.2489    203.4581    111.5148   8.8605801493e+01   1.7594184840e+01    0.1514132    0.1479009 -47.15 0.0001059445    1.039    0.037
        41 -10.2705    243.0000     85.0078   7.5708207102e+01   1.3279782151e+01    0.2369683   0.07446704 -37.58  0.000804019    2.953    0.661
        42  -8.7497    184.5514     77.4775   8.3451284502e+01   2.8470889752e+01    0.1498124    0.1453918  79.49 6.820178e-05    1.037    0.036
        43  -9.3266    157.5041     76.5007   8.8757250506e+01   3.5287413861e+01    0.1509749    0.1469053  61.28 0.0008106799    1.005    0.005
        44  -9.9356     25.5450     59.5125   1.2345535647e+02   6.0955161712e+01    0.2804145    0.1382574  37.41  0.001498625    2.633    0.620
        45 -10.6213     19.6934     57.1545   1.2496670363e+02   6.1853849783e+01    0.4412872    0.1638751  38.61  0.002008625    3.910    0.744
        46 -11.8602    248.8415    248.9262   1.0842668982e+02  -1.3988801192e+01     0.534075    0.2550101  35.62   0.00295562    1.801    0.445
        47 -10.6471    185.8583    238.7771   1.1833155812e+02  -2.4827322349e+00    0.2196331    0.1701232 -86.05 0.0007633423    2.043    0.511
