#   1 NUMBER                 Running object number                                     
#   2 MAG_AUTO               Kron-like elliptical aperture magnitude                    [mag]
#   3 X_IMAGE                Object position along x                                    [pixel]
#   4 Y_IMAGE                Object position along y                                    [pixel]
#   5 X_WORLD                Barycenter position along world x axis                     [deg]
#   6 Y_WORLD                Barycenter position along world y axis                     [deg]
#   7 A_WORLD                Profile RMS along major axis (world units)                 [deg]
#   8 B_WORLD                Profile RMS along minor axis (world units)                 [deg]
#   9 THETA_WORLD            Position angle (CCW/world-x)                               [deg]
#  10 FWHM_WORLD             FWHM assuming a gaussian core                              [deg]
#  11 ELONGATION             A_IMAGE/B_IMAGE                                           
#  12 ELLIPTICITY            1 - B_IMAGE/A_IMAGE                                       
         1 -14.6798    245.4942     14.6875   3.5640323484e+02   2.3862511789e+01     2.026573    0.6333917 -36.60  0.009651412    2.491    0.599
         2  -9.5634    176.5915     33.4190   6.7526574445e+00   3.6747602176e+01    0.1375668     0.118104 -77.39  0.000106126    1.006    0.006
         3 -10.3349    168.7147    250.5334   5.4066214517e+01   1.1510001145e-01    0.2245873   0.09470573  27.23  0.001035749    2.004    0.501
         4 -10.2051    150.0515    250.4869   5.7793658575e+01   2.5376616222e+00    0.1904042   0.09534747  31.13 0.0008907219    1.572    0.364
         5 -11.3543    140.8736    249.1318   5.9517632861e+01   3.9599191905e+00     0.294913    0.2045246 -13.84  0.001771924    1.808    0.447
         6 -10.5159    108.7836    248.8136   6.6272527923e+01   8.3096342069e+00     0.197014    0.1231331  -9.19 0.0009523635    2.828    0.646
         7 -10.6605     74.3359    247.8353   7.3649165784e+01   1.2967502671e+01    0.2611384    0.1406553   9.17  0.001098784    3.504    0.715
         8 -10.3502     62.3506    248.3188   7.6278630291e+01   1.4358138619e+01    0.1115805   0.09064005  -3.90 0.0006994842    1.739    0.425
         9 -10.5876    164.5093    247.0165   5.4446389298e+01   1.1618677921e+00    0.2159018    0.1395297   0.09   0.00126236    1.743    0.426
        10 -11.0031    156.5354    245.7262   5.5886173535e+01   2.3997720959e+00     0.267338     0.186546  -1.62  0.001468812    1.570    0.363
        11 -10.8607    135.6776    246.6399   6.0310473233e+01   5.0503159822e+00    0.1896975    0.1304755   2.45  0.001101283    1.718    0.418
        12 -10.2604     81.2103    247.2021   7.2103103534e+01   1.2210297822e+01    0.1888841    0.1240284 -13.65 0.0009485222    2.783    0.641
        13 -10.2364    219.2854    245.1180   4.3970140619e+01  -5.2304517319e+00    0.2012212   0.08034458 -31.34  0.001069522    2.536    0.606
        14 -11.1418    176.8767    243.4729   5.1539813877e+01   7.6631731069e-02    0.3684252    0.2090939 -12.71  0.001939667    2.347    0.574
        15 -10.3631    119.4708    246.4877   6.3735435255e+01   7.2666094273e+00    0.1254261   0.09953684  29.13 0.0008094185    1.045    0.043
        16  -9.6126    250.0000    244.9697   3.8905273238e+01  -8.4149466381e+00    0.1534441   0.04902675 -35.43 0.0007994852    2.922    0.658
        17 -11.6864     95.1592    243.7814   6.8746496976e+01   1.1006096605e+01    0.3610053     0.228513  -5.92  0.001739242    2.844    0.648
        18 -10.4769     99.2104    249.7863   6.8427621946e+01   9.4116103557e+00     0.164226    0.1325534  12.97  0.001071601    1.362    0.266
        19 -10.6096    113.9615    242.8636   6.4536979552e+01   8.6321059255e+00    0.2076646     0.132473   8.07   0.00108577    2.039    0.510
        20 -10.6790    170.1643    240.7983   5.2500368214e+01   1.3364865683e+00    0.3270149    0.1810016  -3.41  0.001545364    2.780    0.640
        21 -10.6023    132.0259    241.9246   6.0531953906e+01   6.3154957773e+00    0.1970659    0.1384999   0.09   0.00113425    1.725    0.420
        22 -11.1673    123.7239    240.1290   6.2111472938e+01   7.7618495688e+00    0.2829395    0.1660886 -40.66  0.001535874    2.154    0.536
        23 -11.1942    107.9565    242.0648   6.5765358334e+01   9.5896246710e+00    0.1938273     0.143004  -0.30  0.001131559    1.737    0.424
        24  -9.9731    201.5828    240.7171   4.6486707558e+01  -2.6197409487e+00    0.1993294    0.0994238 -33.96  0.001137153    2.074    0.518
        25 -10.2851    186.6398    240.4969   4.9247384128e+01  -7.4536156030e-01    0.2445426    0.1351499   6.31  0.001278456    2.164    0.538
        26 -10.1577    154.1118    239.5548   5.5591849916e+01   3.6740797888e+00    0.2329188    0.1469594 -23.36  0.001303775    1.968    0.492
        27 -11.5221     79.3036    239.1416   7.1846423049e+01   1.3947952819e+01    0.2902269    0.1896844   8.71   0.00153204    2.117    0.528
        28  -9.3658    239.6665    239.6648   3.9772855698e+01  -6.7692158953e+00    0.1142832   0.06373586  -3.25 0.0004282301    1.737    0.424
        29  -9.6248    212.5176    246.4924   4.5344795888e+01  -4.6409333314e+00    0.1145018   0.08211616   4.25 0.0002317773    1.084    0.077
        30 -11.4903    160.0286    236.5927   5.3982571272e+01   3.3319615421e+00    0.3846948    0.1977032 -41.25  0.002047889    2.229    0.551
        31 -10.3519    194.5692    237.6601   4.7346915452e+01  -1.3463946339e+00    0.2099549    0.1002835 -33.54   0.00113229    2.219    0.549
        32 -10.5582    146.5202    237.4650   5.6906657676e+01   5.0481100681e+00    0.2789447    0.1693557  -2.08  0.001377832    2.391    0.582
        33 -11.0019    103.0013    237.4960   6.6388795621e+01   1.1085141914e+01    0.2370287    0.1399623 -20.55  0.001028985    3.384    0.705
        34  -9.6927    209.3766    236.4687   4.4461826706e+01  -2.9912936808e+00    0.2157873   0.08142805 -27.67 0.0009508303    3.361    0.702
        35  -9.9108    135.3880    236.7955   5.9193633443e+01   6.7062101055e+00    0.1610736    0.1130805 -33.86 0.0009459789    1.717    0.418
        36 -10.7032    129.3673    236.4639   6.0455733335e+01   7.6044450049e+00    0.2702962    0.1673523 -14.25  0.001312978    2.580    0.612
        37 -10.1605    230.4937    235.5020   4.0664559717e+01  -5.2876308275e+00    0.1737058   0.09715312 -44.27  0.001036087    2.405    0.584
        38 -10.0014    189.8261    235.6397   4.7952149676e+01  -4.6608135801e-01    0.1646666    0.1261958  -0.89 0.0008142092    1.147    0.128
        39 -10.1172    183.6841    235.6301   4.9129431061e+01   3.2528810504e-01    0.1903506    0.1208605  -0.04  0.000842861    1.698    0.411
        40  -9.8505    204.2982    235.0426   4.5170217705e+01  -2.1891334704e+00    0.1817826   0.07285878 -23.04 0.0007034315    4.180    0.761
        41 -10.3594    139.4917    241.8647   5.8938548146e+01   5.3015625146e+00    0.2074333    0.1501302  13.11  0.001124918    1.350    0.259
        42 -10.7447     91.8730    234.8506   6.8624524427e+01   1.3092276464e+01        0.193    0.1623271  20.10 0.0008613312    1.253    0.202
        43 -10.5319    123.4639    231.1378   6.1112799298e+01   9.3706152290e+00    0.2519702    0.1875105   6.37  0.001221086    1.523    0.343
        44  -9.7679    248.5751    238.6285   3.8202981816e+01  -7.5593009031e+00    0.2091361   0.06997027 -25.09 0.0009519836    3.535    0.717
        45 -10.3070    241.3279    231.0077   3.8215224633e+01  -5.9125835041e+00    0.1791733   0.06550543 -21.18 0.0007051864    4.364    0.771
        46 -10.4853    195.1736    230.1899   4.6144932636e+01  -3.7589951851e-01     0.276486     0.159952 -15.29  0.001522495    1.992    0.498
        47 -10.1586    188.0399    230.9771   4.7618070226e+01   4.3324920451e-01    0.2023606    0.1253088  -1.28  0.001133195    1.807    0.447
        48 -10.3932    132.9137    230.1929   5.8908045541e+01   8.1883778370e+00    0.2365547    0.1562614 -17.94  0.001236493    2.098    0.523
        49 -11.2478    114.8307    229.7924   6.2887123372e+01   1.0844006321e+01    0.3106611    0.1914615 -31.07  0.001566376    2.325    0.570
        50 -10.0396     85.3525    231.3078   6.9769865981e+01   1.4650378342e+01    0.1234225   0.09638837  -2.81 0.0006946011    1.716    0.417
        51 -10.1220    236.1181    228.6833   3.8707575837e+01  -5.0629449258e+00    0.2965996   0.06123935 -39.01  0.001148211    4.712    0.788
        52  -9.5491    208.4575    230.4840   4.3740341051e+01  -2.0801396784e+00    0.1180741   0.08982282   3.19 0.0003184488    1.047    0.045
        53 -10.1249    158.3756    229.7730   5.3395706365e+01   4.6437223101e+00    0.1659342    0.1100722 -30.69 0.0009491299    1.708    0.414
        54 -10.1033    212.6108    227.4127   4.2531955477e+01  -2.1707032444e+00    0.2667633   0.09484039 -35.17  0.001258127    2.833    0.647
        55 -10.0546    184.6215    227.0703   4.7705083686e+01   1.4614349446e+00    0.2268168    0.1351191 -24.37  0.001266797    1.839    0.456
        56 -10.3584    174.5284    227.9681   4.9833755482e+01   2.6906691204e+00    0.2559528    0.1335138   2.99  0.001032586    3.459    0.711
        57  -9.9105    152.0062    228.0170   5.4494368686e+01   5.8316495143e+00    0.2002485    0.1395133   0.07  0.001123058    1.645    0.392
        58 -10.3972    108.1935    227.2206   6.4099790873e+01   1.2268554493e+01    0.2123382    0.1339223 -10.40 0.0009536559    2.810    0.644
        59 -10.1581    190.8481    225.8365   4.6317094171e+01   8.1697607138e-01    0.1937529    0.1394544   0.67  0.001221875    1.292    0.226
        60  -9.3917    240.3322    225.2894   3.7502901807e+01  -5.1039691824e+00    0.1135351   0.06702585  -2.21 0.0007015999    1.626    0.385
        61 -10.3132    224.1597    225.0125   4.0146997930e+01  -3.2329293756e+00    0.1932565    0.1056775 -11.83  0.001077598    2.016    0.504
        62 -10.1193    127.2797    224.8689   5.9483358602e+01   9.9520233049e+00     0.253128    0.1595168   7.24  0.001232236    2.118    0.528
        63 -10.9609    100.4834    230.4537   6.6218954625e+01   1.2742079449e+01    0.2826965    0.1875521 -11.27  0.001388866    2.475    0.596
        64 -10.8893    248.7541    227.7131   3.6538311780e+01  -6.2998026524e+00    0.2557339    0.1091453 -31.38  0.001489125    2.063    0.515
        65 -10.0534    206.7848    222.9717   4.2901040720e+01  -8.3323052249e-01    0.1962636    0.1125952 -11.24  0.001038048    2.010    0.503
        66 -10.7581    181.8444    220.8503   4.7318562161e+01   2.7875863775e+00    0.3596843    0.2054843   1.84  0.001725876    2.410    0.585
        67 -11.2182    149.1526    220.2345   5.4022341459e+01   7.5698169769e+00    0.4245055    0.2413512 -15.26  0.001810048    3.059    0.673
        68 -10.2248    216.6757    220.8015   4.0792192269e+01  -1.7670729075e+00    0.2280781   0.08824191 -31.93  0.001084511    2.642    0.621
        69 -10.5260    173.5805    220.0084   4.8850288825e+01   4.0758798886e+00     0.278879    0.1842519  -6.96  0.001532704    1.759    0.431
        70 -10.3085    238.9974    219.5195   3.6821111067e+01  -4.2293468236e+00    0.2517217    0.1106015 -22.17  0.001281993    2.495    0.599
        71 -10.9541    192.4586    217.3751   4.4712070450e+01   1.8662554669e+00    0.4026204     0.192588 -29.66  0.001968428    2.346    0.574
        72  -9.8341    200.4245    223.8132   4.4201509416e+01  -1.3944250326e-01    0.1682552   0.09772906 -24.53 0.0009517251    1.768    0.434
        73 -10.1833    210.3663    216.5407   4.1245617760e+01  -3.7779652800e-01    0.2786592   0.09654047 -35.56  0.001241706    2.911    0.656
        74 -10.2580    203.4065    217.4489   4.2660237459e+01   3.9366742223e-01    0.2980537    0.1442237 -14.31  0.001213461    3.607    0.723
        75 -10.2871    160.5232    217.3346   5.1161960683e+01   6.3984916832e+00    0.2941886    0.1712267   3.57  0.001322299    2.550    0.608
        76 -10.9741    249.7810    214.3141   3.4292866808e+01  -4.7676214186e+00    0.3967902    0.1228357 -40.59   0.00183719    3.320    0.699
        77  -9.8367    105.3243    217.3362   6.3615639743e+01   1.4601223633e+01     0.131883    0.1010494  -7.22 0.0004932485    1.716    0.417
        78  -9.9206    244.3840    214.7978   3.5213387519e+01  -4.2317900198e+00     0.157633   0.08292732 -24.19 0.0009450741    1.685    0.407
        79  -9.9630    180.0149    215.0010   4.6784609934e+01   3.9665252746e+00    0.2048482    0.1363124  -1.78  0.001124868    1.683    0.406
        80  -9.9286    136.6493    215.6569   5.6144462085e+01   1.0253280326e+01    0.1381649   0.09721074  -3.06 0.0007042283    1.807    0.447
        81  -9.8830    118.5304    214.9836   6.0216078178e+01   1.3109016877e+01    0.1778918    0.1070954 -29.32 0.0008084754    2.444    0.591
        82 -10.4049    169.6371    213.1429   4.8614804421e+01   5.7691122197e+00    0.2631866    0.1773992  -7.02  0.001417007    1.747    0.428
        83 -10.2445    143.1562    213.2395   5.4340747518e+01   9.7136337190e+00    0.2491915    0.1449402 -34.32  0.001215494    2.097    0.523
        84 -10.5982    186.1098    211.3776   4.5001766411e+01   3.6794467288e+00    0.3568994     0.190114 -17.45   0.00160137    2.728    0.633
        85  -9.8621    112.6449    213.6675   6.1431226004e+01   1.4249434529e+01    0.1370477    0.1014511  -5.15 0.0007044435    1.789    0.441
        86 -10.4047    162.6448    208.8490   4.9421096203e+01   7.5437864180e+00     0.319882    0.1921849  -5.47  0.001432296    2.554    0.609
        87 -10.8325    215.4112    206.5569   3.8728846924e+01   4.0769957783e-01    0.3972123    0.1873932 -18.94  0.001741758    3.036    0.671
        88 -10.5053    192.6773    207.7489   4.3135050399e+01   3.3240870945e+00    0.3155322    0.1521582 -35.26  0.001558587    2.126    0.530
        89 -10.1168    132.1975    208.9951   5.6220092369e+01   1.2188197382e+01    0.2196959    0.1477914 -18.96   0.00107464    2.045    0.511
        90 -11.0149    236.6057    206.2114   3.5073240032e+01  -2.2035107360e+00     0.361869    0.1840175 -36.51  0.002098774    1.826    0.452
        91 -10.7705    198.6628    213.6327   4.2940978935e+01   1.5907896399e+00    0.2759901    0.1729349  -3.21  0.001521784    1.797    0.444
        92 -10.8465    205.2836    205.5835   4.0399238504e+01   1.9071491688e+00     0.436709    0.1770264 -26.55  0.001737637    3.473    0.712
        93 -10.4531    177.9647    206.9995   4.5932751048e+01   5.5704073228e+00    0.2727294    0.1823273  -2.33  0.001457645    1.735    0.424
        94 -10.4554    246.9460    205.5137   3.3315383084e+01  -3.3237201853e+00    0.2278695      0.12353 -20.78  0.001362228    1.694    0.410
        95 -10.0691    148.3402    205.9743   5.2101647649e+01   1.0254915939e+01    0.2143745     0.093614 -30.34  0.000704753    4.341    0.770
        96 -10.4454    232.3996    213.1819   3.6895149881e+01  -2.6381184567e+00    0.2608991    0.1228201 -33.85  0.001460107    1.940    0.485
        97  -9.5081    139.6570    204.6664   5.3868535506e+01   1.1857819762e+01    0.1409933    0.1009767  -3.39 0.0007050581    1.759    0.431
        98 -10.7903    228.9479    200.5508   3.5397238521e+01  -4.7610488440e-01    0.4292404    0.1877753 -19.29  0.001751099    3.611    0.723
        99 -10.7435    184.8631    200.7456   4.3515884465e+01   5.5896176770e+00    0.3662225    0.2220319  -4.02  0.001749174    2.259    0.557
       100 -10.7290    250.2217    200.1391   3.1927774263e+01  -2.9961750538e+00    0.2845968    0.1249979 -30.22  0.001560636    1.979    0.495
       101 -10.8040    243.7339    199.4705   3.2820373063e+01  -2.1464797296e+00    0.3554637    0.1181919 -32.24  0.001622279    2.807    0.644
       102 -10.4977    210.9655    199.7260   3.8383580534e+01   2.0176598419e+00     0.278409    0.1484671 -29.39  0.001472681    1.839    0.456
       103 -10.2865    101.1634    199.7131   6.2426607767e+01   1.8882108387e+01    0.3517014    0.2223566 -12.46  0.001438186    2.942    0.660
       104 -10.0500    221.9853    199.7264   3.6440796918e+01   5.4032678738e-01    0.1712172    0.1393387  -2.48  0.001171952    1.025    0.024
       105 -10.5813    165.3192    198.4943   4.7189819518e+01   8.9674523035e+00     0.459776     0.245617   4.46  0.001547898    4.351    0.770
       106 -10.9241    237.2335    196.7238   3.3392865653e+01  -9.7945036156e-01    0.4328517     0.130896 -34.30  0.001851735    3.083    0.676
       107 -10.3203    202.8497    196.0853   3.9252239799e+01   3.7180309752e+00    0.2339864    0.1569684 -28.90  0.001361831    1.419    0.295
       108  -9.7803    140.3144    197.3059   5.2586212468e+01   1.3180796821e+01    0.1387371    0.1035075  -2.62 0.0003766505    1.623    0.384
       109  -9.8765    177.7780    195.8094   4.4121914174e+01   7.5020568648e+00    0.2259365    0.1318897  -4.60 0.0009486619    2.784    0.641
       110 -10.4392    215.5261    194.1279   3.6613508540e+01   2.2403390685e+00     0.262284     0.110275 -44.93   0.00120012    2.619    0.618
       111 -10.0973    193.1886    194.4158   4.0802979212e+01   5.3986073161e+00    0.2792906    0.1350013 -17.40 0.0009615862    4.327    0.769
       112 -11.7330    245.5406    191.8092   3.1249871321e+01  -1.3228885628e+00    0.3278368    0.2292096 -29.80  0.002225508    1.254    0.202
       113 -10.8963    224.6204    191.6169   3.4604651008e+01   1.3810382149e+00    0.3827026    0.1706381 -33.44  0.001913686    2.079    0.519
       114 -10.6689    197.5826    201.5037   4.1162842898e+01   3.6138034722e+00     0.381745    0.1780928 -27.28  0.001706297    2.595    0.615
       115 -10.7031    186.0004    191.4812   4.1710506889e+01   6.9794030725e+00    0.4188076    0.2156668 -23.14  0.001779273    2.706    0.631
       116  -9.7567    149.3303    193.3263   4.9872997475e+01   1.2493217044e+01    0.1427603    0.1032398  -3.49 0.0003714367    1.707    0.414
       117  -9.9517    199.4601    189.5576   3.8755732272e+01   5.2623178823e+00    0.2364518     0.106469 -30.80  0.001030909    2.468    0.595
       118 -10.3802    237.7541    186.6567   3.1584756478e+01   3.7517359841e-01    0.2856777    0.1289992 -25.31  0.001378558    2.364    0.577
       119 -11.2767    249.5213    183.8300   2.9275923963e+01  -7.1237734133e-01    0.4305151    0.1581849 -27.90  0.001899044    2.944    0.660
       120 -10.4008    230.7028    185.5167   3.2525510905e+01   1.4670191030e+00    0.2526892    0.1544893 -13.05  0.001418506    1.752    0.429
       121 -10.5054    217.0800    185.3198   3.4799435167e+01   3.3742509434e+00    0.3266468    0.1867615 -13.08   0.00160857    2.225    0.551
       122 -10.1473    191.4705    184.9691   3.9479032884e+01   7.2453072172e+00     0.199685    0.1215549 -37.87  0.001037447    1.617    0.381
       123 -10.3984    202.7302    182.2554   3.6840072608e+01   5.9703239899e+00    0.2692379    0.1367656 -22.98  0.001168664    2.562    0.610
       124  -9.9782    165.0318    182.9978   4.4597801560e+01   1.1876752294e+01    0.2275598    0.1612514  -4.97   0.00112996    1.747    0.427
       125  -9.7914    209.5990    194.1401   3.7676584791e+01   3.0639388345e+00    0.1794872     0.102584 -27.07 0.0009501661    1.732    0.423
       126 -10.0437    210.8899    181.1853   3.5154985463e+01   4.9225418018e+00    0.2550477    0.1480069 -16.11  0.001244287    2.123    0.529
       127 -10.0563    155.6162    182.1772   4.6545297794e+01   1.3621050503e+01    0.2007213    0.1259068 -34.95 0.0009513177    1.758    0.431
       128 -10.0124    235.3920    180.7223   3.0919792963e+01   1.5448651036e+00    0.1670945   0.09514585 -27.00 0.0005536273    1.584    0.369
       129  -9.9573    197.2417    181.1878   3.7681384393e+01   6.9906152627e+00    0.2154636    0.1264688  -5.18 0.0009306727    2.658    0.624
       130  -9.4995    183.3350    181.3196   4.0441990832e+01   9.1723952914e+00    0.1402864   0.09789156  -2.45 0.0004810352    1.701    0.412
       131 -10.7794    243.1500    180.0499   2.9584574588e+01   6.2325236073e-01    0.2492394    0.1507104  10.31  0.001415546    1.986    0.497
       132 -10.2153    174.9805    179.4996   4.1835707304e+01   1.0872257542e+01    0.2883529    0.1600444 -13.07  0.001040627    3.562    0.719
       133 -11.1744    249.2554    176.5510   2.8045620122e+01   3.3724635866e-01    0.2270778    0.1324821 -32.23  0.001377972    1.425    0.298
       134 -10.1524    231.3980    175.2961   3.0590639523e+01   2.8960931070e+00    0.2410763    0.1008238 -34.55  0.001142787    2.150    0.535
       135 -10.0616    217.4010    175.2712   3.2929785430e+01   4.9053529833e+00    0.2481504    0.1075344 -35.45  0.001142446    2.153    0.535
       136 -10.3859    192.0125    174.9756   3.7547504805e+01   8.8881625377e+00    0.3532541     0.151244 -25.63  0.001140811    4.367    0.771
       137 -10.1296    100.9651    176.0032   5.9106583648e+01   2.4256031499e+01    0.2050397    0.1893678  46.18            0    1.021    0.021
       138  -9.7276    211.7518    173.9988   3.3686473051e+01   5.9553120947e+00    0.1673434   0.09893702 -37.17 0.0008099829    1.570    0.363
       139 -10.2060    183.8978    172.5844   3.8712603227e+01   1.0650593904e+01    0.3515963    0.1666385 -26.19  0.001298144    3.215    0.689
       140 -10.0078    224.7504    171.4405   3.0977473020e+01   4.4323142102e+00    0.2232594    0.1343657 -18.94  0.001181129    1.791    0.442
       141 -10.6535    247.6287    168.1933   2.6797851541e+01   1.7414253281e+00    0.1730106   0.09101248 -28.13 0.0009458238    1.692    0.409
       142  -9.8737    205.5830    167.7641   3.3627395800e+01   7.9489981013e+00     0.183157    0.1171599 -46.75 0.0009573914    1.657    0.396
       143  -9.8612    198.5012    167.9825   3.4982370412e+01   9.0531351453e+00    0.1937361     0.105527 -20.48 0.0008102895    2.552    0.608
       144 -10.3194    219.0484    166.1862   3.0957416084e+01   6.1131687400e+00    0.2460279    0.1460933 -24.99  0.001284149    1.699    0.411
       145 -10.5548    212.4236    161.7418   3.1253392905e+01   7.8716729241e+00    0.4302551    0.1382284 -34.23  0.001530322    3.431    0.709
       146  -9.9049    222.4719    160.0101   2.9210842926e+01   6.5851005884e+00    0.1822954   0.09809238 -19.18 0.0008088202    2.469    0.595
       147 -10.2137    227.1846    157.4902   2.7960377502e+01   6.2682554725e+00    0.2492815     0.155396 -36.22   0.00139834    1.408    0.290
       148 -10.9218    250.5510    155.0561   2.3980090839e+01   3.2591732013e+00    0.3205265   0.09684223 -37.62  0.001358508    2.739    0.635
       149 -11.8411    249.4493    149.0684   2.3022178567e+01   4.2950036609e+00    0.4376347    0.1150783 -37.34  0.001708003    3.173    0.685
       150 -10.1520    218.3490    154.1509   2.8765640458e+01   8.1862259339e+00    0.2699802    0.1062121 -33.17  0.001095886    2.591    0.614
       151 -12.6948    244.1944    149.0421   2.3762448536e+01   5.0509262583e+00    0.6401564    0.2218603 -30.79  0.002543456    3.142    0.682
       152 -10.1134    205.1146    152.7450   3.0784318969e+01   1.0603171676e+01    0.2660336    0.1635539 -15.99  0.001231302    2.155    0.536
       153  -9.8568    232.4742    152.0044   2.6075422270e+01   6.3321623799e+00    0.1979436    0.1066023 -35.87    0.0010341    1.604    0.377
       154 -10.8117    247.1418    155.8905   2.4620384467e+01   3.6077967805e+00    0.3380001    0.1261682 -29.69  0.001428533    2.848    0.649
       155 -10.3127    234.0251    145.6400   2.4608873016e+01   7.0958148588e+00    0.2428514    0.1565054 -17.44  0.001323097    1.726    0.421
       156  -9.9958    223.6731    145.0019   2.6091474210e+01   8.8333208288e+00    0.2148702   0.09435239 -22.90 0.0007049471    4.301    0.768
       157 -12.3466    243.6544    139.5718   2.2029925365e+01   6.5703292810e+00    0.4211278    0.1609947 -28.85  0.001678598    3.112    0.679
       158  -9.5181    218.5015    143.4901   2.6626637236e+01   9.9318158807e+00    0.1304787    0.1144137 -26.45  0.000244879    1.003    0.003
       159  -9.5935    230.3385    141.3329   2.4323996202e+01   8.3570777951e+00    0.1301129   0.09164146  -5.47 0.0007051827    1.744    0.427
       160 -10.2422    239.0000    139.9647   2.2769513618e+01   7.2176564862e+00    0.2048429   0.06034201 -38.43 0.0007104423    2.864    0.651
       161  -9.9270     69.2052    135.8336   6.1962376372e+01   3.9398882708e+01    0.1937943    0.1705697 -40.92 0.0003199058    1.265    0.210
       162 -12.9832    248.5142    116.1927   1.6806493034e+01   9.3793876042e+00    0.4082259    0.2878028 -48.51  0.002541297    1.303    0.233
       163 -10.4688     53.5002    130.5287   6.6375186361e+01   4.3008514411e+01    0.1490099    0.1380327  77.47 0.0001069046    1.012    0.012
       164 -10.0004     75.0057    121.5613   5.7299982312e+01   4.2229346425e+01    0.2280408    0.1492178  34.86 1.824162e-05    1.522    0.343
       165 -10.2778     82.8614    120.1049   5.4325581870e+01   4.1282600630e+01    0.2144587    0.1818978 -34.28 0.0004603777    1.331    0.249
       166 -12.5551    247.4231    128.2221   1.9312246727e+01   7.7265698007e+00    0.3100056     0.246524 -40.30  0.001930055    1.103    0.093
       167 -11.8038    246.5730    101.3453   1.4070378295e+01   1.1939433092e+01     0.182768    0.1477816  20.85  0.001159624    1.671    0.401
       168 -11.1661     57.9672     90.6789   5.6677228644e+01   5.2830921405e+01    0.2670161    0.1963656 -47.68 0.0006302273    1.351    0.260
       169  -9.8857     81.6559     85.7006   4.6076728487e+01   5.0034467566e+01    0.1563386    0.1228721  -6.72 0.0007036353    1.675    0.403
       170 -12.4162    249.9562     80.1423   9.3900425659e+00   1.4489401350e+01    0.4639421    0.1339039 -35.99  0.001850954    2.924    0.658
       171 -12.7132    248.8110     61.0812   5.6105003065e+00   1.7380726206e+01    0.3669378    0.2971788 -44.25  0.002400377    1.138    0.121
       172 -11.2669    236.3111     56.9602   5.9077117649e+00   2.0296515689e+01    0.1848791    0.1406234 -48.04  0.001004563    1.096    0.088
       173 -11.4594    226.1978     53.3585   6.1093768625e+00   2.2808394872e+01    0.3412648    0.1517119 -37.58  0.001058876    1.946    0.486
       174 -11.0117     86.9058     53.6698   3.3520985859e+01   5.5789867170e+01     0.337475    0.2366595  -9.36  0.001472327    2.124    0.529
       175 -12.8355    248.4310     51.2697   3.6357159231e+00   1.8778530363e+01    0.4025238    0.2972851  38.27  0.002479916    2.134    0.531
       176 -11.0493     28.2391     43.1057   5.7075131986e+01   6.7768316024e+01    0.3870364    0.1916647 -46.60  0.001826813    1.853    0.460
       177 -12.2958    238.3968     42.3852   2.6190076708e+00   2.1857752928e+01    0.2327367    0.2006369 -54.44 0.0006864699    1.159    0.137
       178 -10.5679     37.3279     41.6680   5.1289573621e+01   6.6987027898e+01    0.1306178    0.1056138  66.72  0.000705159    1.715    0.417
       179 -10.5129    122.2366     36.6013   1.6982676613e+01   5.0123644465e+01    0.2473577    0.2026674 -40.50 0.0007994885    1.310    0.236
       180 -10.4960    125.9626    249.1848   6.2646490485e+01   5.9470316573e+00    0.2041999    0.1261918   9.13  0.001084579    2.013    0.503
       181  -9.4185     35.4612     12.4174   3.8360222660e+01   7.2485128818e+01    0.1254139    0.1081864  12.86 0.0001219475    1.027    0.026
