#   1 NUMBER                 Running object number                                     
#   2 MAG_AUTO               Kron-like elliptical aperture magnitude                    [mag]
#   3 X_IMAGE                Object position along x                                    [pixel]
#   4 Y_IMAGE                Object position along y                                    [pixel]
#   5 X_WORLD                Barycenter position along world x axis                     [deg]
#   6 Y_WORLD                Barycenter position along world y axis                     [deg]
#   7 A_WORLD                Profile RMS along major axis (world units)                 [deg]
#   8 B_WORLD                Profile RMS along minor axis (world units)                 [deg]
#   9 THETA_WORLD            Position angle (CCW/world-x)                               [deg]
#  10 FWHM_WORLD             FWHM assuming a gaussian core                              [deg]
#  11 ELONGATION             A_IMAGE/B_IMAGE                                           
#  12 ELLIPTICITY            1 - B_IMAGE/A_IMAGE                                       
         1 -13.5356     30.2963     59.6771   1.0367116942e+02   6.1430589438e+01     1.263639    0.9513196  18.95  0.004982349    1.544    0.352
         2 -13.2074    203.6267     21.3749   4.4486820562e+01   3.1352790785e+01    0.9547041    0.3960341  79.79  0.003579128    2.805    0.644
         3 -12.3621    216.3182     14.1255   4.1249830043e+01   2.9025497589e+01    0.7531454    0.6046785  53.38  0.001270553    1.390    0.280
         4 -11.8781     42.3561     20.7121   8.4099208478e+01   6.7386472128e+01    0.5528584    0.3126605  36.50  0.002175465    1.956    0.489
         5 -13.7002    187.3231      7.4275   4.2515674622e+01   3.6995892966e+01     1.149509    0.6167575 -87.18  0.005098723    2.093    0.522
         6 -10.5002     65.0478     11.1121   7.0105085310e+01   6.5235343496e+01    0.2124167    0.1639861  40.58 0.0007055181    1.357    0.263
         7 -10.4025     50.0126     11.0654   7.6067908721e+01   6.7678477736e+01    0.1862085    0.1481692   2.23 0.0005042992    1.026    0.025
         8 -12.3689     57.7817      8.0420   7.1359128980e+01   6.6825648960e+01    0.4654628    0.4020724  21.52   0.00192749    1.211    0.174
         9 -12.0031     43.7041      8.3420   7.7438051127e+01   6.8944677353e+01    0.2770467    0.2270485  18.46 0.0005906422    1.233    0.189
        10 -10.7183    109.4057      8.7427   5.5808390675e+01   5.6404590283e+01    0.2354684    0.1629793  71.60 0.0008193427    1.641    0.390
        11  -9.1692     13.6933      8.2467   9.2514782963e+01   7.2366312259e+01   0.08997148     0.084105  -8.62 0.0001491749    1.502    0.334
        12  -9.6422     65.6452      7.2874   6.8007822475e+01   6.5563800034e+01    0.1094842    0.1016639 -69.00 0.0004772902    1.673    0.402
        13 -12.0977    166.0374      2.0391   4.3496425789e+01   4.2955760497e+01    0.6491391    0.1974495  70.80  0.002295682    2.971    0.663
        14 -10.6750     25.4811      7.8801   8.6009982898e+01   7.1281259938e+01     0.244802    0.1525269 -27.33  0.001000555    1.302    0.232
        15 -10.5263    115.8943    209.5708   1.0771361811e+02   1.5586833839e+01    0.2598876    0.1689955 -86.10  0.001330924    1.998    0.499
        16 -10.2560     56.9492    205.8127   1.1936534006e+02   2.5061686077e+01    0.2175286    0.1012702  59.44  0.001086831    2.019    0.505
        17  -9.7276     98.6654    205.0037   1.1071890608e+02   1.9266828392e+01    0.2079505     0.100113 -87.15 0.0007051671    4.429    0.774
        18 -10.3850     48.9661    202.3592   1.2065305581e+02   2.6770674913e+01    0.2757905     0.142003  85.11  0.001221543    1.997    0.499
        19 -10.6553     41.8229    200.8768   1.2194988449e+02   2.7928839929e+01    0.2744765    0.1575115 -67.53  0.001079684    1.694    0.410
        20 -10.4779    149.4697    198.9644   9.9093041830e+01   1.1746701694e+01    0.1830898    0.1206963 -81.83 0.0008096718    2.543    0.607
        21 -10.3069    112.4875    197.9712   1.0685227122e+02   1.8443589257e+01    0.1861511    0.1112099  89.25 0.0008099291    2.519    0.603
        22 -12.4454    160.4600    191.9423   9.5577350912e+01   1.1020922285e+01    0.7300605     0.518016  72.52  0.003442529    1.996    0.499
        23  -9.7610    110.2286    186.9803   1.0575534713e+02   2.1100145313e+01    0.2626157    0.1259627  65.36 0.0008976129    3.623    0.724
        24 -10.6081    183.3181    183.3473   8.9200791172e+01   8.2331042833e+00    0.3776081    0.2312107 -47.59  0.001794925    1.845    0.458
        25  -9.8276    215.0135    193.6587   8.4917131471e+01   6.5311320601e-01    0.2615612    0.1346943 -46.82 0.0009362855    2.485    0.598
        26  -9.3707     28.4933    176.5640   1.2266251531e+02   3.4606084179e+01    0.1196949   0.09545005  86.30 0.0001040886    1.048    0.046
        27  -9.6599     12.6575    176.3295   1.2597575455e+02   3.6164397446e+01     0.126579   0.06503433  67.77 0.0007051168    1.746    0.427
        28 -10.3478     38.1976    174.8153   1.2039641697e+02   3.3969080696e+01    0.1579105    0.1366153 -66.53  0.001069457    1.324    0.245
        29 -11.3889     45.1060    170.9887   1.1846577631e+02   3.4053701274e+01    0.4982761    0.2497022  87.40  0.002351861    2.198    0.545
        30 -11.6094     55.6359    167.9819   1.1570367656e+02   3.3475300047e+01    0.5175449    0.2676311  86.84  0.002324658    2.319    0.569
        31 -10.0414    121.3315    169.6626   1.0038188987e+02   2.2878080061e+01    0.1527286    0.1078852  75.60 0.0007052028    1.738    0.425
        32 -11.5039     14.7221    164.5351   1.2464699968e+02   3.8578088013e+01    0.2728666    0.1706514  89.54 0.0004538918    1.284    0.221
        33  -9.8512    138.7952    165.1796   9.5457540777e+01   2.0544870919e+01    0.2547305    0.1603654  79.98 0.0009521394    2.872    0.652
        34 -10.5771     52.0216    159.5715   1.1553416503e+02   3.5866728864e+01    0.2608573    0.1604256  88.31  0.001241095    1.633    0.388
        35 -10.7050     22.4489    159.2547   1.2246189494e+02   3.9076654042e+01    0.3187191    0.1707681  73.02  0.001452687    1.842    0.457
        36 -11.4612    106.3216    158.1100   1.0193767015e+02   2.8162490349e+01    0.5589964    0.3478802  72.41   0.00238013    2.194    0.544
        37 -10.5051    121.5176    157.5113   9.8095838163e+01   2.5542016814e+01    0.3091164    0.1400327  42.58 0.0009926928    2.140    0.533
        38 -10.9821    118.3722    156.8168   9.8731646404e+01   2.6285478656e+01    0.3202313    0.2379037 -46.01  0.001080829    1.432    0.302
        39 -10.5213    218.4733    156.4642   7.6629600940e+01   6.0520375470e+00    0.2652398    0.1247583 -46.52  0.001040393    2.470    0.595
        40  -9.9618     23.4452    153.6753   1.2170008042e+02   4.0262010340e+01    0.1817223     0.134501  59.74 0.0005891903    1.318    0.242
        41 -10.2642    237.3325    150.9959   7.2018020532e+01   3.3205843764e+00    0.2282552   0.09666488 -51.20 0.0007052096    4.403    0.773
        42 -10.4385    189.7670    150.3208   8.0946447087e+01   1.3044553862e+01    0.3612819    0.1982948 -53.66  0.001417097    2.334    0.572
        43 -10.3242    148.6265    145.3542   8.9012006739e+01   2.2825001891e+01    0.3423973    0.2254229  86.88   0.00126153    2.812    0.644
        44 -10.7138    106.8468    145.2984   9.9389162949e+01   3.1042382537e+01    0.4694633    0.2538573  77.22  0.001314755    5.131    0.805
        45 -10.2172     55.7279    145.9716   1.1278800208e+02   3.8628858747e+01    0.2490636    0.1103756  63.64 0.0008926551    3.546    0.718
        46  -9.8128    125.6480    144.3326   9.4407686612e+01   2.7733361897e+01    0.1608585    0.1174634  80.00 0.0007046515    1.781    0.438
        47 -10.8606    167.9268    157.6154   8.7261675984e+01   1.6214958367e+01    0.3845041    0.2537178  69.09  0.001585789    2.252    0.556
        48 -10.2316    182.2357    142.1159   8.0656933303e+01   1.6251930553e+01    0.2927422    0.2097009  76.93    0.0012405    2.115    0.527
        49 -10.6373     83.0391    132.0423   1.0311987081e+02   3.8192384160e+01    0.3709411    0.2201263  76.38  0.001460249    2.682    0.627
        50 -11.9585     99.6723    128.9226   9.7904793881e+01   3.6184137745e+01    0.7671025    0.4310836  70.84  0.002623315    3.399    0.706
        51  -9.9726    117.7323    125.9709   9.2351265628e+01   3.3512019378e+01    0.2821298    0.1654903  74.99 0.0008974143    3.617    0.724
        52 -10.4166     59.2766    124.5050   1.0837128645e+02   4.3362649582e+01    0.4328303    0.2195667  86.03  0.001447676    4.061    0.754
        53 -10.8939     43.7436    123.5248   1.1262564127e+02   4.5403536265e+01    0.5571952    0.2833845  82.60  0.002201066    3.121    0.680
        54 -11.0486     27.3182    121.3010   1.1692757239e+02   4.7521764209e+01    0.5682744     0.243723  83.77  0.001972064    4.286    0.767
        55 -11.9924    193.4909    118.4035   7.2524281738e+01   1.8336629214e+01    0.6584301    0.4982345 -69.99  0.002061783    1.736    0.424
        56  -9.5566     70.9943    120.4891   1.0423446048e+02   4.2770328449e+01    0.2011489    0.1076827  58.19 0.0008101949    2.522    0.603
        57 -11.8660    141.3542    112.7476   8.2875735226e+01   3.1525011699e+01    0.5909175    0.2920531 -31.30  0.001992918    2.730    0.634
        58 -10.8714     15.2618    121.1146   1.2024281349e+02   4.8532424582e+01     0.340059    0.2119861  10.21  0.001958451    2.297    0.565
        59 -10.3626    108.4453    112.7735   9.1690141098e+01   3.8372364365e+01    0.5310606    0.2567318 -65.93  0.001661795    3.515    0.716
        60 -10.6763     78.7777    112.4578   1.0023496049e+02   4.3558896887e+01    0.4786864    0.2680121 -83.05  0.001687262    3.340    0.701
        61 -12.1827    160.7164    112.1908   7.8023709780e+01   2.7219431832e+01    0.5473236    0.4420627  69.05  0.002473579    1.415    0.293
        62 -11.9532    158.1884    107.0031   7.7221868346e+01   2.8883676075e+01    0.4328733    0.3133477 -80.73  0.001781457    2.024    0.506
        63 -10.2799     91.6813    111.0670   9.6091762391e+01   4.1804889230e+01    0.4541981    0.1793334 -60.09  0.001506763    2.990    0.665
        64 -11.1408    174.3776    110.7038   7.4542598709e+01   2.4310063866e+01    0.4313018    0.2889271 -44.83  0.001064865    1.491    0.329
        65 -11.4921     15.1219    110.1701   1.1888989957e+02   5.1110123805e+01    0.6121517    0.3447606  81.72  0.003216674    1.998    0.500
        66 -11.8910     44.6220    101.1798   1.0837131631e+02   5.0667403453e+01    0.6218926     0.368378  86.84  0.002796948    2.468    0.595
        67 -12.5673    151.4019    109.8900   7.9624482802e+01   2.9859934078e+01    0.6590685    0.3562603  57.47  0.002457724    2.171    0.539
        68 -12.1948    127.5575    100.8557   8.3240172149e+01   3.7150916021e+01    0.5887423    0.3430765 -56.24  0.002326994    1.968    0.492
        69 -12.8981    141.4402    105.3031   8.0848225544e+01   3.3111345676e+01    0.6562027    0.4611426  67.34  0.002796636    1.785    0.440
        70 -10.1125     94.5082     97.5107   9.1787106294e+01   4.4460048420e+01    0.1488742    0.1403664 -54.38 0.0008103106    1.034    0.032
        71 -10.8991     63.1687     96.4303   1.0136798946e+02   4.9585079188e+01    0.3820396    0.2209232  87.91  0.001343047    3.851    0.740
        72 -12.8218    170.1872     91.4282   7.0162174484e+01   2.9093833833e+01    0.5747141    0.4400039 -46.40  0.001325239    1.311    0.237
        73 -11.0514     82.4430    100.6623   9.6308463780e+01   4.5773765358e+01    0.2970093    0.2684992  10.13 0.0007045815    1.244    0.196
        74 -11.6797     42.2201     88.1579   1.0640593904e+02   5.3971407958e+01    0.6022108    0.3266358   1.08  0.001401686    3.206    0.688
        75 -11.1087     45.3044     81.8753   1.0386662583e+02   5.5090269973e+01    0.4061712    0.2302954 -68.47   0.00118601    1.890    0.471
        76 -10.7574     34.0760     88.1844   1.0918001404e+02   5.4749850376e+01    0.2977779    0.1633796 -66.40  0.001263828    1.619    0.382
        77 -10.9630     86.9790     87.3319   9.1297524621e+01   4.8064370195e+01    0.4099823    0.2667945  74.56  0.001604245    2.906    0.656
        78 -10.6261    105.2973     83.8841   8.4611235054e+01   4.5436731925e+01    0.3882416     0.276435  84.58  0.001613973    2.363    0.577
        79 -12.3660    108.3825     99.3479   8.8176694207e+01   4.1448195574e+01    0.8945671     0.583892  78.60  0.003357808    2.815    0.645
        80 -10.5648     24.1711     80.6316   1.1103396466e+02   5.7310608612e+01    0.2684333    0.1804509  88.29  0.001489223    1.848    0.459
        81  -9.6820    153.2700     77.8452   6.9955204378e+01   3.5829030242e+01    0.2138971    0.1800786  23.01 0.0006269636    1.322    0.243
        82 -10.1125      1.8615     77.8325   1.1830991654e+02   5.9321567788e+01    0.1876895    0.1207386 -52.35 0.0006544914    1.262    0.208
        83 -10.8622     82.6364     73.6574   8.8609510569e+01   5.1758718638e+01    0.4314263    0.2811061 -82.31  0.001602772    3.455    0.711
        84 -10.8668     62.4414     71.2675   9.4863761542e+01   5.5353514129e+01     0.436587    0.1537132 -50.58  0.001660345    2.514    0.602
        85 -12.1120    223.3713     70.7792   5.4949328070e+01   1.9629875121e+01    0.3122023    0.2901775 -88.71 0.0005338383    1.099    0.090
        86  -9.5383     95.3236     72.6631   8.4164046992e+01   4.9698691159e+01    0.1464559    0.1188994 -83.55 0.0005338267    1.716    0.417
        87 -10.5129     51.9921     71.0030   9.8576151180e+01   5.6751923743e+01    0.2111139    0.1818969 -41.08 0.0008136617    1.010    0.010
        88 -10.9885     27.8968     52.6338   1.0261205237e+02   6.3108112979e+01    0.4885855    0.2710566 -11.21   0.00239973    2.402    0.584
        89 -11.6375    221.6101    248.4980   9.3063424505e+01  -7.7466062816e+00    0.4805818      0.21016  43.65   0.00248923    2.194    0.544
        90 -12.4743    237.1955     63.6830   5.1290232028e+01   1.7506701456e+01    0.5715963    0.3695048  84.83  0.002742232    1.887    0.470
        91 -12.2614    230.9189     58.5638   5.0819257735e+01   1.9714261442e+01    0.3958705    0.3279651 -51.95 0.0005456302    1.100    0.091
        92 -11.1899      9.0062     56.6756   1.1148210237e+02   6.3586086811e+01    0.4420901    0.2965435 -83.45  0.002673935    1.793    0.442
        93 -11.9791     19.4441     59.4636   1.0795834056e+02   6.2333425011e+01    0.5781749    0.2837444 -47.50   0.00251162    1.582    0.368
        94 -10.0704    120.2208     57.4098   7.1601086455e+01   4.7380418240e+01     0.211225    0.1449992  62.12 0.0009487384    1.701    0.412
        95 -10.1598     73.3149     59.6681   8.7212827412e+01   5.6130817575e+01    0.1323426    0.1120771 -82.50 0.0004292628    1.683    0.406
        96 -10.4257    195.9591     67.8865   5.8473957143e+01   2.6802310871e+01     0.399806    0.1949139  49.46  0.001556638    2.120    0.528
        97 -10.3268    161.7206     53.4299   6.0493357942e+01   3.7869640765e+01    0.3036118      0.15085  64.14  0.001146499    2.160    0.537
        98 -11.5005    148.6138     52.0489   6.2796530765e+01   4.1420318252e+01    0.4225111    0.2213426  48.65 0.0006865906    1.845    0.458
        99 -10.8537    157.1712     44.9637   5.8685465098e+01   4.0305339166e+01    0.2909269    0.2027503  54.20 0.0004538473    1.367    0.268
       100 -11.1931     74.5009     43.4821   8.0821607510e+01   5.8916377434e+01    0.3136051    0.2368469  14.72  0.001257732    1.364    0.267
       101 -11.2372     70.7685     42.7607   8.1902189293e+01   5.9661725979e+01    0.4221126    0.3118118  67.23  0.002108417    2.340    0.573
       102 -11.5811      7.9045     43.3322   1.0853753236e+02   6.6415131960e+01    0.4869469    0.2431046  33.42  0.002727715    2.600    0.615
       103 -11.8293     42.6390     37.4319   9.1079327788e+01   6.4563544705e+01    0.4182568    0.3174626  14.67  0.002126524    1.366    0.268
       104 -11.8383    120.5718     34.4775   6.3187008916e+01   5.0842247381e+01    0.3379664    0.2760313  57.80 0.0005067549    1.244    0.196
       105 -10.6056     49.9729     34.6590   8.6845839074e+01   6.4133039687e+01    0.2944968    0.2046531  22.63  0.001484687    1.488    0.328
       106 -10.4672     73.7911     32.5768   7.6639502019e+01   6.0806808905e+01    0.3152418     0.199305  63.01  0.001405884    2.861    0.650
       107 -10.9335    102.6393     29.7240   6.6135637714e+01   5.5540032941e+01    0.4901755     0.322486  61.09  0.002398585    1.755    0.430
       108  -9.7597    187.7007    248.3176   9.9076310645e+01  -2.5596530295e+00    0.2500394     0.113702  26.73  0.001151083    2.536    0.606
       109 -12.1922     22.2594    239.2211   1.2796813660e+02   2.2693239332e+01    0.5396185    0.1880079  64.01  0.002843448    2.491    0.599
       110 -10.8097     36.3667     23.3308   8.8029941711e+01   6.7705897756e+01    0.3142962    0.1705077  43.30  0.001625011    2.630    0.620
       111 -11.3433    239.5426     20.5485   4.0652984792e+01   2.2777430357e+01    0.3217238    0.2275462  82.63 0.0006207622    1.365    0.268
       112 -10.2066     50.7925     22.0077   8.0999787038e+01   6.6047109732e+01     0.203337    0.1612043  15.88 0.0003192476    1.200    0.167
       113  -9.4060      2.6552    240.3068   1.3115439348e+02   2.4487925836e+01    0.1116829   0.04783138  63.62 0.0007042952    1.694    0.410
       114 -10.3176     46.5287     16.9565   8.0471323074e+01   6.7382997634e+01    0.2347528    0.1457732 -18.01 0.0009866377    1.495    0.331
       115 -10.0901     89.2950     18.1951   6.5228179838e+01   5.9802569236e+01    0.2383297    0.1825968  86.19  0.001235091    2.140    0.533
       116 -10.2233     12.9646    227.5401   1.2892940989e+02   2.5788634134e+01    0.1955568    0.1038767  75.91 0.0005797117    1.462    0.316
       117 -10.7666    104.3067    225.3734   1.1197558876e+02   1.4478041111e+01    0.2223992    0.1524161 -72.84  0.001335023    1.629    0.386
       118 -10.7669     96.2664    225.3035   1.1353624987e+02   1.5720210234e+01     0.273074    0.1073873  54.86  0.001186826    2.540    0.606
       119 -10.5756    149.1985    223.5977   1.0288709379e+02   7.4404075645e+00     0.252158    0.1514029  89.05 0.0009617136    4.335    0.769
       120 -11.1058    226.8537    221.7200   8.7811991343e+01  -5.2786759081e+00    0.2022202    0.1691217 -63.58   0.00124387    2.142    0.533
       121  -9.9726      8.1754    240.5984   1.3029965299e+02   2.3898091203e+01    0.1207694   0.08851366  39.47 0.0005867773    1.684    0.406
       122 -11.7129    232.4478    223.8263   8.7178262719e+01  -6.4125314256e+00    0.2413998    0.1597534  22.22 0.0009947533    1.278    0.218
       123 -11.4228    239.6871    215.8646   8.4518866762e+01  -6.5169986763e+00    0.3393343    0.1197127 -36.10   0.00150683    2.984    0.665
       124 -11.4330    223.6795    213.2589   8.6910646142e+01  -3.6502753405e+00    0.4167051    0.2329884  20.63  0.002111697    1.904    0.475
