#   1 NUMBER                 Running object number                                     
#   2 MAG_AUTO               Kron-like elliptical aperture magnitude                    [mag]
#   3 X_IMAGE                Object position along x                                    [pixel]
#   4 Y_IMAGE                Object position along y                                    [pixel]
#   5 X_WORLD                Barycenter position along world x axis                     [deg]
#   6 Y_WORLD                Barycenter position along world y axis                     [deg]
#   7 A_WORLD                Profile RMS along major axis (world units)                 [deg]
#   8 B_WORLD                Profile RMS along minor axis (world units)                 [deg]
#   9 THETA_WORLD            Position angle (CCW/world-x)                               [deg]
#  10 FWHM_WORLD             FWHM assuming a gaussian core                              [deg]
#  11 ELONGATION             A_IMAGE/B_IMAGE                                           
#  12 ELLIPTICITY            1 - B_IMAGE/A_IMAGE                                       
         1 -13.1230    169.7940     41.0127   6.7415324808e+01   3.7583163588e+01     1.310661     1.047082  11.85  0.004225516    1.378    0.274
         2 -13.3753    188.6507      8.2189   5.4232595090e+01   3.6276573804e+01     2.319933     1.012777  63.61  0.009156041    2.053    0.513
         3  -9.4037    175.9418    187.3848   1.0323531733e+02   1.1796870504e+01    0.2949775    0.2443254 -70.78  0.001341564    1.890    0.471
         4  -9.2188    167.9252    248.9282   1.1366309641e+02   4.6105473700e+00    0.2104196    0.1589467 -29.56  0.001008686    1.709    0.415
         5 -10.5689    133.7179    249.6840   1.1990013324e+02   9.3312003724e+00    0.2997681    0.1766302  40.37  0.001979407    1.246    0.198
         6 -18.7705     59.3234    231.5525   1.3195854834e+02   2.1595133958e+01     4.378243     3.342705  45.51   0.02606514    1.163    0.140
         7 -10.5854    172.5078    189.0592   1.0422470252e+02   1.2129285910e+01    0.3531347    0.2712541 -52.24  0.001766502    1.726    0.421
         8  -9.4874    170.3727    183.6833   1.0374013764e+02   1.3345926337e+01    0.3897777    0.2370639  52.58  0.001911565    1.945    0.486
         9  -9.1337    152.8763    186.9029   1.0797116161e+02   1.5842354196e+01    0.1999654    0.1624372  15.67 0.0004789799    1.235    0.190
        10  -9.2538    176.2471    232.0211   1.1000530135e+02   5.4778295476e+00     0.159021    0.1269929  26.56 0.0003756018    1.074    0.069
        11 -10.1514    144.1866    175.2117   1.0791922806e+02   1.9369704622e+01    0.2072648    0.1737057  19.13  0.000868468    1.183    0.155
        12 -10.7601    137.6253    172.3839   1.0891379705e+02   2.1023941867e+01     0.407128    0.2625726  61.71   0.00135723    2.052    0.513
        13 -10.0701    167.6541    230.3223   1.1137938443e+02   6.9861409936e+00    0.2163415    0.1808796  29.76 0.0002835297    1.121    0.108
        14 -10.9116    204.8233    178.8724   9.5954328664e+01   8.0353464166e+00    0.4223136    0.2891791 -49.28  0.002232298    2.141    0.533
        15 -10.4946    201.6791    169.7159   9.4795156254e+01   9.9194815367e+00    0.6159388    0.3268056 -50.30  0.002600939    3.074    0.675
        16 -10.1783    204.3275    166.7872   9.3697627353e+01   9.8743650860e+00    0.4781466    0.3269486 -47.36  0.002176082    1.977    0.494
        17  -9.3618    129.3398    175.6920   1.1133989640e+02   2.1819316429e+01    0.2406481    0.1900474  55.63 0.0008071933    1.297    0.229
        18 -10.1001    125.6585    173.0864   1.1176334464e+02   2.2925457759e+01    0.3429682    0.1938455  45.77 0.0009083307    1.633    0.388
        19 -11.5361    194.1202    168.3923   9.6029649808e+01   1.1490061904e+01     0.616927    0.3926398 -46.90  0.001328613    2.035    0.509
        20 -10.7277     26.9782    151.7127   1.3289616393e+02   4.0270374678e+01    0.6394289    0.3158065  75.07  0.003300863    2.140    0.533
        21 -10.1204     21.2400    167.6344   1.3540145082e+02   3.7387904617e+01    0.2427687     0.235262 -54.00  0.001151543    1.359    0.264
        22 -10.2237     25.7492    166.2228   1.3429597273e+02   3.7291778940e+01    0.4340012    0.2407231  10.49  0.002309717    2.895    0.655
        23 -10.4095     26.4956    160.0864   1.3367378134e+02   3.8515954156e+01    0.3262056    0.2704765 -77.05  0.001393467    1.191    0.160
        24 -10.6497     23.3568    156.8765   1.3416527392e+02   3.9467769522e+01    0.3039583     0.260088  42.09 0.0008431751    1.279    0.218
        25  -9.0078    245.0758    166.3777   8.6245860655e+01   2.8727849041e+00    0.2065601    0.1470779  -2.08 0.0003918355    1.211    0.174
        26  -9.7466    229.1694    165.8993   8.8896808087e+01   5.6030502051e+00    0.1903685    0.1754725   3.88  0.001233666    1.300    0.231
        27  -9.4769    121.9054    166.0318   1.1148670038e+02   2.4916484087e+01    0.2349509    0.1754221  45.59            0    1.234    0.190
        28  -8.9021     14.1487    228.4098   1.3977311557e+02   2.6687174409e+01    0.1260463    0.1032183  78.43 0.0003559653    1.245    0.197
        29  -9.5778    245.5894    161.5464   8.5183690846e+01   3.3945824095e+00    0.2222894    0.1777302   2.26  0.000453903    1.027    0.027
        30  -8.9838    167.0390    159.0570   9.9855794256e+01   1.8078866970e+01    0.2098975    0.1833445  22.26            0    1.018    0.017
        31  -9.6067     12.6075    158.2740   1.3674421044e+02   4.0029282702e+01    0.2391018    0.1659576 -75.13  0.001614913    1.314    0.239
        32  -9.2006      5.7279    226.7595   1.4113909941e+02   2.7690009246e+01    0.1191357   0.09562629  76.01 0.0004621725    1.218    0.179
        33  -9.7046    130.8301    214.7586   1.1653470492e+02   1.4827650567e+01    0.2030531    0.1786556  85.42 0.0006546845    1.399    0.285
        34  -9.2044    245.8830    156.8435   8.4169647925e+01   3.9424787260e+00    0.2004562    0.1454094   6.58 0.0004781929    1.199    0.166
        35 -10.2650    187.9409    242.8922   1.0933066631e+02   2.4518487760e+00    0.2967416     0.156828 -38.59 0.0007242036    2.449    0.592
        36 -11.9567    239.4892    244.0806   1.0065556343e+02  -4.8053840054e+00    0.2105297    0.1537898  19.88 0.0003080158    1.169    0.144
        37 -10.2818    213.8256    154.7315   8.9396868727e+01   9.9084971870e+00    0.2367297    0.2012681  15.60 0.0003734886    1.055    0.052
        38 -10.4344    133.6962    146.1841   1.0501833711e+02   2.6787540753e+01     1.007396    0.3079807 -55.00  0.002841789    5.072    0.803
        39  -9.0106    153.0746    202.8542   1.1040105815e+02   1.3221690061e+01    0.2788572    0.1853841 -63.32  0.001322099    2.270    0.559
        40 -10.3536     14.4880    152.1554   1.3591424024e+02   4.1183713625e+01    0.2422673    0.2179471 -20.16  0.001665704    1.518    0.341
        41 -10.8834      9.3111    146.8660   1.3679182836e+02   4.2693827706e+01    0.3889947    0.1704625 -78.68  0.001771533    1.915    0.478
        42 -10.2169    163.4880    203.3157   1.0835639105e+02   1.1454797567e+01    0.3416867    0.2643305  79.94  0.001204993    2.182    0.542
        43  -9.4316     27.4894    145.4711   1.3223792488e+02   4.1591256523e+01    0.2058558    0.1708006  43.44 0.0009925774    1.273    0.214
        44 -10.3035     31.1714    143.1371   1.3109380388e+02   4.1787743625e+01    0.3134672    0.2288593 -79.01  0.001902913    1.206    0.171
        45 -10.1982     34.7651    142.4042   1.3010091169e+02   4.1627051063e+01    0.2182424    0.2081427 -67.29 0.0009871067    1.208    0.172
        46 -10.8481      3.7044    141.9402   1.3782800917e+02   4.4128328870e+01    0.3268333    0.2473516  67.81  0.002363463    1.164    0.141
        47 -10.5761    157.8893    199.5511   1.0891910199e+02   1.2952565251e+01     0.456496    0.3174627  12.07   0.00160717    1.664    0.399
        48  -8.7443     20.4193    141.9246   1.3370977391e+02   4.2950911399e+01    0.1892601    0.1368353  48.67 0.0006143556    1.360    0.265
        49 -10.7524    114.9011    137.9694   1.0813505619e+02   3.1881285365e+01    0.5171564    0.2930367 -43.08  0.002001079    1.907    0.476
        50  -8.7318    162.8885    237.3122   1.1316394141e+02   6.7839512036e+00    0.1580661    0.1533608  51.42 0.0006889566    1.388    0.280
        51 -10.9678    104.7600    137.3343   1.1068224419e+02   3.3749256935e+01    0.2858819    0.2384865  38.18 0.0004969196    1.168    0.144
        52  -8.8042    233.0180    136.9953   8.2076438253e+01   8.8771933794e+00    0.1999758    0.1697929   2.19            0    1.021    0.021
        53  -9.2006    160.5780    128.6454   9.4719225739e+01   2.4910769919e+01    0.4133478    0.2599341 -57.93  0.001730959    2.237    0.553
        54 -10.5047    119.8580    128.3825   1.0483933177e+02   3.3036482509e+01    0.4094859     0.289704 -29.56  0.001761196    1.663    0.399
        55 -10.0539      3.6209    112.9655   1.3581163171e+02   5.0552402721e+01    0.2624588     0.191505  22.14  0.001782462    1.672    0.402
        56 -10.7268      3.9386    121.7097   1.3640658085e+02   4.8565260097e+01    0.4152719    0.2677199 -22.24  0.002544973    2.206    0.547
        57 -10.3546      3.4329    116.9062   1.3617817849e+02   4.9672428385e+01    0.2575836    0.2477604 -53.75  0.001637638    1.271    0.213
        58 -10.6108     34.8304    126.4061   1.2834679610e+02   4.5250051662e+01    0.2536971    0.2230442 -83.73 0.0008036037    1.026    0.026
        59 -10.6050    135.3072    123.3157   9.9653832474e+01   3.1131818600e+01    0.6744718    0.1659862 -47.41  0.001868091    4.394    0.772
        60  -9.7020    108.2080    124.9985   1.0725971404e+02   3.5861627392e+01    0.2651648    0.2287508 -15.72 0.0004695114    1.315    0.239
        61 -11.3858     21.9930    127.9933   1.3206009512e+02   4.5948337381e+01    0.5368447    0.3259521 -29.13  0.002928638    2.389    0.581
        62 -10.0514     27.0122    119.3645   1.2975254123e+02   4.7534802900e+01    0.2280593    0.1752937 -64.48 0.0005862021    1.186    0.157
        63  -8.9243    113.7433    118.5556   1.0430411771e+02   3.6278864314e+01    0.2480193    0.2061055 -48.45  0.000904298    1.221    0.181
        64 -11.3365     70.5794    112.7711   1.1570031986e+02   4.4482164027e+01    0.4265144    0.3351554  61.93  0.002359661    1.400    0.286
        65 -10.1147     26.0852    113.2884   1.2931480093e+02   4.9016111734e+01    0.2597257    0.1538588  36.97  0.001470946    1.805    0.446
        66 -10.0444     30.6122    112.1792   1.2782099952e+02   4.8913432820e+01    0.2913736    0.1568999 -44.66  0.001489793    2.015    0.504
        67  -8.6726    121.6105    199.0922   1.1643821603e+02   1.8834836781e+01    0.1556388    0.1540126  61.70 0.0004492852    1.179    0.152
        68  -9.8953     65.3209    100.9091   1.1497540013e+02   4.7944164916e+01    0.2246881    0.1872445  48.41 0.0007917224    1.291    0.225
        69 -11.7873     61.3325    109.0659   1.1785408531e+02   4.6528596719e+01     0.664784     0.472182 -16.67  0.003416003    1.911    0.477
        70  -9.3337     36.0183    111.6535   1.2611163940e+02   4.8574089986e+01    0.1684929    0.1576086 -76.60 0.0005676377    1.086    0.079
        71  -8.9544    179.8541    193.6988   1.0352246815e+02   1.0172739334e+01    0.2147934    0.1778912 -85.37  0.001227704    2.103    0.525
        72  -8.7715     75.8704    111.1491   1.1376173157e+02   4.4134261655e+01     0.206879    0.1834034  76.38 0.0004425554    1.201    0.167
        73  -8.3368     46.6519    105.7011   1.2188704540e+02   4.8962412878e+01     0.133964   0.09147219 -35.09 0.0007036361    1.683    0.406
        74  -9.5600    137.1610    242.6042   1.1853362710e+02   9.8016341164e+00    0.3010671    0.2526965  61.92   0.00228051    1.377    0.274
        75  -8.7555     96.6385     97.6889   1.0425074789e+02   4.3949071587e+01    0.1532993    0.1138817 -10.11 0.0007041103    1.747    0.428
        76  -8.5104    113.4655     95.4419   9.8584713306e+01   4.1329892205e+01    0.1497232    0.1439465  -2.38 8.302039e-05    1.009    0.009
        77  -8.5290    174.0198     90.2616   8.1678894031e+01   2.8911000609e+01     0.204184    0.1882454  30.51 0.0002149119    1.058    0.055
        78  -9.5269    229.9225     81.7177   6.9291889532e+01   1.7331812573e+01    0.2347562    0.2006862  -2.31 0.0004035358    1.137    0.121
        79  -8.3904    146.5565     81.4632   8.5468694144e+01   3.6962524071e+01     0.156032     0.148044   9.08 0.0001212828    1.004    0.004
        80  -8.1550    234.4737     77.5447   6.7573537004e+01   1.6913987142e+01    0.1394583    0.1255378  -8.12 8.510378e-05    1.043    0.041
        81  -8.4982    116.4781     72.9426   9.0988025213e+01   4.5338698745e+01    0.2279221    0.1952302  35.96  0.001162906    1.159    0.138
        82 -12.6483    157.3715     56.2952   7.4923422769e+01   3.8597100705e+01      1.51956     1.209551  40.94  0.003895754    1.220    0.180
        83  -9.3835    150.5011    247.9896   1.1668843226e+02   7.2015886592e+00    0.2025667    0.1743341  29.30 0.0007445792    1.180    0.153
        84 -11.4869    174.0012     33.8290   6.4343750481e+01   3.7393556587e+01    0.4470156    0.3827944  17.31 0.0008952059    1.234    0.190
        85 -10.3896    129.0792     50.5457   7.9726583665e+01   4.6502894672e+01    0.2637018    0.2306317 -15.76 0.0001945782    1.135    0.119
        86  -9.2263    224.6602     33.1994   5.7260986859e+01   2.4714340506e+01     0.308154    0.1996251 -31.57  0.001577432    1.444    0.307
        87 -10.1099    170.1141     18.0141   5.9768535682e+01   4.0195469233e+01    0.3017382    0.2478621  -1.99  0.001023799    1.325    0.245
