#   1 NUMBER                 Running object number                                     
#   2 MAG_AUTO               Kron-like elliptical aperture magnitude                    [mag]
#   3 X_IMAGE                Object position along x                                    [pixel]
#   4 Y_IMAGE                Object position along y                                    [pixel]
#   5 X_WORLD                Barycenter position along world x axis                     [deg]
#   6 Y_WORLD                Barycenter position along world y axis                     [deg]
#   7 A_WORLD                Profile RMS along major axis (world units)                 [deg]
#   8 B_WORLD                Profile RMS along minor axis (world units)                 [deg]
#   9 THETA_WORLD            Position angle (CCW/world-x)                               [deg]
#  10 FWHM_WORLD             FWHM assuming a gaussian core                              [deg]
#  11 ELONGATION             A_IMAGE/B_IMAGE                                           
#  12 ELLIPTICITY            1 - B_IMAGE/A_IMAGE                                       
         1 -14.8811      6.7626    129.0581   1.1481681441e+02   4.7640282685e+01     5.834316      1.49401 -78.97   0.01810642    4.568    0.781
         2 -13.8407     12.9458     69.3426   1.0285831256e+02   6.1283188130e+01     1.694488      1.03299 -38.02  0.009526004    1.424    0.298
         3 -12.7812      3.2881     37.3985   9.8843097292e+01   6.8355949473e+01     1.112646    0.4423917 -51.77  0.005824102    1.977    0.494
         4 -12.4756      3.2730     29.3290   9.6213389288e+01   6.9833700990e+01    0.7554378    0.3142564 -55.49  0.003939092    2.257    0.557
         5 -12.1385    108.7633     43.9293   5.8811397311e+01   5.1628738077e+01    0.6308377    0.4057038 -37.46  0.003173876    1.665    0.399
         6 -12.7910     73.6958     32.0921   6.5159648621e+01   6.0431937771e+01     1.080632    0.7619163  45.56  0.005135384    1.388    0.279
         7 -12.9457     54.9765     26.3075   6.9835433832e+01   6.4466231367e+01     1.244947    0.8527554  39.02  0.007394903    1.430    0.301
         8 -13.0764    232.0642     29.2898   3.5157033476e+01   2.5181647777e+01    0.8133454    0.5856978  56.45  0.003600424    1.676    0.404
         9 -11.1351     21.4542     16.1946   8.1024085054e+01   7.0423238902e+01    0.5256441    0.2418543 -38.27  0.002754156    2.003    0.501
        10 -10.5649     30.6672     14.1443   7.5326937113e+01   6.9621487948e+01    0.3379041    0.2097794 -14.32  0.001765631    1.558    0.358
        11 -12.3803     35.0036     23.2835   7.7347545664e+01   6.7787068271e+01    0.7500767    0.4035881  29.28  0.004029718    1.762    0.432
        12 -11.7401     28.0067     19.6577   7.9185569290e+01   6.9178018635e+01    0.4008478    0.2431704  -3.14  0.001968327    1.738    0.425
        13 -12.8373    192.0214     18.0548   3.6567700227e+01   3.5278518595e+01    0.7596552    0.5424683 -50.15  0.004600443    1.356    0.262
        14 -11.1217     41.7064     13.5952   6.9844110774e+01   6.8170573021e+01    0.4682706    0.3259515 -23.01  0.003014674    1.391    0.281
        15 -11.8529     92.6169      9.2686   5.0402969646e+01   5.9221506573e+01    0.7314171    0.3906547  27.22  0.003546675    2.235    0.553
        16 -12.5688    121.8970     10.9345   4.4573955848e+01   5.2512370683e+01    0.5967765    0.3122914  75.00  0.002808934    2.066    0.516
        17 -11.3631    177.3240      9.3965   3.6054931428e+01   3.9593591219e+01     0.281516    0.2037858  58.46  0.001703629    1.378    0.274
        18 -11.8579    134.4487      3.8752   4.0157514972e+01   5.0206248348e+01     0.541247    0.3684057 -71.56  0.003050058    1.704    0.413
        19 -12.5466    108.3901      3.9738   4.4837218774e+01   5.6211342888e+01    0.5790495       0.3787  50.37  0.003373459    1.289    0.224
        20 -11.4551    162.3928      4.7031   3.6566811416e+01   4.3543303185e+01    0.3818547    0.3168585 -76.49  0.002236241    1.148    0.129
        21 -11.4985    149.8918      2.4886   3.7533465183e+01   4.6687334739e+01    0.5025983    0.1933768  78.84  0.002024955    2.817    0.645
        22 -11.7141     75.7113    199.9194   1.0491215741e+02   2.2836488805e+01    0.8273948    0.5597861   4.22  0.003849771    2.404    0.584
        23 -10.0310     62.4664    248.5793   1.1278538245e+02   1.4245036794e+01    0.2420585    0.2023623 -61.79  0.001655066    1.456    0.313
        24  -9.1273     15.6311    249.7258   1.2186030033e+02   1.9437443062e+01    0.1471494   0.08232071  80.14 0.0003730845    1.559    0.358
        25 -10.2340    135.0034    198.8941   9.0538974583e+01   1.3628782649e+01    0.3625311    0.3311785  83.42  0.002073858    1.220    0.180
        26 -11.2850     14.2002    186.8167   1.1824174515e+02   3.3084790853e+01    0.2491276    0.2434366 -89.23  0.000983999    1.282    0.220
        27 -11.2027     14.4943    183.5014   1.1791541161e+02   3.3836819509e+01    0.2705125    0.2030952  55.69  0.001387613    1.261    0.207
        28 -11.3708     51.8142    174.3576   1.0770281697e+02   3.2136223676e+01    0.2587191    0.2392842 -44.89  0.000435231    1.252    0.201
        29 -12.5002      8.1598    217.6813   1.2158193299e+02   2.6707854748e+01     1.228976    0.4806775  76.64  0.005650863    2.676    0.626
        30 -10.4788     64.5308    164.2010   1.0291160341e+02   3.3032699925e+01      0.24026    0.2316502  75.80  0.000373041    1.081    0.075
        31 -10.0662    134.6613    162.3768   8.3881223891e+01   2.1827511683e+01    0.2870234    0.2356121 -83.22  0.001019918    1.462    0.316
        32 -12.7210     49.9250    160.5552   1.0640129391e+02   3.5799937212e+01    0.5660449    0.3213122 -37.95  0.001901626    2.331    0.571
        33 -11.5468     73.4425    157.3011   9.9352477498e+01   3.3520718180e+01    0.5235451    0.4552184  -9.77  0.002681512    1.405    0.288
        34 -12.7402     67.7629    143.2778   9.8570223492e+01   3.7864991692e+01     0.858762    0.5245554  65.26  0.002635258    2.158    0.537
        35 -12.2576     67.9525    134.7130   9.6929166509e+01   3.9998812980e+01    0.7620609    0.4036611  32.47  0.003282687    1.991    0.498
        36  -9.5715     89.8208    144.1777   9.2285143296e+01   3.4280725340e+01    0.2249035    0.2052895  81.19 0.0007469723    1.125    0.111
        37 -11.7877     77.2579    142.0809   9.5541897842e+01   3.6787601164e+01    0.3563105    0.2793366 -58.05  0.000544998    1.214    0.176
        38 -10.1729    105.3070    131.4129   8.5095050133e+01   3.4714054443e+01    0.3309478    0.2928371  -2.21  0.001167712    1.289    0.224
        39 -12.6528     69.9694    125.8810   9.4545182008e+01   4.1921514107e+01     0.933369    0.5546508  36.09   0.00424238    1.753    0.430
        40 -12.8347     54.0684    113.5043   9.7130934271e+01   4.7119689113e+01    0.8578429    0.4584498 -59.46  0.003582332    1.715    0.417
        41 -13.5173     64.7278    114.9494   9.3899001405e+01   4.5362127794e+01     1.164801     1.009313 -33.70  0.006453879    1.166    0.142
        42 -12.6279     65.8978    104.3520   9.1069355840e+01   4.7750088956e+01    0.7750685    0.6415786  17.96  0.004206771    1.304    0.233
        43  -9.1627    102.9041    120.1057   8.3139819360e+01   3.7861920103e+01    0.1985088    0.1769588 -15.43            0    1.231    0.188
        44 -10.0886     90.6648    128.1457   8.8660758729e+01   3.8102985523e+01     0.257587    0.2188831  25.30 0.0004366891    1.263    0.208
        45 -12.5383     52.6713     99.1010   9.4422212993e+01   5.0760127282e+01     0.596369    0.3788313 -65.31  0.002886372    1.641    0.391
        46 -11.5908     45.1487     94.4614   9.6048434594e+01   5.2741338595e+01    0.5420016     0.416205 -31.84  0.003020932    1.281    0.220
        47 -11.7777     53.1297     88.3604   9.1608832496e+01   5.3185685152e+01    0.4931691    0.2440538 -39.69  0.002124059    2.035    0.509
        48 -10.7791     29.8359     91.5596   1.0107458535e+02   5.4970431174e+01    0.3311155    0.3130026 -43.43  0.002157906    1.096    0.087
        49 -12.0021     27.6605     83.5638   1.0014468855e+02   5.7002836102e+01    0.5841218    0.4806696  -2.14  0.002550873    1.299    0.230
        50 -12.3951     61.9070     76.7301   8.5118159208e+01   5.4534563042e+01     1.029045    0.6395482 -56.95  0.004955301    1.756    0.430
        51  -9.7890     46.2079     77.5929   9.1370394151e+01   5.6426044509e+01    0.1860357    0.1256897   8.18 0.0009547247    1.685    0.407
        52 -11.3823     32.2835     74.2504   9.6034279309e+01   5.8652673036e+01    0.5406849    0.3630885 -33.66  0.002146791    1.381    0.276
        53 -10.3081    132.4822    247.4849   9.8198107213e+01   4.5537239125e+00    0.1279224    0.1080248  35.37 -1.171704e-05    1.004    0.004
        54 -11.2193     81.1253    245.6783   1.0872294027e+02   1.2332540084e+01    0.4050055    0.1928102  48.49  0.001800909    1.798    0.444
        55 -12.2463     69.2705    240.0589   1.1065599218e+02   1.5038003545e+01    0.8452657    0.4684231  54.74  0.003500677    1.616    0.381
        56 -12.8838     11.9926     55.7378   9.9896063880e+01   6.4215499093e+01    0.8428432    0.6392337  45.45  0.005232924    1.786    0.440
        57 -11.5780    151.5091    242.2082   9.3522496533e+01   2.6018518261e+00    0.2939198    0.2267387  -5.15  0.001742251    1.507    0.336
        58 -10.8638     72.9902     21.2460   6.1014328098e+01   6.1948330734e+01    0.4988166    0.2954885  43.26  0.002712256    1.492    0.330
        59 -13.8933     22.0353    137.0827   1.1124937973e+02   4.4529238695e+01     1.126063    0.9706513  48.60  0.004535497    1.271    0.213
        60 -10.5181    138.5684    248.2825   9.7034416890e+01   3.5045682410e+00    0.2132733    0.1286361 -59.28  0.001140431    2.105    0.525
        61  -9.8829     37.3928     38.1024   8.2282103449e+01   6.5151859755e+01    0.2378158    0.1752068  27.11  0.001472916    1.384    0.278
        62 -12.1491     22.3744     35.8294   8.8603879666e+01   6.7177322262e+01    0.7199437    0.3590173  27.97  0.003416356    2.066    0.516
        63 -12.6209      7.6441    101.9607   1.1099155011e+02   5.4142027013e+01     1.030367    0.4243397  27.85  0.004880374    2.697    0.629
        64 -13.9395     10.0287     88.9841   1.0800644799e+02   5.7049313015e+01     1.447919     1.224657  86.23  0.008824193    1.338    0.253
        65 -14.3625     80.1373    218.5725   1.0609932221e+02   1.8029542117e+01     2.174518     1.389942  35.99  0.009035377    1.478    0.323
        66 -13.7931      3.8763    191.3765   1.2089958665e+02   3.2919473922e+01     1.527104    0.5581562 -89.04   0.00665022    2.682    0.627
        67 -14.5632     48.0646    212.1827   1.1267331989e+02   2.3663145447e+01     1.941789     1.412271 -78.38  0.009487104    1.314    0.239
        68 -13.5781     62.5864    216.7422   1.0985992009e+02   2.0823201173e+01     1.097035    0.7797684  89.01  0.004021612    1.397    0.284
        69 -10.2632    212.8254     19.6245   3.4846828717e+01   3.0438566793e+01    0.1781774    0.1008196  87.83 0.0009518686    1.699    0.411
        70 -14.1823     40.5936    191.4466   1.1242132063e+02   2.9318185472e+01     1.455367    0.8726661 -85.24  0.007594888    1.606    0.377
        71 -13.9737     28.7377    192.7670   1.1534884721e+02   3.0289073123e+01     1.764401    0.5723898 -74.23  0.007093873    2.843    0.648
        72 -12.8544     10.8706    207.8495   1.2043740185e+02   2.8597696044e+01    0.3392956    0.2946851 -67.67 0.0008690075    1.352    0.260
        73 -13.7269     18.1297    201.7407   1.1846373685e+02   2.9279576524e+01    0.8321893    0.6171229 -75.08  0.003004679    1.272    0.214
        74 -11.8722    140.6965    229.6795   9.4037830858e+01   6.5239535242e+00    0.3901679     0.196498  27.49  0.001741306    2.077    0.518
        75 -10.4006     26.4753    225.6969   1.1836235944e+02   2.3167450060e+01    0.2535787    0.1772817  84.77 0.0008511154    1.240    0.194
        76 -11.9686    105.7659    212.5703   9.9461401984e+01   1.5500711721e+01    0.9615512    0.5620201  75.17  0.003980707    2.760    0.638
