#   1 NUMBER                 Running object number                                     
#   2 MAG_AUTO               Kron-like elliptical aperture magnitude                    [mag]
#   3 X_IMAGE                Object position along x                                    [pixel]
#   4 Y_IMAGE                Object position along y                                    [pixel]
#   5 X_WORLD                Barycenter position along world x axis                     [deg]
#   6 Y_WORLD                Barycenter position along world y axis                     [deg]
#   7 A_WORLD                Profile RMS along major axis (world units)                 [deg]
#   8 B_WORLD                Profile RMS along minor axis (world units)                 [deg]
#   9 THETA_WORLD            Position angle (CCW/world-x)                               [deg]
#  10 FWHM_WORLD             FWHM assuming a gaussian core                              [deg]
#  11 ELONGATION             A_IMAGE/B_IMAGE                                           
#  12 ELLIPTICITY            1 - B_IMAGE/A_IMAGE                                       
         1 -12.5224     75.8530     22.8654   4.5825887283e+01   6.3920361745e+01     1.497548    0.7463863  47.74  0.006208164    1.945    0.486
         2 -11.6946     47.9289     19.8310   5.6584683138e+01   7.0563772989e+01     1.614657    0.6957606  52.90  0.006224952    2.709    0.631
         3 -13.9947      3.8015     54.4554   9.9247709136e+01   6.7769872700e+01     2.334984    0.9151584 -89.75  0.008991026    2.810    0.644
         4 -14.3745     17.7473     63.5828   9.2765899069e+01   6.4547748185e+01     3.206302     1.482452 -15.67   0.01173385    3.476    0.712
         5 -14.1703     11.2172     36.4634   9.0149629266e+01   7.1939230706e+01     1.755352      1.54132  78.70  0.006491496    1.263    0.208
         6 -11.3493     37.6124     28.6075   6.7964007159e+01   7.0736639092e+01    0.9335689     0.432302 -51.42  0.003907601    2.179    0.541
         7 -13.7517     51.1923     46.0674   6.8515344903e+01   6.4756835857e+01     1.433496    0.7809901 -24.38  0.004978768    3.359    0.702
         8 -14.0480     78.8390     42.4729   5.4475122147e+01   5.9926636874e+01     1.228545     1.169848 -74.28  0.006757071    1.094    0.086
         9 -12.7778    196.2840     36.2927   2.8319215944e+01   3.1265459844e+01     1.903744     1.513379 -39.98  0.008931354    1.110    0.099
        10 -14.8602    190.4877     67.0155   3.7529930486e+01   2.8508707198e+01     2.662657     1.371008 -44.56    0.0100022    1.807    0.447
        11 -13.3791    132.4888     50.1977   4.2260832105e+01   4.5250735948e+01     2.642395     1.494364 -61.90  0.009416794    2.352    0.575
        12 -14.4794    211.3743     63.0353   3.3836776510e+01   2.4554887451e+01     1.575645     1.017104  89.45  0.008060564    2.054    0.513
        13 -12.1048    148.6617     43.3913   3.6776824564e+01   4.2091540797e+01     1.517327    0.6908609 -30.89  0.005911988    2.148    0.535
        14 -13.6485    159.7424     38.5298   3.3400439277e+01   3.9906312775e+01     1.217162    0.7033901  57.78  0.003171845    1.759    0.432
        15 -13.5853     59.4468     36.0691   5.9712714454e+01   6.5308572955e+01     1.598968    0.7271293  39.79  0.005809784    2.309    0.567
        16 -11.2400    135.8390     22.8015   3.1430793270e+01   4.8181539391e+01     0.454667    0.2985826  80.46  0.002130336    1.534    0.348
        17 -10.7456    102.3288     22.1679   3.7665723349e+01   5.7272981512e+01    0.5817204     0.207237 -19.95   0.00148368    3.935    0.746
        18 -11.1011    163.4769     21.9457   2.7451379272e+01   4.0971371512e+01    0.3213837    0.2265377 -44.21  0.001655245    1.303    0.232
        19  -9.8917     89.9151     22.1786   4.0937209814e+01   6.0511174099e+01    0.4889607    0.1599275 -35.61  0.001666232    2.912    0.657
        20 -10.2465    201.5947     20.3890   2.3448308404e+01   3.1839471694e+01    0.2248765     0.198287 -45.69 0.0007072918    1.076    0.071
        21 -11.0102     34.2410     14.9239   6.1894668722e+01   7.3926074793e+01    0.3010061    0.2301721 -51.14  0.001008948    1.452    0.311
        22 -11.3671     71.4990     15.5051   4.3237373277e+01   6.5999782438e+01    0.9220883    0.4874775 -62.23  0.003211402    3.562    0.719
        23 -12.3362     65.5243     13.9291   4.4540712506e+01   6.7635599966e+01    0.6344795    0.4310736 -23.41  0.002151667    1.553    0.356
        24 -10.8782     60.6922     14.3547   4.6802271831e+01   6.8696846435e+01    0.2546526    0.2201032 -77.84 0.0008321925    1.407    0.289
        25 -10.7196    139.9395     11.3211   2.6483872990e+01   4.8315823906e+01     0.366971    0.2334974 -69.32  0.001080398    1.623    0.384
        26 -11.1220     30.9330     19.3925   6.7192273517e+01   7.3621214688e+01    0.3816146    0.3144385 -56.50  0.001812273    1.349    0.259
        27 -11.1374    150.3170     12.7537   2.5787332999e+01   4.5394526495e+01    0.4024909    0.1950512 -63.16            0    2.309    0.567
        28 -11.1737    147.6007     10.7983   2.5389970347e+01   4.6311395384e+01    0.2414232    0.2092259 -78.22 0.0001499954    1.060    0.057
        29 -10.3593    123.6205     12.9083   2.9388890038e+01   5.2586333550e+01    0.2486393    0.2182017 -36.56  0.000883881    1.171    0.146
        30 -11.1125     88.9374     12.2015   3.6042234468e+01   6.1994348860e+01    0.3713172    0.2677562 -68.95 0.0004316965    1.629    0.386
        31  -9.7936     85.4124     12.5447   3.7165633284e+01   6.2872158251e+01     0.203515    0.1822328   2.71 0.0001968473    1.201    0.168
        32  -9.7516    173.6255     12.0833   2.3273360670e+01   3.9421910464e+01    0.1777981    0.1286871  -6.03 0.0005411362    1.678    0.404
        33 -11.3219    116.1846     10.2570   2.9448095367e+01   5.4881264335e+01    0.3209397    0.2866139 -10.98 0.0005477766    1.240    0.193
        34  -9.7786    129.9701     11.0361   2.7681811452e+01   5.1045782513e+01    0.1730591    0.1606024 -52.49 0.0005135078    1.083    0.076
        35  -9.9980     71.8587      9.8532   3.9729338960e+01   6.6613803358e+01     0.204471    0.1782412  33.33 0.0002835878    1.133    0.117
        36  -9.6123     48.4902      8.4353   4.8560052030e+01   7.2206725692e+01    0.1354937    0.1262344  21.66 0.0001221799    1.014    0.014
        37  -9.4574     27.2935      8.6680   6.2526316076e+01   7.6169496718e+01    0.1223771    0.1067962 -83.37 3.412558e-05    1.635    0.388
        38 -10.1040     99.7935      6.9624   3.0876836361e+01   5.9649739040e+01    0.2133045    0.1764097 -63.36 0.0005720306    1.257    0.204
        39 -10.5573      2.6206      6.7311   8.5700330765e+01   7.9416213260e+01    0.2772975    0.1830182  -7.46 0.0009106524    1.577    0.366
        40 -10.1970     74.1261      4.3816   3.5663786770e+01   6.6637048837e+01    0.2680859    0.1899514  12.87 0.0008937414    1.639    0.390
        41  -9.6207     60.1618      4.8489   4.0723686536e+01   7.0017277770e+01    0.1850345    0.1482734  31.92 0.0004425703    1.228    0.186
        42  -9.5063     50.7274      5.4029   4.5218469290e+01   7.2116437339e+01    0.1910077    0.1171922  44.59 0.0008393541    1.541    0.351
        43 -10.3143    145.5260      4.2533   2.3226861675e+01   4.7473772075e+01    0.3184934    0.1518061 -81.94 0.0002391536    2.317    0.568
        44 -10.9624     67.5094      3.8311   3.7387569361e+01   6.8348200512e+01    0.3338666    0.1727361  54.59 0.0003091857    1.739    0.425
        45 -10.2616     55.7896      2.4377   4.0776918668e+01   7.1310790259e+01     0.280021    0.1720112  32.65  0.001066255    1.737    0.424
        46 -10.2669    153.8074      1.6521   2.1530110757e+01   4.5499576586e+01    0.4070755    0.1541228  86.23  0.001507178    2.763    0.638
        47  -9.4163    130.9737      2.7801   2.4232608427e+01   5.1530530067e+01    0.1850696    0.1086221  76.42 0.0008475037    1.587    0.370
        48 -10.0919     95.8187      2.3737   2.9327045458e+01   6.1135774789e+01    0.1778866    0.1587924  55.83 0.0003200906    1.079    0.073
        49  -9.5140    127.1499      1.4029   2.4121902624e+01   5.2686952481e+01    0.2033018    0.1241316 -85.33 0.0008780922    1.640    0.390
        50 -10.1670     44.7816      1.4947   4.5186590250e+01   7.3892799417e+01    0.1957141    0.1283543  56.92  0.001005635    1.540    0.351
        51 -11.8204    123.9427     95.2941   5.8935973107e+01   3.8825110423e+01    0.3103679    0.2699137 -33.95 0.0007788633    1.194    0.162
        52 -10.5190    228.9389    249.6242   6.7059511442e+01  -1.7133537420e+00    0.1600242   0.09968798  -5.17 0.0005274648    1.293    0.227
        53 -12.3398    153.3531    249.5420   7.9785974203e+01   6.5701988882e+00    0.5420603    0.1947555  23.59  0.002533062    2.844    0.648
        54 -12.8164    165.9483    248.8178   7.7411117891e+01   5.1893042772e+00    0.5172396    0.2684597  26.56  0.003330259    1.449    0.310
        55 -12.6061    135.3823    249.2138   8.3120961952e+01   8.7337499969e+00     0.448081    0.2209764  38.01  0.002727503    1.630    0.386
        56 -12.9190    110.6107    249.0585   8.7915776930e+01   1.1689102152e+01    0.6757947    0.2688455  42.42  0.003187629    2.094    0.522
        57 -11.9091    104.5637    249.5069   8.9151343310e+01   1.2334335200e+01    0.4104047    0.1425176  32.40  0.002054361    2.061    0.515
        58 -11.9780    113.3415    244.8748   8.6991747215e+01   1.1962226844e+01    0.2686742    0.2081177  72.13  0.001674649    1.798    0.444
        59 -14.1530     40.4407    246.2130   1.0190797746e+02   1.9873665266e+01     1.006418    0.5917953  32.57  0.006804201    1.310    0.237
        60 -12.4192     87.4726     73.8222   6.3522091646e+01   5.1496853245e+01    0.6219435    0.4136624 -19.86 0.0005905016    2.346    0.574
        61 -13.1099     68.8414     73.6960   7.0603058642e+01   5.5197835900e+01     2.088999     0.652442  48.99  0.005766379    4.269    0.766
        62 -12.1848     58.6692     62.0642   7.1098274632e+01   5.9788458722e+01    0.8069064    0.5082267 -69.02  0.003445786    1.932    0.482
        63 -12.8306     26.4455     36.0365   7.9023952589e+01   7.0632492651e+01    0.3804257    0.3214872 -45.49 0.0008291388    1.092    0.084
        64 -11.6301     94.8222    247.6082   9.0939322518e+01   1.3746402243e+01    0.2049245     0.146113  47.30 0.0005854859    1.280    0.219
        65 -11.1989    110.4529    240.4806   8.7158764497e+01   1.2951620178e+01    0.1990845    0.1680601 -48.41 0.0006782601    1.547    0.354
        66 -13.8243     99.6591     73.6054   5.9338156675e+01   4.8890858513e+01     1.664341     1.159384 -36.93  0.007452836    1.524    0.344
        67 -14.7070     38.8884     72.1604   8.3694091516e+01   6.0187896021e+01     1.549253     1.344476  70.71  0.004217517    1.209    0.173
        68 -13.4851     53.6957     72.3337   7.6730898028e+01   5.8088613748e+01     1.094368    0.6396412 -64.64  0.001427753    1.766    0.434
        69 -10.5779     73.6486    246.2879   9.5136204293e+01   1.6356970108e+01    0.1195036   0.06028241  48.45 0.0007024235    1.666    0.400
        70 -12.2116     64.0404     45.8526   6.2170174693e+01   6.2419036124e+01    0.8849416    0.6796148  84.75  0.004171534    1.802    0.445
        71 -12.0374     94.1114     60.3323   5.6421783960e+01   5.2929893962e+01    0.6617551    0.3980887 -61.14  0.001447298    2.145    0.534
        72 -11.0908    227.0892    242.2291   6.6363997324e+01  -8.2880175425e-01    0.1694034    0.1132384  28.98   0.00113613    1.562    0.360
        73 -12.3458     53.0988     55.6610   7.1409445283e+01   6.2243255736e+01    0.8980033    0.5680624 -12.71  0.003457984    2.801    0.643
        74 -11.1374    219.6668    240.4522   6.7277677980e+01   1.1657284012e-01    0.2131051    0.1738158  12.01  0.001810949    1.410    0.291
        75 -13.4003    179.7032    242.3614   7.4187718034e+01   4.3499782021e+00    0.4399103    0.2867403  26.68  0.003106949    1.211    0.174
        76 -13.0916     79.5316     60.0919   6.1554088551e+01   5.6208510960e+01     0.928516    0.7716898  74.82  0.004201153    1.375    0.273
        77 -11.6374     88.2710     55.2369   5.6445331244e+01   5.5297960427e+01    0.4334384    0.2578859  45.93  0.001027519    1.687    0.407
        78  -9.6467    203.9754    240.2359   6.9776038281e+01   1.8337207272e+00    0.1361015   0.06744621  28.22 0.0003964427    1.595    0.373
        79 -12.5448     88.0080    238.1304   9.1566835236e+01   1.6000318603e+01    0.3198947    0.1877998  21.05  0.001918154    1.648    0.393
        80 -12.5633     48.4694     28.7042   6.1514744119e+01   6.8850271171e+01     1.183406    0.4427074  40.30  0.002175154    2.749    0.636
        81 -12.7959    186.2769     90.5356   4.4431163582e+01   2.5851522208e+01    0.7519212    0.4606728  23.31  0.003213424    2.500    0.600
        82 -11.9350    185.1115     86.4067   4.3545710412e+01   2.6753266876e+01    0.4817393    0.2469669  54.92  0.002121934    2.106    0.525
        83 -11.9504    195.2611     86.0897   4.1874765846e+01   2.4650257331e+01    0.3152423    0.2347106 -44.90 0.0002893926    1.274    0.215
        84 -12.4937    189.6119     82.7466   4.1870499165e+01   2.6354482300e+01    0.4441387    0.3535519 -86.02  0.001343252    1.556    0.357
        85 -10.5999    166.0799     95.1079   4.9249205420e+01   2.9454480082e+01    0.2105178    0.1996245 -28.53 0.0003101001    1.013    0.013
        86 -10.7756     68.8672     94.9059   7.6606437039e+01   4.9926860450e+01    0.3036248    0.2055741  42.58 0.0004324028    1.470    0.320
        87 -11.4968    208.9255     93.9345   4.1826184121e+01   2.0741273302e+01    0.3765172    0.1784189  47.75 0.0008792585    2.351    0.575
        88 -12.5359    128.3377     89.8642   5.6224687527e+01   3.8958466043e+01    0.4998835    0.3320376 -29.47  0.002161798    1.733    0.423
        89 -12.0092     95.1094     89.4835   6.5804959298e+01   4.6321235911e+01    0.5507483    0.4022432  55.36  0.002533491    1.428    0.300
        90 -12.0687    175.5164     90.1516   4.6171022684e+01   2.8230468606e+01     0.362978    0.2615241  55.55  0.001839163    1.492    0.330
        91 -11.9057    177.0971     84.4859   4.4373674046e+01   2.8811894292e+01    0.6001142    0.3918427   9.39  0.001775687    2.515    0.602
        92 -11.1232     40.0079     90.0412   8.7267954537e+01   5.5337846549e+01    0.2622035    0.2027967 -81.69  0.000327082    1.264    0.209
        93 -11.6663     38.7892     85.9872   8.6969927614e+01   5.6559760654e+01    0.4097362     0.342932  -4.77  0.001349438    1.418    0.295
        94  -9.7877    166.0551     89.7122   4.7797967947e+01   3.0396869513e+01    0.1992383     0.187476  60.67 0.0004044842    1.124    0.110
        95 -11.0022     23.9691     89.5238   9.4272978097e+01   5.7119577625e+01    0.2724631    0.1732148 -40.17  0.001298395    1.764    0.433
        96 -11.9219    236.6192     86.5490   3.6611785576e+01   1.6637847544e+01    0.4422311    0.2807964  59.17  0.002224899    1.946    0.486
        97 -11.4119    147.9928     85.5341   5.0305941131e+01   3.5264164142e+01    0.6610203    0.4408274 -86.33  0.002644996    2.444    0.591
        98 -11.6494    148.6204     81.2035   4.8901971454e+01   3.5908081485e+01    0.5295324    0.3569533 -59.34  0.001153637    1.727    0.421
        99 -13.4981     58.4161    244.7921   9.8163835244e+01   1.8254937430e+01    0.5750862    0.3055861  43.50   0.00367132    1.376    0.273
       100 -12.9759    169.0067     79.6388   4.4455082420e+01   3.1430042667e+01     1.169746    0.6378314 -53.65  0.004795685    2.149    0.535
       101 -13.5773    106.7356     91.2442   6.2655131473e+01   4.3468798530e+01     1.052283    0.6000477 -60.25  0.003816011    2.127    0.530
       102 -13.9227    137.6244     70.9532   4.8166598753e+01   4.0403277653e+01     1.809759    0.8734353  42.00  0.006642792    2.443    0.591
       103 -11.2746     15.8885    238.3205   1.0663589692e+02   2.3516996140e+01    0.1824125    0.1445989  81.33 0.0007040728    1.385    0.278
       104 -12.7131    163.3361     66.1528   4.1533583368e+01   3.4954887580e+01    0.9735724    0.4917815  50.22  0.003559166    2.089    0.521
       105 -14.3306    201.9520     63.9781   3.5204825314e+01   2.6421882535e+01     1.771715    0.5206541 -42.56   0.00629014    2.999    0.667
       106 -12.7675     49.5954    234.3134   9.9423349988e+01   2.0940748414e+01    0.4239424    0.1681098  47.12  0.002289437    1.904    0.475
       107 -13.5114    117.5074     62.0413   5.0086528640e+01   4.6991049425e+01     1.119632    0.8056536 -27.24  0.005086925    1.554    0.356
       108 -12.5970     11.1226    248.1743   1.0782921662e+02   2.2271477534e+01    0.5022847    0.2923422 -75.76  0.003547136    2.121    0.529
       109 -12.2903      3.3784    248.5744   1.0934534536e+02   2.2859703363e+01    0.8891758    0.2497785  84.39  0.004381164    3.928    0.745
       110 -10.9635    206.8081     86.5107   4.0314341159e+01   2.2231461930e+01    0.3775271    0.2155545   2.10  0.001395851    3.580    0.721
       111 -10.5130    224.1601     87.1400   3.8206315795e+01   1.8805035151e+01    0.1862822    0.1585796 -10.70 0.0003926225    1.179    0.152
       112 -10.9651     33.3097     85.8351   8.9410824947e+01   5.7210721167e+01    0.2415597     0.186117  42.90 0.0004965366    1.327    0.246
       113  -9.9797    245.0875     85.1766   3.5389130234e+01   1.5354592769e+01     0.167291     0.138504 -15.57 0.0003109021    1.156    0.135
       114 -12.0572    162.0927     83.7934   4.6915161734e+01   3.2315711083e+01     0.471166    0.3972746  61.28  0.001413595    1.255    0.203
       115 -12.7463    113.8236     80.5545   5.7322884221e+01   4.4199604582e+01    0.8012854    0.2722059 -39.96  0.002466897    3.123    0.680
       116 -11.6885    213.8197     89.3378   4.0049398247e+01   2.0454205458e+01    0.3471788    0.1573681  56.49  0.001572251    2.546    0.607
       117 -13.5885    213.9487     78.2524   3.7339482705e+01   2.1974595814e+01    0.7624912    0.4098721  39.95  0.001364428    2.395    0.582
       118 -10.8773     19.0049     81.0511   9.5256621589e+01   5.9804415465e+01    0.2108705    0.1908749 -84.78 0.0003171478    1.013    0.013
       119 -12.2245    224.7313     78.1623   3.6022101381e+01   1.9897323457e+01    0.2853029    0.2247731 -23.44 0.0009170591    1.153    0.133
       120 -11.2355     23.8782     77.8419   9.2344006370e+01   6.0262496169e+01    0.2182187    0.1813014 -47.87 0.0005420066    1.214    0.176
       121 -10.5247    155.2055     77.0025   4.6299619723e+01   3.5095945120e+01    0.4154563    0.2021737  49.52  0.001644946    2.124    0.529
       122 -12.3730    162.2710     59.5559   3.9707357878e+01   3.6247299352e+01    0.4232062    0.3227679 -38.35 0.0001984434    1.238    0.192
       123 -12.3868    230.7430     67.3955   3.2814114094e+01   2.0149901009e+01    0.3283039    0.1538998 -25.50 0.0008572933    1.959    0.489
       124 -11.1484     20.2224     75.6478   9.3759110128e+01   6.1155472954e+01    0.2246284    0.1811313  -4.19 0.0006238864    1.439    0.305
       125  -9.9599    248.6901     75.0427   3.2792105053e+01   1.5985047137e+01    0.1771651    0.1277904 -27.77 0.0005038286    1.129    0.114
       126 -10.1923    240.8697     71.4366   3.2739013245e+01   1.7787395455e+01    0.2089832    0.1315923 -37.87 0.0004057735    1.282    0.220
       127 -12.8913    153.2387     57.7279   4.0721247420e+01   3.8769224416e+01    0.3996648    0.3303198 -14.05 0.0004991275    1.374    0.272
       128 -10.5888     78.1731     71.0757   6.6030702117e+01   5.4032148928e+01    0.3440467    0.2483727 -68.08 0.0008144044    1.594    0.373
       129 -11.4568      5.3597     84.5001   1.0214633049e+02   5.9748155182e+01      0.27431     0.149298 -85.19 0.0007121562    1.651    0.394
       130 -12.9210    171.6969     55.6968   3.7020819488e+01   3.4528172588e+01     1.409081    0.6091663  75.07  0.004877863    3.326    0.699
       131 -12.9123     67.0230     82.7643   7.4083700900e+01   5.3295505753e+01     1.098125     0.652604  66.48  0.002840664    2.513    0.602
       132  -9.5523    131.6127     64.7275   4.7507003046e+01   4.3004620853e+01    0.1593616    0.1186859  26.42 0.0006993565    1.716    0.417
       133 -11.3686    241.7652     60.2547   3.0098440611e+01   1.8980118989e+01    0.3124083    0.1967736 -72.59  0.001750782    2.070    0.517
       134 -11.2640    104.4369     60.4658   5.3203404072e+01   5.0474190301e+01     0.546325     0.211638  50.85  0.001849033    2.554    0.608
       135  -9.4574    248.6997     57.2494   2.8824137640e+01   1.8088713170e+01    0.1165855   0.07447574 -52.29 0.0003269824    1.494    0.331
       136 -11.9021    231.5333     55.7410   2.9964548981e+01   2.1438587921e+01    0.5463168     0.195173 -48.50  0.002251613    2.795    0.642
       137 -11.2260    230.2026     47.8825   2.8194097084e+01   2.2636115219e+01    0.5176445     0.234367 -29.06  0.002509821    1.849    0.459
       138 -10.5942    223.0131     56.0128   3.0839852197e+01   2.3079451284e+01    0.1938551    0.1623313 -39.39 0.0004300314    1.006    0.005
       139 -11.9523    123.6322     67.6937   5.0454140794e+01   4.4428215567e+01    0.6513067    0.3939763 -63.63  0.001650257    2.264    0.558
       140 -10.2772    107.0311     53.8298   4.9933528557e+01   5.1095827839e+01    0.2662794    0.2178315 -44.29 0.0009524829    1.221    0.181
       141  -9.9232    237.9146     52.0780   2.8535821570e+01   2.0659533310e+01    0.1576701    0.1382798  -6.00 0.0005626534    1.302    0.232
       142 -11.8086    101.7928     46.3182   4.8461200865e+01   5.3740006531e+01    0.5671295    0.3961345  45.89  0.001848598    1.459    0.314
       143 -11.1153    207.9773     45.5311   2.9658386124e+01   2.7520755138e+01    0.3552895    0.2084135  71.43  0.001814997    1.910    0.476
       144 -11.6737    207.2543     41.3966   2.8634815472e+01   2.8183573878e+01    0.4279383     0.200959 -45.14   0.00133391    1.843    0.458
       145 -10.3812    214.1282     42.6203   2.8308328821e+01   2.6551187942e+01    0.2829803    0.1508278 -52.03  0.001137919    1.772    0.436
       146  -9.5731     32.2814     43.0898   7.8080248044e+01   6.8269374498e+01    0.2353936    0.1841403 -22.70 0.0009956886    1.387    0.279
       147 -10.5640    136.2870     41.8744   3.8482937808e+01   4.5538897002e+01    0.2885288    0.2139022 -16.49  0.000775844    1.564    0.361
       148 -13.2595    172.8434     45.5896   3.3790771222e+01   3.5670417867e+01     1.322498    0.5490175  56.18  0.005227411    2.455    0.593
       149 -11.0249    131.9576     33.9012   3.6337979090e+01   4.7812518311e+01     0.406417    0.2725008  65.01   0.00118845    1.455    0.313
       150 -10.7352    221.6450     38.8470   2.6691282713e+01   2.5416746225e+01     0.357838    0.1734581 -30.01  0.001375495    1.736    0.424
       151 -11.8515    100.9852     53.5804   5.1623344165e+01   5.2622647967e+01    0.5929273    0.3438697  41.64  0.001108624    1.877    0.467
       152 -11.5551     40.8525     39.5777   7.1379972375e+01   6.7879582442e+01    0.3538585    0.2686481  25.82 0.0007513858    1.390    0.281
       153  -9.9934     35.9303     43.1336   7.5856506924e+01   6.7780360361e+01    0.2123322    0.2011635 -46.17 0.0004168461    1.026    0.025
       154  -9.9284    109.4846     39.0806   4.3346252476e+01   5.2983827397e+01    0.2256483    0.1496656 -34.63 0.0005155179    1.525    0.344
       155 -10.4672    226.5059     46.4472   2.8163867280e+01   2.3538993611e+01    0.2435459    0.1656413 -55.09 0.0006464637    1.385    0.278
       156 -12.9815    175.0824     38.3301   3.1276885283e+01   3.6074730597e+01     1.199371    0.5555168  56.37  0.005045768    2.244    0.554
       157 -11.0754     92.0731     33.7515   4.5893663344e+01   5.8265901400e+01    0.4897854    0.3721114 -10.17  0.002337199    1.597    0.374
       158 -10.8424     85.5675     29.0363   4.5696736806e+01   6.0619784272e+01    0.5728493    0.3219898  72.19  0.002257922    2.297    0.565
       159 -13.7715    124.3163     84.1871   5.5575581866e+01   4.1033213166e+01     1.382398    0.8757203  12.96  0.004727456    3.299    0.697
       160 -10.2259    111.7257     32.5983   4.0068359989e+01   5.3371200882e+01    0.2808116    0.2393652 -44.01 0.0009515861    1.180    0.152
       161 -13.2881    199.5063     48.9118   3.1458372568e+01   2.8963814379e+01     1.008806    0.3645275 -46.23            0    2.590    0.614
       162  -9.6467    215.9213     31.4926   2.5285706588e+01   2.7457249696e+01    0.1686045    0.1244594  80.61 0.0003550918    1.485    0.327
       163  -9.6006    209.7098    227.6878   6.7121924701e+01   2.5467562028e+00    0.1088314   0.06407362   2.66 0.0002164951    1.586    0.370
       164 -10.0589     29.5576     30.2994   7.4243498437e+01   7.1545504438e+01    0.2562445    0.1324942 -59.51  0.001100512    2.052    0.513
       165 -11.0355    219.8003     29.5022   2.4479672728e+01   2.6854445076e+01    0.3899761    0.1820738 -61.25  0.001506364    2.314    0.568
       166 -11.2678    141.3413     29.4784   3.3060939109e+01   4.5893350817e+01    0.3631551    0.2693452  74.18 0.0005514757    1.325    0.246
       167 -10.3220    137.3956     27.1794   3.2843165587e+01   4.7234744975e+01     0.259709    0.1699216 -39.24 0.0006964129    1.475    0.322
       168 -10.4252    132.6803     24.6114   3.2637478509e+01   4.8816060397e+01    0.2975319    0.2310463  77.93  0.001019332    1.253    0.202
       169 -11.5156    159.9827    219.5936   7.4881513752e+01   9.6758420900e+00    0.1821423     0.156989  -9.76 0.0003070567    1.235    0.190
       170  -9.5840    203.9337    116.2827   4.7808718627e+01   1.8368929473e+01    0.1876993     0.111031  75.24 0.0007016091    4.111    0.757
       171 -10.2774    154.4601     27.4773   3.0426422136e+01   4.2673964285e+01    0.3173054    0.1692987 -58.79 0.0006171708    2.051    0.512
       172 -10.0375    113.1639     28.1878   3.7857333686e+01   5.3603197550e+01     0.375811    0.1878362  64.91  0.001501401    1.945    0.486
       173 -11.0719    148.5033     25.3750   3.0508745396e+01   4.4493530486e+01    0.4323936    0.3731838  -6.98  0.002349502    1.337    0.252
       174  -9.2502     29.6563     25.7187   7.1803271603e+01   7.2519556670e+01    0.1399473     0.100151 -14.75 0.0007011974    1.635    0.388
       175 -12.6527    154.0633     64.2793   4.2644978152e+01   3.7514359105e+01    0.8145913    0.5838058  42.17  0.002521045    1.558    0.358
       176 -10.4173    182.2232    116.0093   5.1449874044e+01   2.2526204037e+01    0.2485531    0.2098089  59.61  0.001404896    1.385    0.278
       177 -11.8850    132.2326    111.3662   6.1086511839e+01   3.3678586094e+01    0.5342957    0.2721005  44.74   0.00129899    1.954    0.488
       178 -10.6761     97.8366     22.3414   3.8863424673e+01   5.8434464983e+01    0.2672215    0.2163044 -20.21 0.0008590413    1.332    0.249
       179 -10.4836    181.3770     22.1189   2.5657944696e+01   3.6446195338e+01    0.2043203    0.1815762  74.21 0.0003380243    1.201    0.167
       180 -10.1309    119.1247     22.1253   3.4046878180e+01   5.2776701729e+01    0.2397553    0.1920018  45.98  0.001164777    1.309    0.236
       181  -9.8986    210.6258     21.0241   2.2956686105e+01   2.9745189416e+01    0.1662936    0.1148142 -13.71 0.0009109996    1.636    0.389
       182  -9.7108    216.8351    108.1285   4.4016001738e+01   1.7228291429e+01    0.1735238    0.1382808  -5.08 0.0005095272    1.270    0.213
       183  -9.9403    195.5067    107.4998   4.7125952693e+01   2.1304235299e+01     0.136246    0.1223332 -23.22 2.889324e-05    1.006    0.006
       184 -10.5896    104.6612     28.0855   3.9807492748e+01   5.5869246731e+01    0.4066703    0.3616905  23.80  0.001759632    1.244    0.196
       185 -10.0047    183.9823    105.6729   4.8641320592e+01   2.3883438853e+01    0.1866156    0.1839241  17.30 0.0006240677    1.102    0.093
       186 -10.2104     29.7925    106.6322   9.4296787892e+01   5.1986928099e+01    0.1899805    0.1218856  38.55 0.0003204059    1.530    0.346
       187  -9.9626    211.3493    105.0417   4.4099185845e+01   1.8669625945e+01    0.3718263     0.144719  40.97  0.001485903    3.171    0.685
       188 -10.0882    139.2671     16.7061   2.8609191234e+01   4.7942642060e+01    0.4547023    0.2709841 -83.73  0.001303687    1.839    0.456
       189 -10.4128    134.7482    105.0331   5.8819668648e+01   3.4444800295e+01    0.2128051     0.198666 -39.40 0.0003863671    1.070    0.065
       190 -11.2899    165.3178    102.5209   5.1345301672e+01   2.8313391173e+01    0.4752638    0.2411514 -44.70  0.001974709    1.962    0.490
       191 -12.8640    139.4391     81.9517   5.1165668671e+01   3.7933564679e+01     1.082433    0.3735374 -36.05  0.003431125    3.055    0.673
       192 -10.4372    113.2403     24.2041   3.6121557752e+01   5.4103642513e+01    0.3147899    0.2142754  67.93  0.001095901    1.419    0.295
       193 -11.2651     69.8410    101.8592   7.7920706751e+01   4.7998551969e+01     0.222158    0.2051636 -36.89 0.0002906767    1.186    0.157
       194 -11.5255     48.5338     85.7533   8.2618265362e+01   5.5387543779e+01    0.3646411    0.2451211  82.96  0.001253576    1.821    0.451
       195  -9.7559    102.8669     14.9006   3.4109178560e+01   5.8000039133e+01    0.1927315    0.1548038 -48.99 0.0003624797    1.283    0.220
       196 -12.4022     53.4251     99.7669   8.3710304242e+01   5.1034344093e+01     0.410603    0.3199368 -24.00 0.0009023492    1.612    0.380
       197 -12.4242     50.0544     95.4693   8.4159790856e+01   5.2627115045e+01    0.4901751    0.2717579  45.21  0.001135588    1.829    0.453
       198 -12.9830     53.0272     90.3176   8.1785988751e+01   5.3567142892e+01    0.5051075    0.4650445 -83.14   0.00219183    1.039    0.038
       199 -11.7761     53.0627     86.1474   8.0768595608e+01   5.4648278277e+01    0.4095912    0.2101336  31.98 0.0002614354    2.008    0.502
       200  -9.4597    234.4126    101.4810   4.0201380941e+01   1.5074550946e+01    0.1252976    0.1009238 -28.71 0.0001148375    1.042    0.041
       201 -10.6303    218.2527    100.3042   4.2030447524e+01   1.8078140160e+01    0.2449699    0.1773403  -3.45 0.0008952201    1.564    0.361
       202 -12.1762    139.6446     97.7369   5.5662835013e+01   3.4834646705e+01    0.5074419    0.2624283  48.97  0.002035877    1.959    0.489
       203 -12.6310    126.9339    100.2027   5.9510981750e+01   3.7139276557e+01    0.5177879    0.2776104  33.18  0.001098177    2.370    0.578
       204 -10.3495    240.4845    100.3101   3.9214596609e+01   1.4210899780e+01    0.2682908    0.1494651  47.71 0.0009639391    2.122    0.529
       205 -11.1072    150.8994     96.7382   5.2821073813e+01   3.2519183061e+01    0.3079191    0.2449746 -12.86   0.00125434    1.474    0.321
       206 -11.6039     81.4836     99.3194   7.3129926474e+01   4.6616675722e+01    0.3194934      0.26384  69.39  0.001578666    1.296    0.229
       207 -11.4489     87.1055     97.6871   7.0767998696e+01   4.5967252457e+01    0.4271616    0.3378978  31.23 0.0009701258    1.353    0.261
       208 -10.7696    195.4301     98.8385   4.5043104498e+01   2.2665053173e+01    0.3313504    0.2051775  35.48  0.001094754    1.911    0.477
       209 -10.1438    190.8130     99.3597   4.5918354152e+01   2.3514170762e+01     0.263016    0.1769992  31.97  0.000334716    1.756    0.430
       210 -11.1410    170.3452     97.8419   4.9151307805e+01   2.8052522944e+01     0.399863    0.2906246  17.69   0.00191405    1.781    0.439
       211 -11.5262    200.5693     96.8463   4.3756782776e+01   2.1946305720e+01    0.3365189    0.2177705 -44.86  0.001641574    1.507    0.336
       212 -12.4240     61.9061     93.2239   7.8883282989e+01   5.1483879493e+01    0.5633836    0.2975967 -66.89  0.001146784    2.011    0.503
       213 -10.9791     32.8020     97.2023   9.1658519414e+01   5.4215991809e+01    0.2210025     0.181941  69.18 0.0006162228    1.190    0.159
       214 -10.1804     11.5088     97.5293   1.0070777154e+02   5.5907142883e+01    0.1378919    0.1209978  84.32 1.697548e-05    1.015    0.015
       215 -10.8519    189.0133     95.5892   4.5271597935e+01   2.4478616753e+01    0.2206946     0.173381 -31.75 0.0004277563    1.165    0.141
       216 -10.3642    157.4548     95.6610   5.1131355471e+01   3.1260266449e+01    0.2573012    0.1751322  30.93  0.001164429    1.769    0.435
