#   1 NUMBER                 Running object number                                     
#   2 MAG_AUTO               Kron-like elliptical aperture magnitude                    [mag]
#   3 X_IMAGE                Object position along x                                    [pixel]
#   4 Y_IMAGE                Object position along y                                    [pixel]
#   5 X_WORLD                Barycenter position along world x axis                     [deg]
#   6 Y_WORLD                Barycenter position along world y axis                     [deg]
#   7 A_WORLD                Profile RMS along major axis (world units)                 [deg]
#   8 B_WORLD                Profile RMS along minor axis (world units)                 [deg]
#   9 THETA_WORLD            Position angle (CCW/world-x)                               [deg]
#  10 FWHM_WORLD             FWHM assuming a gaussian core                              [deg]
#  11 ELONGATION             A_IMAGE/B_IMAGE                                           
#  12 ELLIPTICITY            1 - B_IMAGE/A_IMAGE                                       
         1 -14.8658    244.9072     13.2519   3.4906817557e+02   2.5605258160e+01     2.193791    0.5974535 -38.13   0.01084924    2.346    0.574
         2 -12.3353     20.4820     25.5256   4.4776569336e+01   7.2839101273e+01    0.6384274    0.2275834 -46.08  0.002607622    2.583    0.613
         3 -11.3865     11.5016      1.8413   3.7487095261e+01   7.8227785555e+01    0.3322448     0.190058  28.48   0.00179488    1.652    0.395
         4 -12.8592      8.9753     15.3944   4.8751259659e+01   7.6079487693e+01    0.6037477    0.3882166  -4.55  0.003346365    1.625    0.385
         5 -12.4722      9.1285      7.5340   4.3849285881e+01   7.7541370851e+01    0.4663939    0.3237829 -29.95  0.002132114    1.328    0.247
         6 -12.6392     23.2473     12.7664   3.5376590003e+01   7.4823181622e+01    0.4785595    0.2833605 -23.29  0.002416573    1.932    0.483
         7 -11.3486     19.3949      2.4771   3.1067024263e+01   7.7016315635e+01    0.3255391    0.2221889   6.87  0.001858423    1.576    0.366
         8 -12.0012     16.0993      8.1900   3.8017342405e+01   7.6585832223e+01    0.4347728     0.250531 -22.04  0.002083508    2.011    0.503
         9 -11.7757      2.3467      4.0170   4.8344980624e+01   7.8853548769e+01    0.4397371    0.2262941 -47.90  0.002213055    1.796    0.443
        10 -11.6804      1.4939     21.5005   5.8336729576e+01   7.5401302328e+01    0.5251665     0.112756 -64.40  0.001736179    4.392    0.772
        11 -11.2555     72.9986    241.4843   6.4897666937e+01   1.4620635697e+01    0.2234665    0.1572418  68.83  0.001392127    1.644    0.392
        12 -12.0845    247.2542    226.6879   2.9201514100e+01  -2.5988724786e+00    0.3891694    0.1806266 -26.53  0.002481537    1.737    0.424
        13 -11.2313    248.1450    233.8523   3.0123151938e+01  -3.4988172565e+00    0.2357751    0.1338481 -27.11  0.001156082    1.439    0.305
        14 -12.4217    243.3087    245.2625   3.2471862751e+01  -4.3442226113e+00    0.5655887    0.2099907 -23.09  0.003112549    2.666    0.625
        15 -11.2853    248.9831    248.8817   3.2129566958e+01  -5.2156621061e+00    0.3037646    0.1654647 -16.21  0.002246374    1.410    0.291
        16 -11.9802    249.1043    240.4146   3.0924767519e+01  -4.3123251253e+00    0.4281375    0.1761108 -31.35  0.002520103    2.019    0.505
        17 -12.2613    234.2230    244.5678   3.3764626627e+01  -3.4659436587e+00    0.3678132    0.1819523  -9.36  0.002290173    1.993    0.498
        18 -11.3436     65.1978    249.3360   6.7199250547e+01   1.4051395509e+01    0.3774525    0.1207402  36.15  0.001771285    2.204    0.546
        19 -11.0144     21.3706    248.7004   7.6578755166e+01   1.8459247640e+01    0.3310028    0.1485848  50.50  0.001887082    1.739    0.425
        20 -10.4420     62.5023    241.4937   6.7235328915e+01   1.5757339169e+01    0.2887753    0.1225456  52.38  0.001380192    2.400    0.583
        21 -11.1139     54.2209    240.6580   6.9023285288e+01   1.6785176014e+01    0.2686362    0.1444709  75.87  0.001423694    2.351    0.575
        22 -10.1479     38.5022    241.5043   7.2559416696e+01   1.8207113020e+01    0.1950259   0.09818096  79.26  0.001032208    2.352    0.575
        23 -10.4920     29.5106    241.7465   7.4543599187e+01   1.9017307459e+01    0.3057917    0.1052779  36.64  0.001517648    2.018    0.504
        24 -11.2044     17.2782    239.5717   7.7115771119e+01   2.0537762045e+01    0.5245391    0.1596337  42.08  0.002554065    2.195    0.544
        25 -11.4109    108.5658    240.8336   5.6998424952e+01   1.0670007380e+01    0.2356181    0.1272425  50.88  0.001213814    2.232    0.552
        26 -11.8126    242.0077    237.4797   3.1564808427e+01  -3.3620295645e+00    0.3581543     0.155521 -20.87  0.002042484    2.133    0.531
        27 -11.4329     83.2665    239.0682   6.2404615038e+01   1.3910497202e+01    0.3537507    0.1377777  40.32  0.001679083    2.103    0.525
        28 -12.0160    231.6743    235.3950   3.2857392293e+01  -2.1706497038e+00    0.2916868    0.1452152 -25.43  0.001890619    1.695    0.410
        29 -10.0833     45.5900    236.8139   7.0714455716e+01   1.8399899292e+01    0.1623404    0.1013006  75.76 0.0009530729    1.764    0.433
        30 -10.2298      7.0050    235.0102   7.9193511902e+01   2.2293928287e+01    0.2024818   0.09263051  52.18  0.001135343    1.688    0.408
        31 -10.6939     32.7770    232.1754   7.3350871687e+01   2.0565727631e+01    0.2959032    0.1467033  63.91  0.001564744    2.019    0.505
        32 -11.6950    236.7639    227.8265   3.0955101795e+01  -1.7527770414e+00    0.3215441    0.1136918 -31.34  0.001738854    2.436    0.590
        33 -10.3696     62.6606    229.3323   6.6287237924e+01   1.8056322239e+01     0.135513   0.07464823  52.49 0.0007051694    1.745    0.427
        34 -11.0033      6.0429    227.5653   7.9182981008e+01   2.3853861233e+01    0.3237596     0.152872  83.15   0.00175766    2.115    0.527
        35 -10.2988     12.0058    226.2926   7.7802554690e+01   2.3619321406e+01    0.2336956    0.1191788  57.67  0.001314218    1.646    0.392
        36 -11.3741      2.4926    220.7352   7.9780716182e+01   2.5536429933e+01    0.3611235    0.1719611  73.42  0.001951603    1.950    0.487
        37 -11.5075    239.7206    219.7721   2.9289310812e+01  -1.0646068845e+00    0.2811731    0.1113574 -30.33  0.001590044    2.121    0.529
        38 -11.5208     15.6170    218.8447   7.6686099600e+01   2.4854097200e+01     0.621295    0.1460913  47.06  0.002520149    2.960    0.662
        39 -12.0164    248.1467    214.0143   2.7146533705e+01  -1.1810664835e+00    0.3795821    0.1860895 -28.67  0.002448707    1.616    0.381
        40 -11.2580      3.0749    212.5324   7.9401211027e+01   2.7223579318e+01    0.3771109    0.2149295  64.71  0.002195847    1.504    0.335
        41 -10.5979      2.4541    206.1156   7.9346344705e+01   2.8666354434e+01    0.2753519    0.1637504  66.99  0.001601312    1.454    0.312
        42 -10.9880     25.5251    210.5052   7.3917857240e+01   2.5760413663e+01    0.3241768    0.1195745  54.52  0.001409244    2.480    0.597
        43 -10.2294    246.6735    206.4615   2.6178869600e+01  -1.1042342590e-01    0.1890283   0.07812315 -34.06   0.00108257    1.979    0.495
        44 -10.3685    250.4052    200.2664   2.4647986715e+01   2.8763848253e-01    0.2546771   0.08242524 -37.13  0.001287731    2.582    0.613
        45 -11.5674     13.3305    204.4248   7.6625150640e+01   2.8173506472e+01    0.5277748    0.1895504  52.75  0.002357412    2.343    0.573
        46 -12.0965      5.5726    195.7911   7.8212870871e+01   3.0747376963e+01    0.5113482    0.3029084  58.94   0.00288427    1.432    0.302
        47 -12.0450      3.6526    188.1510   7.8412424739e+01   3.2664753395e+01    0.3903824    0.2051933  78.92  0.002009542    1.767    0.434
        48 -12.0480     19.2419    194.3818   7.4634794705e+01   2.9955794949e+01    0.7831366    0.2427362  58.98  0.002873965    3.397    0.706
        49 -10.1926    249.6731    184.4535   2.2146263676e+01   2.3879889420e+00    0.1999698   0.07977831 -34.67  0.001084966    1.987    0.497
        50 -10.6405     16.4100    182.2900   7.4721634535e+01   3.3062804715e+01    0.3868765    0.1793182  74.51  0.001728391    2.217    0.549
        51 -13.2661      6.3360    174.7830   7.7116787359e+01   3.5681180435e+01    0.8820692    0.4142955  83.80  0.004098365    2.047    0.511
        52 -11.3480     19.7168    172.3572   7.3183724950e+01   3.5226050609e+01     0.438378    0.2049455  80.19  0.001892245    2.267    0.559
        53 -10.9275     31.4925    173.5000   6.9867807511e+01   3.3871975005e+01    0.3870929     0.133801 -82.33  0.001379104    3.251    0.692
        54 -10.8685     27.6897    159.4804   6.9821310784e+01   3.7800016828e+01    0.2575138     0.119628 -76.45  0.001093835    2.075    0.518
        55 -12.9637     11.0018    153.9113   7.4579644305e+01   4.0626661629e+01    0.9070888    0.3754728  57.68  0.003722249    2.396    0.583
        56 -10.1559     34.2214    145.8026   6.6381244969e+01   4.0775990680e+01    0.2684779    0.1143748  58.59  0.000958758    2.829    0.647
        57 -11.2769     20.5510    141.2629   7.0492811166e+01   4.3233931629e+01    0.4354385    0.1944608  77.97   0.00165584    2.631    0.620
        58 -11.7668     10.1742    137.1076   7.3666295502e+01   4.5127507172e+01     0.562393    0.2781886 -79.03  0.002523244    1.837    0.456
        59 -10.2033    247.3296    129.6631   1.2555661534e+01   1.0212916026e+01     0.114576   0.07940956 -53.71 0.0007052012    1.732    0.423
        60 -11.4615      5.6575    125.6992   7.4381393810e+01   4.8486844938e+01    0.6764184    0.3220856  71.79  0.002855089    2.197    0.545
        61 -10.7436     22.1318    124.0157   6.8160165452e+01   4.7781376890e+01    0.6695513    0.1128752 -67.24  0.001927672    4.068    0.754
        62 -10.7804    248.7805    119.5838   1.0429725804e+01   1.1437218434e+01    0.1320792    0.1151181  78.78 0.0009516795    1.653    0.395
        63 -11.2699     10.4165    113.6537   7.1522138444e+01   5.1471597266e+01    0.7059103    0.2662656 -89.56  0.002509064    2.916    0.657
        64 -10.4800     14.3629     99.9710   6.8313925799e+01   5.4951396293e+01    0.3440148    0.1240108 -74.75  0.001260067    2.529    0.605
        65 -12.5491    249.2153     97.9982   6.1145106072e+00   1.4392391681e+01    0.3964343    0.1381614 -35.62  0.001866497    2.189    0.543
        66 -11.0975      2.6004     95.0367   7.2867551837e+01   5.6966642419e+01    0.5747519    0.2348382  87.46  0.002196497    2.636    0.621
        67 -11.0367     16.5583     86.1766   6.5264933679e+01   5.8533793712e+01    0.3716535    0.1166529 -68.21  0.001312275    2.695    0.629
        68 -12.4127    248.8768     74.1404   1.3171780254e+00   1.7675447924e+01     0.284747    0.1749562 -42.68  0.001803101    1.233    0.189
        69 -10.4860      7.3257     74.3243   6.7893439599e+01   6.2269563455e+01    0.1514284   0.08618813 -41.87 0.0007048758    1.690    0.408
        70 -11.2716     16.4408     52.9886   5.8055750420e+01   6.7094382190e+01    0.6394448     0.251138 -69.97  0.002439463    2.763    0.638
        71 -11.6732      3.0291     50.9737   6.5975209606e+01   6.8458326108e+01    0.6240692    0.2260895 -60.09  0.002633615    2.178    0.541
        72 -12.2666     12.4209     39.8685   5.6603891793e+01   7.0531985839e+01    0.7129767    0.2302645 -52.95  0.002845451    2.490    0.598
        73 -10.2761     25.1425     42.7081   4.9164783865e+01   6.8655168110e+01    0.2842666    0.1403308 -46.35  0.001275714    1.870    0.465
        74 -11.5729      1.4804     38.5094   6.3998652588e+01   7.1548485069e+01    0.5381693    0.1185159 -70.20  0.001713319    4.287    0.767
        75 -10.2226    200.2630    249.7488   4.0061280241e+01  -8.5761000751e-01    0.1708147   0.07100048  16.72 0.0008889132    2.412    0.585
        76 -12.0442     99.7266    246.1024   5.9438350999e+01   1.0799799966e+01    0.4550242    0.2730937  77.41  0.002311187    3.060    0.673
        77 -11.3555     89.9352    247.6716   6.1699432706e+01   1.1641380974e+01    0.2616982    0.1742324  60.28  0.001593299    1.793    0.442
        78 -11.1868     76.7049    248.1740   6.4613081529e+01   1.3019391864e+01     0.275271    0.1373515  46.36  0.001500331    1.813    0.448
        79 -10.6396     35.3082    248.0882   7.3586525620e+01   1.7287314863e+01    0.2902152    0.1211914  44.60  0.001496417    1.803    0.445
        80 -10.8373     83.9911    247.0021   6.2931910809e+01   1.2420909788e+01    0.1973017    0.1161806  50.06  0.001141423    1.689    0.408
        81 -11.8077      3.9230    242.7479   8.0063204135e+01   2.1056306411e+01    0.4602144     0.206814  63.32  0.002627708    1.917    0.478
        82 -10.7419     45.7762    244.8708   7.1148022642e+01   1.6860208596e+01    0.2527438   0.09565838  45.72  0.001250664    2.095    0.523
        83 -12.2482    224.3060    241.3893   3.4887061809e+01  -2.1834076669e+00    0.4038886    0.1496751 -34.29  0.002280019    2.437    0.590
