#   1 NUMBER                 Running object number                                     
#   2 MAG_AUTO               Kron-like elliptical aperture magnitude                    [mag]
#   3 X_IMAGE                Object position along x                                    [pixel]
#   4 Y_IMAGE                Object position along y                                    [pixel]
#   5 X_WORLD                Barycenter position along world x axis                     [deg]
#   6 Y_WORLD                Barycenter position along world y axis                     [deg]
#   7 A_WORLD                Profile RMS along major axis (world units)                 [deg]
#   8 B_WORLD                Profile RMS along minor axis (world units)                 [deg]
#   9 THETA_WORLD            Position angle (CCW/world-x)                               [deg]
#  10 FWHM_WORLD             FWHM assuming a gaussian core                              [deg]
#  11 ELONGATION             A_IMAGE/B_IMAGE                                           
#  12 ELLIPTICITY            1 - B_IMAGE/A_IMAGE                                       
         1 -12.1738    126.1498     28.6586   3.2699124946e+01   4.9797624544e+01     0.586501    0.4624423  78.12  0.003052375    1.256    0.204
         2 -12.5005    119.8003     37.7046   3.7491784633e+01   5.0245846984e+01     1.037064    0.5044813 -52.22  0.003014155    2.520    0.603
         3 -12.4554    160.0542     29.7270   2.7807278444e+01   4.0938178692e+01    0.4746867    0.3936097 -32.24 0.0004429118    1.203    0.169
         4 -12.2386    164.3299     27.6984   2.6627729877e+01   4.0106245942e+01    0.3152283    0.2826924 -60.68 0.0003712811    1.026    0.025
         5 -12.1366    105.9511     20.8482   3.3575893965e+01   5.6042755570e+01    0.4706991    0.3543666 -66.67  0.001741723    1.489    0.328
         6 -12.3294    112.9204     25.5386   3.4082427202e+01   5.3651250967e+01    0.7957752    0.3795805  49.25   0.00315378    2.076    0.518
         7 -11.7407     26.7344     27.8426   7.1460993837e+01   7.1981429064e+01    0.5974084    0.3508719 -52.38  0.002497617    1.670    0.401
         8 -11.8591     35.6558     17.8679   5.9563769321e+01   7.2579167591e+01    0.6240502    0.2891362 -32.31  0.001746145    2.452    0.592
         9 -12.2078     20.1540     21.8092   7.3270376342e+01   7.4062903238e+01    0.5792599    0.3270105 -42.80  0.001554007    1.645    0.392
        10 -11.5701    122.0038      5.7247   2.4253450166e+01   5.3317982427e+01     0.529987    0.1812517 -25.02  0.001270193    2.859    0.650
        11 -11.0956    121.4978     11.6647   2.6752889696e+01   5.2908639594e+01    0.4431744    0.2288959  74.90  0.001915591    1.874    0.466
        12 -12.3653    135.0889     22.3361   2.8783543857e+01   4.8199679846e+01    0.9562432    0.4315919  57.18  0.003932993    2.082    0.520
        13 -11.1176    127.1430     11.6840   2.5909275027e+01   5.1406740467e+01    0.3756203    0.2625943 -61.42  0.001366099    1.480    0.324
        14 -11.8521    134.3311     14.9214   2.6127735985e+01   4.9187001757e+01    0.6854103    0.3516403  65.37  0.003041293    1.800    0.444
        15 -12.4535    104.8789     12.8623   3.0218936343e+01   5.7203348520e+01    0.6577467    0.4086924 -26.37  0.002297495    1.689    0.408
        16 -10.6319     87.6390      7.5089   3.1405211442e+01   6.2249959313e+01    0.5671501    0.3028232  61.73  0.002157724    1.677    0.404
        17 -10.9770     90.7722     22.2108   3.7979864760e+01   5.9792924858e+01    0.5204679    0.3072942 -26.57  0.002345759    1.799    0.444
        18 -11.3848     85.9053     14.1709   3.5310274988e+01   6.1997534697e+01    0.4908336    0.3401895 -31.60   0.00152687    1.509    0.337
        19 -11.2719    179.5630     20.3686   2.2779245511e+01   3.7191682650e+01    0.5515175    0.2555956  44.00  0.002050833    2.938    0.660
        20 -11.8441     67.8262     18.2819   4.3434406886e+01   6.5912627045e+01    0.5067792    0.4661569  71.71  0.001850312    1.176    0.150
        21 -12.5542    164.5015     18.3825   2.3662826454e+01   4.1072432052e+01    0.5513487    0.2986565  43.67  0.002466338    2.282    0.562
        22 -10.7601    148.5288     16.1854   2.4735746309e+01   4.5352772704e+01    0.3835711    0.2884734  38.05  0.001162938    1.551    0.355
        23 -10.3497     12.7258      8.9479   7.2027806883e+01   7.7512347195e+01    0.4342713    0.2567408 -61.90  0.002171873    2.123    0.529
        24 -11.9805     16.0553     14.4271   7.2474081001e+01   7.6051313715e+01    0.6907398    0.3689749 -29.49  0.003236913    2.091    0.522
        25 -11.6847     22.8476     11.2193   6.4527896871e+01   7.5784810342e+01    0.5125796    0.3286299   6.07    0.0016462    1.928    0.481
        26 -12.2056    227.4099     15.3076   1.7981566157e+01   2.7221496116e+01    0.4386001    0.2582741 -67.28  0.001721462    1.657    0.396
        27 -10.2565     98.5853     12.1996   3.1229394957e+01   5.8928587455e+01    0.3744171    0.2065867  10.41  0.001463107    2.801    0.643
        28 -11.9821     48.1904     12.9016   4.8920057339e+01   7.0997815890e+01    0.6657478    0.3480783  51.72  0.003024855    1.908    0.476
        29 -12.0063    192.5099      8.2850   1.8322165873e+01   3.5346058342e+01    0.6210734    0.3728873  11.93  0.002961498    2.667    0.625
        30 -11.6558    211.9624      8.8869   1.7287723033e+01   3.1001430033e+01     0.689369    0.3171949 -13.67  0.003141578    2.743    0.635
        31 -11.7014    206.1709      3.0230   1.6117331101e+01   3.2774589494e+01    0.4643557    0.2828255 -83.76  0.002669544    1.621    0.383
        32 -11.2284    169.3095      9.3242   2.0373778357e+01   4.0764561730e+01     0.500338    0.2066303  58.96  0.001675749    2.432    0.589
        33 -11.2068    163.4462      6.9099   2.0122477764e+01   4.2438952459e+01    0.6471951     0.280947  -8.84  0.002477471    3.304    0.697
        34 -10.3280      5.1016     10.8390   8.0919793113e+01   7.7850979835e+01    0.3980806    0.2224246 -45.38  0.002116428    1.553    0.356
        35 -10.8389    145.3440      9.6663   2.2831911914e+01   4.6809095986e+01    0.2587598     0.218781  40.10 0.0002647907    1.336    0.252
        36 -11.4501    232.7918      7.3168   1.5848009668e+01   2.6913940317e+01    0.2917673    0.2003852  78.11     0.001579    1.620    0.383
        37 -11.3709    236.3424      4.7003   1.5095986260e+01   2.6466243328e+01    0.2683974    0.1794103 -49.57  0.001715204    1.170    0.145
        38 -10.9032    233.1604      2.6197   1.4757920531e+01   2.7263912238e+01    0.2404831    0.1764337 -52.05 0.0004687393    1.081    0.075
        39 -11.6618    157.5987      3.9465   1.9673710649e+01   4.4169735880e+01    0.5997384    0.3098238 -17.56  0.002767819    2.133    0.531
        40 -10.5184    152.4325      1.4337   1.9288370138e+01   4.5695352298e+01    0.2904961    0.1239096  81.25    0.0004552    2.269    0.559
        41 -11.5990    184.2027      5.3299   1.8054160887e+01   3.7540039969e+01    0.4308829    0.2966837 -34.42  0.002480839    1.337    0.252
        42  -9.6153     78.1754      7.4281   3.3833148047e+01   6.4677221624e+01    0.2203018    0.1325915  64.76 0.0005964322    1.566    0.361
        43 -11.0695     74.4844      3.5036   3.2627336597e+01   6.5987412069e+01    0.6194625    0.2844036  59.70  0.002669071    1.904    0.475
        44  -9.9774     62.8321      6.7567   3.8408383427e+01   6.8509093225e+01     0.247733     0.186615   3.74  0.001319066    1.468    0.319
        45 -10.7612    247.2440      6.0274   1.4939532155e+01   2.4313976765e+01    0.1615371    0.1197495 -44.83 0.0006961073    1.020    0.020
        46 -11.5820    176.9071      5.8411   1.8718454898e+01   3.9230352939e+01    0.3644848    0.2102935 -89.07 0.0007807513    1.718    0.418
        47 -12.4083    133.1647      2.6803   2.1650309442e+01   5.0610945670e+01    0.6621383    0.3283551  83.52  0.002883598    1.987    0.497
        48 -11.8629    142.0676      3.1621   2.0869769436e+01   4.8233146671e+01    0.7523086    0.2907297 -87.32  0.002658542    3.196    0.687
        49 -10.6018     41.4993      4.0220   4.6225967117e+01   7.3583392635e+01    0.3175411    0.2073206  12.04 0.0008906995    1.860    0.463
        50 -11.0003    218.5871      3.7005   1.5662680252e+01   3.0085274745e+01    0.2358382    0.2059409 -72.58 0.0007187629    1.154    0.133
        51 -11.1462    223.9285      2.5688   1.5144066077e+01   2.9095104800e+01    0.2275485    0.1852629 -61.91 0.0004697326    1.095    0.086
        52 -11.3489    106.0344      2.7797   2.5403760550e+01   5.7825413871e+01    0.4912304    0.3343652  77.67  0.001304197    1.383    0.277
        53 -11.9174    114.6961      2.5856   2.3977747528e+01   5.5530533472e+01    0.5606934    0.2763324  79.97  0.002393734    1.993    0.498
        54 -10.8808      2.5127      1.9193   7.8214883638e+01   7.9895191419e+01    0.3110839    0.1893667  -8.85  0.001480646    1.745    0.427
        55  -9.5096     21.5594      3.0261   5.9334512655e+01   7.7378533530e+01      0.18122    0.1196132 -37.97 0.0004651127    1.511    0.338
        56  -9.7303     82.1679      1.2587   2.9355487226e+01   6.4228078266e+01    0.1928795    0.1149892  75.94 0.0004160849    1.686    0.407
        57  -9.6643     13.0247      1.5131   6.6087876108e+01   7.8853473273e+01    0.1832557    0.1167974  26.56  0.000362156    1.539    0.350
        58 -11.2048     29.6751    133.1728   9.4763278480e+01   4.5015196396e+01    0.3920211    0.2908924 -30.77 0.0007000103    1.650    0.394
        59  -9.8563    249.4928    250.4560   6.1153928987e+01  -3.2059519693e+00   0.09860533   0.06233432   2.54 0.0003879109    1.028    0.028
        60 -10.7867     50.9990    249.7090   9.7712206103e+01   1.8196902450e+01    0.1664824    0.1109881  34.80  0.001169166    1.112    0.101
        61 -10.0708     73.2068    133.5038   8.0218726384e+01   3.9632500652e+01     0.277463    0.2095821 -64.86  0.001303361    1.365    0.267
        62  -9.0864     47.2918    134.6807   8.8955021801e+01   4.2780033587e+01    0.1496065   0.09804548  61.97 0.0003595133    1.604    0.377
        63 -10.6206    248.7783    133.4245   4.1973983730e+01   9.5873144412e+00    0.1515003   0.09875078  25.36 0.0009607243    1.716    0.417
        64  -9.7303     39.3778    133.4397   9.1476411381e+01   4.3978021621e+01    0.2323557    0.1385143  18.54 0.0006649464    1.838    0.456
        65 -11.0473     10.0736    127.8940   1.0108162465e+02   4.7939514939e+01    0.5016535    0.2798642 -51.38  0.001902064    1.930    0.482
        66  -9.2625     93.0265    129.5207   7.3246776800e+01   3.7424002262e+01    0.2222502    0.1139122  54.78 0.0008100055    2.532    0.605
        67  -9.3003     26.5535    127.4743   9.5251579760e+01   4.6767768335e+01    0.1364754    0.1256968  80.47  6.08142e-05    1.021    0.021
        68  -9.8062     22.8890    126.8596   9.6486882409e+01   4.7243610759e+01    0.1863844    0.1739287 -68.68  0.001133314    1.123    0.109
        69  -9.2718    223.7127    126.3574   4.3934075057e+01   1.4236124847e+01    0.1198489   0.08859491 -50.23 0.0007023714    1.679    0.404
        70  -9.8022      2.1030    125.8783   1.0373062628e+02   4.8942197195e+01    0.2197049    0.1506618  61.42  0.001222236    1.331    0.249
        71 -12.3813    103.8236    122.5672   6.8508150553e+01   3.7117602461e+01      0.36458    0.3177191  36.86 0.0006745262    1.117    0.105
        72 -10.0757     49.7134    122.8521   8.6385328132e+01   4.5517832021e+01    0.2720374    0.1722109   6.83    0.0011966    2.067    0.516
        73  -9.5375     56.2801    122.0182   8.3917064981e+01   4.4895166375e+01    0.1999119    0.1837999  87.15 0.0004028842    1.066    0.062
        74 -10.8357     44.9019    120.1245   8.7693637146e+01   4.6798898595e+01    0.4297344    0.2394213 -64.35  0.001932018    1.724    0.420
        75 -10.1895     43.5623    116.4838   8.7619822562e+01   4.7902075076e+01    0.2542013    0.2369253 -70.12 0.0006048655    1.070    0.065
        76  -8.9257     14.2753    119.2795   9.8898079823e+01   4.9880643057e+01    0.1309571   0.09534379 -46.07  0.000202058    1.499    0.333
        77 -12.6257      2.5209    111.7705   1.0273125616e+02   5.2559188467e+01    0.5602506    0.3351216  65.69 0.0005221356    1.599    0.375
        78 -11.3335      4.4479    104.8528   1.0147998416e+02   5.4269129084e+01    0.4472838    0.3364865  16.84  0.002549445    1.465    0.318
        79  -9.9500     79.0972    114.7201   7.4560412261e+01   4.3322997961e+01    0.2562912    0.2116777 -77.12  0.001284697    1.309    0.236
        80  -9.3764     67.4814    114.9470   7.8625676177e+01   4.5107999935e+01    0.2114667    0.1286996  85.72 0.0008086924    2.491    0.599
        81 -12.2578     17.4428    100.7968   9.5743070493e+01   5.4528320147e+01    0.4854245    0.3531262  45.40 0.0008740385    1.385    0.278
        82 -11.2100     29.8631     97.6332   9.0042607852e+01   5.4323199917e+01    0.7893915    0.3247063 -43.63  0.002911612    2.810    0.644
        83 -12.0705      9.7982     97.1799   9.8569757966e+01   5.5996500756e+01     0.585654    0.4797341  -0.20 0.0002696686    1.395    0.283
        84 -10.9033     35.4238     93.0907   8.6849234793e+01   5.4963598671e+01    0.6190078    0.3059512 -73.28  0.002543511    2.063    0.515
        85 -11.6211     27.6443     85.1970   8.8855974891e+01   5.7829056376e+01    0.6847766    0.5554209  15.76  0.003750581    1.336    0.252
        86 -11.6772     25.1355    107.6302   9.3457634559e+01   5.2098952591e+01     1.446287    0.7206386  -9.13   0.00543797    3.257    0.693
        87 -11.7234     44.2683     84.8917   8.1202255744e+01   5.6073706194e+01    0.5810279    0.4060487   0.42   0.00219091    1.816    0.449
        88 -10.5632     37.2766     85.9601   8.4586785569e+01   5.6634775573e+01    0.3845191    0.2272778  22.13  0.001172211    1.817    0.450
        89 -11.2071     21.6424    114.4490   9.5648038627e+01   5.0589333725e+01    0.5240836    0.2852972  -2.62  0.001728021    2.525    0.604
        90 -11.1946     28.1844    113.1351   9.2975868372e+01   5.0371807207e+01    0.5305234    0.2563226  11.56  0.002096619    2.554    0.608
        91 -11.4351     22.4831     94.5904   9.2752882571e+01   5.5788328696e+01    0.3737987    0.3246844 -32.85  0.001795705    1.243    0.196
        92 -11.7710     18.1696     90.4804   9.4069606776e+01   5.7219371664e+01    0.6644604    0.3300989 -73.68  0.002341784    1.848    0.459
        93 -11.2176    249.5066    111.9762   3.7601202959e+01   1.2132745918e+01    0.2829608   0.09821896 -25.85  0.001217493    2.753    0.637
        94 -10.0697     48.7379    112.4380   8.5002689824e+01   4.8337423075e+01    0.2583162    0.2327217  80.01 0.0009523878    1.092    0.084
        95  -9.8439     66.9428    110.7583   7.7945322255e+01   4.6246114043e+01     0.325044    0.1726533  32.95  0.001342146    1.865    0.464
        96 -11.2473     79.9650    108.1744   7.2772102918e+01   4.4778440778e+01    0.5101367    0.3136553  26.32 0.0008015556    1.816    0.449
        97  -9.3266    143.6597    106.3199   5.3916391268e+01   3.2583567565e+01    0.1498424    0.1194564 -84.31 0.0007049887    1.716    0.417
        98  -9.5389     64.6989    101.6974   7.6765897592e+01   4.8879488754e+01    0.2676681    0.1347416 -49.95 0.0001733474    1.980    0.495
        99 -11.7275     68.7099     95.7631   7.3809755894e+01   4.9728859384e+01    0.4294314    0.3347774  10.23 0.0005529519    1.533    0.348
       100 -10.7549     52.0247     99.4830   8.1208063002e+01   5.1279787266e+01    0.6224625    0.2224151 -49.29  0.001661187    2.829    0.647
       101 -11.4635    248.4839     98.0160   3.4828803106e+01   1.4010562686e+01    0.2141081    0.1569905  23.41  0.001399879    1.648    0.393
       102  -9.7544     82.9703     93.2634   6.7909199932e+01   4.7835480661e+01     0.548911    0.3037169 -38.20  0.002157784    2.106    0.525
       103 -11.0392     78.4410     93.1240   6.9495111826e+01   4.8698154785e+01    0.4471738    0.4342582 -50.83  0.002443015    1.034    0.032
       104 -12.0546    125.3126     94.8095   5.5332926957e+01   3.8795074093e+01    0.4132448     0.284095  56.39  0.001872627    1.575    0.365
       105 -10.6048     43.2594     94.4066   8.3749273184e+01   5.3723899881e+01    0.3711594    0.3016358  27.76  0.001202281    1.277    0.217
       106 -10.8220     98.5037     91.0409   6.2041149708e+01   4.5303128348e+01    0.2867703    0.2377394  46.14 0.0005535232    1.201    0.167
       107 -11.0935     89.7182     89.8648   6.4601871736e+01   4.7335836875e+01    0.5464966     0.336034 -39.90  0.002318868    1.739    0.425
       108 -10.5027     49.4472     91.4923   8.0498920936e+01   5.3692613047e+01    0.3246594    0.2566718  62.31  0.001643348    1.377    0.274
       109 -11.7436      6.8926     88.8635   9.8971883415e+01   5.8365195071e+01     0.583663    0.3904442   6.42  0.002308251    1.702    0.413
       110  -9.5343    103.9080     87.1458   5.9188719887e+01   4.5027841282e+01    0.2111935    0.1857423   6.40  0.001006973    1.292    0.226
       111 -10.6453    250.0000     85.0101   3.1924153709e+01   1.5353572490e+01    0.2054096   0.05388293 -30.41 0.0008100957    2.996    0.666
       112 -10.8195    143.1195     84.6630   4.8064476824e+01   3.6762108593e+01    0.2528632    0.2230448 -38.91 0.0002876329    1.110    0.099
       113 -10.1413    133.0693     84.7630   5.0444332072e+01   3.9035003852e+01    0.2159592    0.1961412 -85.23  0.000393062    1.214    0.176
       114 -10.6253     80.2574     83.9465   6.6203257416e+01   5.0536747341e+01    0.3709489    0.3461637  30.40   0.00140075    1.088    0.081
       115 -11.2277     74.9618     78.4604   6.6516760004e+01   5.2813130855e+01    0.5858706    0.5152859  53.21  0.002773166    1.172    0.147
       116 -10.4021    112.8848     82.4212   5.5070152049e+01   4.4061417583e+01    0.2803278    0.2750459   2.74 0.0003463267    1.040    0.039
       117 -10.5299     66.7945     81.7470   7.0745095648e+01   5.3493356885e+01    0.5158693    0.2979476  32.91    0.0021826    1.793    0.442
       118 -11.5616     53.4872     76.5951   7.4901735932e+01   5.6898935610e+01    0.5326106    0.4143376 -64.23  0.002476303    1.299    0.230
       119 -11.3653     58.3503     77.6848   7.3082748686e+01   5.5877842373e+01    0.3228966    0.2919571 -26.61  0.000813275    1.158    0.136
       120  -9.4011      1.4523     80.0793   1.0060169534e+02   6.0942708718e+01    0.2067895    0.1173321 -76.66  0.001012017    1.552    0.356
       121 -11.8331     13.6908     74.8478   9.3826923980e+01   6.1675176348e+01    0.5747648    0.4383956 -78.46  0.002661784    1.226    0.184
       122 -10.4006     94.2591     76.5515   5.8954383068e+01   4.9367273052e+01    0.3716859     0.256699  34.09 0.0007597218    1.557    0.358
       123 -11.5608    248.3388     76.0207   3.0161690384e+01   1.6699560310e+01    0.3294649    0.1839498  89.45  0.001610227    3.482    0.713
       124  -9.7785    103.9214     74.8137   5.5289119039e+01   4.7620129553e+01    0.2362396    0.2110995  22.18 0.0006367986    1.206    0.171
       125 -11.1294     79.2376     68.0966   6.1433170402e+01   5.4325423582e+01    0.7308132    0.5201738 -83.37   0.00308881    2.144    0.534
       126 -10.2340     92.0648     71.9352   5.8150703157e+01   5.0821373526e+01     0.255633    0.2203701  45.50 0.0003999935    1.153    0.133
       127 -10.7774     84.3995     73.8143   6.1475059297e+01   5.2021713603e+01    0.3589298     0.306369  10.02  0.001794498    1.348    0.258
       128 -10.9620     88.1944     73.1707   5.9905936312e+01   5.1377867858e+01    0.3502452    0.2916873 -82.93  0.001180853    1.449    0.310
       129 -11.0103      1.9864     71.8280   9.9430816926e+01   6.3090092886e+01    0.4048814    0.1924066 -71.27  0.001541826    1.802    0.445
       130 -11.1193    187.0118     71.0471   3.6197095428e+01   2.9093747259e+01    0.5148858    0.2802171 -39.13  0.001690776    1.649    0.393
       131 -10.6650     24.5406     73.6897   8.8074714854e+01   6.1137767378e+01     0.316658    0.2455355 -19.49 0.0008985712    1.433    0.302
       132 -10.1956     41.4796     72.5199   7.9344387552e+01   5.9593886163e+01    0.3012871    0.2394947 -39.25  0.001130521    1.272    0.214
       133 -11.4141     34.9916     71.6035   8.2299867776e+01   6.0612689220e+01    0.5265363    0.2959602  27.22  0.002370899    1.838    0.456
       134 -10.9605     39.5109     69.2727   7.9411115629e+01   6.0662595059e+01    0.3263301    0.2529636  17.57 0.0006925725    1.386    0.279
       135 -10.4467     14.1728     67.6630   9.2315045304e+01   6.3527276975e+01    0.4257907    0.2274959   5.23  0.001922932    2.192    0.544
       136 -11.1761    122.9558     68.9616   4.8002730204e+01   4.4343676619e+01    0.4391571    0.3026951  49.42  0.001176305    1.447    0.309
       137 -10.7164    220.1591     66.9784   3.0975204316e+01   2.2847653542e+01    0.3768277    0.1990782  72.52  0.001854906    2.505    0.601
       138 -12.5286      6.4954     62.0292   9.5587357205e+01   6.5444588268e+01    0.7700565    0.4823956 -18.26  0.003428524    1.789    0.441
       139 -11.1846     92.9246     62.8118   5.4632559218e+01   5.2511186456e+01    0.7517495    0.3193552  54.84  0.002079276    2.726    0.633
       140 -10.3907     87.6786     56.6772   5.4111326723e+01   5.4896418975e+01    0.4984646    0.2079278 -35.41  0.001437525    2.739    0.635
       141 -10.1014     91.6629     57.1790   5.2939727316e+01   5.3901276082e+01    0.3864073    0.2176579  50.57 0.0007577005    1.767    0.434
       142 -10.5026     59.1968     63.3806   6.8101030929e+01   5.9151050826e+01    0.3244301    0.2720961  84.50 0.0009388987    1.458    0.314
       143  -9.7551     51.0776     56.4756   6.9448369472e+01   6.2095623026e+01    0.2909059    0.2483601 -39.76  0.000994573    1.145    0.127
       144 -11.3606     40.8394     57.0387   7.4916655534e+01   6.3495480681e+01    0.4802552    0.2777677  48.24  0.001846041    2.029    0.507
       145 -10.3520     50.7808     61.5449   7.1411735015e+01   6.0962543164e+01    0.3284757    0.2580445  49.62  0.001600952    1.381    0.276
       146 -11.1624     43.3857     62.5234   7.5419149115e+01   6.1820804606e+01    0.2814575    0.2507055 -60.44 0.0005242797    1.114    0.102
       147 -11.1358     46.1577     59.1502   7.2879463134e+01   6.2232919675e+01    0.3651386    0.3114764 -88.52  0.001163351    1.377    0.274
       148  -9.3929    156.8955     63.5899   3.8961148259e+01   3.7089430758e+01    0.2028495    0.1122865  36.90 0.0008013202    2.375    0.579
       149 -11.5844    235.4431     60.9083   2.8018706316e+01   2.0734753310e+01    0.3401092    0.2838794  69.67  0.002335867    1.443    0.307
       150 -12.8054     74.4789     51.6514   5.7033298720e+01   5.8754497835e+01     1.029097    0.5761023 -54.79  0.004162524    2.137    0.532
       151 -11.0792     34.0438     52.0304   7.6938140637e+01   6.5584823460e+01     0.660351    0.3297957  10.68    0.0024872    2.961    0.662
       152 -11.8405     25.5390     58.2267   8.3770136280e+01   6.5011963584e+01    0.8008835    0.6050102  56.46  0.004226008    1.534    0.348
       153 -10.7427    106.0811     58.5045   4.8934046780e+01   5.0288242678e+01    0.3010402    0.2111714 -56.19  0.001152648    1.611    0.379
       154  -9.9584     82.8208     46.9037   5.1867033289e+01   5.7843162518e+01    0.3911074    0.2666658   7.51 0.0009317708    2.302    0.566
       155  -9.2602    229.3277    248.3059   6.3871243663e+01  -1.1282226434e+00    0.1051195   0.05547983   2.55 0.0006805485    1.652    0.395
       156 -11.4701    117.6051     55.4974   4.4699062890e+01   4.8021190735e+01     1.611728    0.7716135 -59.25  0.004963892    3.795    0.737
       157 -10.8803    109.4243     41.4324   4.1433462625e+01   5.2344995919e+01     0.816801    0.4087268 -24.85  0.003131084    2.379    0.580
       158 -11.8966    117.5750     43.9342   4.0400775170e+01   4.9897517194e+01    0.6220948    0.5622828 -81.44  0.002459998    1.146    0.127
       159  -9.6456    174.6795    246.3025   7.2761821832e+01   4.8349253206e+00   0.09831691   0.07376609  37.69 0.0004397015    1.629    0.386
       160  -9.6821    124.6911     56.6773   4.3377643842e+01   4.6072767787e+01    0.1539137     0.118345  19.34 0.0007036141    1.648    0.393
       161  -9.9749    157.9148     54.8073   3.6082894744e+01   3.8165192699e+01    0.4313077    0.2304596 -71.89  0.001494369    3.386    0.705
       162  -9.6018     67.0172     55.0701   6.1517785451e+01   5.9560738899e+01    0.2274074    0.1855309  89.30 0.0009195776    1.602    0.376
       163 -11.5358     60.8055     47.8826   6.1328535921e+01   6.2262789374e+01    0.8782454    0.3570925 -42.77  0.003231843    2.484    0.597
       164  -9.6093     57.4772     42.0000   6.0295846337e+01   6.4092849496e+01     0.313614     0.138459  49.24  0.001164386    2.551    0.608
       165  -9.7094      7.4671     53.9423   9.3526596079e+01   6.7475981157e+01    0.2083937    0.1216934 -72.72  0.001023444    1.570    0.363
       166 -10.3826     51.8500     48.4212   6.5891161842e+01   6.3767644337e+01     0.362607    0.2763618  38.40  0.001045403    1.329    0.247
       167 -11.3025     46.4119     48.7892   6.8861315581e+01   6.4582497604e+01    0.6714347    0.3831988 -33.57  0.002863037    2.040    0.510
       168 -11.9439     42.4905     44.0222   6.9023290056e+01   6.6251456404e+01    0.6810486     0.389192  35.10 0.0001478521    1.772    0.436
       169 -10.5397    240.2210     50.8160   2.5312620016e+01   2.1038843530e+01     0.157588    0.1309601  -7.23 0.0005705874    1.363    0.266
       170  -9.5590      1.8631     49.1662   9.6156714843e+01   6.8952361330e+01    0.1895232    0.1356579 -40.26    0.0010606    1.315    0.239
       171 -10.0666    146.1983     47.3075   3.5706587265e+01   4.2141248590e+01    0.2539525    0.1965007 -20.59 0.0009277284    1.405    0.288
       172 -10.0490     12.9620     47.3795   8.8489867871e+01   6.8792338564e+01    0.3101575    0.1315801 -50.72  0.001330155    2.027    0.507
       173 -11.1548     20.6745     45.8991   8.3019832515e+01   6.8524903356e+01    0.3527316    0.2415365 -40.58 0.0005488792    1.385    0.278
       174  -9.8047    200.2206     45.1800   2.7631011728e+01   2.9655629349e+01    0.3261096    0.1451103 -84.48  0.001083659    4.678    0.786
       175 -10.1789    138.8410     44.1513   3.5982290904e+01   4.4448714343e+01    0.3321168    0.2146934  29.97  0.001147194    2.072    0.517
       176 -10.0189    134.0110     46.0000   3.7568319007e+01   4.5408424605e+01    0.3395922      0.16192  62.18 0.0008492222    2.094    0.522
       177 -10.3333    155.8205     42.3498   3.2478553925e+01   4.0418869655e+01    0.2730661    0.2302955 -12.08  0.001271782    1.329    0.248
       178 -10.6574     26.6841     42.7563   7.8036683720e+01   6.8655652935e+01    0.2628422    0.2503102 -76.74  0.001083575    1.158    0.137
       179 -10.3049     22.7218     37.3128   7.8558598545e+01   7.0356851489e+01    0.5808017    0.2586863  46.51   0.00224871    3.077    0.675
       180 -10.3886     92.3139     41.8128   4.6472713375e+01   5.6515180045e+01    0.4107204    0.2215039  54.26  0.001560649    1.807    0.447
       181  -9.7252     17.1993     42.0189   8.4058246995e+01   6.9775972535e+01     0.245326    0.1170012 -40.65  0.001060428    2.065    0.516
       182 -10.4478     80.1589     39.3332   4.9501259051e+01   5.9797131838e+01    0.4869964     0.315714  83.58  0.001890366    2.721    0.633
       183 -11.2337     79.6411     33.1457   4.6797511993e+01   6.0944248801e+01    0.6634741    0.3717996  37.95  0.002783949    1.964    0.491
       184  -9.7138    231.5072     38.5549   2.3179887925e+01   2.4025101286e+01    0.2705306   0.09831307 -29.21   0.00123209    2.246    0.555
       185  -9.9744     59.8095     23.6951   4.9853644672e+01   6.6915109862e+01    0.2747225    0.1846828 -35.43 0.0007369307    1.523    0.344
       186 -11.2251     60.9838     36.2265   5.5900470407e+01   6.4516051884e+01    0.5028579    0.3672095 -22.53  0.001617367    1.531    0.347
       187 -10.2702     67.5475     32.1376   5.0974625632e+01   6.3854901736e+01    0.4878822    0.4251024  79.50  0.002634365    1.368    0.269
       188 -11.8565     57.5427     30.8464   5.4795133785e+01   6.6188668968e+01    0.5031695     0.391775 -33.06  0.001234949    1.298    0.229
       189 -11.4708     48.4566     30.4570   5.9227093727e+01   6.8018934904e+01    0.7430736    0.3429629  32.12   0.00288346    2.548    0.607
       190  -9.9738     43.2127     28.0224   6.0866980201e+01   6.9419264021e+01    0.2052927    0.1877537   1.79            0    1.034    0.033
       191 -11.1717      4.6281     36.1380   9.1292155842e+01   7.2070761377e+01    0.4192054       0.3222 -27.57  0.002477261    1.258    0.205
       192  -9.3601    194.7220     37.9243   2.6255598735e+01   3.1734004359e+01    0.1780227    0.1507169 -40.25  0.000311185    1.069    0.065
       193  -8.7443    206.3152     37.3089   2.4971159146e+01   2.9269162698e+01    0.1217897   0.09707779  23.04 0.0007029793    1.631    0.387
       194  -9.7893    132.7684     37.0831   3.4612800779e+01   4.6983974915e+01    0.3758067    0.1930766 -81.75  0.001204028    3.739    0.733
       195  -9.0395     13.0000     37.0205   8.5351555239e+01   7.1319304462e+01    0.2162329   0.07059117 -65.41 0.0005408388    2.855    0.650
       196 -10.4548    176.6454     35.5571   2.7562625132e+01   3.6191442638e+01    0.2998564     0.189907 -52.11  0.001019385    1.515    0.340
       197  -9.2226     94.4914     35.9966   4.3273410535e+01   5.6915575928e+01    0.2035507     0.118708 -56.65 0.0006389142    2.256    0.557
       198 -11.1875     12.3956    136.1320   1.0086049032e+02   4.5681362015e+01    0.4682045    0.3050122 -50.67   0.00248254    1.697    0.411
       199 -11.8143    126.2239    241.5358   8.1498254585e+01   1.1109752175e+01     0.308157     0.221334  49.69  0.001973191    1.639    0.390
       200 -11.2393     73.7580    238.4786   9.2204992968e+01   1.7655940039e+01    0.4741962     0.169523  32.18  0.002367152    2.018    0.504
       201 -11.2555    106.6987     32.2874   3.8354214575e+01   5.4378964074e+01    0.4331028    0.2825938  22.08  0.001656402    2.124    0.529
       202 -11.2084    146.9859    237.8111   7.6942194541e+01   9.1473963584e+00    0.3692801      0.22027  37.94    0.0023255    1.553    0.356
       203 -10.0859    239.9291     32.7056   2.1238638936e+01   2.3065155775e+01    0.2260791    0.1709925  41.40  0.001451724    1.766    0.434
       204 -10.8672     32.3397     30.0856   6.8742312144e+01   7.0744943071e+01    0.5822919    0.2440795 -59.40  0.001615721    3.258    0.693
       205 -11.1736     67.5321    240.9748   9.3715237803e+01   1.7919142169e+01    0.2773827    0.1417141  19.39  0.001207074    1.961    0.490
       206 -10.9008     38.8709     22.3731   6.0271655164e+01   7.1221478001e+01    0.2431171    0.2207236  -9.54 0.0003873258    1.032    0.031
       207  -9.4987    167.5474    238.5099   7.3094879185e+01   6.6111927830e+00    0.1129572   0.08386456  14.84 7.667646e-05    1.006    0.006
       208 -10.3610     88.4170     29.6669   4.2230857765e+01   5.9362082230e+01    0.5485628    0.2426291  47.76  0.001536594    2.182    0.542
       209 -10.0927     12.1043     30.0992   8.3531163783e+01   7.3019950295e+01    0.3284898    0.1837115 -25.44  0.001560881    1.969    0.492
       210  -9.7693      7.4418     30.4983   8.7379091474e+01   7.3262685002e+01    0.3090506    0.1300833   8.10  0.001298084    2.711    0.631
       211 -10.1167    230.8106     30.0063   2.1228741081e+01   2.5074718586e+01    0.2063605    0.1460249 -20.23 0.0007898349    1.429    0.300
       212 -11.0323    188.9519     28.0122   2.4087481489e+01   3.4171815271e+01    0.3443983    0.2802594 -12.58  0.001443385    1.384    0.277
       213  -9.6778     99.0160     30.1685   3.9412035891e+01   5.6636260663e+01    0.2528928     0.169623 -79.59  0.001085006    2.068    0.516
       214 -10.3186    197.9365     28.7657   2.3470889965e+01   3.2054127925e+01    0.3638358    0.1782433  59.08  0.001747767    2.196    0.545
       215  -9.6116    150.4685     27.4755   2.8348237536e+01   4.3626713308e+01    0.2167042    0.1214684  58.11 0.0008139789    1.756    0.431
       216 -11.3498    153.9607     24.3138   2.6818398666e+01   4.3094976371e+01    0.3856861    0.2993376  84.88  0.002092235    1.266    0.210
       217 -10.7386    156.3221     20.3848   2.5222621721e+01   4.2921475000e+01    0.3360038    0.1656283  80.51  0.001427665    2.143    0.533
       218 -11.2563    182.9335     25.5191   2.3956859202e+01   3.5845703544e+01    0.3609189    0.2341114  60.00  0.001309916    1.636    0.389
       219  -9.2267    199.6721    234.6959   6.6839766251e+01   3.3875404611e+00    0.1128311   0.06469637   3.09 0.0003009917    1.649    0.393
       220  -9.5184     13.9739     22.9979   7.8943180681e+01   7.4462289824e+01    0.2008688    0.1552622 -24.95 0.0004372357    1.222    0.181
       221 -11.8218    144.1649     24.6293   2.8257242097e+01   4.5575724717e+01    0.7533082     0.392872  50.02  0.003266272    2.022    0.505
       222  -9.3322     15.2498    234.0120   1.0453584963e+02   2.4178342225e+01    0.1254563   0.08539017  84.91 0.0008805417    1.561    0.359
       223 -10.4621    246.5760    230.8587   5.8855441825e+01  -1.1098732201e+00    0.1596269   0.09507541  23.13  0.001206807    1.489    0.328
       224  -9.7443     75.4775    224.5208   9.0723274760e+01   1.9849930969e+01    0.1212001   0.09531142  36.78 0.0001409192    1.010    0.010
       225 -10.1017    164.7312    211.9885   7.0036652297e+01   1.0544557842e+01    0.2057021    0.1434465  24.90 0.0005981339    1.188    0.158
       226  -9.6182    242.5039    211.5158   5.6569121279e+01   1.2669837095e+00    0.1071015   0.07447315  -1.60 0.0006969877    1.012    0.012
       227 -10.8086    127.3551     16.2986   2.7687824125e+01   5.0889316704e+01    0.2838875    0.2156956  55.74 0.0008582046    1.295    0.228
       228 -10.3601    152.7257    207.0634   7.1736911780e+01   1.2878280165e+01    0.2802317    0.2239258  80.97   0.00164289    2.366    0.577
       229  -9.1589     61.5101    206.5099   9.2479520676e+01   2.4803546675e+01    0.1255373     0.102516  41.61  7.10215e-05    1.006    0.006
       230 -10.5366    139.1292    198.8421   7.3416004017e+01   1.6076574468e+01    0.1934674    0.1624861  40.23  0.001239719    1.272    0.214
       231 -10.2411     80.7939     19.4234   3.9539539735e+01   6.2646563626e+01    0.5674734    0.1595131  59.60  0.001793559    3.362    0.703
       232 -10.4407    233.7505    196.3816   5.5477317751e+01   3.9107092987e+00    0.1919431    0.1128012 -33.21  0.001251518    1.716    0.417
       233 -11.4754      4.9929    185.8153   1.0539427944e+02   3.4512106896e+01    0.4051525    0.2942546  42.98  0.002267073    1.152    0.132
       234  -9.8901    223.3012     21.9855   1.9821559783e+01   2.7384199651e+01    0.1956729    0.1424992 -67.22 0.0005175831    1.309    0.236
       235 -10.7739      3.1913    181.4000   1.0571433360e+02   3.5606250266e+01    0.3053552    0.1970517  19.48   0.00156183    1.609    0.378
       236  -9.5329     86.2557    185.5699   8.4148665386e+01   2.5965798627e+01    0.1867662    0.1187896  20.45 0.0009482693    1.606    0.377
       237 -10.0660     74.6704     19.5001   4.1607191220e+01   6.4128482541e+01    0.2682994    0.2072307  36.08 0.0005605608    1.291    0.225
       238 -10.1765     47.0079     19.3683   5.3684315756e+01   7.0241943060e+01    0.2589085    0.2423937  13.07  0.001557703    1.031    0.031
       239 -10.7863    245.9942     19.4991   1.7935469433e+01   2.3282486841e+01     0.147763    0.1067298 -88.57 0.0004654385    1.531    0.347
       240  -9.2749    175.7576    180.0025   6.2742807071e+01   1.3786317352e+01    0.1587018    0.1006022 -35.37 0.0008824429    1.599    0.375
       241  -9.5031    250.2983    177.3431   4.9852900822e+01   4.1608613866e+00    0.1145716   0.06610473  -3.74 0.0007035055    1.670    0.401
       242  -9.3607    113.4636    176.0204   7.5933049888e+01   2.4003189383e+01    0.1836744     0.107677 -28.07 0.0008071191    2.390    0.582
       243  -9.0915     28.3035    175.6930   9.8723118219e+01   3.4823165828e+01    0.1378978   0.07713296  55.02 0.0004589997    1.602    0.376
       244  -9.4479     51.5349    173.5137   9.2104371122e+01   3.2922590471e+01    0.1336565    0.1158827  50.99 0.0002038246    1.013    0.013
       245 -10.6776    117.7293     16.5595   2.9396914881e+01   5.3413872179e+01    0.4330634     0.126568  66.76  0.001425624    3.072    0.675
       246 -10.5534    186.9475     15.2041   2.0655154905e+01   3.5972050510e+01    0.2373351    0.1815749 -48.90 0.0004060551    1.145    0.126
       247  -9.2935    207.4616    172.5095   5.5591820879e+01   1.0288300600e+01    0.1227123   0.09747631  -3.06 0.0003347383    1.020    0.019
       248  -9.0250    170.3313    172.2988   6.2448785784e+01   1.5822681220e+01     0.134276   0.09082685   1.87 0.0005005563    1.644    0.392
       249  -9.2745     35.6667    169.3201   9.6200202241e+01   3.5578427583e+01    0.1454152   0.08012373  55.29 0.0007049262    1.699    0.411
       250  -9.3100    216.5208     20.5058   1.9904641704e+01   2.8920086005e+01    0.1235466    0.1028159 -48.25 -6.089914e-06    1.015    0.015
       251  -9.3424    198.3945    167.8180   5.6302331450e+01   1.2256340019e+01    0.1716703    0.1027605 -22.74 0.0006143271    1.612    0.380
       252 -11.7622      9.8837    166.0706   1.0331274302e+02   3.8583615224e+01    0.4643656    0.2801759 -52.58  0.002046311    1.967    0.492
       253  -9.9797     18.8716    164.8851   1.0069190821e+02   3.8151495837e+01    0.1893537    0.1745623 -42.09  0.001240183    1.314    0.239
       254 -10.5693    205.0204    163.3013   5.4299940527e+01   1.1926442042e+01    0.2203942    0.1626101 -29.28 0.0006635666    1.285    0.222
       255 -10.1474     28.0669    160.9273   9.7746953281e+01   3.8282995994e+01    0.2047962    0.1528697 -34.79  0.001140985    1.699    0.411
       256  -9.5586    215.7792    157.1582   5.1342792633e+01   1.1207301728e+01    0.1729818    0.1231186   0.82  0.001066457    1.335    0.251
       257  -9.9194     65.6781     10.4383   3.9640655982e+01   6.7414459148e+01    0.2580059    0.1346904  63.59 0.0009441471    1.983    0.496
       258 -10.1423     89.5069     16.5004   3.5520573869e+01   6.0812257714e+01    0.2427094    0.1753785  17.07 0.0008106427    1.661    0.398
       259 -10.5257      9.4711    155.5105   1.0292148753e+02   4.1110651730e+01    0.2517913    0.1157257 -82.86  0.001181925    2.072    0.517
       260 -10.3073    104.4343    154.5295   7.4723909596e+01   2.9875941333e+01    0.3021976    0.2547612  -6.20  0.001648522    1.341    0.254
       261 -10.1992      3.7115    153.3118   1.0453427158e+02   4.2035893177e+01    0.2438417    0.1226551  36.90  0.001243961    1.735    0.424
       262  -9.8378    141.5162    152.4779   6.4954566426e+01   2.4042384741e+01    0.3006994    0.1298271  39.05  0.001216357    2.199    0.545
       263 -10.0336     30.6155    151.7653   9.6231961929e+01   4.0261037356e+01    0.2390587    0.1695185   5.11  0.001265859    1.708    0.414
       264 -10.9669     46.5944    147.2453   9.0764492575e+01   3.9713938581e+01    0.5761342    0.3027991 -45.95  0.002521832    2.264    0.558
       265 -12.1549     23.2903    148.8271   9.8271694967e+01   4.1646753374e+01    0.4477099      0.28811 -38.87  0.001452981    1.958    0.489
       266 -10.9916     16.1263    147.9473   1.0045093729e+02   4.2451957493e+01    0.2983397    0.2204305  38.64 0.0006623436    1.263    0.208
       267 -10.3341      3.4539    147.3783   1.0435248612e+02   4.3489166974e+01    0.2211781     0.111115 -78.38 0.0006239185    1.863    0.463
       268  -9.8962    249.6804    146.6770   4.4399878887e+01   7.8464500494e+00    0.1173339   0.07283411  -2.09 0.0007044905    1.673    0.402
       269 -11.1204     33.1691    144.4390   9.4746622252e+01   4.1828977771e+01    0.2884121    0.2373837  58.07 0.0007040165    1.113    0.102
       270  -9.5852     74.0639    146.0129   8.2038806610e+01   3.6480802114e+01    0.2156523    0.1685477 -23.13 0.0005036371    1.589    0.371
       271 -10.4329    232.8892    143.3420   4.6058768862e+01   1.0577067915e+01    0.2059193    0.1117555  51.36  0.001099327    2.592    0.614
       272 -10.9516      5.9358    142.0496   1.0331751322e+02   4.4639843521e+01    0.2328555    0.2098331  73.96 0.0003084712    1.055    0.052
       273 -11.2139      2.0646    140.4197   1.0447126972e+02   4.5286284949e+01    0.3927893    0.2035194 -87.06  0.001065775    1.772    0.436
       274 -10.2708     16.0070    141.2515   1.0003029783e+02   4.4125231830e+01    0.1817861     0.166058  55.34 0.0005348764    1.074    0.069
       275  -9.7674    217.1499    138.8474   4.7499867186e+01   1.3539663011e+01    0.1774694    0.1548783 -24.96 0.0004481648    1.187    0.158
       276 -10.2415     40.4701    138.0508   9.1664588969e+01   4.2688636724e+01    0.2752593    0.1853937  59.22  0.000957652    1.474    0.322
       277  -9.8883     79.1573    137.9074   7.9117951286e+01   3.7669934255e+01    0.2287987    0.1935311  67.07  0.000975505    1.238    0.192
       278 -10.0567     32.0613    137.5138   9.4409012169e+01   4.3681260275e+01    0.4063603    0.1536846  26.12  0.001412649    2.499    0.600
       279 -11.1379     22.3639    136.0852   9.7523116887e+01   4.4919440111e+01    0.6541197    0.2853042  37.25  0.002893752    2.046    0.511
