#   1 NUMBER                 Running object number                                     
#   2 MAG_AUTO               Kron-like elliptical aperture magnitude                    [mag]
#   3 X_IMAGE                Object position along x                                    [pixel]
#   4 Y_IMAGE                Object position along y                                    [pixel]
#   5 X_WORLD                Barycenter position along world x axis                     [deg]
#   6 Y_WORLD                Barycenter position along world y axis                     [deg]
#   7 A_WORLD                Profile RMS along major axis (world units)                 [deg]
#   8 B_WORLD                Profile RMS along minor axis (world units)                 [deg]
#   9 THETA_WORLD            Position angle (CCW/world-x)                               [deg]
#  10 FWHM_WORLD             FWHM assuming a gaussian core                              [deg]
#  11 ELONGATION             A_IMAGE/B_IMAGE                                           
#  12 ELLIPTICITY            1 - B_IMAGE/A_IMAGE                                       
         1 -15.0632      7.5626    147.3020   1.3401161264e+02   4.3132100491e+01     5.261826     1.179879 -80.77   0.01880307    4.566    0.781
         2 -13.0355    197.8855     33.3208   6.0017743748e+01   3.1370330625e+01     1.308419     1.094168  45.32  0.006888308    1.245    0.197
         3 -13.8409    212.9881     16.9570   5.3573244794e+01   2.9435967975e+01     1.560467     1.073448  30.76  0.007831134    1.865    0.464
         4 -10.8519      8.5026      3.4562   1.0567896690e+02   7.3075301263e+01    0.2274605     0.125885 -37.73  0.001465737    1.363    0.267
         5 -11.7551      2.0000      7.4848   1.1109674735e+02   7.2821246772e+01     1.045606     0.123455 -54.85   0.00336731    5.967    0.832
         6 -11.7325    106.8411    243.5972   1.2278309750e+02   1.3108434660e+01    0.3138036    0.2274572 -58.27   0.00158896    1.763    0.433
         7  -9.2913    245.6630    250.3267   9.9852768927e+01  -8.5372429729e+00   0.09414519   0.07900605  43.53 0.0007051677    1.724    0.420
         8 -11.0929    176.1170    249.8168   1.1138063189e+02   1.7812629449e+00    0.3866591   0.09999868  41.64  0.001628699    2.902    0.655
         9 -11.4842    139.5053    248.6768   1.1759673330e+02   7.5393624801e+00    0.3053481     0.248933 -75.77   0.00227897    1.592    0.372
        10 -12.0569     93.6915    249.5660   1.2556298562e+02   1.4042545928e+01    0.6429127    0.2260199  45.82  0.003423006    2.070    0.517
        11  -8.7861     62.7729    250.5904   1.3076600699e+02   1.7895556624e+01    0.1464564   0.06809381  50.88 0.0002933647    1.556    0.357
        12 -11.1236     38.8248    246.6741   1.3437674991e+02   2.1309069684e+01    0.4916722    0.3088233  66.12  0.003828746    1.156    0.135
        13 -10.6677     29.9152    249.0292   1.3588545806e+02   2.1900007173e+01    0.3996723    0.2004277  31.80  0.002535295    2.587    0.613
        14 -10.5796     30.9667    245.4951   1.3555374796e+02   2.2352205665e+01    0.2172342    0.1543939  49.04  0.001293312    1.336    0.252
        15 -10.0632     18.2297    250.2457   1.3771721829e+02   2.2914125392e+01    0.2843777   0.09159041  41.72  0.001732365    2.354    0.575
        16  -9.3999      8.2715    250.5884   1.3920882301e+02   2.3835073742e+01    0.1129663    0.0770677  41.87  0.000402549    1.607    0.378
        17 -10.8026      2.1789    247.9657   1.4001205866e+02   2.4819243204e+01    0.3637535    0.1540336  87.98  0.002535897    2.008    0.502
        18  -9.5972     55.9297    240.6313   1.3124958926e+02   2.0314776369e+01    0.1563012    0.1295815 -83.67 0.0001118711    1.402    0.287
        19 -10.5015     95.1261    237.8122   1.2430967384e+02   1.5671328494e+01    0.1784495    0.1192884  60.13 0.0006531288    1.229    0.186
        20 -10.6327     46.4886    234.5322   1.3244126883e+02   2.2434626440e+01    0.5061596    0.1676772  63.90  0.002346894    3.390    0.705
        21  -9.2105     40.6975    229.5291   1.3311164728e+02   2.3940277322e+01    0.1719378    0.1020412  76.97 0.0008843964    1.421    0.296
        22 -10.8079     19.5042    244.3383   1.3727868709e+02   2.3726789301e+01    0.4695696    0.1332427  61.22  0.002478849    2.905    0.656
        23 -14.7709     44.3637    202.6128   1.3065740971e+02   2.8383224413e+01     8.221381     1.134362  50.16   0.02735115    5.603    0.822
        24 -10.7081    226.5929    202.0085   9.5298253685e+01  -3.7098558190e-01    0.4265179    0.2765429 -56.08  0.001225297    3.049    0.672
        25  -9.6116    192.2541    193.5236   1.0009282836e+02   6.7727995665e+00    0.3818339    0.2208177 -68.09   0.00118454    6.741    0.852
        26 -11.5416     59.1867    192.4896   1.2693206859e+02   2.8582431469e+01    0.3443995    0.2274623 -50.01  0.001201204    2.018    0.504
        27 -11.6349     65.2947    185.2700   1.2498014006e+02   2.9248039884e+01    0.2498892    0.2201679 -58.69 0.0005121713    1.410    0.291
        28  -8.3848    181.5299    192.4608   1.0197600855e+02   8.8781551038e+00    0.1333218    0.1134185  30.44 4.433293e-05    1.026    0.025
        29 -10.8085     75.6305    173.4677   1.2144340960e+02   3.0289981155e+01    0.2238641    0.1986805  80.38 0.0002778048    1.074    0.069
        30 -13.1534     62.3916    170.7326   1.2403711502e+02   3.2609854001e+01    0.4610337    0.2609885 -48.12  0.002084663    2.261    0.558
        31 -11.8153     83.5329    164.8359   1.1854936195e+02   3.0987431177e+01    0.7373382    0.4848786  57.50   0.00408076    1.458    0.314
        32 -12.7792     65.6017    141.4639   1.1951594922e+02   3.8571269853e+01     1.994708    0.9528219  85.84  0.006118361    4.352    0.770
        33  -9.7240     96.6507    149.6781   1.1314736016e+02   3.2247977962e+01     0.257533    0.2210551  73.43 0.0008089686    1.115    0.103
        34 -11.9188     85.1131    148.4466   1.1575404411e+02   3.4301161168e+01    0.2756082    0.2321102 -52.45 0.0005401603    1.285    0.222
        35 -11.2134      5.8162    225.0110   1.3862172662e+02   2.8262306422e+01    0.2952658    0.1534735 -89.28  0.002135764    1.593    0.372
        36  -9.0085     99.9770    145.6572   1.1164621251e+02   3.2584738526e+01    0.2426575     0.185227 -33.14   0.00127724    1.676    0.403
        37 -13.7717     37.9606    216.5837   1.3278686565e+02   2.6517127917e+01    0.7908348    0.5778079  69.01  0.003134848    1.006    0.006
        38 -12.5494     31.3019    224.7630   1.3442187807e+02   2.5787886711e+01    0.2671641    0.2379808  76.96 0.0007461715    1.384    0.278
        39  -9.2834    108.8564    135.4720   1.0753707473e+02   3.3303222248e+01    0.2951569      0.21508 -17.22  0.001279262    2.116    0.527
        40 -10.4012     95.9607    132.4329   1.1023471733e+02   3.6161742419e+01    0.2513518    0.2284662 -28.28 0.0006840896    1.291    0.225
        41  -9.1448    106.1496    122.7084   1.0560225396e+02   3.6589890384e+01    0.1843309    0.1747026  36.84 0.0003218435    1.118    0.106
        42 -13.2673      9.9710    207.1162   1.3714290111e+02   3.1052103678e+01    0.6819019    0.5216926  40.80  0.002922649    1.540    0.351
        43  -9.9811    167.8626    112.8430   8.8102521155e+01   2.5917145272e+01    0.3567187    0.2875075 -80.69  0.001698526    1.622    0.383
        44  -9.1742    203.9454    111.0592   8.0264965890e+01   1.7983593758e+01    0.2473448    0.1775107  15.31  0.001130063    1.728    0.421
        45 -10.6355    150.2625    228.8485   1.1335374047e+02   8.6903707991e+00    0.2452219    0.1225148  34.82  0.001271024    1.854    0.460
        46 -10.8459    242.3699    101.5048   7.1412584313e+01   1.1038078867e+01    0.2917461    0.1802289  23.29  0.001298955    2.179    0.541
        47 -10.7038    242.4981     93.9775   6.9585471229e+01   1.2125372366e+01    0.2213989    0.1287917 -30.74 0.0005670292    1.592    0.372
        48  -8.7144    159.2850     78.3197   8.0542847687e+01   3.4370483791e+01    0.1560777      0.12064  12.08 0.0003025169    1.591    0.372
        49 -10.6954      9.4228    226.2944   1.3809731884e+02   2.7708210439e+01    0.2634837    0.1211523 -79.64  0.001783424    1.944    0.486
        50 -11.6832     12.8412    231.6608   1.3777900412e+02   2.6472215855e+01    0.3857718    0.2539859 -43.89  0.002574519    3.237    0.691
        51 -10.5152     13.5674    244.2373   1.3818104056e+02   2.4331812236e+01    0.1901775    0.1293998 -81.03  0.001446949    1.528    0.346
        52 -10.9113     16.9245     25.4560   1.1019172453e+02   6.8612657590e+01    0.2107752    0.1982025  -5.17 0.0005364257    1.305    0.234
        53 -11.4222     12.6909    239.4445   1.3812404585e+02   2.5194557163e+01    0.3263687    0.1931307  72.06  0.002016025    1.219    0.179
