#   1 NUMBER                 Running object number                                     
#   2 MAG_AUTO               Kron-like elliptical aperture magnitude                    [mag]
#   3 X_IMAGE                Object position along x                                    [pixel]
#   4 Y_IMAGE                Object position along y                                    [pixel]
#   5 X_WORLD                Barycenter position along world x axis                     [deg]
#   6 Y_WORLD                Barycenter position along world y axis                     [deg]
#   7 A_WORLD                Profile RMS along major axis (world units)                 [deg]
#   8 B_WORLD                Profile RMS along minor axis (world units)                 [deg]
#   9 THETA_WORLD            Position angle (CCW/world-x)                               [deg]
#  10 FWHM_WORLD             FWHM assuming a gaussian core                              [deg]
#  11 ELONGATION             A_IMAGE/B_IMAGE                                           
#  12 ELLIPTICITY            1 - B_IMAGE/A_IMAGE                                       
         1 -13.8281    184.7043    112.9182   9.6587397434e+01   2.2523881343e+01     3.500165     2.773676  -0.85   0.01803922    1.328    0.247
         2 -13.3647    191.9870    146.5276   1.0279127641e+02   1.5625496080e+01     5.745426     2.603916  28.99    0.0224401    2.604    0.616
         3 -11.1900    246.5520     61.9259   7.4032289146e+01   1.6462094356e+01     1.038478    0.8918452  32.96  0.006571436    1.291    0.225
         4  -7.2892    236.4672      1.4126   5.9923374782e+01   2.4999365914e+01    0.1213841    0.1109294 -55.18 0.0001690474    1.074    0.069
         5  -9.0301    231.3430    241.6652   1.1185615974e+02  -1.9838362198e+00    0.2256272    0.1103771  10.19  0.001172944    2.073    0.518
         6  -8.1129    243.1934    238.6120   1.0952059335e+02  -3.1414845515e+00    0.1520853   0.06842369  24.67 0.0007701738    1.649    0.394
         7  -7.8061    128.5327    235.0054   1.2977859201e+02   1.2546456408e+01    0.1266709    0.1175884 -50.31 0.0003348352    1.483    0.326
         8  -7.4735     54.0447    232.4602   1.4441137713e+02   2.2219521671e+01    0.1336848   0.08741591   9.01 0.0005076426    2.415    0.586
         9  -7.3083    133.5905    229.5022   1.2819385584e+02   1.2620469830e+01    0.1178714   0.08823565  32.32 5.368558e-05    1.037    0.036
        10  -8.5431     39.5872    226.2767   1.4696412855e+02   2.4758289129e+01     0.177329    0.1394248  43.30  0.000249549    1.176    0.150
        11  -7.3824     36.5868    213.4825   1.4699669918e+02   2.7271272545e+01    0.1094526   0.08278851  53.35  8.46505e-05    1.034    0.033
        12  -9.4820     17.6942    208.3812   1.5068861321e+02   2.9955274790e+01    0.2533495    0.1148469 -89.61  0.001516413    2.193    0.544
        13  -9.8750      2.4910    193.7847   1.5344946613e+02   3.3893620751e+01    0.5456018    0.1436662  88.47  0.002453836    3.686    0.729
        14 -10.0643    183.0459    195.9874   1.1372812953e+02   9.9027982375e+00    0.2052595    0.1704722  18.67  0.001360447    1.096    0.087
        15  -7.6491    183.8500    181.1843   1.1109579982e+02   1.1858711865e+01    0.1781237    0.1266798  18.11 0.0002709861    1.257    0.205
        16  -9.3299     61.6819    247.9444   1.4375628889e+02   1.8971577880e+01    0.1803582    0.1427589  46.95 0.0003527253    1.154    0.134
        17 -10.4509     97.2963    108.9974   1.1846069709e+02   4.1646633501e+01    0.4918647    0.3011236 -20.45  0.001805593    2.972    0.663
        18 -10.8540    104.9633    108.2539   1.1588071264e+02   4.0408671380e+01    0.6170782    0.4066877  -0.74   0.00235746    2.720    0.632
        19  -8.0549     49.8360    113.8158   1.3517298971e+02   4.7366748988e+01    0.1893953    0.1458356  66.71 0.0003169146    1.291    0.226
        20  -7.8384    115.2713    113.3499   1.1398156806e+02   3.7282932983e+01    0.1521068    0.1192731 -11.38 0.0006996393    1.628    0.386
        21  -9.0210    126.0813    126.7310   1.1396994598e+02   3.2277379697e+01    0.5332896    0.3482375  -6.33  0.001675153    2.732    0.634
        22  -7.4748     27.7709    109.6294   1.4218723236e+02   5.0480552401e+01    0.1795995    0.1048751  39.20  0.000589821    1.682    0.406
        23 -10.3515    192.2079    133.8307   9.9991432732e+01   1.7570549386e+01    0.9599526    0.4989756 -10.59  0.003359484    3.537    0.717
        24  -6.8812     58.2857    162.3060   1.3839456896e+02   3.5059888776e+01    0.1160762   0.09788853 -31.57 0.0003101189    1.565    0.361
        25 -10.8936     91.5501    115.0759   1.2161397741e+02   4.1224319295e+01    0.7379264    0.3556477  24.94   0.00268071    2.726    0.633
        26 -10.8906    119.1856    102.6002   1.1016420721e+02   3.8848806094e+01    0.4449954     0.350934  43.83  0.002167058    1.219    0.180
        27 -11.1592     19.3702    144.3698   1.4752174604e+02   4.2888040774e+01    0.4264242    0.2776715  70.75  0.002512195    1.338    0.253
        28 -11.8202     36.4642    136.5917   1.4205239293e+02   4.3227457519e+01    0.9070723    0.5822269 -28.04  0.004647497    2.310    0.567
        29 -10.2877     21.4933    135.5151   1.4636212277e+02   4.4757560537e+01    0.3308978    0.1755201  20.21   0.00173406    2.096    0.523
        30 -10.4717    238.6956    124.2206   8.9632449230e+01   1.0133551488e+01    0.3749723    0.2480655  30.09 0.0004428404    1.495    0.331
        31  -8.9692    141.5732    101.7074   1.0369268310e+02   3.4189205804e+01    0.2119589    0.1506622 -51.83 0.0009456167    1.584    0.369
        32  -8.9883    128.1838    142.2038   1.1661648374e+02   2.8668108094e+01    0.2375259    0.2267228  60.26 0.0003222497    1.122    0.109
        33  -8.4535    171.1185    244.7336   1.2273295053e+02   5.5026358454e+00    0.1608209    0.1422642  26.57 0.0006692262    1.367    0.269
        34 -11.0546     10.8041    153.4499   1.5026455296e+02   4.1501458143e+01    0.6437706    0.4437315  49.86  0.004250887    1.239    0.193
        35  -9.5666    141.8031    119.1234   1.0805069838e+02   3.0652234573e+01    0.2915813    0.2202547 -18.30  0.001375413    1.578    0.366
        36  -9.2720     26.0313    131.5307   1.4473119538e+02   4.5332312263e+01    0.2868643    0.1273794  76.49  0.001267663    2.433    0.589
        37 -10.5747     30.9232    131.7027   1.4327370275e+02   4.4881226716e+01    0.4705538    0.1895308 -74.91  0.002113378    2.285    0.562
        38 -10.4418     83.4532    114.1528   1.2401915936e+02   4.2765112498e+01    0.6211438    0.2899346 -44.31  0.002392898    2.492    0.599
        39 -10.4595    144.8770    128.3100   1.0940213134e+02   2.8194473160e+01     0.475684     0.323074  15.41  0.002094446    1.885    0.470
        40  -7.1113     86.7267    244.3131   1.3876892355e+02   1.6613147078e+01    0.1095849   0.06116954  53.34 0.0003311553    1.556    0.358
        41 -11.0340     13.5072    148.7599   1.4934470868e+02   4.2340601146e+01     0.400319    0.2993088  69.49  0.001681015    1.102    0.092
        42  -9.4090    155.6792     65.9354   8.9580650315e+01   3.7426001360e+01      0.40216    0.2199665  36.53 0.0009614268    2.128    0.530
        43 -10.5566    247.7251     49.6001   7.0921418607e+01   1.7649629808e+01    0.6072467     0.302065 -16.23  0.001102931    2.183    0.542
        44 -10.5787     89.2626    108.9867   1.2104589307e+02   4.3044642405e+01    0.7525811    0.3371432  49.52  0.002758677    2.519    0.603
        45  -9.1205    192.6235     62.0277   8.1270356146e+01   2.8653245144e+01    0.2577016    0.2163221  60.92 0.0001648848    1.229    0.186
        46 -10.1655    179.2632     49.2375   7.9623421168e+01   3.3846759639e+01    0.4808314    0.2512545  30.17  0.001698966    2.865    0.651
        47  -9.1276    167.1107     52.7890   8.2939245809e+01   3.6526418448e+01    0.3091477    0.2045589  10.56  0.001256695    2.114    0.527
        48  -7.4027     42.3133     68.6678   1.2984446989e+02   5.9437112822e+01    0.1411844    0.1017144  68.18 0.0007045024    1.680    0.405
        49  -8.5868    133.0584     51.1021   8.9941833299e+01   4.5749646315e+01    0.2324698    0.2208414  26.52 0.0004166825    1.035    0.034
        50  -8.0938    202.3186     49.3036   7.6126331421e+01   2.7977247922e+01    0.1477306    0.1074123  26.52 0.0002595086    1.627    0.385
        51  -8.8806    194.7475     41.9678   7.5027705550e+01   3.0806494154e+01    0.1977836     0.122536 -25.78  0.000894825    1.600    0.375
        52  -9.1323     21.9783    130.1952   1.4584595810e+02   4.5965516083e+01    0.1962479    0.1322729 -32.88  0.001091852    1.989    0.497
        53  -7.2509    150.3170     62.3416   8.9632248653e+01   3.9405149613e+01    0.1671336    0.1207902  19.27 9.618329e-05    1.711    0.416
        54  -9.9385    188.5079     35.4609   7.3917405389e+01   3.3217968542e+01    0.3494428    0.2690296  27.48 0.0008633305    1.496    0.332
        55  -8.1885    160.8904     28.4646   7.5814570129e+01   4.1491502262e+01     0.412485    0.2296784  12.85  0.001466882    2.939    0.660
        56 -10.1411    142.8679     27.6540   7.8827633479e+01   4.6559376873e+01    0.2648333    0.2538302  10.20 0.0002685804    1.086    0.079
