#   1 NUMBER                 Running object number                                     
#   2 MAG_AUTO               Kron-like elliptical aperture magnitude                    [mag]
#   3 X_IMAGE                Object position along x                                    [pixel]
#   4 Y_IMAGE                Object position along y                                    [pixel]
#   5 X_WORLD                Barycenter position along world x axis                     [deg]
#   6 Y_WORLD                Barycenter position along world y axis                     [deg]
#   7 A_WORLD                Profile RMS along major axis (world units)                 [deg]
#   8 B_WORLD                Profile RMS along minor axis (world units)                 [deg]
#   9 THETA_WORLD            Position angle (CCW/world-x)                               [deg]
#  10 FWHM_WORLD             FWHM assuming a gaussian core                              [deg]
#  11 ELONGATION             A_IMAGE/B_IMAGE                                           
#  12 ELLIPTICITY            1 - B_IMAGE/A_IMAGE                                       
         1 -15.0895    247.2626     70.3109   7.6054349367e+01   1.4284248476e+01     2.206378     1.545407 -13.58   0.01099731    1.691    0.409
         2 -16.8547    225.8531     93.3097   8.4901129109e+01   1.5701198152e+01     4.392346     1.793432 -49.46   0.01486971    3.062    0.673
         3 -15.6674    215.6778    102.1483   8.8846714816e+01   1.6630426786e+01     2.083164     1.079262 -48.34  0.006765684    2.130    0.531
         4 -16.5932    104.1426     73.4251   1.0613629921e+02   4.8194779091e+01     2.346814     2.032612   8.19  0.008095944    1.291    0.226
         5 -13.2949    249.9022     28.2469   6.5505282931e+01   1.9332217784e+01    0.9980321    0.3228675 -30.05  0.003802032    2.872    0.652
         6 -13.5996    249.1907     10.4210   6.1349609616e+01   2.1568850552e+01     1.169632    0.4056298 -32.57  0.004926428    2.522    0.603
         7 -13.6624     28.5730      4.3311   1.0731785005e+02   7.1699882885e+01    0.5203884    0.3661949  -0.09  0.002810989    1.314    0.239
         8 -12.1006    187.7891      2.4066   6.4946984483e+01   3.7761661814e+01    0.3631798    0.1985219  56.28  0.001697943    1.717    0.417
         9 -12.2413    206.5188    186.6310   1.0934695445e+02   4.6001940787e+00    0.4142671    0.3175481  17.04  0.001753482    1.322    0.243
        10 -13.9752    218.6495    196.5747   1.0894957771e+02   9.3717571261e-01    0.8164495    0.6915945 -45.47  0.004339086    1.508    0.337
        11 -14.8428    216.5875    218.5885   1.1309148502e+02  -1.6194931460e+00    0.9327298      0.82571 -53.69  0.004789154    1.624    0.384
        12 -17.0489    241.9952    224.4495   1.0972031219e+02  -6.4008335352e+00     2.673523     1.537116 -36.59   0.01601258    2.117    0.528
        13 -14.3773    232.3669    247.4183   1.1487367151e+02  -7.3844816774e+00    0.8148742    0.4500934  46.73  0.004939321    1.852    0.460
        14  99.0000     25.5709    172.0948   1.4519401855e+02   3.6968655588e+01     2.199677     1.065986  82.59   0.01203788    1.931    0.482
        15 -16.1704     38.6511    215.9722   1.4584212838e+02   2.6847836123e+01     1.952251    0.7808056 -64.57   0.01082803    2.595    0.615
        16 -19.3732     54.8129    148.4450   1.3621905594e+02   3.8935004219e+01     19.46692     2.293813 -67.01   0.04303234    9.352    0.893
        17 -18.0748     80.3341    179.9514   1.3437296991e+02   2.8599159073e+01      5.93997      2.60979 -81.24   0.02346307    3.332    0.700
        18 -12.0720    103.9956    153.2663   1.2508837031e+02   3.0607207081e+01    0.2454669    0.1963255  47.41 0.0003392058    1.238    0.192
        19 -10.4027     27.0183    155.5366   1.4347139135e+02   4.0375898107e+01    0.2696836    0.1168188  84.75  0.001250681    2.543    0.607
        20 -12.4502    113.5076    169.1991   1.2553599798e+02   2.5525881541e+01    0.2778497    0.1954757  69.28 0.0008211269    1.484    0.326
        21 -11.5841    110.0323    222.9742   1.3338970064e+02   1.5795741071e+01      0.19055    0.1502688  59.98 0.0005913811    1.011    0.011
        22 -12.0326    103.5977    161.5546   1.2656417648e+02   2.8864485840e+01    0.2350568    0.2107535  77.58 0.0002345566    1.023    0.022
        23 -15.4287    244.9812    141.5145   9.3222734251e+01   3.9981700187e+00     1.405376     1.110133 -26.12  0.005600603    1.190    0.159
        24 -15.9661    238.3851    127.6994   9.1191469460e+01   7.4359526294e+00     2.118799      1.65509  -1.90   0.01018557    1.374    0.272
        25  99.0000     18.2315    209.3842   1.4902844414e+02   3.0273992752e+01     2.123277     1.073225 -61.45   0.01324551    2.360    0.576
        26 -11.9756    115.1245    139.2024   1.1976661246e+02   3.1728611498e+01    0.3766288    0.1745893 -39.12  0.001343106    3.079    0.675
        27 -11.9857    104.8107    139.6924   1.2242386286e+02   3.3488202751e+01    0.2839391    0.2430714  46.49 0.0006337806    1.202    0.168
        28 -10.1910      7.3091    137.9767   1.4642658086e+02   4.5890605455e+01    0.2428125    0.1696362  16.28  0.001499734    2.076    0.518
        29 -11.7217     10.8488    132.5396   1.4510487283e+02   4.6821645385e+01    0.3934878    0.1988206 -69.50  0.001575431    1.564    0.361
        30 -11.4602    106.0809    130.7190   1.2031911652e+02   3.5285021143e+01    0.3217881     0.238117 -61.34  0.001495893    1.320    0.242
        31 -11.2786    119.5929    130.2164   1.1677801146e+02   3.2872587746e+01    0.2100542    0.1363838 -42.34 0.0009506941    1.679    0.404
        32 -15.3312    156.7245    119.6708   1.0530566352e+02   2.7269098597e+01     1.404805     1.197989 -88.71  0.004183413    1.341    0.254
        33 -11.2296    127.8468    128.8708   1.1442099456e+02   3.1535146203e+01    0.2111047     0.173998  81.02 0.0005236007    1.331    0.249
        34 -13.2764     15.4430     88.6408   1.3851974725e+02   5.6315230118e+01    0.8155564    0.4718621 -74.76  0.004814093    1.445    0.308
        35 -15.9072     16.4499    115.7486   1.4191506966e+02   5.0150353976e+01     1.625872     1.541981  -8.25   0.01200037    1.424    0.298
        36 -10.8006    108.3169    126.2058   1.1879139947e+02   3.5898053017e+01    0.2254452    0.1776179 -38.49 0.0008393989    1.437    0.304
        37 -14.4509    129.5698    109.5853   1.0936488493e+02   3.5372793198e+01      1.02215     0.919082 -57.91  0.003171362    1.102    0.093
        38 -13.0916    122.8704     97.1682   1.0783164302e+02   3.9447537390e+01     0.679926    0.3462875 -36.31  0.002375492    2.243    0.554
        39 -14.2695      4.6431     96.4531   1.4289414944e+02   5.5250661841e+01    0.6926779    0.6503309  76.65  0.004418636    1.269    0.212
        40 -13.2071    249.0629     95.8735   8.2029230151e+01   1.0085003187e+01    0.8604979    0.3989177 -26.55   0.00331996    2.243    0.554
        41 -11.7532    111.9966    210.7876   1.3162289058e+02   1.7634451327e+01    0.2576191    0.1582917  34.56  0.001364525    1.792    0.442
        42 -11.3095     21.0832     74.3980   1.3413731548e+02   5.9076312308e+01    0.2562721    0.2103938 -39.59  0.001446225    1.242    0.195
        43 -13.8383      7.2873     77.7823   1.3943621339e+02   5.9217723386e+01     0.729992    0.6328906 -67.85  0.004508784    1.125    0.111
        44 -12.8287      7.9734     49.3318   1.3364111750e+02   6.5238779650e+01    0.6278425    0.5704533 -66.45  0.004239818    1.216    0.178
        45 -13.6642    207.7527     46.2655   7.5054173181e+01   2.7378620026e+01      1.14489     0.745528  77.11  0.005290655    1.632    0.387
        46 -11.9661    157.5625     49.3660   8.4612882803e+01   4.0072182664e+01    0.3112018    0.2838482 -87.44 0.0008716289    1.157    0.136
        47 -11.3381      1.7840     42.6016   1.3461405376e+02   6.6922494492e+01    0.3709182    0.1118495 -61.06  0.001798781    2.300    0.565
        48 -11.7503    231.4968     40.2154   7.0385171313e+01   2.2208208469e+01     0.267529     0.195355  72.60  0.001402659    1.379    0.275
        49 -11.5012     14.0816     38.7038   1.2824016550e+02   6.7011927368e+01     0.272335    0.1531315 -61.64  0.001623259    1.584    0.369
        50 -13.3107    170.0123     33.9453   7.7235770444e+01   3.8983993566e+01    0.5922728    0.5702994  72.00  0.002526017    1.015    0.015
        51 -12.6142    173.6878     26.3925   7.4211634344e+01   3.8953616065e+01    0.5708377    0.3692407  12.55  0.001523276    2.207    0.547
        52 -13.9197    106.4992    156.0560   1.2497319350e+02   2.9563253343e+01    0.6586489    0.3816424 -41.27  0.002245301    2.265    0.558
        53 -11.9333     11.7582    188.6869   1.4903393825e+02   3.4894320215e+01     0.462801    0.2387481  73.97  0.002043484    1.564    0.361
        54 -13.2817    235.4057     25.1678   6.6134378609e+01   2.3147131227e+01    0.6103293    0.4598611  87.10  0.002403728    1.291    0.226
        55 -11.2035    151.8716     27.7405   7.8437566889e+01   4.4527154369e+01    0.2927439    0.1736319 -53.94  0.001244577    2.066    0.516
        56 -11.7159    161.3197     19.6547   7.4006075786e+01   4.3005752320e+01    0.3228754    0.2240499 -65.30    0.0015384    1.697    0.411
        57 -10.5577      9.8355    180.1169   1.4889070725e+02   3.6784751846e+01    0.2628443    0.1173845 -74.85  0.001554686    1.845    0.458
