#   1 NUMBER                 Running object number                                     
#   2 MAG_AUTO               Kron-like elliptical aperture magnitude                    [mag]
#   3 X_IMAGE                Object position along x                                    [pixel]
#   4 Y_IMAGE                Object position along y                                    [pixel]
#   5 X_WORLD                Barycenter position along world x axis                     [deg]
#   6 Y_WORLD                Barycenter position along world y axis                     [deg]
#   7 A_WORLD                Profile RMS along major axis (world units)                 [deg]
#   8 B_WORLD                Profile RMS along minor axis (world units)                 [deg]
#   9 THETA_WORLD            Position angle (CCW/world-x)                               [deg]
#  10 FWHM_WORLD             FWHM assuming a gaussian core                              [deg]
#  11 ELONGATION             A_IMAGE/B_IMAGE                                           
#  12 ELLIPTICITY            1 - B_IMAGE/A_IMAGE                                       
         1 -14.8316     68.3500    144.2692   1.0390847421e+02   3.7527021801e+01     5.004665     2.520954  71.89  0.006812707    4.364    0.771
         2 -14.0383    223.2160     20.0518   3.6695372601e+01   2.7234541871e+01     1.336555     1.035606  39.72   0.00516433    1.722    0.419
         3 -12.7189    215.5136     27.9817   3.9310229720e+01   2.8069246230e+01    0.5517386    0.5061969  29.71  0.001157027    1.398    0.285
         4 -13.7623    198.6956     41.7045   4.4754119387e+01   3.0331199192e+01     1.318416     1.134953  15.91   0.00309325    1.488    0.328
         5 -13.7338    207.2600     35.7987   4.2153116394e+01   2.9041343841e+01     1.441382    0.9188058 -23.07  0.006198887    1.880    0.468
         6  -9.9642    132.4701     10.4590   4.5945463862e+01   5.0360150292e+01    0.2360164    0.2046228  86.71  0.001421989    1.224    0.183
         7 -10.3568      2.2547      3.5498   9.2263034229e+01   7.4048311655e+01     0.294403   0.05513904 -44.35  0.001216572    3.641    0.725
         8 -11.8613    245.8511      2.0906   3.1078646501e+01   2.4273923010e+01    0.5832902    0.1995926  76.34  0.002620099    2.754    0.637
         9 -10.4348     49.4890      2.9914   6.6492794960e+01   6.8574352694e+01    0.1968254    0.1699936  52.15 0.0009093613    1.684    0.406
        10 -10.4982     44.8316      1.3330   6.7666723671e+01   6.9487664681e+01    0.3176155    0.1585295  54.09  0.001448366    3.364    0.703
        11 -13.5945     64.6375    158.9599   1.0726294673e+02   3.4413267530e+01    0.5891918      0.48233 -44.14  0.001911753    1.353    0.261
        12 -11.2114    140.0489    249.7525   1.0216224658e+02   3.9910038154e+00    0.2861212    0.1630858  45.55  0.001571118    1.513    0.339
        13 -10.4994    134.9884    250.4833   1.0326507398e+02   4.6504158169e+00    0.2073524    0.1274616  56.68 0.0005581483    1.807    0.447
        14 -12.9215     65.0495    175.2915   1.0941560143e+02   3.0436091925e+01      1.21262    0.5935567 -32.64  0.003833896    5.272    0.810
        15 -13.9553      4.4421    185.3059   1.2446739581e+02   3.4475982406e+01     1.193352    0.5323713  89.58 0.0005128271    1.980    0.495
        16 -15.9642     55.4965    247.2502   1.1850678305e+02   1.6446295694e+01     9.423037     2.720928  28.07   0.01146705    9.334    0.893
        17 -14.1312     22.3294    223.8590   1.2322055637e+02   2.4715242803e+01     1.702679    0.5655253  68.63  0.006902722    3.776    0.735
        18 -13.4271     84.8681    230.7251   1.1128000552e+02   1.5676699050e+01     1.095875    0.5792195  83.48  0.001774628    2.847    0.649
        19 -13.2093     87.3936    224.9847   1.1014874931e+02   1.6440768685e+01    0.7328897    0.4995869  61.89  0.001025558    1.386    0.279
        20 -16.2210      8.1914    239.4249   1.2658559782e+02   2.3103549747e+01     10.11417     2.023062 -78.44   0.04119409    4.578    0.782
        21 -13.2923     35.0049    205.3865   1.1942352804e+02   2.7211746782e+01    0.4587418    0.4275188 -45.84  0.001148698    1.459    0.315
        22 -16.1060     42.3880    194.3818   1.1688986420e+02   2.8804877784e+01     7.141629     2.591427  63.49   0.02521101    4.124    0.758
        23 -12.8215     84.3875    156.3788   1.0151275024e+02   3.2235556756e+01     1.206082      0.70841 -58.11  0.001881224    1.646    0.392
        24  -9.6789    171.1866    234.1938   9.3686188867e+01   1.5683845854e+00    0.1709378    0.1442888  50.34  0.001000707    1.359    0.264
        25 -10.6076    137.8486    170.1586   9.0152473997e+01   1.9679663782e+01    0.3992513    0.2834569  46.93  0.001895778    1.386    0.279
        26 -11.8651     31.9815    156.3680   1.1555447850e+02   3.8747558706e+01    0.4356784    0.2913679  21.73  0.002128217    1.827    0.453
        27  -9.6188    158.4955    161.3525   8.3347841815e+01   1.7539511887e+01    0.3833296    0.2530328 -80.36  0.001405195    3.032    0.670
        28  -8.4565    125.6567    154.3362   9.0056763222e+01   2.5575300380e+01    0.1608899    0.1204046  76.01 0.0007049878    1.767    0.434
        29 -10.9241    134.0795    145.8947   8.6046581260e+01   2.5866352294e+01     1.082066    0.2330412 -52.13  0.002458192    5.932    0.831
        30  -9.1004     72.4370    188.4749   1.0928566254e+02   2.6373620472e+01    0.1355455    0.1173429  72.74 9.617215e-05    1.039    0.037
        31 -10.0365    174.6530    148.7323   7.6804428791e+01   1.6858747101e+01    0.3193266    0.2405361 -73.02  0.001110896    1.918    0.479
        32  -9.0686     73.1133    172.8341   1.0704702463e+02   2.9923340666e+01    0.1700426    0.1571683 -40.86            0    1.257    0.204
        33 -11.0655     47.9917    145.9572   1.0992649959e+02   3.9625728550e+01     0.288066    0.2020968 -47.78  0.001549368    1.475    0.322
        34 -11.5576     32.2575    144.0100   1.1402663603e+02   4.1713735807e+01    0.3788764    0.2675727  75.89  0.002142632    1.448    0.309
        35 -11.0357     99.7251    140.9439   9.4324097012e+01   3.3493439829e+01     0.624903    0.3782335 -23.13  0.002317091    2.815    0.645
        36 -12.3942     86.6697    140.9803   9.8054999118e+01   3.5646209402e+01    0.3029335    0.2641424 -47.89 0.0004767549    1.148    0.129
        37 -10.9136    144.4071    179.5601   9.0367665706e+01   1.6413294187e+01    0.4688588    0.3275552 -82.33  0.002029584    2.283    0.562
        38  -9.3850    158.8645    134.8088   7.7232578172e+01   2.3141396800e+01    0.2093296    0.1878831 -78.08 0.0004207712    1.299    0.230
        39  -9.6641     99.2162    181.0257   1.0169151560e+02   2.4061750268e+01    0.2077769    0.1940768 -25.26 0.0006737818    1.247    0.198
        40  -9.9884     27.5287    135.5213   1.1427872813e+02   4.4206999695e+01    0.1302526    0.1101578 -77.24 -5.734381e-07    1.009    0.009
        41 -10.9879    107.7609    131.0105   8.9870096743e+01   3.4446575701e+01    0.6217063    0.3484385  36.89  0.002558885    1.822    0.451
        42 -11.4916    135.5689    126.7883   8.1168997167e+01   2.9901685872e+01    0.7567208     0.155595 -47.15  0.001815882    4.956    0.798
        43  -9.0909    150.4212    178.4862   8.8736702891e+01   1.5505197802e+01    0.1463323    0.1389956  37.70 6.510605e-05    1.050    0.047
        44  -9.9725    160.7545    127.7299   7.5046167971e+01   2.4237078265e+01    0.2553317    0.1267428 -52.89 0.0008954172    2.401    0.584
        45 -11.2576     96.8128    127.3917   9.2234470960e+01   3.7278260131e+01    0.3098437    0.2708685 -15.03 0.0008307349    1.279    0.218
        46 -10.1903    116.3752    125.4669   8.6110946757e+01   3.4116926177e+01    0.3082881    0.2585455 -74.51  0.001498378    1.369    0.270
        47 -11.3236     43.9258    122.3086   1.0743796390e+02   4.5899406005e+01    0.2915139    0.2070913 -39.85  0.000932143    1.467    0.318
        48 -11.9503     66.9524    127.1446   1.0120444781e+02   4.1954837404e+01    0.5802441    0.4160345 -74.14  0.002913833    1.454    0.312
        49  -9.9184    106.8056    119.7044   8.7469452271e+01   3.7305958373e+01    0.2335917    0.1994672 -35.54  0.000373848    1.184    0.155
        50 -12.1107     23.0439    118.6323   1.1332974261e+02   4.8682228122e+01    0.3704514     0.278412 -54.15  0.002146079    1.197    0.165
        51  -9.6022     83.1751    117.6539   9.4161733471e+01   4.1900882161e+01    0.2294818    0.1794131  56.17 0.0008465265    1.451    0.311
        52  -9.4743    168.0561    113.0236   6.9589334530e+01   2.5642158255e+01    0.2595126    0.1991787 -80.94  0.001134943    1.810    0.447
        53  -9.9930    205.3793    110.4233   6.1231848789e+01   1.7676134267e+01    0.3023734    0.2391477  39.76 0.0008179821    1.344    0.256
        54  -8.8375    114.3092    110.0677   8.2806303243e+01   3.8079726410e+01    0.2680574    0.1153573 -30.92 0.0006358858    4.455    0.776
        55 -12.1458     77.4013    162.7617   1.0443684025e+02   3.1727448239e+01    0.5130965    0.4250976 -52.89 0.0005952838    1.244    0.196
        56 -10.5862    134.4475    105.2643   7.5848377732e+01   3.4891579827e+01    0.4021299    0.1536772 -46.11  0.001307865    2.674    0.626
        57  -8.9879    130.2934     96.3178   7.4462769432e+01   3.7705487315e+01    0.1592264    0.1240523   0.79 0.0006843612    1.604    0.377
        58 -10.5234     53.1171     91.1786   9.7948370991e+01   5.2386305173e+01    0.2821395    0.1896174 -67.51 0.0009653634    1.618    0.382
        59  -9.9908     41.8606     92.0023   1.0220443229e+02   5.3427837157e+01    0.2035752    0.1765488 -46.79 0.0004925433    1.004    0.004
        60 -10.4016    249.8515     87.8293   4.8996866402e+01   1.2131411510e+01    0.1891192    0.1420953 -58.97 0.0006310178    1.334    0.251
        61  -9.2117     73.1640     83.8979   8.8803319823e+01   5.1313657047e+01    0.2078231     0.193484  83.30 0.0005993526    1.321    0.243
        62  -9.1420    150.9973     82.7336   6.5189981483e+01   3.5595772763e+01    0.2140251    0.1951447  55.61  0.000375083    1.098    0.089
        63  -9.9652    160.0061     81.9809   6.2891442406e+01   3.3559733133e+01    0.2351371    0.2313299  36.20 0.0004674454    1.011    0.011
        64  -9.2281     92.1972     66.4378   7.6690785507e+01   5.1633000095e+01    0.1997376    0.1381775  51.46 0.0008664851    1.667    0.400
        65  -9.1886     48.0123     62.3348   9.1885822085e+01   5.9327803993e+01    0.1747074    0.1556852  -3.06 0.0004145674    1.123    0.110
        66 -10.6450     13.4960     59.9842   1.0585865581e+02   6.2880915248e+01    0.2141983    0.1862237 -48.71 0.0004125224    1.136    0.120
        67 -10.8505    125.3159    174.1061   9.4003995372e+01   2.1136499561e+01    0.2700994    0.2043966  27.08  0.001296044    1.389    0.280
        68  -9.6892    198.8634    222.6751   8.6226906019e+01  -1.0696923701e+00    0.1855783    0.1410409  27.33 0.0004993548    1.139    0.122
        69 -12.1560    184.1354    215.3415   8.7969764243e+01   2.5110680119e+00    0.3619854    0.2931899 -31.36  0.002156197    1.338    0.253
        70 -10.5801    209.6517    199.0255   7.9825033276e+01   9.1431153694e-01    0.2579512    0.2029174 -51.71  0.000966077    1.709    0.415
        71 -14.9620      9.3879    207.5277   1.2477085182e+02   2.9296719592e+01      1.16467     1.062872 -20.42  0.005267842    1.683    0.406
        72  -9.5284    156.5372     46.5409   5.3032226295e+01   4.0172199988e+01    0.1465485    0.1353556  87.09 1.681449e-05    1.103    0.093
        73  -9.9394    136.9161     43.1345   5.6073108150e+01   4.5520152915e+01    0.2176608     0.192736 -87.99 0.0004535991    1.278    0.218
        74 -10.2817    139.6947     37.5632   5.3618676252e+01   4.5586037572e+01    0.2788493    0.2310869 -79.90 0.0006473979    1.422    0.297
        75  -9.5489    136.5307     34.7847   5.3373273718e+01   4.6721670432e+01    0.2267694    0.1857925  68.04 0.0004373379    1.218    0.179
        76 -10.0101    189.9178     15.1750   3.8964712513e+01   3.5637482128e+01    0.2199537    0.1899163 -46.67 0.0007272433    1.222    0.182
        77 -11.3567    192.8390    194.1140   8.2311344891e+01   4.6429768416e+00    0.7197602    0.4478279 -70.07  0.002481346    4.705    0.787
        78 -10.6571     60.8273    198.6789   1.1316196606e+02   2.5624880284e+01    0.2375344     0.193298  77.69 0.0005427186    1.092    0.084
        79  -9.5703    111.4803    196.9673   1.0116256191e+02   1.8516164987e+01    0.2636983    0.1403069 -64.77  0.001149921    2.214    0.548
        80  -9.4044    109.0755    192.4110   1.0104506446e+02   1.9900058627e+01    0.2764655    0.1794619  83.06  0.001228694    2.219    0.549
