#   1 NUMBER                 Running object number                                     
#   2 MAG_AUTO               Kron-like elliptical aperture magnitude                    [mag]
#   3 X_IMAGE                Object position along x                                    [pixel]
#   4 Y_IMAGE                Object position along y                                    [pixel]
#   5 X_WORLD                Barycenter position along world x axis                     [deg]
#   6 Y_WORLD                Barycenter position along world y axis                     [deg]
#   7 A_WORLD                Profile RMS along major axis (world units)                 [deg]
#   8 B_WORLD                Profile RMS along minor axis (world units)                 [deg]
#   9 THETA_WORLD            Position angle (CCW/world-x)                               [deg]
#  10 FWHM_WORLD             FWHM assuming a gaussian core                              [deg]
#  11 ELONGATION             A_IMAGE/B_IMAGE                                           
#  12 ELLIPTICITY            1 - B_IMAGE/A_IMAGE                                       
         1 -13.1666     84.5291     24.1357   2.9051652833e+01   6.1178124371e+01    0.5021778    0.2765574 -73.20   0.00191331    2.746    0.636
         2 -11.6908     66.6247     15.5320   2.9667942797e+01   6.6783985126e+01    0.3687923     0.137525 -26.44  0.001373082    2.956    0.662
         3 -11.8000     99.3792     11.1865   1.9742934235e+01   5.8721298619e+01    0.3849714      0.18225 -48.92  0.001632422    2.161    0.537
         4 -11.3384     54.9752     11.0771   3.0981183383e+01   7.0157178517e+01    0.2171344    0.1910384  53.69   0.00099243    1.043    0.041
         5 -12.8809     83.1845      8.9106   2.1662289786e+01   6.3213639417e+01    0.4349909    0.2875232  87.32  0.002175128    1.503    0.335
         6 -13.9937     90.1385      3.9975   1.7875217278e+01   6.1809829224e+01    0.4817701    0.3273377 -62.10  0.002504786    1.495    0.331
         7 -11.7768    152.8360      5.7341   1.1775269097e+01   4.5422254388e+01    0.1845048    0.1662889 -46.48 0.0003174072    1.193    0.162
         8 -12.5559    100.8359      2.5515   1.5610082237e+01   5.9093293001e+01    0.3567249    0.2146859  71.08  0.001391142    1.479    0.324
         9 -10.8739     49.7695      1.3331   2.6071179681e+01   7.2389261781e+01    0.1904286     0.103687  56.38 0.0002557096    1.589    0.371
        10 -12.8329     62.8235    234.2537   8.5288442261e+01   1.7239126550e+01    0.4816187    0.2864287  65.96  0.001186817    1.982    0.496
        11 -12.5039    245.9273    249.4508   5.1971644397e+01  -3.8560140057e+00    0.2790563      0.13577   1.73   0.00116278    1.895    0.472
        12 -11.9881    236.8288    249.2670   5.3244753750e+01  -3.1187798564e+00    0.2134558    0.1358793 -10.48  0.000918276    1.099    0.090
        13 -10.1929    179.5301    250.5084   6.2627043785e+01   1.8733877609e+00    0.1080892   0.07955575   4.24  0.000113247    1.008    0.008
        14 -11.0713    125.0945    249.7714   7.2962997139e+01   7.6669906636e+00    0.2033649    0.1246901 -18.10 0.0009093522    1.978    0.494
        15 -12.2938    114.6661    249.7939   7.5126415768e+01   8.8045394509e+00    0.3392879    0.1677145  27.80 0.0009000334    1.575    0.365
        16 -13.7414    115.6418    242.1047   7.4119170897e+01   9.9157466169e+00    0.5623817      0.26142 -43.79   0.00297539    2.507    0.601
        17 -12.5790    103.5915    241.6209   7.6670242021e+01   1.1360125996e+01    0.2850605    0.1846614  51.16 0.0009796165    1.775    0.437
        18 -10.5880    100.2873    242.3530   7.7465727601e+01   1.1610330050e+01    0.1496717    0.1143965 -26.18 0.0007700457    1.529    0.346
        19 -12.4562    107.3824    240.2019   7.5698827979e+01   1.1166775701e+01    0.2574889    0.1589638  37.65  0.001540971    1.427    0.299
        20 -11.9826     98.7242    250.6264   7.8587672577e+01   1.0416956223e+01    0.2415252    0.1207012  36.88 0.0002714837    1.633    0.387
        21 -11.9803     99.4749    247.4879   7.8134668140e+01   1.0846706383e+01    0.1897589    0.1781443  -4.99   0.00102659    1.235    0.190
        22 -12.0373     85.3289    250.3822   8.1467196628e+01   1.1910551338e+01    0.2308179    0.1249349  29.24 0.0005213986    1.411    0.291
        23 -12.9225     70.5031    248.0233   8.4555533156e+01   1.3901030099e+01    0.2750237    0.2195293  63.94  0.000763217    1.400    0.286
        24 -12.9321     68.2931    245.3233   8.4852078620e+01   1.4612323126e+01    0.4235262    0.1983701  21.81  0.002164173    1.888    0.470
        25 -10.4567     66.2139    250.3961   8.5679527673e+01   1.3937552773e+01    0.1041634   0.08218957 -25.46 0.0004684356    1.626    0.385
        26 -11.7440     56.1243    250.5017   8.7929116002e+01   1.4957132218e+01    0.1700348    0.1042236  31.23 0.0005416372    1.237    0.192
        27 -12.9965     20.7892    198.8078   9.3638824478e+01   2.9087560452e+01    0.5296625    0.2704047  65.15  0.002564274    1.871    0.465
        28 -13.7271     37.4308    244.8346   9.1819743166e+01   1.7840888601e+01    0.8830053    0.5298527  32.40  0.005416313    1.270    0.213
        29 -13.9231     35.1791    226.7613   9.1418597942e+01   2.1590926498e+01    0.6763708    0.4271698  27.17  0.003785377    1.356    0.262
        30 -12.8931     27.2215    224.6249   9.3248457718e+01   2.2797820771e+01    0.4796359    0.2260875  64.09  0.002389812    2.115    0.527
        31 -14.8042     20.1756    212.2209   9.4438510836e+01   2.6103790063e+01     1.511659    0.6427012  50.75  0.007227775    1.924    0.480
        32 -14.9956      4.7014    208.5872   9.8262191764e+01   2.8234530850e+01     1.141005    0.6405943 -75.46   0.00621532    1.933    0.483
        33 -13.3945     12.9920    216.9121   9.6439363762e+01   2.5717465491e+01    0.4663212    0.2795681  67.17  0.002011239    1.526    0.345
        34 -13.7626     29.5805    233.5094   9.3097155331e+01   2.0771370667e+01    0.8436379      0.25159  27.40  0.003643689    2.494    0.599
        35 -14.7786     23.8070    247.5557   9.5004447116e+01   1.8606285697e+01    0.8766224    0.4268497  24.78  0.004897471    1.698    0.411
        36 -16.6642     11.7671    238.4013   9.7421097386e+01   2.1410286769e+01     1.761814     1.158805  -6.42   0.01030275    2.172    0.540
        37 -16.4306      7.4870    228.4168   9.8134582194e+01   2.3766532108e+01     1.101645    0.9603013  24.50   0.00783555    1.265    0.210
        38 -10.7802    134.9857    241.4787   7.0009646927e+01   7.8328689759e+00    0.1753882   0.09381359  26.43 0.0003784545    1.516    0.340
        39 -10.9596     89.4959    241.0634   7.9733816839e+01   1.3044652364e+01    0.1445531    0.1223828 -62.96 0.0004900053    1.482    0.325
        40 -13.9246    111.3317    235.0214   7.4284782078e+01   1.1582930301e+01    0.7622549    0.3395044  10.93  0.003030912    3.459    0.711
        41 -11.0535     68.0141    231.0571   8.3814632007e+01   1.7280693519e+01    0.1890902    0.1338134  40.33 0.0003439114    1.175    0.149
        42 -12.1489     71.0708    240.1261   8.3826476852e+01   1.5249755548e+01    0.3113635    0.2613797 -18.53 0.0003073418    1.445    0.308
        43 -12.9266     71.4582    234.0940   8.3252777144e+01   1.6322182882e+01    0.2702023     0.191428  25.01 0.0004745613    1.199    0.166
        44 -12.3352     73.4768    229.7282   8.2410422147e+01   1.6922508919e+01    0.3261963    0.2311215 -27.88  0.001264672    1.834    0.455
        45 -11.7285    148.4695    239.0340   6.7003304269e+01   6.6947243728e+00    0.2324135    0.1328417  12.93 0.0009211452    1.629    0.386
        46 -10.7060     97.6237    237.2167   7.7549443155e+01   1.2792546199e+01    0.1434134    0.1103345 -39.45 0.0002871209    1.534    0.348
        47 -11.5922     79.1113    236.9556   8.1721879459e+01   1.4939992504e+01    0.1961662    0.1480304  21.49            0    1.161    0.139
        48 -11.0267    211.0024    235.9985   5.5379091238e+01   6.2032447570e-01    0.1351312    0.1234081  13.46 0.0005978054    1.718    0.418
        49 -11.9370     91.3115    234.0336   7.8661653318e+01   1.4081953629e+01    0.3795719    0.2307146  73.11   0.00141982    2.657    0.624
        50 -11.1172     61.7728    238.6333   8.5855041323e+01   1.6526653183e+01    0.1611711    0.1137063  48.27   0.00100771    1.270    0.212
        51 -10.3709     43.6467    233.6628   8.9777190034e+01   1.9364121532e+01    0.1188655   0.08923116 -17.67 0.0007043731    1.798    0.444
        52 -10.7529    246.7071    234.6782   4.9846816514e+01  -2.3829904499e+00    0.1013797   0.05333579  -9.43 0.0002552322    1.611    0.379
        53 -10.9540    181.0908    232.3160   5.9952413787e+01   4.0920805403e+00    0.1832345    0.1128045   5.37  0.001171826    1.476    0.322
        54 -12.7932    219.4147    230.1136   5.3220626640e+01   5.3217882955e-01    0.2093064    0.1482355  -4.33 0.0004518351    1.029    0.028
        55 -13.3313    105.3904    226.6587   7.4685706456e+01   1.3746357934e+01    0.3624098    0.2596891   1.99  0.001632761    1.493    0.330
        56 -12.3068    100.2835    226.9929   7.5887534228e+01   1.4299745648e+01    0.2374712    0.1780738  38.36 0.0006555712    1.212    0.175
        57 -12.6932     96.5216    225.0582   7.6547212372e+01   1.5106691100e+01    0.3054388    0.1920596  68.45  0.001558138    2.412    0.585
        58 -11.0899    194.1502    229.8366   5.7311966442e+01   3.0556808137e+00    0.1567753    0.1022491  -5.69 0.0005642811    1.318    0.241
        59 -10.6334     83.7485    229.9675   8.0017293855e+01   1.5701033521e+01    0.1359042    0.1091517 -64.05 0.0006363588    1.511    0.338
        60 -11.6447    178.0900    228.3663   5.9947774467e+01   4.9580886278e+00     0.176663    0.1258114 -15.24 0.0004916776    1.238    0.192
        61 -11.6091    149.9792    229.4967   6.5483871750e+01   7.9596288364e+00    0.1802826   0.09800863  26.76 0.0005792571    1.565    0.361
        62 -10.9091    245.5025    228.0182   4.9072248451e+01  -1.5615695230e+00    0.1140264   0.07770804 -44.08 0.0008089188    2.428    0.588
        63 -12.3221    231.6669    227.3164   5.0960512009e+01  -2.6903190310e-01    0.2578729    0.1490672 -17.12   0.00186007    1.364    0.267
        64 -12.8648    112.5691    227.7972   7.3200213735e+01   1.2680155005e+01    0.3121307    0.2249256 -18.89 0.0007749395    1.586    0.370
        65 -12.1936    119.6986    227.3544   7.1572195584e+01   1.1898362849e+01     0.207516     0.104618  30.47  0.001079723    1.646    0.392
        66 -13.4632    113.8165    222.8197   7.2335923485e+01   1.3407725811e+01    0.3107838    0.2527918  14.83  0.002013009    1.082    0.076
        67 -12.5261    113.6644    218.4431   7.1838691133e+01   1.4215588397e+01    0.2233472    0.1896213   4.84 0.0003859915    1.125    0.111
        68 -11.2091    137.9180    226.4938   6.7561202567e+01   9.8528902011e+00     0.186149    0.1658372  38.96   0.00129994    1.344    0.256
        69 -11.8157     91.2387    226.5947   7.7937557195e+01   1.5452404676e+01    0.2601092    0.1630108 -54.42  0.001105414    1.864    0.464
        70 -12.1439     68.1059    225.1006   8.3298458317e+01   1.8429570742e+01     0.241705    0.1770802  83.92   0.00106209    1.643    0.391
        71 -10.5056     51.3888    226.2596   8.7444735054e+01   2.0033826480e+01    0.1215686   0.09071368  -5.89 0.0006971624    1.690    0.408
        72 -12.1662    130.1425    231.1414   6.9780507880e+01   1.0019925285e+01    0.1590608    0.1298213  38.34 0.0005876412    1.323    0.244
        73 -11.3482    199.1113    241.3802   5.8064471924e+01   1.1016013683e+00    0.1456708    0.1008987  11.00  0.000411178    1.165    0.141
        74 -11.3668    213.1914    222.0607   5.3033695785e+01   2.1202508222e+00    0.2374706    0.1140548 -24.00  0.001412314    1.915    0.478
        75 -12.3358    159.9984    222.2420   6.2512307178e+01   7.9026653520e+00    0.3201409    0.1878934  25.35 0.0009639186    1.489    0.329
        76 -13.1048    125.0931    221.5948   6.9679347800e+01   1.2233032966e+01    0.3725518    0.2053893  29.82   0.00154133    1.540    0.351
        77 -11.7758    237.9702    221.2833   4.9162670627e+01  -1.4320165747e-01    0.1469466    0.1021033  -4.11  0.001167665    1.090    0.083
        78 -13.0363     77.5759    219.1054   8.0452721120e+01   1.8522238987e+01    0.3091222    0.2667584  65.93  0.001116744    1.264    0.209
        79 -11.1227    222.6609    220.3960   5.1305712886e+01   1.3956884616e+00    0.1659822   0.08769271  28.18 0.0008955765    1.904    0.475
        80 -12.1717    173.3081    219.0019   5.9496915343e+01   6.8381677110e+00    0.2459642    0.1956093 -14.42   0.00104464    1.127    0.113
        81 -11.1294     60.1901    219.7247   8.4790517207e+01   2.0404146230e+01    0.2697464   0.07476358  32.90  0.000819025    2.569    0.611
        82 -12.9019    145.3576    216.0020   6.4596079613e+01   1.0666566054e+01    0.3864204    0.3006977  33.35  0.001567348    1.302    0.232
        83 -12.6755    141.0997    211.1346   6.4804799491e+01   1.2024141760e+01    0.2774852    0.2253464 -42.60 0.0009255249    1.374    0.272
        84 -12.2159    139.4729    207.4608   6.4625184933e+01   1.2871505602e+01    0.2194734    0.1908826 -85.03 0.0008048033    1.692    0.409
        85 -11.9498    129.5927    217.2797   6.8134785527e+01   1.2421649238e+01    0.2057952    0.1244072 -56.00 0.0009650348    2.033    0.508
        86 -13.5577    108.7114    215.4705   7.2612735829e+01   1.5389183348e+01    0.4713817    0.2550748 -32.17  0.002238415    2.443    0.591
        87 -11.7023     64.4087    217.2552   8.3533735253e+01   2.0435029149e+01    0.3055724    0.2372631  74.56  0.001852126    1.426    0.299
        88 -10.6759    223.8852    216.4197   5.0524988089e+01   1.7645347139e+00    0.1228187    0.0867199  45.12 0.0008041002    2.596    0.615
        89 -13.0029     87.8899    212.9274   7.7290205610e+01   1.8504938750e+01    0.5123189    0.3950039 -25.35  0.001913427    1.546    0.353
        90 -13.1849     79.8475    212.9009   7.9272259844e+01   1.9502245408e+01    0.6599932    0.2423782  30.87   0.00265729    2.204    0.546
        91 -11.6812     75.6746    212.3281   8.0255204507e+01   2.0127139158e+01    0.2468778    0.1494449  51.59 0.0006018585    1.660    0.398
        92 -11.3645    155.2996    214.6335   6.2364339409e+01   9.6600217898e+00    0.1964838    0.1268088 -20.04 0.0006508598    1.624    0.384
        93 -10.7519     69.4808    215.4431   8.2105149914e+01   2.0221143278e+01     0.129938    0.1117898  28.53 0.0001943175    1.070    0.066
        94 -10.5841     58.2901    215.3843   8.4911632471e+01   2.1519534645e+01    0.1270757   0.09469206 -26.49  0.000701425    1.752    0.429
        95 -11.4045     36.4669    214.9339   9.0421442853e+01   2.3947901110e+01    0.3077416    0.1452018  55.61  0.001308389    1.984    0.496
        96 -13.0802    125.1139    212.8678   6.8536359279e+01   1.3771704575e+01    0.2578157    0.2240602   7.68 0.0004586084    1.048    0.046
        97 -12.8627    120.5273    214.4592   6.9777257039e+01   1.4071640748e+01    0.2452861    0.1747131  41.32 0.0006741394    1.409    0.290
        98 -11.8491    247.6377    212.9158   4.6560748686e+01  -5.3234657777e-02    0.1626991    0.1213055   6.42 0.0003875393    1.296    0.228
        99 -10.2781     55.3064    213.3392   8.5502390030e+01   2.2286929179e+01    0.1258104   0.09685343 -22.58 0.0007041752    1.680    0.405
       100 -11.5084     63.9808    211.2697   8.3112266180e+01   2.1738160413e+01    0.1758226    0.1635587  60.13 0.0002963642    1.130    0.115
       101 -12.8216     68.8363    207.5684   8.1520358051e+01   2.1953725918e+01    0.6245824      0.26143  17.35  0.002389924    2.928    0.659
       102 -11.8250     47.1947    210.4407   8.7362817405e+01   2.3803579062e+01    0.2541969    0.2145557 -30.95  0.001556762    1.486    0.327
       103 -12.6419    229.3797    207.2474   4.8297643297e+01   2.3581008827e+00    0.3060068    0.1830005 -41.87  0.001448438    1.948    0.487
       104 -13.3302    105.1108    207.1391   7.2421913803e+01   1.7452918723e+01      0.50187    0.3490231  18.24  0.002212399    1.371    0.270
       105 -11.5223    181.0060    207.7922   5.6385562119e+01   7.6006196954e+00    0.2196617    0.1441992   7.77  0.001352627    1.452    0.311
       106 -11.6213    160.3317    206.6547   6.0171112099e+01   1.0322250937e+01    0.1957341    0.1500782 -53.96  0.001211366    1.704    0.413
       107 -12.5979    118.0681    206.7083   6.9309014507e+01   1.5828028808e+01    0.2581078    0.1833031  54.55  0.000877324    1.734    0.423
       108 -12.6103     54.8752    205.7911   8.4988971050e+01   2.3973833125e+01    0.2876781    0.2216774  20.94 0.0009048688    1.272    0.214
       109 -10.5396     37.2903    195.5911   8.8922287611e+01   2.8224131335e+01     0.247758   0.09546943  36.24 0.0008800774    2.030    0.507
       110 -13.2219     35.6780    203.8789   8.9930204348e+01   2.6476299497e+01    0.5385464    0.3039303 -47.87  0.002131169    2.273    0.560
       111 -11.1607     40.2334    198.4283   8.8322232575e+01   2.7252524604e+01    0.2355308    0.1457843  48.16 0.0005049123    1.393    0.282
       112 -10.9237    205.0156    206.2199   5.1953945957e+01   5.0609862830e+00    0.1491699    0.1155443  -1.90            0    1.065    0.061
       113 -12.6916    145.5077    202.9814   6.2669259154e+01   1.2861803612e+01    0.4209935    0.2106106 -43.03  0.002106976    2.054    0.513
       114 -13.3717     99.6504    184.9348   7.0765355929e+01   2.2811773245e+01    0.4888146    0.3490126 -25.50  0.002167691    1.712    0.416
       115 -13.6941     94.0849    183.3951   7.2002840590e+01   2.3948587738e+01    0.5486887    0.3382345 -59.65  0.002663946    1.764    0.433
       116 -13.4054     89.4380    183.1166   7.3203645577e+01   2.4670950153e+01    0.6709664    0.3776626 -67.17  0.002592867    2.066    0.516
       117 -12.7323     89.8657    201.5103   7.5480027842e+01   2.0597936924e+01    0.5425728    0.3087803 -44.56  0.002321424    2.032    0.508
       118 -14.2009     94.4827    194.2104   7.3381403376e+01   2.1529064755e+01     1.101052    0.5428143  43.00  0.004924314    1.927    0.481
       119 -11.7717     48.7775    204.0658   8.6457065638e+01   2.5041255818e+01    0.3257603    0.1804433 -73.67  0.000976764    1.996    0.499
       120 -11.3984     51.6329    200.1651   8.5370899435e+01   2.5602519190e+01    0.3872168    0.2170917  27.45  0.001901286    1.587    0.370
       121 -11.3756     42.0003    205.4227   8.8356749942e+01   2.5470257372e+01    0.3340701    0.1274721  28.64  0.001418854    2.150    0.535
       122 -12.3918     77.7288    201.7684   7.8619897098e+01   2.2105785162e+01    0.3988857    0.2359949 -56.20  0.001520418    1.873    0.466
       123 -11.6626     60.9185    203.9823   8.3239238188e+01   2.3674833286e+01    0.3772038    0.1797957  24.11  0.001492393    1.958    0.489
       124 -11.3521    162.8664    201.8407   5.8922781189e+01   1.0785174902e+01    0.1542847    0.1383627  26.05 0.0003006415    1.275    0.216
       125 -11.2265     43.9549    200.4306   8.7463447261e+01   2.6392590338e+01    0.1852829    0.1621904  59.95 0.0001284178    1.084    0.077
       126 -11.6584    212.4143    200.1808   4.9792284149e+01   5.0657477062e+00    0.2156907   0.09190159 -43.91  0.001007863    2.581    0.613
       127 -10.7594    176.6801    206.3123   5.6957235742e+01   8.3456903173e+00    0.1033907   0.09496249  52.56 0.0002641231    1.649    0.394
       128 -11.9921     84.1797    198.6983   7.6597206846e+01   2.1939743638e+01    0.3391044    0.2089155  61.23  0.001159581    1.987    0.497
       129 -12.3556     80.2701    193.7717   7.7032142656e+01   2.3529933476e+01    0.7200242    0.3665357  45.19  0.002400196    1.863    0.463
       130 -12.7726     75.0217    180.3023   7.6792575231e+01   2.7320349121e+01     0.573697    0.3368995 -47.98  0.001988473    1.912    0.477
       131 -12.8354     75.1460    186.1485   7.7491668602e+01   2.5935582512e+01    0.4107592     0.373923 -54.17  0.001553445    1.214    0.176
       132 -13.6420     69.5016    186.8761   7.9139030426e+01   2.6505370066e+01    0.6612433    0.3852122  53.21  0.002760838    1.759    0.431
       133 -13.8126     65.4915    181.3931   7.9628614261e+01   2.8321148996e+01    0.6235098    0.4578632 -74.55  0.002417889    1.470    0.320
       134 -10.4408     59.6187    199.4251   8.3157660255e+01   2.4844952819e+01    0.1316272    0.1185671  40.01 2.564398e-05    1.050    0.048
       135 -10.7739     14.9837    199.4690   9.5237542615e+01   2.9452379097e+01    0.1940365     0.111946  28.17 0.0007883787    1.529    0.346
       136 -11.6225    225.1576    204.1300   4.8442132060e+01   3.1809673981e+00    0.1759172    0.1317144   4.26 0.0005105975    1.187    0.157
       137 -13.3815    122.7723    196.6637   6.6792860704e+01   1.7115897713e+01    0.4498429     0.243727  39.63  0.002186825    1.769    0.435
       138 -12.4302    138.9595    196.4085   6.3080933749e+01   1.4922245695e+01    0.3407214    0.1866556  -1.99  0.001151331    3.305    0.697
       139 -12.0767      1.4278    196.3921   9.8770610234e+01   3.1277811560e+01     0.249616    0.1151265 -83.29 0.0007679377    2.178    0.541
       140 -12.1053    192.4092    194.1935   5.2161708383e+01   8.2575073712e+00    0.3300779    0.2060445 -26.22  0.002007561    1.433    0.302
       141 -11.6788    189.6682    193.3036   5.2497300544e+01   8.7308076362e+00    0.2205186    0.1766142 -13.68 0.0007837258    1.038    0.036
       142 -11.9123    152.4123    195.7231   6.0086059795e+01   1.3204014487e+01       0.2264    0.1430436  38.57 0.0009810977    1.630    0.387
       143 -11.2804     49.4572    195.7505   8.5582804948e+01   2.6863166020e+01    0.3799297    0.2186588  23.92  0.001846718    1.644    0.392
       144 -12.8391     11.0217    194.5764   9.6107247207e+01   3.0938646018e+01    0.3599592    0.2413089  20.52  0.001206986    1.499    0.333
       145 -11.8107     24.8614    185.8013   9.1767360756e+01   3.1819476999e+01    0.2120848    0.1897671  48.03 0.0003485323    1.078    0.073
       146 -12.6854     26.8000    192.7786   9.1648511434e+01   2.9944976120e+01    0.5508422    0.2060536 -72.81  0.002277826    2.716    0.632
       147 -11.6441     30.9744    188.5245   9.0194776453e+01   3.0557815570e+01    0.2611182    0.1824496  25.82 0.0006973093    1.366    0.268
       148 -11.0630    217.8743    193.8915   4.7912457090e+01   5.3127282857e+00    0.1457974    0.1331715 -40.90 0.0008243431    1.646    0.392
       149 -12.1405    162.9315    192.8167   5.7462443787e+01   1.2281130718e+01    0.2571779    0.2224342  43.87 0.0009156285    1.445    0.308
       150 -11.7937    158.4733    193.5119   5.8477767268e+01   1.2765096895e+01    0.2240701     0.144389   6.77 0.0009009166    1.731    0.422
       151 -11.2610     69.4443    193.6680   7.9921127755e+01   2.4948048938e+01    0.1626196    0.1315959 -54.42 0.0005689489    1.386    0.278
       152 -11.3539    239.7693    193.4022   4.4612463588e+01   3.0393757776e+00     0.139477   0.08508432  12.21 0.0009504305    1.677    0.404
       153 -13.0733     47.5444    218.5339   8.7856332880e+01   2.2032448681e+01      0.94043    0.4863443  50.11  0.004789402    1.722    0.419
       154 -10.7441     33.7054    192.3657   8.9689861872e+01   2.9357785101e+01    0.1832843    0.1224986  15.36 0.0007401118    1.605    0.377
       155 -13.3318    134.5688    188.3251   6.2787378906e+01   1.7057004128e+01    0.4801872    0.2379082 -32.74  0.002062925    2.507    0.601
       156 -10.2556     40.6712    191.2585   8.7652119506e+01   2.8891260076e+01    0.1463779   0.08385154  50.58 0.0003635283    1.561    0.359
       157 -11.1419    234.0173    190.0156   4.4873606736e+01   4.0673980753e+00    0.1505128    0.1277725 -43.95  0.001140694    1.744    0.427
       158 -10.5638    178.4900    190.5608   5.4074952289e+01   1.0585899638e+01    0.1234442    0.1021086  -6.39 0.0001123915    1.018    0.017
       159 -12.3593     50.6939    189.9440   8.4720719021e+01   2.8085421202e+01    0.3328729    0.2387571  16.33 0.0005409268    1.474    0.322
       160 -13.2765     51.2444    184.0860   8.4007519585e+01   2.9427831315e+01    0.6147473    0.2613532  37.27  0.001704492    1.957    0.489
       161 -12.5243      8.6273    184.2062   9.6354129651e+01   3.3638268649e+01       0.6992    0.3797372 -15.58  0.002972925    3.008    0.668
       162 -12.3739     10.7208    180.6391   9.5593431590e+01   3.4351322506e+01    0.6532352     0.267703  11.34  0.001555731    2.996    0.666
       163 -12.7225      7.5190    188.9857   9.6857293884e+01   3.2562611179e+01    0.3583558    0.2674244 -11.42  0.001781659    1.763    0.433
       164 -13.0406     11.7471    188.4389   9.5647314738e+01   3.2348482322e+01    0.3275322    0.2924226 -39.11   0.00133178    1.408    0.290
       165 -10.8902    174.2785    189.0281   5.4612300460e+01   1.1390470960e+01    0.1535541   0.09966309 -36.40  0.000673932    1.454    0.312
       166 -12.4543    194.6343    187.3507   5.0626705559e+01   9.0123731052e+00    0.2551303    0.1786553  39.92  0.001593543    1.741    0.426
       167 -11.7048    151.9752    187.7271   5.8874159151e+01   1.4681949935e+01    0.1798137      0.15609   9.79 0.0004514502    1.050    0.048
       168 -12.3200    110.1839    187.9936   6.8540051083e+01   2.0643644789e+01    0.2500393    0.1853718  31.76  0.000731898    1.233    0.189
       169 -11.3499     43.2270    187.2896   8.6601306599e+01   2.9565597035e+01    0.2133866    0.1736085 -67.81 0.0006920653    1.343    0.256
       170 -13.2383    121.2671    186.7739   6.5645969744e+01   1.9290183840e+01    0.4384083    0.2322873  29.11 0.0009880452    1.790    0.441
       171 -13.4770    118.6544    180.2946   6.5247209959e+01   2.1008003953e+01    0.5316955    0.3171442  57.66  0.001632522    2.403    0.584
       172 -11.3419    247.9770    185.5328   4.2220161140e+01   3.1840379506e+00     0.138041   0.09347028  19.83 0.0009827574    1.586    0.369
       173 -11.6025    164.3869    184.9830   5.5857174063e+01   1.3421113661e+01    0.1976728    0.1687361  33.07 0.0006171013    1.288    0.224
       174 -10.8383     19.1200    187.8322   9.3529243213e+01   3.1854955202e+01    0.1666323    0.1590886 -52.20  0.001053014    1.273    0.215
       175 -11.2568    120.5034    191.4632   6.6550606916e+01   1.8457999853e+01    0.1343412    0.1210713  17.52 9.082617e-05    1.007    0.007
       176 -12.4945     22.7660    180.4147   9.2041193323e+01   3.3351720474e+01    0.5376178    0.2312317  64.37  0.001512088    2.393    0.582
       177 -12.1574     22.6786    174.4254   9.1681129440e+01   3.4874252831e+01    0.2945301    0.1714746 -79.31  0.001419708    1.717    0.418
       178 -11.9412      4.7408    181.3403   9.7360824444e+01   3.4650762060e+01    0.2319459    0.2152897 -48.70 0.0005354065    1.327    0.246
       179 -11.6843    142.2421    181.5573   5.9942825950e+01   1.7231482838e+01    0.1828361    0.1209556  19.16 0.0005268131    1.566    0.361
       180 -12.7506    106.3081    175.9357   6.7663453711e+01   2.3806406313e+01     0.256759    0.2511934  -5.54 0.0003167637    1.060    0.056
       181 -12.1926     31.5110    177.9391   8.9268818888e+01   3.3121231943e+01    0.3720189    0.2206093  65.63  0.001039952    1.657    0.396
       182 -11.3473    191.8397    177.8599   4.9464255142e+01   1.0841110821e+01    0.1497794    0.1421667 -15.31 0.0008755405    1.304    0.233
       183 -12.0508    166.9498    178.0207   5.4132064704e+01   1.4266067703e+01    0.1914583    0.1672101 -10.09  0.000305981    1.010    0.010
       184 -12.6560    148.7733    176.4282   5.7619352883e+01   1.7229805084e+01    0.2606313    0.2136752   5.51  0.000593695    1.194    0.163
       185 -13.5266     56.3853    176.0363   8.1663467264e+01   3.0783293217e+01    0.5138099    0.4107564  58.23  0.002791731    1.182    0.154
       186 -10.4770     71.4606    176.5613   7.7323987938e+01   2.8696538170e+01    0.1416173     0.132768  33.76 7.062221e-05    1.063    0.059
       187 -11.6701     49.1137    175.4040   8.3762150398e+01   3.1823102576e+01    0.2474487    0.2109371  60.15 0.0004159246    1.081    0.075
       188 -12.0986      3.7975    174.8449   9.7394654629e+01   3.6348414086e+01    0.4152707     0.184206  46.85  0.001444822    1.842    0.457
       189 -11.4632      2.4947    171.5391   9.7661679672e+01   3.7284296456e+01    0.2215665      0.18505  37.01 0.0001220125    1.162    0.139
       190 -13.2408    130.8882    169.1916   6.0386874642e+01   2.1424131225e+01    0.4583324    0.2980753  25.13  0.002255292    1.586    0.370
       191 -14.0911    125.9523    171.6564   6.2008857722e+01   2.1691475987e+01    0.7983474    0.4413763 -71.69  0.002960993    3.482    0.713
       192 -12.5769    126.3599    166.7117   6.1028538400e+01   2.2664466433e+01    0.2819918    0.2018784  51.00  0.001253341    1.572    0.364
       193 -13.2567     91.6139    169.5512   7.0605197042e+01   2.7484652794e+01    0.4568801    0.2739315 -38.28  0.002008382    2.013    0.503
       194 -10.6695     39.6489    175.2111   8.6593142272e+01   3.2950973108e+01    0.1915087    0.1211908 -62.04 0.0005267533    1.675    0.403
       195 -11.0211     17.0092    175.3530   9.3454818337e+01   3.5150060173e+01    0.1885892    0.1569053  38.46  0.000404793    1.132    0.117
       196 -11.2081     12.5495    174.7451   9.4766325343e+01   3.5685175898e+01     0.228535    0.1228038 -76.61 0.0006333573    1.848    0.459
       197 -11.7281    214.2365    174.1808   4.5121669952e+01   8.5092638040e+00    0.2040595    0.1539419  37.47  0.000787576    1.642    0.391
       198 -12.3222     75.3487    170.1466   7.5334863961e+01   2.9718636995e+01    0.5467458    0.2704977  65.10  0.001876314    3.319    0.699
       199 -11.9983    144.4542    172.9437   5.7945530893e+01   1.8552448841e+01    0.2695263    0.1667778  66.08   0.00104497    3.545    0.718
       200 -13.0278      1.9505    130.5345   9.5955517732e+01   4.8354824043e+01     0.526912    0.2263996 -85.21   0.00165207    2.143    0.533
       201 -13.6939      4.6819    147.6039   9.5898248712e+01   4.3457673991e+01    0.7621413    0.5148184  69.01  0.003368126    1.327    0.246
       202 -13.7215     23.2235    161.4127   9.0583651773e+01   3.8216804393e+01    0.6328574    0.4871029 -61.04  0.003393556    1.400    0.286
       203 -14.9545     13.4016    136.1393   9.2024813782e+01   4.5987840744e+01     1.592224    0.4692832  47.98  0.005275724    3.136    0.681
       204 -13.9973     13.8891    144.4033   9.2475666471e+01   4.3649146207e+01      1.03369    0.3620118  58.83  0.003419653    3.010    0.668
       205 -12.8960     29.5828    172.5133   8.9433874327e+01   3.4696712872e+01    0.3865326    0.2467647  22.67  0.001040713    1.565    0.361
       206 -12.4715     25.3101    168.5821   9.0459128508e+01   3.6132507686e+01    0.4014762    0.2498164  18.56 0.0009776843    1.688    0.408
       207 -13.0517     14.3608    150.8674   9.2769018809e+01   4.1837178886e+01    0.4530798    0.2327112 -63.72  0.001992569    1.941    0.485
       208 -13.0486     26.3873    154.8466   8.9001863456e+01   3.9676351117e+01    0.5573349     0.265048  51.22  0.001283031    1.971    0.493
       209 -13.1359     27.1301    149.8196   8.8293909044e+01   4.0971949428e+01    0.5326248    0.2805219  58.81  0.001524994    1.888    0.470
       210 -12.8142     20.1051    154.0518   9.1050438733e+01   4.0478794551e+01    0.5487728    0.2974087 -44.08  0.002338158    2.290    0.563
       211 -12.9761     20.2227    148.3324   9.0555790683e+01   4.2028576764e+01    0.4003496    0.3532464  15.90  0.001602963    1.258    0.205
       212 -11.4697    234.8044    171.8750   4.1704247658e+01   6.3703319767e+00    0.1771187    0.1206029 -15.77 0.0006394408    1.236    0.191
       213 -11.4419    193.0419    171.6796   4.8145263953e+01   1.1656386584e+01    0.1709532     0.142949   1.59 0.0005297377    1.123    0.109
       214 -11.8335    197.2725    170.3743   4.7184111830e+01   1.1286573928e+01    0.2346344      0.12833 -28.24  0.001249252    1.708    0.415
       215 -12.6183    100.7910    172.1203   6.8506854352e+01   2.5498785727e+01    0.2974251    0.2080831 -75.69  0.001185436    1.783    0.439
       216 -12.7505     61.8248    169.0921   7.9211597644e+01   3.1825283815e+01    0.4467745    0.2927276  71.25  0.001841508    1.737    0.424
       217 -12.4719     57.5668    163.9669   7.9870191440e+01   3.3686588502e+01    0.3839193    0.2415796  60.14  0.001000335    1.672    0.402
       218 -10.4996     15.3303    171.2870   9.3733317079e+01   3.6336513655e+01    0.1325928    0.1028097 -36.77 0.0007013122    1.617    0.382
       219 -12.8616    152.4511    167.2047   5.5149393583e+01   1.8412440464e+01    0.5394893    0.1540058 -48.67  0.001810325    3.681    0.728
       220 -10.4832     48.5351    169.5440   8.3320161460e+01   3.3378070774e+01    0.1458136    0.1301997  54.79 0.0001625224    1.005    0.005
       221 -12.0285     41.3311    168.4437   8.5437836054e+01   3.4497131028e+01    0.3430628    0.2110711  65.07  0.001401796    1.659    0.397
       222 -13.1862     37.4552    163.6312   8.6188794318e+01   3.6183547169e+01    0.5447089    0.2534495 -81.33  0.002183897    2.292    0.564
       223 -11.2006     15.8281    167.2132   9.3339862649e+01   3.7350437405e+01    0.1846886    0.1599825 -50.75  0.001059284    1.352    0.260
       224 -12.7747      5.2999    162.2613   9.6408035871e+01   3.9485761658e+01    0.4712439    0.2693275  54.83 0.0009716095    1.523    0.343
       225 -10.9992    102.3044    165.3133   6.6973081407e+01   2.6821260909e+01    0.1465017    0.1117756 -16.40 0.0001672111    1.617    0.382
       226 -13.0866     88.1718    164.7657   7.0819287702e+01   2.9144087246e+01    0.3632163    0.2417995  30.31  0.001469403    1.450    0.310
       227 -11.7862    206.6390    163.5428   4.4391300359e+01   1.1077154717e+01    0.2579014    0.1622101  -2.85  0.001417264    1.966    0.491
       228 -11.7468     68.1251    164.4800   7.6692087798e+01   3.2137904847e+01      0.22292      0.13779  31.40 0.0006022583    1.524    0.344
       229 -13.0710     65.1023    161.3989   7.7189524116e+01   3.3338894588e+01    0.4365156    0.2609439 -40.45  0.001866092    2.072    0.517
       230 -12.6895     47.4678    161.6590   8.2777150591e+01   3.5551284855e+01    0.3768729    0.2328713  59.77  0.001713879    1.645    0.392
       231 -11.6966    178.8109    160.5684   4.8616567911e+01   1.5546775643e+01    0.2145763    0.1598997 -33.35 0.0003238494    1.205    0.170
       232 -12.8601    170.1046    160.0491   5.0172237259e+01   1.6974974968e+01    0.3086495    0.2398077 -42.00  0.001804107    1.260    0.206
       233 -12.0439     12.0796    161.1364   9.4174675439e+01   3.9261333892e+01       0.2949    0.2012399   6.17 0.0008669838    1.730    0.422
       234 -11.8121     16.1544    160.1495   9.2792434740e+01   3.9185447525e+01    0.3047055    0.1891827  49.28  0.000697162    1.425    0.298
       235 -11.7384    158.9872    160.0758   5.2412329226e+01   1.8725637154e+01    0.2003012    0.1809498 -12.01 0.0002966126    1.016    0.016
       236 -12.0651     77.3157    159.9450   7.3244055024e+01   3.1960316176e+01    0.2062105    0.1908797 -79.42 0.0004664016    1.112    0.101
       237 -13.2449     81.2289    157.1674   7.1624844998e+01   3.2066343219e+01    0.3509641    0.3119692 -83.22 0.0008944361    1.170    0.145
       238 -11.6437    187.6534    158.1294   4.6546732933e+01   1.4633868735e+01    0.2093775    0.1777537  53.49 0.0007077605    1.561    0.359
       239 -11.5884    105.3458    158.1458   6.4885335994e+01   2.7989117073e+01    0.2802674      0.20359  42.00 0.0006005059    1.341    0.254
       240 -12.9975     56.9452    157.3891   7.9211542019e+01   3.5477605679e+01    0.4057153    0.2651161  38.32 0.0007874839    1.412    0.292
       241 -12.3927     50.9617    154.1510   8.0729340111e+01   3.7106915967e+01    0.3289879    0.2149104 -84.32 0.0006816521    1.623    0.384
       242 -12.2392     33.0727    157.9425   8.7061123659e+01   3.8165169264e+01    0.2169483    0.1932814  60.84 0.0003297642    1.005    0.005
       243 -12.3219     62.9059    156.8576   7.7237661496e+01   3.4813425743e+01    0.2212062    0.2051015 -19.52 0.0004679683    1.234    0.190
       244 -12.1869    212.2886    153.5512   4.1637548506e+01   1.1828053694e+01    0.2602285    0.1783808 -52.42  0.001135587    1.821    0.451
       245 -11.8583      2.6302    153.3117   9.6871468783e+01   4.2053683006e+01    0.3445675    0.1964121  46.88  0.001668234    1.537    0.349
       246 -12.1308     88.3185    153.0506   6.8810706739e+01   3.1980513025e+01    0.2131565    0.1945433 -68.19 0.0006154473    1.127    0.113
       247 -12.8993     63.1120    152.8766   7.6593261745e+01   3.5824993470e+01    0.3427902    0.1827705  42.29  0.001426403    1.750    0.429
       248 -10.9426    249.2854    151.9264   3.6305365966e+01   7.3431821377e+00    0.1549133    0.1049296 -27.58 0.0002729108    1.083    0.076
       249 -13.0218     76.9997    154.9937   7.2553969767e+01   3.3255778811e+01    0.3839377    0.1948609  40.41    0.0010314    1.837    0.456
       250 -11.9036    147.5341    149.5769   5.2766206950e+01   2.2665757498e+01    0.2894641    0.2502902  79.94  0.001197296    1.502    0.334
       251 -12.5530    108.6488    148.9643   6.2247132277e+01   2.9570655505e+01    0.3396527    0.2889411 -65.91 0.0008173593    1.247    0.198
       252 -13.2732    101.5109    142.5318   6.2963263543e+01   3.2339647617e+01    0.7837242    0.3833092  57.80  0.002588537    3.220    0.689
       253 -13.0758     84.7402    148.9957   6.9164968058e+01   3.3566043109e+01    0.3882631    0.2648302 -48.64  0.001042653    1.537    0.350
       254 -13.9926     34.2053    148.7838   8.5746879860e+01   4.0526644637e+01     0.706321    0.2828328  32.07  0.002711125    2.210    0.547
       255 -12.4417     40.3759    145.7693   8.3258298870e+01   4.0662939872e+01    0.3423633    0.1246749 -68.70  0.001201762    2.609    0.617
       256 -12.8359     77.8001    148.3470   7.1193119968e+01   3.4829070361e+01    0.3749731     0.236089  -6.56  0.001399315    2.780    0.640
       257 -12.0114     65.8883    148.7007   7.5055351510e+01   3.6528077252e+01    0.2342054    0.1948743   6.73 0.0004688303    1.397    0.284
       258 -10.8314    229.4873    145.9947   3.7748920037e+01   1.0618374399e+01    0.1760849   0.09193717 -35.65  0.000416667    1.507    0.336
       259 -11.3935    121.5025    146.4958   5.8342648213e+01   2.7883646889e+01    0.1464693    0.1409112  -9.72 -4.606365e-05    1.042    0.040
       260 -12.4024    169.3968    144.6832   4.7218709163e+01   1.9880329094e+01    0.4023458    0.2034167  29.66  0.001708911    2.537    0.606
       261 -10.6317    132.1426    144.6308   5.5300371253e+01   2.6396404611e+01    0.1913148    0.1361432  26.60 0.0001717759    1.536    0.349
       262 -12.4819     36.0957    143.6125   8.4503339267e+01   4.1743080872e+01    0.3623284    0.2293484 -25.58  0.001531288    2.217    0.549
       263 -13.7377     35.2683    138.8708   8.4231978374e+01   4.3151303353e+01    0.7189369    0.3630629  -6.57  0.002335104    3.805    0.737
       264 -13.1989     28.3920    128.2781   8.5519377833e+01   4.6862292796e+01    0.7174615    0.2925678  62.08   0.00192301    3.150    0.683
       265 -13.8014     35.9612    131.5792   8.3040764973e+01   4.5117460310e+01    0.5809834    0.3900025  72.67  0.001261228    1.549    0.354
       266 -12.3996     41.5601    139.5418   8.2043286733e+01   4.2241902002e+01    0.3096471    0.2265161  71.18 9.156045e-05    1.377    0.274
       267 -10.6578    139.9987    141.0934   5.2686052495e+01   2.5731160585e+01    0.1731905    0.1593287 -36.73 0.0005982355    1.046    0.044
       268 -12.8309     96.6475    148.2945   6.5497170377e+01   3.1778846458e+01    0.4423887     0.303446  -8.04  0.001843556    2.240    0.553
       269 -11.3646    222.9616    139.3575   3.7363080984e+01   1.2468464193e+01    0.2947854    0.1322854 -30.73  0.001092669    1.957    0.489
       270 -11.8619    188.6072    138.5858   4.2456781574e+01   1.7783400025e+01    0.2311582    0.1939523 -40.81  0.001431054    1.142    0.124
       271 -12.0190     57.5732    139.2232   7.6335249875e+01   4.0250054353e+01    0.2175137    0.1354822 -54.19 0.0009393489    1.644    0.392
       272 -14.1334     45.1722    140.2081   8.0842991147e+01   4.1618553029e+01     0.655126     0.406697  73.26  0.001168191    1.806    0.446
       273 -12.5327      5.0759    138.4608   9.5251899091e+01   4.5946051817e+01    0.3184336    0.1829078  28.61  0.001006352    1.688    0.408
       274 -11.5221    126.7505    137.3796   5.5072404624e+01   2.8957371767e+01    0.2037001    0.1406181  28.42 0.0003189793    1.610    0.379
       275 -12.5927    118.8197    135.3712   5.6671273246e+01   3.0883071882e+01    0.4116417     0.324993  87.52  0.001589648    1.628    0.386
       276 -12.3822    103.0315    134.2214   6.0784240348e+01   3.4074799166e+01     0.279937    0.2295557 -54.57  0.001054912    1.220    0.180
       277 -13.9714     81.7068    127.8446   6.5997461339e+01   3.9489864613e+01    0.5541535    0.5162693 -86.10  0.001953872    1.061    0.057
       278 -13.0422     78.0681    133.4513   6.8347267203e+01   3.8647607473e+01    0.4015959     0.277761 -10.30  0.001630164    2.241    0.554
       279 -11.1454    128.2939    133.6474   5.3857375932e+01   2.9490405346e+01    0.1506276    0.1183658 -88.61 0.0004015721    1.683    0.406
       280 -10.9503    230.0966    130.6926   3.4726811192e+01   1.2731294964e+01    0.1565848    0.1273249 -25.52 0.0004567083    1.069    0.065
       281 -12.5668    206.2666    129.3987   3.7738040181e+01   1.6468901572e+01    0.2488452    0.1882871 -27.87 0.0003204095    1.141    0.124
       282 -12.4916     69.1481    130.7033   7.0815569412e+01   4.0822484551e+01    0.3281091    0.1880273 -37.91  0.001253715    2.260    0.558
       283 -13.3816     16.1869    129.3827   9.0386575322e+01   4.7668347908e+01    0.5870386    0.1807693  51.56  0.001854747    3.381    0.704
       284 -12.3268     21.6937    131.2965   8.8448723373e+01   4.6650703235e+01    0.2678371    0.2097727  26.10 0.0005799051    1.322    0.244
       285 -12.5965     21.9616    127.6922   8.7963141806e+01   4.7648120326e+01    0.3171667    0.2400974  81.27 0.0005050266    1.254    0.202
       286 -12.6673     50.1936    129.9397   7.7464889584e+01   4.3815394933e+01    0.3473063    0.1938038  41.36 0.0009275278    1.709    0.415
       287 -13.3293     44.5401    127.6631   7.9215430427e+01   4.5189702636e+01     0.573244    0.3040097  62.39  0.001383661    2.264    0.558
       288 -12.8586     44.3271    120.7199   7.8155428352e+01   4.7167145916e+01      0.41271    0.3209747 -19.76  0.001228634    1.610    0.379
       289 -11.2295    121.6982    128.0110   5.4248303898e+01   3.2005294626e+01    0.2215207    0.1893242 -53.93  0.001136169    1.156    0.135
       290 -13.5476     60.7532    126.6716   7.3015885657e+01   4.3211026958e+01    0.3650671    0.3040454  72.51 0.0006454944    1.220    0.180
       291 -12.7202     74.3553    125.1703   6.7905232084e+01   4.1445927424e+01     0.327524    0.2652845  15.64 0.0007426756    1.434    0.303
       292 -10.8577     97.2888    125.3477   6.0509028011e+01   3.7305688540e+01    0.1586009    0.1226657 -21.37 0.0005871661    1.660    0.398
       293 -11.7587    179.6771    122.8865   4.0594572097e+01   2.2030475856e+01    0.3474304    0.2077806 -40.98  0.001739838    1.472    0.321
       294 -13.3188     19.2373    123.3214   8.8573288973e+01   4.9134408690e+01    0.4893876     0.260208   4.44  0.001962581    2.407    0.585
       295 -11.6402    109.0604    123.0249   5.6507274116e+01   3.5614051803e+01    0.2342375    0.2208087  83.86 0.0003846005    1.080    0.074
       296 -11.5288    188.9837    121.6747   3.8760292063e+01   2.0597054823e+01    0.1716151    0.1636146 -27.83 0.0002218894    1.115    0.103
       297 -10.9567    165.4921    122.0257   4.2988499969e+01   2.4790874490e+01    0.2125412    0.1274501 -42.44 0.0004241389    1.514    0.339
       298 -12.0643    103.7987    121.6273   5.7691527919e+01   3.6970994201e+01    0.3433371    0.2756176  72.68  0.001108054    1.429    0.300
       299 -12.4487     98.8127    117.5220   5.8189342415e+01   3.8936490415e+01     0.386992    0.2724603  72.78 0.0009217907    1.857    0.462
       300 -13.7210      4.7379    118.6362   9.4070586265e+01   5.1542811274e+01    0.6083611    0.3438442  87.94  0.001938819    1.654    0.395
       301 -12.9024     14.0395    118.0319   9.0152306399e+01   5.1070952070e+01    0.3454767    0.2457308  34.93 0.0007327566    1.396    0.283
       302 -13.0989      9.2220    115.6331   9.1947262399e+01   5.2107401756e+01    0.4087722    0.2354195  83.61 0.0008033126    1.684    0.406
       303 -13.8995     13.1368    113.3484   9.0052265595e+01   5.2479709975e+01     0.773784    0.3027757 -76.66   0.00178301    2.341    0.573
       304 -11.7270     24.0345    115.2282   8.5620279282e+01   5.1012913702e+01    0.3857673    0.2320034  50.04 0.0008573011    1.651    0.394
       305 -10.6099    224.4585    120.4204   3.3392292882e+01   1.5044719073e+01    0.1213294   0.09598905 -33.13 9.686333e-05    1.011    0.011
       306 -12.0894     85.8624    135.1367   6.6173631055e+01   3.6896637840e+01    0.2503292     0.192075 -20.74 0.0005372875    1.689    0.408
       307 -12.8078     63.6664    119.1595   7.0456320521e+01   4.4807619641e+01    0.3534336    0.2191265 -38.82  0.001428754    1.963    0.490
       308 -10.1348    130.3279    128.2980   5.2130327786e+01   3.0272241892e+01    0.1499914    0.1181786  -5.60 0.0004791704    1.635    0.389
       309 -11.9140     68.2182    122.3961   6.9476972168e+01   4.3200990017e+01    0.2364482    0.1361258  44.61 0.0009527082    1.715    0.417
       310 -11.9161     51.2160    116.0813   7.4590537355e+01   4.7531777907e+01     0.571885    0.2652226  44.68  0.001232054    2.157    0.536
       311 -10.7110    196.8086    115.3853   3.6143616099e+01   2.0288305255e+01     0.157762    0.1225345  32.45 0.0003859363    1.552    0.355
       312 -12.9116     82.8196    113.0584   6.2248382558e+01   4.3109411693e+01    0.6571006    0.2238639 -59.29  0.001947021    3.277    0.695
       313 -11.6558    104.8275    114.0149   5.5513135745e+01   3.8590462349e+01    0.2450272    0.2092497 -89.83 0.0008533475    1.288    0.224
       314 -12.6250     64.5083    113.5070   6.8921828151e+01   4.6203595907e+01    0.3468483    0.2965247  -8.91  0.001485606    1.429    0.300
       315 -12.4266     61.5238    110.4777   6.9380239207e+01   4.7509153587e+01    0.3242301    0.2768529  75.65     0.001047    1.201    0.167
       316 -12.4902    109.9568    111.7643   5.3454749941e+01   3.8077221883e+01    0.2811472    0.2669623 -33.22 0.0004324324    1.115    0.103
       317 -11.4789     89.7199    110.9758   5.9426054249e+01   4.2325092557e+01      0.25773    0.2238499  44.90 0.0002544293    1.158    0.136
       318 -11.2043     92.1272    107.8497   5.7836090785e+01   4.2628727897e+01    0.2352827     0.213048 -12.01   0.00116921    1.300    0.231
       319 -11.4705     53.0720    110.9480   7.2813394301e+01   4.8687536288e+01    0.3363852     0.212819  39.45  0.001001757    1.551    0.355
       320 -12.0596    220.3368    108.4676   3.1428135879e+01   1.7450416386e+01    0.3517783    0.2065307 -50.17    0.0019575    1.665    0.400
       321 -11.3953    160.9831    110.0000   4.0983338371e+01   2.7926741731e+01    0.2270624   0.08296254  49.76 0.0008116562    3.007    0.667
       322 -11.0268    209.5031    108.0037   3.2719522805e+01   1.9296777350e+01    0.2048957    0.1052547 -36.09  0.001033841    1.597    0.374
       323 -11.9830    170.6758    108.3640   3.8790571055e+01   2.6313273872e+01    0.2227352    0.1622031 -68.85  0.001117442    1.703    0.413
       324 -11.7671    120.9496    106.9285   4.9188747283e+01   3.6876924403e+01    0.2255861    0.2151284 -67.33  0.000309525    1.007    0.007
       325 -11.1793    157.3697    105.7017   4.0612836837e+01   2.9470369874e+01    0.1484265    0.1105509 -77.71 0.0007030461    1.735    0.424
       326 -10.2026    245.7202    104.7127   2.7804163422e+01   1.4144022807e+01    0.1065943   0.07689102 -14.76 0.0002192718    1.520    0.342
       327 -13.9643      9.8545    106.1853   9.0746938154e+01   5.4765837503e+01    0.5782431    0.3217649  88.65  0.002058728    1.754    0.430
       328 -12.2606     79.0136    101.5037   6.0609837528e+01   4.6782214316e+01    0.3127511    0.2439148  70.28 0.0006102583    1.438    0.304
       329 -12.2151     32.4970     98.5396   7.9169741131e+01   5.4886222320e+01    0.5957739    0.2861116 -41.26  0.002175031    2.512    0.602
       330 -11.2788    208.1612     99.8221   3.1088108853e+01   2.0787524577e+01     0.166535    0.1378255 -17.47 0.0004071509    1.299    0.230
       331 -12.7513      3.7205    106.8750   9.3576191231e+01   5.4951389314e+01    0.3178417    0.2744607  34.81 0.0002868365    1.208    0.172
       332 -11.4491    193.5672    100.0000   3.3121873459e+01   2.3381028235e+01    0.2590354   0.07752605  54.65 0.0009368088    3.951    0.747
       333 -11.8013     93.7246     99.0616   5.4925354677e+01   4.4444543900e+01    0.3433259    0.2272975  45.44   0.00118464    1.521    0.343
       334 -11.3181     58.0711     97.6720   6.7689020917e+01   5.1531286525e+01    0.2669416    0.2363727 -64.05 0.0007767086    1.104    0.094
       335 -11.7703     24.7442     97.4684   8.2614033215e+01   5.6019844331e+01     0.413405    0.2601285 -28.63  0.000651025    1.975    0.494
       336 -13.3874     20.8226    117.0014   8.7198756499e+01   5.0801267749e+01    0.6529741    0.4207396  64.89  0.001735048    1.571    0.363
       337 -10.7740     45.7239     97.4449   7.2933627137e+01   5.3489243811e+01    0.1986496    0.1551707  12.48 0.0009276625    1.485    0.327
       338 -11.2826     81.6660     96.7066   5.8336688107e+01   4.7472669750e+01    0.1579988    0.1287776  -9.83 0.0007025269    1.639    0.390
       339 -10.7840     20.1325     96.0779   8.4596377516e+01   5.6849666492e+01    0.1960131     0.157466  59.48 0.0009941312    1.253    0.202
       340 -11.1672     98.8592     94.7340   5.2054742194e+01   4.4381809325e+01    0.2558157    0.2066412 -44.77 0.0006065308    1.256    0.204
       341 -12.0381     67.4982     94.8629   6.3123122424e+01   5.0640023591e+01    0.3687642    0.2014602  46.51  0.001113435    1.868    0.465
       342 -11.6431    117.2134     94.0796   4.6598032025e+01   4.0498408710e+01     0.227269    0.2047521 -64.29 0.0003447377    1.072    0.067
       343 -11.2195     78.4981     92.4960   5.8262351953e+01   4.9148192745e+01    0.1595743    0.1524393  89.36 0.0008106678    1.008    0.008
       344 -10.9323    207.1809     91.5998   2.9355827465e+01   2.2216210097e+01    0.1556659    0.1192184  40.13 0.0005199232    1.669    0.401
       345 -12.3495    230.2104     89.7832   2.6339889315e+01   1.8553543458e+01    0.2082781    0.1648029 -31.17 0.0003509132    1.145    0.126
       346 -11.4407     28.1978     90.3792   7.9610084944e+01   5.7664317893e+01    0.2203029    0.1296421  37.16 0.0009485013    1.694    0.410
       347 -11.5353      4.2752     88.0139   9.1446807928e+01   6.0281422245e+01    0.3344662    0.2208583 -44.05  0.001625675    1.549    0.355
       348 -12.3453     54.2991     86.0729   6.6176049437e+01   5.5235490708e+01    0.4762085    0.4260589 -11.08   0.00242131    1.291    0.225
       349 -12.7831    152.6715     81.1276   3.4946004779e+01   3.5028046190e+01    0.6758021    0.4219402   8.81  0.002093856    4.664    0.786
       350 -13.0517     61.5183     85.0621   6.2740582439e+01   5.4247343297e+01    0.5976428    0.2963586 -41.84  0.002158573    2.359    0.576
       351 -11.2416    244.1447     86.0129   2.4197373226e+01   1.6877929238e+01    0.1714916    0.1253237 -39.38 0.0003816123    1.007    0.007
       352 -11.2888    178.5011     86.5289   3.2072463071e+01   2.8535035086e+01    0.1397955    0.1206331 -48.88  3.27202e-05    1.006    0.006
       353 -10.5512     35.2325     86.3495   7.5234201097e+01   5.7958906459e+01    0.2013842    0.1362088  37.54 0.0004175128    1.487    0.327
       354 -11.6634    190.1701     83.6400   2.9678226036e+01   2.6653792250e+01    0.1949499    0.1562594 -79.06  0.000632664    1.391    0.281
       355 -11.5661    111.0866     83.6356   4.5103591421e+01   4.4120776620e+01    0.4427184    0.1789464  50.10  0.001361562    2.518    0.603
       356 -11.5056    171.5405     83.2295   3.2298093738e+01   3.0536848030e+01    0.1920644    0.1280823 -27.98 0.0007107972    1.597    0.374
       357 -11.6902     11.7283     86.9634   8.7414973979e+01   6.0110837629e+01    0.2906578    0.2026277  26.87 0.0005621875    1.492    0.330
       358 -11.6125    206.5509     80.9283   2.6969828749e+01   2.3930331691e+01    0.1810284    0.1726353 -31.94 0.0004038268    1.211    0.174
       359 -12.1077    182.2413     81.0093   3.0121014866e+01   2.8669193634e+01    0.2100144    0.1935454 -80.11 0.0003411793    1.152    0.132
       360 -10.9858    123.7389     81.0518   4.1039914174e+01   4.1712509718e+01    0.2130091    0.1806844 -49.66            0    1.131    0.116
       361 -11.4180    215.9692     79.9964   2.5700742299e+01   2.2354545143e+01    0.1973337     0.121346 -56.13  0.000407295    1.593    0.372
       362 -12.2731     87.4466     79.1117   5.0882514868e+01   5.0459023353e+01    0.3122186    0.2589882  50.40 0.0003272795    1.207    0.172
       363 -12.2445    188.1531     78.1411   2.8585082038e+01   2.7918736648e+01    0.2887092     0.203008 -14.13 0.0008412565    1.884    0.469
       364 -11.8626    112.2635     76.7549   4.2588635397e+01   4.5273343169e+01    0.4927669    0.2359373 -52.91  0.001379683    2.270    0.559
       365 -10.9684     51.6968     79.0468   6.5276278155e+01   5.7495853998e+01    0.2176127     0.199119 -73.65 0.0005821195    1.080    0.074
       366 -11.6791     29.1385     78.8312   7.6542359309e+01   6.0756082646e+01    0.2938629    0.2411786  79.93  0.001105718    1.294    0.227
       367 -12.0188    215.0004     75.3762   2.4754331705e+01   2.3185549834e+01    0.2367199    0.1488088 -38.83 0.0003267228    1.259    0.206
       368 -11.4507     75.1201     75.6654   5.4181259209e+01   5.3897674009e+01    0.2700112    0.2111368 -64.99 0.0005718382    1.339    0.253
       369 -11.1624     85.6800     75.0890   5.0124970783e+01   5.1753041182e+01    0.2161674    0.2033074 -56.35   0.00051186    1.071    0.066
       370 -11.1125    169.1459     74.1328   3.0243641757e+01   3.2561016857e+01    0.2064361     0.148126 -58.51 0.0008451847    1.336    0.251
       371 -11.2521    124.7922     85.3104   4.2081324092e+01   4.0613890676e+01    0.3780807    0.2300043 -28.88  0.001525841    2.077    0.519
       372 -10.9857    115.9432     74.4977   4.0894290192e+01   4.4852778467e+01     0.230418    0.1514086  55.20 0.0006781666    1.542    0.352
       373 -12.1999     51.0003     72.3607   6.3461128884e+01   5.9312151092e+01    0.3827062    0.2823953 -62.78  0.001117842    1.373    0.272
       374 -11.7018     53.3662     68.7302   6.1077007046e+01   5.9795265931e+01    0.2549841    0.1862502  54.48 0.0006066037    1.468    0.319
       375 -11.8852      2.1160     68.8495   9.0154798045e+01   6.5728898285e+01    0.5190337    0.2212984  83.59  0.001792621    2.781    0.640
       376 -11.1633    105.0566     72.9882   4.3316111211e+01   4.7743441737e+01     0.241393    0.2314626 -84.75  0.001131926    1.032    0.031
       377 -11.3021    182.6897     71.0992   2.7515288917e+01   3.0136203781e+01    0.2116522    0.1711119 -74.54 0.0002861685    1.262    0.208
       378 -10.6204     93.8246     68.5784   4.5131749722e+01   5.1295439655e+01     0.202312    0.1472619  65.97 0.0003446369    1.464    0.317
       379 -12.7147      7.3611     67.8068   8.6727740711e+01   6.5724615257e+01    0.2753024    0.2521376 -65.48 0.0003904865    1.012    0.012
       380 -12.1287      9.1675     63.6175   8.4753507239e+01   6.6740687075e+01    0.2535487    0.1671192 -19.59  0.001217653    1.698    0.411
       381 -12.3892    199.4515     65.4934   2.4081764600e+01   2.7542364355e+01    0.2424017    0.2000838 -53.63 6.733355e-05    1.047    0.044
       382 -11.0460     60.2519     67.0066   5.7264074650e+01   5.8923909973e+01    0.2124962    0.1949083 -57.33   0.00033098    1.085    0.078
       383 -11.7812     48.4767     67.0470   6.2871452907e+01   6.1060335738e+01      0.30719    0.2093056  52.00  0.001385428    1.586    0.370
       384 -11.7326    179.1456     64.4181   2.6223782962e+01   3.1910327145e+01    0.2525825    0.2116371 -58.37 0.0007775387    1.050    0.048
       385 -11.4502     44.7241     62.1844   6.3037862166e+01   6.2877357941e+01     0.292107    0.2041019  -3.67  0.001246264    2.102    0.524
       386 -12.8949    203.2045     66.3936   2.3894770392e+01   2.6675997848e+01    0.2409684    0.2165775 -49.59 0.0004548893    1.129    0.114
       387 -11.3983    108.9252     60.1599   3.7770327986e+01   4.9291306328e+01    0.2435295    0.1992007 -76.26 0.0006519624    1.267    0.211
       388 -11.2374    192.5087     57.4832   2.2835027191e+01   3.0087724448e+01    0.1343601    0.1090858 -51.99 0.0008103808    1.007    0.007
       389 -11.3707    160.1807     57.4125   2.6872229557e+01   3.7238055631e+01    0.1894188    0.1296347  87.92 0.0005127608    1.604    0.377
       390 -11.3191    120.5543     57.0284   3.3879264003e+01   4.6951335520e+01    0.2217624    0.1445398 -38.72 0.0002956674    1.520    0.342
       391 -11.2350    149.6463     56.2429   2.8131922657e+01   3.9913510619e+01    0.2342807    0.1828038 -87.98  0.001231705    1.299    0.230
       392 -10.9746     52.4807     56.4724   5.6810724188e+01   6.2833786738e+01    0.2821773    0.1326973  50.64   0.00103097    2.413    0.586
       393 -10.9470    126.3881     54.1215   3.1635659642e+01   4.5977737842e+01    0.2262533    0.1226372 -48.29  0.000941539    1.786    0.440
       394 -11.1648    115.5996     53.8250   3.3855306684e+01   4.8739851884e+01    0.2093354    0.1316746 -49.75 0.0003570708    1.563    0.360
       395 -12.4219     30.8248     56.3998   6.8822979236e+01   6.6400530299e+01    0.8452692     0.235769  47.25   0.00196114    6.823    0.853
       396 -13.4489     30.9055     50.0782   6.6331025334e+01   6.7919349799e+01    0.4236277    0.3257434  48.49  0.001392334    1.402    0.287
       397 -10.6776    222.9672     49.9928   1.8245481900e+01   2.5129693146e+01    0.1443284     0.113363 -52.16 0.0003586335    1.060    0.056
       398 -11.9982     19.1648     47.7251   7.3366640344e+01   6.9971424311e+01    0.4722567    0.1813524 -57.57  0.001830084    2.344    0.573
       399 -11.0452    143.5324     44.5103   2.5381150270e+01   4.3168569345e+01    0.1453948    0.1281941 -67.62 5.696222e-05    1.006    0.006
       400 -13.7104     36.7167     40.1479   5.8130501396e+01   6.9240674892e+01     0.405346    0.3544996  30.69 0.0009996005    1.130    0.115
       401 -11.3827    119.2411     40.7092   2.8255286315e+01   4.9881747013e+01    0.3201377    0.2147878  16.89  0.001326259    2.577    0.612
       402 -10.9796    241.7334     40.0527   1.4801093880e+01   2.3021266362e+01    0.1632285    0.1090078 -42.58 0.0003573209    1.088    0.081
       403 -10.3420    130.6821     40.7496   2.6183727080e+01   4.6941390421e+01    0.1374975    0.1091813  41.77 0.0002585133    1.528    0.345
       404 -12.9192     25.2941     37.6405   6.4593463708e+01   7.1567284347e+01    0.4225397    0.2636984  12.23  0.001758982    1.980    0.495
       405 -10.7974     53.3215     38.3080   4.7947159031e+01   6.6422622677e+01    0.1467673    0.1145076   9.82 0.0003572224    1.643    0.391
       406 -11.6020     77.9610     37.0913   3.7299335982e+01   6.0964495357e+01    0.2185521     0.205799  68.16  0.000424386    1.019    0.019
       407 -13.0466     44.5016     33.3251   4.9877467386e+01   6.9156503831e+01    0.4540888    0.3465968 -43.06  0.001760367    1.352    0.260
       408 -12.9117     31.8812     32.3615   5.7142476667e+01   7.1664959763e+01     0.405036    0.3344029 -50.24   0.00176272    1.263    0.208
       409 -12.0543    106.8985     32.5194   2.7550455524e+01   5.4246609497e+01    0.2691636    0.2141924 -37.94 0.0005660916    1.293    0.227
       410 -10.5329     67.5232     33.5447   3.9280731853e+01   6.4057655585e+01    0.1454473    0.1374862  72.80 6.421887e-06    1.032    0.031
       411 -12.7894     78.3271     31.2658   3.4360654560e+01   6.1773212102e+01    0.3510947    0.2517257 -76.47  0.001660247    1.698    0.411
       412 -11.8464    208.8267     30.7533   1.4771492978e+01   3.0183573413e+01    0.2309426    0.1480041 -79.23 0.0007846933    1.558    0.358
       413 -10.4185      8.6617     31.7439   7.5420020311e+01   7.4833887343e+01    0.1385142   0.09211775 -24.87 0.0002100519    1.576    0.365
       414 -12.0524     19.4353     29.8130   6.5077617235e+01   7.4070564177e+01    0.2353282    0.2187284   5.43 0.0003128541    1.041    0.040
       415 -10.9089      3.2452     29.6183   7.9621688458e+01   7.5760785131e+01    0.1873446    0.1181668  -4.30 0.0009509533    1.684    0.406
       416 -12.4142    139.3645    248.0149   6.9883596139e+01   6.3757290348e+00     0.243743    0.2083305  -9.83  0.001249187    1.212    0.175
       417 -12.0320     45.5645     25.9149   4.4937691789e+01   7.0239373233e+01    0.2697362     0.199922  56.17 0.0006056573    1.374    0.272
       418 -10.5359    221.2920     25.3108   1.2734051992e+01   2.8375969640e+01    0.1000994   0.09030253   1.49  0.000283186    1.587    0.370
       419 -13.1518     68.3890     23.2930   3.3491109496e+01   6.5369198593e+01    0.5106566    0.3349139  -6.47  0.002306718    2.159    0.537
       420 -11.1743    166.1507     22.1569   1.5741455507e+01   4.0514766153e+01    0.1832045     0.169393 -73.20 0.0003138474    1.168    0.144
       421 -11.1882    132.9431     21.3741   1.8976347930e+01   4.8837307085e+01    0.2201397    0.1657059 -66.01   0.00046686    1.205    0.170
       422 -10.5249    143.5132     18.5346   1.6772555064e+01   4.6457475599e+01    0.1405026    0.1171298 -68.93 0.0001054883    1.022    0.022
       423 -12.0700    162.2200    247.0216   6.5344868344e+01   4.0825745041e+00    0.2086574    0.1431752   0.78 0.0006693688    1.252    0.201
       424 -10.7489     31.3175     16.0403   4.6888674826e+01   7.4706125955e+01    0.1811615    0.1700099  -8.52 0.0004297365    1.077    0.072
       425 -10.5896     85.4938    246.4629   8.1100854211e+01   1.2555968251e+01    0.1203885    0.0951696  24.81 0.0001951596    1.045    0.043
       426 -10.5869     80.3652    246.1967   8.2215968800e+01   1.3160680291e+01    0.1316812    0.1091948  72.77 0.0002002812    1.466    0.318
       427 -10.5099     54.1835    244.6820   8.8003221515e+01   1.6202285611e+01    0.3571005    0.0917408  44.80  0.001441119    3.082    0.676
       428 -11.1431    167.7955    243.1427   6.3818425420e+01   4.0259092883e+00     0.157851    0.1291655  15.54 0.0006141787    1.225    0.184
       429 -10.9209     60.6000    242.4784   8.6395484113e+01   1.5939909729e+01    0.1656419    0.1307834  64.21 0.0005143765    1.353    0.261
       430 -13.9309     52.9293    236.0597   8.7738661801e+01   1.7946047055e+01    0.4892053    0.3291306 -54.77   0.00194454    1.847    0.459
