#   1 NUMBER                 Running object number                                     
#   2 MAG_AUTO               Kron-like elliptical aperture magnitude                    [mag]
#   3 X_IMAGE                Object position along x                                    [pixel]
#   4 Y_IMAGE                Object position along y                                    [pixel]
#   5 X_WORLD                Barycenter position along world x axis                     [deg]
#   6 Y_WORLD                Barycenter position along world y axis                     [deg]
#   7 A_WORLD                Profile RMS along major axis (world units)                 [deg]
#   8 B_WORLD                Profile RMS along minor axis (world units)                 [deg]
#   9 THETA_WORLD            Position angle (CCW/world-x)                               [deg]
#  10 FWHM_WORLD             FWHM assuming a gaussian core                              [deg]
#  11 ELONGATION             A_IMAGE/B_IMAGE                                           
#  12 ELLIPTICITY            1 - B_IMAGE/A_IMAGE                                       
         1 -13.4965    166.9687     56.6908   6.5741863492e+01   3.5705516648e+01     2.307196     1.421327  22.51   0.00712889    2.366    0.577
         2 -13.2204    181.1887     41.1059   5.8269334763e+01   3.4239579836e+01    0.9370794    0.8709905 -52.87  0.002780864    1.070    0.065
         3 -12.7844    228.3650      3.3286   4.1978858097e+01   2.6463994210e+01     2.011169    0.4612925  78.45  0.006166943    5.025    0.801
         4 -13.7736    202.3030      9.7445   4.5846541559e+01   3.2300480180e+01     1.157578     1.002019 -17.13  0.003750594    1.196    0.164
         5 -11.7679    190.3584     14.8120   4.8612945666e+01   3.4912764238e+01    0.4667438    0.3699148 -57.77   0.00165217    1.244    0.196
         6 -11.9127     11.2802    205.3610   1.2975486618e+02   3.1626660448e+01    0.2631347    0.1659135  50.94  0.001433586    1.147    0.128
         7 -13.4468    247.8858    245.3153   9.0786935450e+01  -3.4852650891e+00     1.159231    0.6866704 -21.78  0.009139589    1.888    0.470
         8 -18.0413     46.5384    239.0979   1.2448193643e+02   2.2684556728e+01     6.160131     4.958824  50.65   0.04781378    1.224    0.183
         9 -11.0135    193.0978    195.1125   9.2445206733e+01   8.8860481420e+00    0.7222131    0.4192168 -61.20  0.002795731    6.068    0.835
        10 -19.1222     33.1194    102.0760   1.1759160031e+02   5.1514846445e+01     16.54248    0.9132572 -72.06   0.02747502   15.592    0.936
        11 -11.9316    151.3249    195.9830   1.0044484077e+02   1.5350784232e+01    0.3509243    0.2871603  31.33  0.002129958    1.052    0.049
        12 -10.4730     82.0116    195.6342   1.1471927313e+02   2.5619756097e+01     0.290836    0.2662887  18.00  0.002133349    1.405    0.288
        13 -12.1385     68.8060    194.3923   1.1742057737e+02   2.7533345035e+01    0.4309391    0.3230075  16.14  0.002785559    1.808    0.447
        14  -9.1551    159.5746    194.7451   9.8656341075e+01   1.4226548247e+01     0.137398    0.1205052 -64.60 0.0006703977    1.564    0.361
        15  -9.2743     61.7479    192.0336   1.1874422405e+02   2.8825438934e+01    0.1471269    0.1315992  54.70 0.0006022074    1.210    0.174
        16  -8.5075    164.6799    187.3122   9.6562324912e+01   1.4474066233e+01    0.1183944   0.09078167  60.48 0.0003695087    1.649    0.394
        17 -10.8810    153.1730    184.2838   9.8391114109e+01   1.6809332908e+01    0.2126494    0.1903515 -64.44  0.001429594    1.444    0.307
        18 -12.6334    145.7230    182.4431   9.9638063934e+01   1.8319841452e+01    0.4703279    0.3908659  89.64  0.002304769    1.640    0.390
        19 -12.1171    142.9843    173.5662   9.8863697347e+01   2.0219509362e+01    0.4495078    0.3526318 -43.32  0.001987412    1.500    0.333
        20 -10.0779    189.3008    178.4831   9.0439888788e+01   1.1643350081e+01     0.318106    0.2306565  53.15  0.001214912    1.676    0.403
        21 -10.1498    187.9026    173.7419   8.9888116315e+01   1.2524188154e+01    0.2916096    0.2434182 -70.54  0.001407652    1.957    0.489
        22 -12.3375     71.9139    210.4393   1.1802295429e+02   2.4353512948e+01    0.3548244     0.187842  30.38  0.001013053    1.861    0.463
        23  -9.2069    195.4848    172.9180   8.8338092866e+01   1.1354973918e+01    0.1765164     0.119547 -28.11  0.001034645    1.600    0.375
        24  -9.5154    186.9137    165.3970   8.8593425577e+01   1.3866092641e+01    0.2234774    0.1787954 -48.82 0.0009822121    1.636    0.389
        25 -11.0604     96.4732    157.0750   1.0702225568e+02   3.0879957629e+01    0.2355448    0.2228648  71.26 0.0003716278    1.116    0.104
        26 -12.2887    101.1325    150.7372   1.0494852765e+02   3.1435021404e+01    0.5822926    0.4529206 -27.99  0.002066009    1.771    0.435
        27 -11.0625    133.9512    145.6003   9.6138149046e+01   2.6786918588e+01     1.013883    0.3003385 -55.82  0.002907485    5.577    0.821
        28 -10.1709    113.1595    151.2385   1.0207641078e+02   2.9356039176e+01    0.2545469    0.1709029  86.15  0.001224939    2.129    0.530
        29  -9.8554    174.7655    149.1391   8.7905978453e+01   1.8523965188e+01    0.2348875    0.1734801  49.65 0.0006406123    1.388    0.280
        30 -10.3351    143.5198    146.5614   9.4113909742e+01   2.4840343653e+01    0.3616633    0.1389178 -50.84  0.001369552    3.107    0.678
        31  -8.9767    158.3908    145.6857   9.0652973361e+01   2.2194754974e+01    0.1403669    0.1067447  72.99 0.0002377253    1.839    0.456
        32 -11.3715    111.0366    137.3860   1.0023809600e+02   3.2529403620e+01    0.4634824     0.355242 -22.39  0.002397421    1.807    0.447
        33  -9.8579     76.4775    205.9646   1.1675558283e+02   2.4541209112e+01    0.2295314    0.1350451  80.95 0.0009083922    1.994    0.498
        34 -11.8605    100.0492    136.5502   1.0293386036e+02   3.4575720082e+01    0.2652715    0.2445424  47.54 0.0004402838    1.081    0.075
        35 -11.1436    105.9859    130.8083   1.0034637320e+02   3.4792845222e+01    0.3818753    0.3117396 -74.10  0.001226163    1.315    0.239
        36  -9.5570    174.2711    210.4253   9.8083878909e+01   9.8575435990e+00    0.2312443   0.08928917  36.01  0.001134348    2.059    0.514
        37 -10.0710    117.0002    128.5296   9.7031989043e+01   3.3301083935e+01    0.2690183    0.2253944   7.19 0.0007026505    1.489    0.328
        38 -10.1577    161.0849    127.7194   8.6324444860e+01   2.4806999914e+01    0.2668353    0.2513663 -81.59  0.001324729    1.250    0.200
        39 -10.4175    105.2137    124.2187   9.9295309624e+01   3.6344900641e+01    0.2633584     0.232241 -32.07 0.0007533311    1.329    0.247
        40  -9.5607    120.8247    123.1838   9.4950759976e+01   3.3696612417e+01    0.1936536    0.1727285   0.56 0.0005577847    1.323    0.244
        41  -9.6538    111.8302    118.0236   9.6237337102e+01   3.6480993405e+01      0.24217    0.1959707  43.11 0.0003454869    1.186    0.157
        42  -9.8502    231.2814    113.6736   7.0100030035e+01   1.2784011521e+01    0.2405321    0.1974374  11.64 0.0007117395    1.129    0.114
        43 -10.0603    168.0247    113.0654   8.1428449405e+01   2.5931433780e+01    0.3538119    0.2826137 -75.33  0.001282267    1.732    0.423
        44 -11.0259    117.9942    109.4896   9.2663915818e+01   3.7124762110e+01    0.3800316    0.2510715  59.93  0.001721962    1.713    0.416
        45  -9.7603    205.4714    110.0477   7.3455474874e+01   1.8430067178e+01    0.2567317    0.1820613  29.56 0.0006829422    1.433    0.302
        46  -9.8517    134.5801    104.7297   8.7157295755e+01   3.4708288696e+01    0.3661606    0.1458599 -46.66  0.001298027    2.629    0.620
        47  -9.4713    127.8146     94.9349   8.6376219282e+01   3.8145479239e+01    0.2292821    0.2045697   3.04 0.0005777958    1.277    0.217
        48 -10.5400     77.8836     74.9428   9.6255484062e+01   5.2315793560e+01    0.3789687     0.197501  46.38 0.0008987912    2.029    0.507
        49  -9.3930    167.5371    229.0890   1.0167383681e+02   8.5680816024e+00    0.1256541    0.1099038 -28.56 0.0004888623    1.504    0.335
        50 -11.2244      6.0378    224.9433   1.3120638564e+02   2.8793644004e+01    0.1215843   0.08850435  25.74 0.0009776128    1.706    0.414
        51 -12.6084    185.9588     34.6541   5.5503043810e+01   3.3817688646e+01    0.6185623    0.5030314  28.17  0.001652825    1.373    0.272
        52  -9.6076     13.5079     59.9457   1.1925971036e+02   6.3306980922e+01    0.2027623    0.1585978  56.36 0.0004411416    1.382    0.276
        53 -11.1896     15.7810    206.4098   1.2891825700e+02   3.1044201023e+01    0.1970454    0.1457357  35.63  0.001140909    1.412    0.292
        54 -12.0807    198.5058     23.2015   5.0335302238e+01   3.1889340780e+01    0.4360676    0.3749926  -4.20  0.001669543    1.254    0.202
        55 -10.2470     19.4045    214.0569   1.2847333667e+02   2.9399000508e+01    0.1611254   0.08841634  54.58 0.0009872928    1.271    0.213
