#   1 NUMBER                 Running object number                                     
#   2 MAG_AUTO               Kron-like elliptical aperture magnitude                    [mag]
#   3 X_IMAGE                Object position along x                                    [pixel]
#   4 Y_IMAGE                Object position along y                                    [pixel]
#   5 X_WORLD                Barycenter position along world x axis                     [deg]
#   6 Y_WORLD                Barycenter position along world y axis                     [deg]
#   7 A_WORLD                Profile RMS along major axis (world units)                 [deg]
#   8 B_WORLD                Profile RMS along minor axis (world units)                 [deg]
#   9 THETA_WORLD            Position angle (CCW/world-x)                               [deg]
#  10 FWHM_WORLD             FWHM assuming a gaussian core                              [deg]
#  11 ELONGATION             A_IMAGE/B_IMAGE                                           
#  12 ELLIPTICITY            1 - B_IMAGE/A_IMAGE                                       
         1 -14.7903      2.6173    132.7593   1.4473614082e+02   4.7418933144e+01     6.584671          nan -73.48   0.01564001    9.118    0.890
         2 -13.4749    198.0988     28.2644   6.7551010201e+01   3.2162935150e+01     1.449812     1.145914  55.93  0.005390931    1.290    0.225
         3 -13.6401    214.9688      7.9578   6.0327195777e+01   3.0187344410e+01    0.9593471    0.7993681  70.54  0.002856192    1.198    0.166
         4 -10.7657     96.2579    153.3266   1.2351292500e+02   3.1727176816e+01    0.3184976    0.3121751 -44.76 0.0008391166    1.204    0.170
         5 -12.6430    238.4019    247.4387   1.0998144708e+02  -9.0434066539e+00    0.5464065    0.3497225  29.66  0.003706548    1.220    0.180
         6 -13.8142     32.3114    247.0046   1.4640400884e+02   2.1298022974e+01     1.450924     1.040488  34.47   0.01076614    1.812    0.448
         7 -13.7284      9.5525    243.6847   1.4991465008e+02   2.4293633022e+01     1.507677     1.267494  89.49   0.01321001    1.471    0.320
         8 -13.3755     45.6788    216.3080   1.4213870242e+02   2.5355120353e+01      1.05787    0.7745437  88.68  0.005384719    1.204    0.169
         9 -10.4395    198.4876    246.4747   1.1671633846e+02  -2.9727948210e+00    0.1193637   0.09191639  30.38 0.0003270668    1.011    0.011
        10 -10.7813    171.0124    247.6935   1.2181443761e+02   1.2231070692e+00     0.176269    0.1283534  37.70  0.000606488    1.068    0.064
        11 -10.8466     80.7302    248.6766   1.3826477034e+02   1.4915725067e+01    0.2254709    0.1407308  61.14  0.001489425    1.276    0.216
        12 -11.1449    139.4799    245.9746   1.2736713282e+02   6.5221754196e+00    0.2121028    0.1555384 -43.99  0.001386805    1.806    0.446
        13 -11.6970     98.8057    248.3526   1.3502377704e+02   1.2394111719e+01    0.3542238    0.2756847  13.20  0.002265799    2.154    0.536
        14 -10.0359    186.6678    241.3295   1.1810655400e+02  -4.3753992468e-01    0.1155656   0.08667275  60.78 0.0007051894    1.719    0.418
        15 -11.4034    146.7317    248.0148   1.2627740206e+02   5.0635132500e+00    0.3020487    0.2229131  78.64  0.001922859    1.789    0.441
        16 -12.0427    118.7013    232.2425   1.2968357541e+02   1.2038859071e+01    0.4301461    0.1813821  43.37  0.002097734    1.898    0.473
        17 -11.4571    105.5183    230.7536   1.3204055675e+02   1.4360843757e+01     0.275997     0.161916  44.23  0.001378608    1.405    0.288
        18 -10.0780    135.9859    232.0000   1.2634416953e+02   9.2824691439e+00    0.2156092   0.05861052  41.33 0.0008078868    2.980    0.664
        19 -12.2277     94.8672    228.7720   1.3387090205e+02   1.6329877307e+01    0.6501075    0.1641546  49.62  0.002435636    3.455    0.711
        20  -9.7893     54.8692    230.1338   1.4145851342e+02   2.1608260647e+01    0.1896873    0.1159248  64.63  0.000864502    1.300    0.231
        21  -9.9682    173.4950    222.4049   1.1780156246e+02   4.4592621855e+00    0.2592422    0.1862584  53.06  0.001522889    1.409    0.291
        22 -13.2919     30.4656    234.1757   1.4602098585e+02   2.3767204761e+01    0.2992054    0.2446716 -74.09 0.0007673037    1.547    0.353
        23  -8.7368    152.5054    213.0370   1.2051756838e+02   9.6373370059e+00    0.1618775    0.1322111 -50.00 0.0003299745    1.445    0.308
        24 -12.3729      9.7047    207.0075   1.4821047029e+02   3.1035474172e+01    0.6195109    0.3648315  35.75  0.002955584    1.893    0.472
        25 -14.2335     35.1129    228.2676   1.4486932321e+02   2.4324612820e+01    0.7298037    0.4725376  63.68  0.002382768    1.145    0.127
        26 -11.9283     58.0330    200.0875   1.3836292338e+02   2.7059621727e+01    0.2665684    0.2132149  79.96 0.0005029755    1.061    0.058
        27 -10.7327    123.1903    249.6155   1.3074580275e+02   8.5207546139e+00    0.2362808   0.08640804  42.07  0.001126242    2.113    0.527
        28 -10.1471      8.8599    193.9722   1.4766133676e+02   3.3710849402e+01     0.229512    0.1200637  53.33 0.0008381759    1.601    0.375
        29 -12.1918     64.6660    191.4346   1.3611894747e+02   2.7992948795e+01    0.2523412    0.2213991  89.76 0.0003398558    1.169    0.145
        30 -10.9892     27.2118    185.0573   1.4342600439e+02   3.3787419328e+01    0.5118964    0.1731225  69.92  0.001855159    4.435    0.775
        31 -13.1524     61.8259    176.5641   1.3510756450e+02   3.1588421320e+01    0.4832767    0.2676272 -48.57  0.001695742    2.316    0.568
        32 -10.9899     75.5464    178.1837   1.3218841061e+02   2.9339584022e+01    0.2426122    0.2075803  85.95 0.0003529765    1.057    0.054
        33 -13.8848      8.6822    154.5474   1.4508265455e+02   4.2111021654e+01     1.964175     0.782849 -87.69   0.00956715    2.283    0.562
        34 -10.9841    248.6572    249.7585   1.0864541918e+02  -1.0703172902e+01    0.3304448     0.181621  30.18  0.002132127    1.419    0.295
        35  -9.5914     99.1804    149.0328   1.2201155958e+02   3.2219733557e+01    0.2306088    0.2026082  48.45 0.0004642736    1.156    0.135
        36 -12.1085     84.7666    152.0607   1.2619362161e+02   3.3872764361e+01    0.2940409    0.2472914 -51.54  0.000686537    1.301    0.231
        37 -12.1683     67.6281    143.5293   1.2922981177e+02   3.8378219622e+01    0.6479473    0.4086463  67.21  0.002151676    1.778    0.437
        38 -10.2373    108.5462    137.7822   1.1741740707e+02   3.3150765683e+01    0.4911337     0.332607 -18.98  0.001688564    2.602    0.616
        39 -10.7186     95.5664    135.1272   1.2030583278e+02   3.6064494570e+01    0.2463575    0.2362309 -65.37 0.0003550959    1.099    0.090
        40  -9.0694    114.8172    130.0444   1.1411775956e+02   3.3744954785e+01    0.2475751    0.1735115 -25.40  0.001077367    2.013    0.503
        41 -11.3448     26.6983    129.0211   1.3808151862e+02   4.6417758712e+01    0.4180664    0.2040282  53.04  0.002098075    2.252    0.556
        42  -8.5794     76.4870    129.5216   1.2441991801e+02   4.0429155503e+01    0.1423713    0.1250045 -89.87 0.0008087845    1.083    0.077
        43 -11.0300     18.7035    124.5806   1.3970692145e+02   4.8120077301e+01    0.2768542    0.1630914  53.08 0.0009508723    1.818    0.450
        44  -9.0100    106.1030    124.1254   1.1512310041e+02   3.6750172606e+01    0.1977232    0.1924102 -17.73 0.0002831606    1.143    0.125
        45  -8.4905     65.2794     81.6441   1.1702483286e+02   5.3147642549e+01     0.135045    0.1056176 -88.12  0.000618579    1.658    0.397
        46 -11.0581    158.4087     76.6226   8.8800914250e+01   3.5163891766e+01    0.3208518    0.2949058 -80.20 0.0007991634    1.150    0.130
        47 -10.3246     90.0009    168.0070   1.2741616058e+02   2.9414871458e+01    0.3332254    0.2728682 -73.48  0.001608511    1.186    0.157
        48 -11.9814      2.9089     49.2809   1.3263377928e+02   6.5889284679e+01    0.4218331    0.1879172 -62.01  0.001844502    1.727    0.421
        49 -11.2558    216.9187    249.1978   1.1388761545e+02  -6.1120691630e+00    0.3050591    0.1364508  39.37  0.001665203    1.789    0.441
        50 -11.1970    157.9673    249.5116   1.2441194162e+02   3.0569533495e+00    0.3347315   0.09338345  41.09  0.001374406    2.776    0.640
        51 -12.0850     82.7817    169.0646   1.2928429773e+02   3.0295969045e+01    0.7590947    0.5213556 -49.35  0.004043153    1.680    0.405
