#   1 NUMBER                 Running object number                                     
#   2 MAG_AUTO               Kron-like elliptical aperture magnitude                    [mag]
#   3 X_IMAGE                Object position along x                                    [pixel]
#   4 Y_IMAGE                Object position along y                                    [pixel]
#   5 X_WORLD                Barycenter position along world x axis                     [deg]
#   6 Y_WORLD                Barycenter position along world y axis                     [deg]
#   7 A_WORLD                Profile RMS along major axis (world units)                 [deg]
#   8 B_WORLD                Profile RMS along minor axis (world units)                 [deg]
#   9 THETA_WORLD            Position angle (CCW/world-x)                               [deg]
#  10 FWHM_WORLD             FWHM assuming a gaussian core                              [deg]
#  11 ELONGATION             A_IMAGE/B_IMAGE                                           
#  12 ELLIPTICITY            1 - B_IMAGE/A_IMAGE                                       
         1 -15.4560    190.0978    178.7596   2.4560101914e+01   1.0545036420e+01     5.571428     2.966024 -26.51   0.02777968    2.039    0.510
         2 -18.2460    242.9822     58.3775   3.5417713455e+02   2.1328406111e+01     8.215607     1.226999 -35.84   0.02715563    5.085    0.803
         3 -15.0651    150.9521    123.8943   2.1289173153e+01   2.7224908966e+01     1.603215     0.487201 -38.75  0.004767734    3.987    0.749
         4 -12.9918    209.3478     28.1332   3.5035212788e+02   3.1092340867e+01    0.5235941    0.3879634 -79.60  0.003582984    1.243    0.195
         5 -11.9692      3.2499    242.8955   7.5032676983e+01   2.0201182078e+01    0.3451318    0.1669113  45.26  0.001463722    1.532    0.347
         6 -11.2764    124.6221    249.9659   4.8122045168e+01   6.4295595973e+00    0.1784821     0.163703 -84.83  0.001108353    1.531    0.347
         7 -10.8704    108.0453    249.9191   5.1670677891e+01   8.2665087583e+00     0.180097    0.1262013 -14.55  0.000625283    1.630    0.386
         8 -14.7449     38.9922    244.2968   6.6904421858e+01   1.6692209529e+01     1.214216      0.89082  23.67  0.007738243    1.251    0.200
         9 -12.4041    103.7720    242.7538   5.1871031897e+01   9.9975872634e+00    0.4513431    0.4379292 -81.87  0.002845994    1.286    0.222
        10 -12.9825     84.8034    232.0559   5.5143747349e+01   1.4187034687e+01    0.5768796    0.3280075 -39.06  0.002350536    2.199    0.545
        11 -11.9532     90.6333    223.5726   5.2869478918e+01   1.5183900701e+01    0.5168861    0.2662879 -26.27  0.002085146    3.339    0.701
        12 -12.9245     49.2962    249.7754   6.4862025247e+01   1.4601980365e+01    0.7196256    0.2103837  24.97  0.002939583    2.820    0.645
        13 -15.4196     59.5669    239.2413   6.1751426366e+01   1.5584076926e+01      1.65131     1.081351 -15.12   0.00883282    2.155    0.536
        14 -13.5698     77.4109    237.3338   5.7387167776e+01   1.4000702157e+01    0.5238894    0.3695257 -49.74  0.001951604    1.661    0.398
        15 -13.7084     68.1433    241.0844   5.9881092840e+01   1.4297973458e+01    0.6029717    0.4046345 -19.06  0.002351995    2.023    0.506
        16 -13.4991     62.1878    248.7948   6.1851414313e+01   1.3460605667e+01    0.9109757     0.335597  20.24  0.003851583    2.717    0.632
        17 -12.4525     87.7138    249.8291   5.6153572903e+01   1.0524705917e+01    0.3444258     0.214173  13.12  0.001965022    1.581    0.368
        18 -13.1369     93.3107    245.6832   5.4510892361e+01   1.0650916003e+01    0.5260651    0.3498043   3.26  0.002079427    1.656    0.396
        19 -13.0991     74.2115    248.5793   5.9093093393e+01   1.2220991805e+01    0.5594289    0.3907503 -30.35  0.003362202    1.824    0.452
        20 -13.5519     80.4886    245.0818   5.7364928156e+01   1.2185338286e+01    0.6238762    0.4308107 -19.25  0.002677846    1.852    0.460
        21 -11.8696     20.6682    248.7946   7.1311455072e+01   1.7531015515e+01    0.4050147    0.1553779  44.84   0.00183746    1.929    0.482
        22 -11.7518     12.4399    248.8943   7.3158827440e+01   1.8236874856e+01    0.3535784    0.1539807  47.47  0.001668495    1.735    0.423
        23 -11.4031      3.6435    250.3681   7.5147719186e+01   1.8690918506e+01     0.336603    0.1174856  24.79  0.001615579    2.333    0.571
        24 -11.7668    249.1931    241.6971   2.4918653922e+01  -4.4187580629e+00    0.2720856    0.1350522 -13.48  0.001738253    1.827    0.453
        25 -11.3419    228.5029    243.1754   2.8169796393e+01  -2.9223151451e+00    0.2852661    0.1137654  13.18   0.00150493    3.044    0.672
        26 -10.9752    125.3846    241.7685   4.7026709908e+01   7.7087068849e+00    0.2226026    0.1795984  -2.04  0.001198139    1.167    0.143
        27 -11.8848    117.8669    240.4791   4.8506173821e+01   8.7882882204e+00    0.2723621    0.2024965 -45.77  0.001101872    1.523    0.343
        28 -11.7761     14.8159    239.3354   7.2276217958e+01   1.9943372272e+01     0.521814   0.08491272  36.60  0.002035756    3.027    0.670
        29 -10.8988    242.0009    241.0163   2.5856129210e+01  -3.7730332865e+00    0.1645875   0.08696137 -10.94 0.0008889469    1.695    0.410
        30 -10.8823    134.7335    240.9975   4.4950488902e+01   6.7793731833e+00    0.1595885    0.1425252   0.18 0.0007807299    1.129    0.114
        31 -11.0124    111.9221    238.5010   4.9593899881e+01   9.8221752813e+00    0.2165739    0.1520161 -26.91 0.0008268889    1.611    0.379
        32 -11.9995    217.6637    210.7664   2.5157604337e+01   2.3460854363e+00      0.36838    0.2932702   3.87  0.002510325    1.196    0.164
        33 -12.2601    229.5258    220.6638   2.4804655026e+01  -1.6048859173e-01    0.5066541    0.2374062 -30.07  0.003122589    1.752    0.429
        34 -11.3347    249.1350    227.5494   2.2944533617e+01  -2.7465194494e+00    0.4294823     0.224802  15.93  0.002936054    1.931    0.482
        35 -12.5032    226.2202    206.4485   2.3155846535e+01   2.0808518730e+00    0.7993032    0.3195119  18.38  0.003692897    3.762    0.734
        36 -11.4383    233.4256    237.0170   2.6568300908e+01  -2.5850387531e+00    0.3727553    0.1587157  20.17  0.001856989    2.364    0.577
        37 -12.6892    239.1889    230.5702   2.4801789505e+01  -2.2815159404e+00    0.6877082    0.4018092  21.83  0.004274141    1.732    0.423
        38 -13.8241    237.8429    213.4441   2.2489923241e+01   1.4116308837e-02     1.218707    0.6652829  28.06  0.008276166    2.010    0.503
        39 -10.0302    211.3459    237.3204   3.0079417977e+01  -6.6306913944e-01    0.1144383   0.06392018  -9.79 0.0007049465    1.731    0.422
        40 -10.6012    205.3383    235.8390   3.0868468081e+01   1.0028614668e-01     0.165697    0.1203412  16.52 0.0006590095    1.312    0.238
        41 -10.9705    139.1458    236.3988   4.3455837767e+01   7.0421089222e+00    0.1693845    0.1303611  23.65 0.0006218957    1.154    0.134
        42 -12.8829    236.7671    221.9602   2.3912398052e+01  -9.8915361816e-01    0.5871665    0.3009359  30.41   0.00389849    2.185    0.542
        43 -11.6026    108.0261    234.1253   4.9977050375e+01   1.1070582982e+01    0.2531758    0.1679714 -40.92  0.000920773    1.687    0.407
        44 -10.8577      6.7876    235.1617   7.3992242515e+01   2.1491649999e+01    0.1959999    0.1260832  51.64 0.0007051124    1.239    0.193
        45 -11.4033    224.8983    233.1961   2.7332976907e+01  -1.3636085327e+00    0.2284815    0.1553111  -2.10    0.0013278    1.192    0.161
        46 -11.4697    217.4549    233.9197   2.8610310090e+01  -7.8176378363e-01    0.2196719    0.1247892   8.65 0.0009336001    1.664    0.399
        47 -12.6413     99.9142    232.0170   5.1600705041e+01   1.2422432890e+01    0.3771313    0.2441227 -39.69  0.001379658    1.773    0.436
        48 -11.0371    145.2304    232.7905   4.1724311042e+01   6.9442029259e+00    0.1710209    0.1481037  22.46 0.0008083223    1.189    0.159
        49 -11.9613    122.9672    232.1188   4.6400586356e+01   9.6672664991e+00    0.3176372    0.2118839 -14.48  0.001317785    1.729    0.422
        50 -12.3041    113.7407    230.0234   4.8208165354e+01   1.1147973387e+01     0.374031    0.2520761 -51.98  0.001716847    1.676    0.403
        51 -11.0965    133.4995    232.0139   4.4097465308e+01   8.4419389876e+00     0.167574    0.1120777 -38.60 0.0009304513    1.578    0.366
        52 -12.9500     78.4930    229.1166   5.6363323866e+01   1.5502833212e+01    0.3663048     0.255863 -31.15  0.001063158    1.775    0.436
        53 -12.0809     82.1091    223.6139   5.4939641160e+01   1.6197234098e+01    0.2774018    0.2065819 -32.73 0.0007781322    1.591    0.372
        54 -13.2117     90.5649    236.9781   5.4284232673e+01   1.2572303040e+01    0.6412663    0.3894449 -30.45  0.001946645    2.143    0.533
        55 -10.6693    106.8631    228.6183   4.9613435340e+01   1.2237311861e+01    0.2077852    0.1558088 -15.78 0.0007014704    1.490    0.329
        56 -12.1255     92.3659    228.7673   5.3015807557e+01   1.3944155011e+01    0.3375073    0.2062779 -39.08  0.001130795    1.945    0.486
        57 -10.6490    138.6326    228.1688   4.2503075390e+01   8.5006686199e+00    0.1585317    0.1048891 -34.42 0.0007509777    1.566    0.362
        58 -11.1716      5.2097    227.6783   7.4121138951e+01   2.3205514617e+01    0.2168597    0.1382749  65.87 0.0009481745    1.393    0.282
        59 -11.2520    120.3782    225.5513   4.6163975678e+01   1.1171647794e+01     0.211975    0.1721443 -28.41 0.0007996594    1.293    0.227
        60 -10.8506     11.5491    225.6677   7.2523220880e+01   2.3107970749e+01       0.2284    0.1025605  43.54 0.0007253165    1.709    0.415
        61 -11.8877    245.8465    247.8440   2.6231388948e+01  -4.8641364265e+00    0.3781008     0.148368  14.27  0.002208013    2.844    0.648
        62 -10.7354    128.7531    219.4025   4.3489518274e+01   1.1275318112e+01    0.1701885    0.1093254  14.03  0.000911904    1.537    0.350
        63 -10.4565    103.8264    218.8974   4.9171892241e+01   1.4497972654e+01    0.1940998    0.1590343  -8.72 0.0006476341    1.294    0.227
        64 -11.1223    202.7786    217.5661   2.8644733436e+01   2.9179979265e+00    0.2213889    0.1288662 -28.21  0.001206912    1.490    0.329
        65 -11.2129    119.9064    217.6227   4.5253058520e+01   1.2722690843e+01    0.2305423    0.1611599 -32.12 0.0008950484    1.551    0.355
        66 -10.6570     95.4304    218.0045   5.1082443773e+01   1.5725145112e+01    0.1776846    0.1289916 -56.35 0.0005642512    1.542    0.352
        67 -12.1530     76.8598    217.6657   5.5624722068e+01   1.8065698077e+01    0.2098595    0.1788836 -43.39 0.0006028404    1.335    0.251
        68 -10.7513    135.8423    218.4438   4.1794667122e+01   1.0566317629e+01    0.1769814     0.107984  10.73 0.0008650579    1.746    0.427
        69 -12.3075     82.4473    216.0543   5.4058232753e+01   1.7732053068e+01    0.3024939     0.219679 -34.27 0.0009582116    1.628    0.386
        70 -12.0594     71.7841    217.1794   5.6850515310e+01   1.8773232690e+01    0.1798979    0.1519239 -10.66 0.0007924344    1.355    0.262
        71 -11.3680     90.4111    215.8127   5.2056273818e+01   1.6801227678e+01    0.2362347    0.1789727 -25.38 0.0006835834    1.543    0.352
        72 -10.3801    138.2595    214.3130   4.0688880816e+01   1.1016834133e+01    0.1261138   0.08868217 -15.01  0.000496573    1.533    0.348
        73 -11.3226    132.3127    214.0291   4.1960431092e+01   1.1826033368e+01    0.2457246    0.1603881   4.52  0.001232741    1.702    0.412
        74 -10.9922    117.2722    212.7496   4.5216376807e+01   1.4005522598e+01    0.1780145    0.1383436  -8.87 0.0005678901    1.369    0.270
        75 -11.0406    111.3004    213.3602   4.6701439295e+01   1.4654352234e+01    0.1965572    0.1372392 -13.05 0.0007422841    1.709    0.415
        76 -10.1803    102.5129    213.5364   4.8827772668e+01   1.5745316564e+01    0.1329761    0.1175677  13.97 0.0002966833    1.058    0.055
        77 -11.4368     96.6563    212.7364   5.0156731092e+01   1.6656551950e+01    0.2668038    0.1938356 -15.08 0.0008493013    1.653    0.395
        78 -10.9292    149.1873    211.2168   3.7891833228e+01   1.0193308738e+01    0.2177742    0.1436481 -26.64 0.0007902894    1.565    0.361
        79 -10.7954    124.2657    215.7906   4.4013719017e+01   1.2519592337e+01    0.1686938    0.1333069  -6.70 0.0006276717    1.286    0.222
        80 -10.7777    124.9617    211.1560   4.3220331365e+01   1.3320052696e+01    0.2019081    0.1409069 -10.87 0.0007267488    1.649    0.394
        81 -11.1573    106.7867    210.2583   4.7377471091e+01   1.5865214001e+01     0.235722    0.1517476 -27.36 0.0009098951    1.905    0.475
        82 -10.5750     88.4522    211.5036   5.2044861274e+01   1.7954380930e+01    0.1335123    0.1203898  20.04 0.0001740553    1.055    0.052
        83 -10.7404      2.0665    211.5060   7.4357102251e+01   2.7048238025e+01    0.1883419    0.1088948  28.08  0.000636229    1.544    0.352
        84 -10.9308    140.5541    210.2691   3.9606160922e+01   1.1468271087e+01    0.1612622    0.1120898 -31.47 0.0006906101    1.465    0.317
        85 -11.1680     93.0650    209.1848   5.0614394509e+01   1.7862366266e+01    0.2345747    0.1733004 -28.35 0.0007587902    1.580    0.367
        86 -10.4072    131.4002    208.7455   4.1415967662e+01   1.2944190649e+01    0.1737367     0.111832 -35.52 0.0009175983    1.635    0.388
        87 -10.8400     78.2820    209.3385   5.4377635057e+01   1.9692365858e+01    0.1334527    0.1001093 -23.54 0.0003102623    1.625    0.384
        88 -11.1655    146.3635    207.8056   3.7985502424e+01   1.1171724325e+01    0.2312755    0.1443622 -21.33 0.0008414132    1.839    0.456
        89 -11.7499    150.1299    205.7861   3.6877525508e+01   1.1052555754e+01    0.3582218    0.2343291 -40.30  0.002016684    1.515    0.340
        90 -11.2854    149.5052    197.1580   3.5668057328e+01   1.2729675922e+01    0.3775184    0.2280872 -33.34  0.001345746    1.699    0.411
        91 -11.0333    152.3831    192.8073   3.4351658156e+01   1.3154677935e+01    0.2584158    0.1438555 -32.27  0.001247204    1.925    0.480
        92 -10.6983    135.2093    208.4147   4.0514280711e+01   1.2508839269e+01    0.1309748   0.08684453 -25.74  0.000431949    1.656    0.396
        93 -11.1328    114.2806    207.1264   4.5160873782e+01   1.5520655097e+01    0.2356417    0.1764441 -21.50 0.0008004323    1.486    0.327
        94 -14.3226    232.5609    138.7066   1.0712311488e+01   1.1328675426e+01     1.802847    0.5281916 -42.78  0.007777151    2.732    0.634
        95 -11.0385    120.2593    206.7737   4.3698190634e+01   1.4799268482e+01    0.1802549    0.1386342 -23.45 0.0008607405    1.390    0.281
        96 -11.0642    126.4713    205.9552   4.2138040662e+01   1.4136006976e+01    0.1818685    0.1254126 -45.21 0.0007460453    1.511    0.338
        97 -10.7237    103.4547    205.8025   4.7606929865e+01   1.7225940980e+01    0.1806098    0.1193363 -40.24 0.0008796945    1.669    0.401
        98 -11.0943     85.9877    205.2670   5.1932604124e+01   1.9616851314e+01    0.2413782    0.1788344 -28.45 0.0009147669    1.603    0.376
        99 -11.2406    144.5271    200.9726   3.7343036451e+01   1.2682425231e+01     0.279249    0.1566198 -29.17  0.001324051    2.060    0.515
       100 -10.9315     76.4610    204.4850   5.4308338962e+01   2.0996622298e+01    0.1358139    0.1243969  27.48 0.0003671939    1.050    0.047
       101 -10.8030    243.6325    203.3135   2.0119121921e+01   8.0334094695e-01    0.1360918    0.1152797 -48.33  0.001055887    1.815    0.449
       102 -11.6526    239.8029    201.6055   2.0397066428e+01   1.3979092596e+00    0.4307001     0.325433  68.61  0.002380776    4.465    0.776
       103 -11.6763    236.9666    246.8851   2.7398265830e+01  -4.0596468925e+00    0.3500136    0.1518676  10.87  0.002087218    2.520    0.603
       104 -12.5783     73.8930    222.4185   5.6837738116e+01   1.7413736853e+01    0.2329959    0.1921319 -50.92 0.0007925652    1.388    0.280
       105 -10.4987    110.2502    202.5477   4.5501633995e+01   1.7001530188e+01    0.1834327    0.1223726  13.08 0.0005691316    1.599    0.375
       106 -10.8761    157.6595    192.6760   3.3218733227e+01   1.2457041256e+01    0.2057937    0.1418744 -24.67  0.000972965    1.473    0.321
       107 -11.3476    155.3083    200.3695   3.4947718909e+01   1.1361098452e+01    0.2562903    0.1564308 -25.10 0.0008399592    1.798    0.444
       108 -11.0805    157.0173    196.7721   3.4018248563e+01   1.1790593889e+01    0.2681433    0.1546275 -35.74 0.0008162992    1.714    0.417
       109 -11.3817    131.9106    200.6563   4.0109696384e+01   1.4446785835e+01    0.2584479    0.1882275  -6.32  0.001017462    1.523    0.343
       110 -10.0744     98.3347    201.3026   4.8289566512e+01   1.8865940807e+01     0.139622    0.1019116 -13.92 0.0003757071    1.661    0.398
       111 -11.2949    210.3317    198.9929   2.4491919013e+01   4.8437412659e+00    0.1981114    0.1447263   2.21 0.0006616869    1.291    0.225
       112 -10.1069    104.2831    198.3148   4.6388705736e+01   1.8708805978e+01    0.1366425    0.1016788 -18.18 0.0003027789    1.578    0.366
       113 -11.4936    247.6859    195.5276   1.8349221924e+01   1.4475467362e+00    0.2017289    0.1602935 -41.81 0.0007863664    1.569    0.363
       114 -10.9355    125.2448    196.4292   4.1016193267e+01   1.6210483694e+01    0.2395289     0.125855  23.54 0.0009982605    1.956    0.489
       115 -11.4480    140.0260    203.9701   3.8787759328e+01   1.2716191779e+01    0.2842497    0.1799066 -31.93  0.001368292    1.666    0.400
       116 -11.4795    140.8565    195.8913   3.7357391000e+01   1.4153185626e+01    0.2534806    0.1655064 -25.75  0.001044594    1.698    0.411
       117 -11.1458    133.0345    193.8100   3.8798772046e+01   1.5652030319e+01    0.2087968    0.1649044  -8.07 0.0007749445    1.325    0.245
       118 -10.3805    112.8525    194.3636   4.3693074436e+01   1.8371882921e+01    0.1943198    0.1228691  16.25 0.0006245607    1.715    0.417
       119 -11.1917    140.7502    221.1103   4.1100198878e+01   9.4814279041e+00    0.2621643    0.1501054 -31.74  0.001067602    1.904    0.475
       120 -12.0414    162.4935    191.1323   3.1967008584e+01   1.2083137843e+01    0.3403473    0.2034712 -31.34  0.001387889    1.685    0.406
       121 -11.3519    146.4346    191.9088   3.5488813736e+01   1.4149820363e+01    0.2621602    0.1695369 -27.93  0.001149044    1.660    0.398
       122 -10.4091    124.6953    192.5950   4.0558429929e+01   1.7075216693e+01     0.146935   0.09797994 -19.35 0.0006989359    1.853    0.460
       123 -10.3881    139.8775    189.9806   3.6629369924e+01   1.5449790949e+01    0.2122183    0.1454001 -14.41 0.0009668612    1.732    0.423
       124 -10.3241    243.6562    189.2898   1.7914534965e+01   2.6854432646e+00   0.09220289   0.07936274 -47.47 0.0003925757    1.653    0.395
       125 -11.8644    157.2116    186.9552   3.2359764560e+01   1.3585439588e+01    0.3662406    0.2142905 -15.42  0.001649347    2.425    0.588
       126  -9.9915    134.4417    188.4918   3.7625390430e+01   1.6525072620e+01     0.138797    0.1194266  -9.11 0.0002131755    1.143    0.125
       127 -11.8769    143.5991    215.0648   3.9640991217e+01   1.0207140364e+01    0.3655086    0.2121944 -12.72  0.001348516    2.335    0.572
       128 -10.7737    150.9290    185.8954   3.3516227121e+01   1.4675591887e+01    0.2076957    0.1561049 -14.92 0.0008896528    1.398    0.285
       129 -10.4845    128.9252    185.5488   3.8434462774e+01   1.7930019567e+01    0.1852373    0.1153135   1.99   0.00080266    2.274    0.560
       130 -11.3858    140.3818    183.5541   3.5451227809e+01   1.6661863260e+01    0.2915241    0.1805921 -15.22  0.000984029    2.255    0.556
       131 -10.8252    242.1905    182.8642   1.7078775227e+01   3.7225468673e+00    0.1521568    0.1174499 -40.76 0.0006720179    1.408    0.290
       132 -10.5898    134.4359    183.4196   3.6791312913e+01   1.7562319180e+01    0.1386293    0.1210892  -7.50 0.0004963249    1.125    0.112
       133 -10.7909    160.3750    179.8381   3.0477158432e+01   1.4478645953e+01    0.2394799    0.1603261 -21.51  0.001045045    1.641    0.391
       134 -10.9998    145.6260    178.9295   3.3483204359e+01   1.6816870840e+01    0.2155625    0.1478098 -29.95  0.001113756    1.518    0.341
       135 -11.8380    150.3602    176.3292   3.1985968325e+01   1.6628432449e+01    0.3270876    0.2137981 -33.35  0.001147925    1.547    0.353
       136 -10.3111    134.4264    177.7643   3.5833547107e+01   1.8735931236e+01    0.1904705    0.1220794 -37.16 0.0009258994    1.610    0.379
       137 -11.1275    139.7869    175.1417   3.4136163830e+01   1.8465634202e+01    0.2565254    0.1750507 -27.07  0.001185739    1.623    0.384
       138 -10.8682    143.0975    169.9533   3.2453480366e+01   1.9024258012e+01    0.2189055    0.1571357 -15.43 0.0007208808    1.656    0.396
       139 -11.7803    150.3247    167.1371   3.0328598366e+01   1.8470207136e+01     0.353984    0.2250138 -28.93  0.001306498    1.741    0.426
       140 -11.5452    152.9395    160.5879   2.8526560867e+01   1.9376500168e+01    0.2937579    0.1766043 -32.25 0.0007910767    1.793    0.442
       141 -12.4664     67.7897    221.5295   5.8269164219e+01   1.8309192227e+01    0.2469001    0.1942507 -26.91  0.001048955    1.543    0.352
       142 -10.9663    155.5272    224.5624   3.8497192798e+01   7.1157218227e+00    0.2166745    0.1128082 -45.53  0.001001993    1.990    0.497
       143 -11.8756    176.7203    144.4128   2.0548583127e+01   1.8663947346e+01    0.2922804    0.2058918 -20.22  0.001001838    1.623    0.384
       144 -10.2437    155.5650    165.4456   2.8883173271e+01   1.7990003528e+01    0.1903809    0.1187969 -37.24 0.0001216581    1.558    0.358
       145 -11.7101    159.5065    163.5631   2.7699123328e+01   1.7745690690e+01    0.2915424    0.2263171   3.49  0.000700846    1.448    0.310
       146 -11.3551    163.6805    160.5653   2.6269713103e+01   1.7676175001e+01    0.2894617    0.1941217 -28.54 0.0006685437    1.547    0.354
       147 -11.0547    164.2963    156.3048   2.5323032848e+01   1.8404586992e+01    0.2210375    0.1992388 -42.27 0.0003350802    1.098    0.090
       148 -11.6412    171.6359    152.5160   2.3127858869e+01   1.7959480568e+01     0.274362    0.2053841 -30.77 0.0007622389    1.267    0.211
       149 -10.9048    172.4676    148.4621   2.2164459516e+01   1.8593512647e+01    0.2555834    0.1782457 -25.60 0.0006832504    1.519    0.342
       150 -11.5725    167.1983    153.7727   2.4245586600e+01   1.8429363115e+01    0.4603668    0.2513328  44.81  0.002179814    2.056    0.514
       151 -10.6822    168.2860    150.3544   2.3354632974e+01   1.8911060680e+01    0.1699904    0.1346378  12.73 0.0004196409    1.442    0.307
       152 -10.1671    240.2726    164.2699   1.4232698156e+01   6.5748708433e+00    0.1065561   0.07038588 -17.12 0.0003713388    1.478    0.324
       153 -12.3920    149.6949    147.1343   2.6571761548e+01   2.2663449302e+01    0.3321554    0.2609467 -22.26  0.000739262    1.386    0.279
       154 -11.0259    146.5080    161.5080   3.0114590451e+01   2.0224076931e+01    0.2747037    0.1839067 -15.50   0.00075558    1.993    0.498
       155 -12.2630    149.7134    156.8100   2.8499185621e+01   2.0668173324e+01    0.3832203    0.2170334 -43.41  0.001578843    1.681    0.405
       156 -11.7350    151.8062    150.9784   2.6889065422e+01   2.1514581964e+01    0.3217136    0.2122765 -37.76 0.0005617564    1.478    0.323
       157 -11.6213    158.8580    158.5599   2.6879269767e+01   1.8832666871e+01    0.2566395    0.1870284 -23.43   0.00061625    1.473    0.321
       158 -11.3215    129.2208    224.4837   4.4058222746e+01   1.0287248079e+01    0.2581105    0.1735141  -7.18  0.000964722    1.679    0.404
       159 -11.4682    168.3512    157.9383   2.4827136362e+01   1.7448238852e+01    0.2219274    0.1870547   6.79 0.0006382234    1.255    0.203
       160 -11.2313    226.5369    157.0445   1.4858747548e+01   9.3096550646e+00    0.2008912     0.115391 -41.04 0.0008755306    1.435    0.303
       161 -11.2265    154.7406    155.2602   2.7106723052e+01   2.0158235888e+01    0.2639887    0.2122189 -16.23  0.000597873    1.337    0.252
       162 -12.5026    157.2666    150.9721   2.5721480652e+01   2.0602616445e+01    0.6077579    0.2736302 -47.48  0.002267729    2.105    0.525
       163 -13.6758    143.8663    150.2741   2.8509731572e+01   2.3006010128e+01    0.6763791    0.3296271 -53.86  0.002779938    2.171    0.539
       164 -12.5945    155.5204    141.1896   2.4088037376e+01   2.2871314002e+01    0.4094628    0.2496141 -24.37  0.001275875    2.200    0.545
       165 -14.6966    145.0788    138.9527   2.5890422107e+01   2.5180704011e+01    0.7238144    0.5630997 -73.66  0.003684578    1.587    0.370
       166 -12.9805    165.2025    125.8462   1.8826768706e+01   2.4189587143e+01    0.6125505    0.1967894 -48.89  0.002087404    3.120    0.679
       167 -14.3288    157.8207    123.2189   1.9707363170e+01   2.6068182803e+01    0.7683361    0.3957915 -52.61  0.003284069    1.979    0.495
       168 -12.0606    160.9655    139.2417   2.2550622672e+01   2.2313315902e+01    0.3343342    0.2791735 -16.11  0.001258143    1.302    0.232
       169 -13.5398    155.0915    132.4189   2.2307112728e+01   2.4724161087e+01    0.7298272    0.2935527 -52.02  0.002693933    2.649    0.623
       170 -11.9030    113.2742    245.9844   5.0118489901e+01   8.3574210947e+00    0.3117367    0.1918682 -45.20   0.00138775    1.836    0.455
       171 -11.7380    243.9648    149.1233   1.1127815238e+01   8.3357769622e+00    0.1825437    0.1242208 -36.87 0.0005426366    1.127    0.113
       172 -11.0608    176.6404    150.1927   2.1716571566e+01   1.7599464620e+01    0.1865692    0.1436177 -32.27 0.0006392834    1.191    0.160
       173 -11.7479    182.5066    148.0729   2.0218831260e+01   1.7062827130e+01    0.3414695    0.2023487 -37.99   0.00141155    1.514    0.340
       174 -11.1114    166.8736    144.9059   2.2536476755e+01   2.0195269662e+01    0.2086522     0.168525 -21.96 0.0005593896    1.277    0.217
       175 -10.9939    104.1403    224.2612   4.9737811453e+01   1.3403765703e+01    0.2039257    0.1622432 -33.71  0.000665088    1.381    0.276
       176 -11.3771    171.8901    142.9212   2.1156626224e+01   1.9739870359e+01    0.2101359    0.1680676 -16.19 0.0007194977    1.359    0.264
       177 -13.7265    138.3601    140.6830   2.7799742303e+01   2.6016052336e+01    0.3647589    0.3132307  86.19  0.001462553    1.400    0.286
       178 -11.9722    182.2406    139.2991   1.8507194726e+01   1.8707851266e+01    0.3822833    0.2111576 -31.80  0.001810642    1.883    0.469
       179 -11.1282    217.8167    223.0542   2.6982146586e+01   6.3038089472e-01    0.1953626    0.1137148 -20.40 0.0007195039    1.477    0.323
       180 -11.5751    193.2395    135.3147   1.5814210424e+01   1.7642423970e+01    0.4102091    0.2314528 -24.82  0.001919664    2.215    0.549
       181 -10.6167    197.1699    217.7255   2.9634342912e+01   3.4907214111e+00    0.3253771    0.1438185 -45.41  0.001709458    2.347    0.574
       182 -10.9270    187.2098    138.9921   1.7573905189e+01   1.7957197975e+01     0.233106    0.1531878 -27.52 0.0006980988    1.578    0.366
       183 -11.3592    188.1407    133.7464   1.6346486698e+01   1.8745725058e+01    0.3027105        0.192 -24.29 0.0009975091    1.828    0.453
       184 -11.5848    166.6553    138.5775   2.1273648855e+01   2.1459785288e+01    0.2725007    0.2145973  -6.69 0.0009504144    1.537    0.350
       185 -11.9155    163.3667    133.4973   2.0848880862e+01   2.3025640363e+01    0.3870986    0.2497172 -27.36  0.001113815    1.802    0.445
       186 -11.6470    172.7089    135.2301   1.9409577805e+01   2.1062449942e+01    0.2940632    0.2046155 -32.25 0.0009400898    1.414    0.293
       187 -10.4975    169.3015    134.3137   1.9863219506e+01   2.1825561665e+01    0.1954822    0.1190415 -49.84 0.0003469581    1.567    0.362
       188 -10.6710    168.4056    130.7584   1.9276892785e+01   2.2665944508e+01    0.1921366    0.1586685 -14.85  0.001035908    1.365    0.267
       189 -10.7494    248.7734    135.0209   8.0503195376e+00   9.7826783340e+00    0.1608776   0.09609513 -36.53 0.0009383418    1.248    0.199
       190 -10.2762    178.7751    135.0085   1.8245910875e+01   2.0072962193e+01    0.2893733     0.171227 -29.99 0.0009289493    1.825    0.452
       191 -11.6540    180.0152    129.9385   1.6962185334e+01   2.0798608858e+01     0.296112    0.2206396 -21.38  0.001163152    1.502    0.334
       192 -11.4431    206.2383    129.5299   1.2614474687e+01   1.6582957156e+01     0.272388    0.1823844 -21.41  0.001210726    1.699    0.412
       193 -14.6796    134.6485    124.3830   2.5077901110e+01   3.0238629603e+01    0.7742448    0.3085719 -47.09   0.00282889    2.397    0.583
       194 -11.7203    192.9976    127.3958   1.4233825884e+01   1.9069967108e+01    0.3427728    0.2143398 -17.09  0.001474579    2.324    0.570
       195 -11.1151    172.0203    127.2176   1.7831477546e+01   2.2701127712e+01    0.3170108    0.1817375 -38.75  0.001185999    1.621    0.383
       196 -11.4311    169.7155    123.4265   1.7434261480e+01   2.3834438843e+01    0.2713526     0.150005 -36.63  0.001138427    1.772    0.436
       197 -11.2707    212.4187    127.8548   1.1381967385e+01   1.5908869859e+01    0.1931587    0.1516241 -31.02  0.001242527    1.139    0.122
       198 -10.9737    186.6765    127.4864   1.5295226189e+01   2.0110329857e+01    0.2506027     0.170587 -23.16 0.0007783948    1.691    0.409
       199 -11.0853    200.3086    125.0162   1.2595795382e+01   1.8284565707e+01    0.2123059    0.1628813  -7.95 0.0007940127    1.640    0.390
       200 -11.5664    180.1471    122.5591   1.5363510484e+01   2.2129933940e+01    0.4884157    0.1922155 -39.91  0.001737993    2.313    0.568
       201 -10.8261    212.8598    121.4879   1.0053617067e+01   1.6876957967e+01    0.2373442    0.1362639 -28.45 0.0008957593    1.816    0.449
       202 -11.1776    188.1253    121.3851   1.3764946983e+01   2.0951298472e+01    0.2621637    0.1639112 -29.08   0.00112656    1.708    0.415
       203 -11.0172    194.4321    119.2457   1.2303197445e+01   2.0248672693e+01    0.2669185    0.1634658 -25.44  0.001326385    1.926    0.481
       204 -11.5221    174.1901    118.6514   1.5559858574e+01   2.3919067867e+01    0.3598174    0.1439179 -41.99  0.001447513    2.238    0.553
       205 -12.0853    148.2965    222.4462   3.9689984506e+01   8.3327155457e+00    0.3398012    0.2283815 -31.61  0.001267629    1.493    0.330
       206 -15.9074    142.8868    122.3473   2.2700890969e+01   2.9085684539e+01     1.236191    0.8197003 -39.29  0.005886133    1.501    0.334
       207 -11.0289    203.2085    120.2192   1.1175867298e+01   1.8623944079e+01    0.2528918    0.1723491 -19.87  0.001163953    1.777    0.437
       208 -11.1153    192.7898    217.3251   3.0344135593e+01   4.0248533833e+00    0.3003102    0.1774014  -5.15  0.001183413    1.852    0.460
       209 -11.0446    163.0568    142.9218   2.2892140083e+01   2.1226496175e+01     0.211588    0.1792815 -12.79   0.00068191    1.269    0.212
       210 -11.0448    250.4169    151.4831   1.0740445433e+01   7.2347600120e+00    0.1119755   0.08094957 -30.80 7.546764e-05    1.034    0.033
       211 -10.6182    203.4950    114.2375   9.8950302564e+00   1.9576634916e+01    0.1792338     0.107207 -30.58 0.0009291319    1.682    0.405
       212 -11.0321    109.2035    219.5816   4.7985965054e+01   1.3690174934e+01    0.2399452    0.1686121 -10.46 0.0008628992    1.672    0.402
       213 -10.6680    181.4370    113.7784   1.3223879175e+01   2.3492957049e+01    0.2671395    0.1836247  -4.34  0.001236073    2.494    0.599
       214 -10.5005    193.5266    112.4477   1.0995375348e+01   2.1577205383e+01    0.3397292    0.2590312  24.12  0.001941474    1.779    0.438
       215 -10.3295    208.2631    112.3670   8.8348277178e+00   1.9097411100e+01    0.1238522   0.08968541 -19.03 0.0006983653    1.648    0.393
       216 -11.6513    221.9001    127.7429   1.0051820005e+01   1.4512965749e+01    0.2951375    0.1695818 -21.55  0.001377577    2.222    0.550
       217 -10.7501    212.9249    110.3423   7.7875998703e+00   1.8665309376e+01    0.2190787    0.1294921 -31.74  0.000612475    1.616    0.381
       218 -12.5415    160.9368    129.7108   2.0516340092e+01   2.4206912227e+01    0.4656924    0.2262122 -34.56  0.001883253    2.316    0.568
       219 -10.8434    201.2768    107.6406   8.8225826055e+00   2.1049026630e+01    0.2354374    0.0977864 -39.15  0.001044892    2.050    0.512
       220 -10.6778    209.3657     90.0179   3.9824777074e+00   2.2484580004e+01    0.2227421    0.1696372 -18.68 0.0005939252    1.641    0.391
       221 -10.7228    206.5511     93.5059   5.0839147534e+00   2.2429359506e+01    0.1966701    0.1855949 -57.70 0.0007634559    1.168    0.144
       222 -11.7054    200.4987    102.0048   7.7242822821e+00   2.2116899467e+01    0.3850594    0.1988633 -39.04  0.001559112    1.653    0.395
       223 -12.1121    202.1843     96.1150   6.2189132046e+00   2.2781602610e+01     0.765978    0.2195468 -37.52  0.002815416    3.141    0.682
       224 -10.5260    212.2449    114.4031   8.7077315336e+00   1.8121277355e+01       0.1246   0.08606201 -21.06 0.0006932331    1.692    0.409
       225 -10.9932    195.8472    106.1620   9.2896026258e+00   2.2241639153e+01    0.2603495     0.188541 -46.45 0.0007169876    1.170    0.145
       226 -10.9483    194.6366    102.1572   8.5928607220e+00   2.3131891836e+01    0.2781932     0.142203 -32.32 0.0008312372    2.041    0.510
       227 -11.1002     87.9214    220.0738   5.3144839956e+01   1.6225150739e+01    0.2030721    0.1486915 -16.52 0.0006585838    1.655    0.396
       228 -11.5095    222.4726    103.7296   5.2377382663e+00   1.8174525875e+01    0.2650693   0.09978681 -37.04 0.0009931737    2.226    0.551
       229 -11.2542    205.2246    103.2441   7.3399061324e+00   2.1094719289e+01    0.4175864    0.1670728 -37.18  0.001469326    2.205    0.547
       230 -11.1187    208.8861     98.9879   5.9531162310e+00   2.1153512038e+01    0.2223041    0.1555359 -28.03 0.0007638422    1.500    0.333
       231 -10.4784    213.7157    103.7077   6.3192903785e+00   1.9593202355e+01    0.1143256   0.09038226 -15.75 0.0004252135    1.537    0.349
       232 -11.6105    190.0064    102.2203   9.2929575462e+00   2.3959891022e+01    0.3446878    0.2054146 -19.12  0.001501048    2.738    0.635
       233 -10.5966    167.0000     99.9958   1.2550035295e+01   2.8747126875e+01    0.2305389   0.07263684 -41.66 0.0006620539    2.865    0.651
       234 -10.8250    160.3676    100.1784   1.3806362435e+01   3.0042421718e+01    0.2087174    0.1188948 -51.08 0.0007201331    1.669    0.401
       235 -10.2351    109.4495    224.5053   4.8530217601e+01   1.2706328897e+01    0.1292011     0.110635   7.95 0.0001029803    1.094    0.086
       236 -10.9595      1.7990    219.5305   7.4684932318e+01   2.5260476819e+01    0.2582572    0.1232162  67.45  0.001296988    1.919    0.479
       237 -10.4270    211.4311     94.7632   4.7373003528e+00   2.1385831795e+01    0.1734912    0.1044601 -31.68 0.0009352613    1.631    0.387
       238 -11.4911    162.0881    147.7016   2.4064925463e+01   2.0448649792e+01    0.2922548    0.2651414  62.31  0.001675403    1.296    0.228
       239 -10.7010    135.5433    223.5304   4.2550689914e+01   9.6873507706e+00    0.1932789    0.1051336 -37.78  0.000992409    1.961    0.490
       240 -10.5293    225.3642     92.6822   2.6702643045e+00   1.9386818894e+01     0.157376   0.09457181 -33.87 0.0003273377    1.492    0.330
       241 -12.0299     97.3661    222.9893   5.1191517098e+01   1.4482435332e+01    0.2984253    0.2109575 -37.51  0.001057509    1.607    0.378
       242 -14.1508    132.5244    147.3666   3.0579037182e+01   2.5591037190e+01    0.6824909    0.2884659 -44.12  0.002587595    2.359    0.576
       243 -10.7595    218.2378     89.3138   2.7816187993e+00   2.1069212289e+01    0.1119076   0.08585423 -23.18 0.0004497015    1.502    0.334
       244 -11.1601    226.2161     87.2539   1.4751666446e+00   2.0053193477e+01    0.1969994    0.1247564 -34.97 0.0006475357    1.393    0.282
       245 -11.1322    114.8214    222.2463   4.7013514182e+01   1.2475771100e+01      0.22729    0.1421029 -26.37  0.001069857    1.941    0.485
       246 -10.3804    217.6981     84.2311   1.7795139545e+00   2.1926146295e+01    0.1617818   0.09330291 -36.21 0.0007364712    1.507    0.337
       247 -11.2126    225.3265     81.3281   3.5776753308e-01   2.1066542371e+01     0.208734    0.1237621 -38.80 0.0006810905    1.371    0.271
       248 -10.4502    159.2713     80.3738   9.0284310791e+00   3.3876123294e+01    0.1344625    0.1113115  -6.50 0.0004690501    1.681    0.405
       249 -10.8050    215.2080     79.3561   1.0242593421e+00   2.3084580171e+01    0.1142909   0.08393877 -25.80 0.0006796229    1.546    0.353
       250 -10.9813    223.3904     75.6810   3.5938957189e+02   2.2208722520e+01    0.1529459    0.0969909 -33.93 0.0003108691    1.461    0.316
       251 -10.3714    219.3628     74.2480   3.5949973219e+02   2.3108281822e+01    0.1037357   0.09251118   9.00 0.0006510746    1.611    0.379
       252 -10.7466    217.8066     67.2963   3.5818225632e+02   2.4377565122e+01    0.2112767    0.1160635 -48.12 0.0008058134    1.433    0.302
       253 -10.3983    223.2652     66.2565   3.5743721002e+02   2.3564781022e+01   0.09928615   0.08730422 -21.55 0.0003106041    1.446    0.309
       254 -11.0820    212.4609     61.0432   3.5735778944e+02   2.6225894614e+01    0.5348752    0.1598222 -37.13  0.002227523    2.717    0.632
       255 -10.6457    216.5114     62.1261   3.5720105846e+02   2.5336481659e+01    0.1783559   0.09921742 -38.54  0.000726189    1.502    0.334
       256 -10.6220    220.6004     49.4114   3.5411790241e+02   2.6317289287e+01    0.3917488    0.1676479 -54.44  0.001997231    2.020    0.505
