#   1 NUMBER                 Running object number                                     
#   2 MAG_AUTO               Kron-like elliptical aperture magnitude                    [mag]
#   3 X_IMAGE                Object position along x                                    [pixel]
#   4 Y_IMAGE                Object position along y                                    [pixel]
#   5 X_WORLD                Barycenter position along world x axis                     [deg]
#   6 Y_WORLD                Barycenter position along world y axis                     [deg]
#   7 A_WORLD                Profile RMS along major axis (world units)                 [deg]
#   8 B_WORLD                Profile RMS along minor axis (world units)                 [deg]
#   9 THETA_WORLD            Position angle (CCW/world-x)                               [deg]
#  10 FWHM_WORLD             FWHM assuming a gaussian core                              [deg]
#  11 ELONGATION             A_IMAGE/B_IMAGE                                           
#  12 ELLIPTICITY            1 - B_IMAGE/A_IMAGE                                       
         1 -10.6118     69.7683     19.6249   7.2668308361e+01   6.3304727304e+01    0.8900988    0.4555656  18.02  0.003722877    2.881    0.653
         2 -11.3083     21.6373     56.0751   1.0623204662e+02   6.2840768620e+01     1.950258    0.4510652 -48.77  0.007717164    2.928    0.658
         3 -12.6956     55.6837     66.2619   9.5963035998e+01   5.7256222766e+01     1.270772    0.7575135 -54.97  0.002362447    1.600    0.375
         4 -12.1919     43.9088     14.6928   8.0728496537e+01   6.8003315243e+01     1.560314     1.156613 -55.71  0.009076398    2.292    0.564
         5 -11.8674     57.9103      5.1536   7.0101274779e+01   6.7081510290e+01     1.190835    0.5724489  20.65  0.005373516    2.680    0.627
         6 -12.8900     13.9580    105.4668   1.1862134548e+02   5.2262788641e+01     2.741248    0.5656539 -52.50   0.01009663    3.663    0.727
         7 -11.6490     78.4326     62.2312   8.6524704943e+01   5.4745672873e+01     1.987134    0.8100115 -28.09  0.005533442    5.235    0.809
         8 -12.3494     27.6894     23.9554   9.2521682647e+01   6.8473797683e+01     1.114648    0.8023353 -22.00  0.006533193    1.141    0.123
         9 -13.0926     69.9816     30.9784   7.7611501463e+01   6.1654982635e+01     2.889533     1.246267  42.03   0.01283227    2.375    0.579
        10 -10.3169     98.3600     41.2742   7.2298854856e+01   5.4753212462e+01     1.467413     0.692249 -13.15  0.004237174    5.117    0.805
        11 -10.2988     86.6806      9.1861   6.2331575145e+01   6.1303156229e+01    0.5076738    0.4069908  -9.84  0.003116342    1.220    0.181
        12 -10.7938     92.8139      9.5416   6.0738115250e+01   5.9991998173e+01    0.6853447    0.3052565 -12.07 0.0009357795    2.796    0.642
        13 -11.3085    113.8480     23.6966   6.1093510752e+01   5.3789486557e+01    0.5457698    0.5110517 -26.62  0.002589105    1.164    0.141
        14 -11.6482     99.6833      6.4452   5.7573057015e+01   5.8808472958e+01    0.6096563     0.340144  31.54 0.0006673702    1.796    0.443
        15 -11.8322    116.6310     14.6844   5.6886054278e+01   5.4148656165e+01    0.7651871    0.5153081  32.94   0.00333317    1.463    0.317
        16  -9.5230    125.8191      7.2041   5.2055800021e+01   5.2681745888e+01     0.405219     0.206902  35.99            0    2.073    0.518
        17 -10.5343    102.8418     10.9686   5.8692765549e+01   5.7674714431e+01     1.097651    0.4922218  17.76  0.003629408    4.344    0.770
        18 -10.8150    111.1006      7.7613   5.5383659669e+01   5.6113176864e+01     1.042798    0.3345172  66.27  0.003435803    3.902    0.744
        19 -11.6286     14.7408     35.2529   1.0296860366e+02   6.7524863566e+01     1.035591    0.6498628 -32.94  0.003414929    1.326    0.246
        20 -11.6142     19.9233     13.6040   9.1792508851e+01   7.0913779279e+01     0.554097    0.2987315  22.54  0.003339459    1.978    0.494
        21 -12.3283     25.1898      6.6110   8.5624492739e+01   7.1432395868e+01    0.6164818    0.3311042 -32.59  0.003706773    1.552    0.356
        22 -12.4524     14.4415      5.5750   9.0834116469e+01   7.2649031146e+01    0.9270889    0.6234117 -24.95  0.006484862    1.126    0.112
        23 -11.4912     11.9019     25.5769   1.0091553690e+02   6.9526169776e+01    0.4948312    0.1969412 -35.86  0.002136689    2.129    0.530
        24 -11.2327      4.9719     26.4042   1.0467514618e+02   6.9816987303e+01    0.6986821    0.2439839 -38.05  0.003493459    2.301    0.565
        25 -11.6079      2.5080     18.4137   1.0304737141e+02   7.1409579551e+01    0.3557213    0.2811517  -0.08  0.002011234    1.374    0.272
        26 -12.8007      4.5577     10.3280   9.8608311642e+01   7.2669786849e+01    0.5964652    0.3567059 -45.39 0.0008851727    1.391    0.281
        27 -11.4025      2.4397      3.0802   9.6471942791e+01   7.3978544060e+01    0.3048887    0.2301926 -40.39  0.002308869    1.328    0.247
        28 -11.6024    192.9803     32.0581   4.9197443287e+01   3.2889872829e+01     0.582276    0.4282815  18.55 0.0003820414    1.846    0.458
        29 -11.3320    236.0143     28.2777   4.3218573366e+01   2.2813662933e+01    0.7039583    0.4136351  44.90  0.003393507    2.234    0.552
        30 -11.0969    164.0343      5.0240   4.5080481087e+01   4.3293892526e+01     1.099382    0.7033465  77.83  0.005585697    1.487    0.328
        31 -10.3729    181.9959     16.7111   4.6237848494e+01   3.7516054129e+01      0.61553    0.3507277  27.60  0.002574458    2.657    0.624
        32 -10.5127    163.1061     16.1548   4.8728676397e+01   4.2440491904e+01    0.5924805    0.3375092  45.56  0.001750317    1.785    0.440
        33  -9.9587    147.7324     11.2181   4.9543909311e+01   4.6868416313e+01    0.3377189     0.305742  -7.25   0.00126941    1.214    0.177
        34 -11.6091    178.1238     26.3009   4.9624240170e+01   3.7422044547e+01    0.8740959    0.6056692  49.12  0.002876065    1.461    0.315
        35 -10.2297    176.9272     15.0352   4.6411555029e+01   3.8998770932e+01    0.3764921    0.2451684 -62.64 0.0004497767    1.696    0.410
        36 -10.4639    154.0036     17.4476   5.0595844116e+01   4.4639223385e+01    0.4679515    0.3025158  20.10   0.00045803    2.006    0.501
        37 -10.5486    149.9437     15.6709   5.0682552136e+01   4.5860742369e+01    0.7223137    0.3669844  34.93  0.002793204    2.419    0.587
        38 -11.9747     32.2879     41.9765   9.7372746859e+01   6.4768872069e+01    0.7507378    0.5017449 -16.03  0.003425435    1.546    0.353
        39  -9.6468    185.8058     24.6453   4.8047165514e+01   3.5638053935e+01    0.6784676    0.1841407 -33.24  0.002304871    3.291    0.696
        40 -10.0120    132.0445     13.5911   5.3211315323e+01   5.0554825246e+01    0.4008487    0.2838998  77.60 0.0009503936    1.549    0.354
        41  -9.9731    123.7645     22.8065   5.8393314702e+01   5.1568831601e+01    0.5853462    0.3274031  17.28  0.002375472    2.600    0.615
        42 -11.0708    131.8900     19.8848   5.5548054205e+01   4.9930821010e+01    0.5977967    0.3055722  51.03  0.002419902    1.748    0.428
        43  -9.7308    239.5550     19.1832   4.0740467276e+01   2.3102125045e+01    0.3752433    0.2654878 -25.20  0.002119926    1.583    0.368
        44 -10.3106    231.0608     18.5297   4.1345276408e+01   2.5146372147e+01    0.4465976    0.3543263 -44.08  0.002683163    1.201    0.167
        45 -10.5993    232.8629     10.5391   3.9285652750e+01   2.5632939922e+01    0.3564144    0.2848279 -46.37  0.001280312    1.189    0.159
        46 -10.0132    211.2097     17.1948   4.2956573507e+01   3.0082070254e+01    0.3682067    0.2468959  66.68  0.001261927    1.429    0.300
        47  -9.5599    204.9853     16.0334   4.3313799907e+01   3.1756590406e+01    0.3906409    0.2562438  44.69   0.00186463    1.786    0.440
        48 -10.1461    212.2759     11.9403   4.1493244427e+01   3.0401901901e+01    0.6357639    0.2990846  75.91  0.002852971    2.046    0.511
        49  -9.6175    242.9562     13.0764   3.9049434902e+01   2.3036870569e+01     0.268921    0.1929787  84.83  0.001025485    1.323    0.244
        50  -9.4066    244.2472      9.0032   3.8027982801e+01   2.3203698011e+01     0.276678    0.1535254 -40.35  0.001214382    1.594    0.373
        51 -10.3231    244.1983      4.6045   3.7048150280e+01   2.3694794366e+01    0.3508745    0.2253327 -42.86  0.001815708    1.393    0.282
        52  -9.7964     31.5194     12.0560   8.5204458213e+01   6.9939606643e+01    0.2487233    0.1407752 -30.15 0.0008435139    1.484    0.326
        53 -10.5385    199.7574      5.7611   4.1125060738e+01   3.4146139877e+01    0.6998949    0.3284176 -41.18  0.003117661    2.036    0.509
        54 -10.6779    169.5065     13.7509   4.7039340432e+01   4.1043081688e+01    0.8029957    0.4033591 -89.51  0.002155462    2.702    0.630
        55  -9.6164     77.6284      9.1647   6.5110552603e+01   6.3102291643e+01    0.2821854    0.1782365  16.77  0.001509436    1.630    0.386
        56  -9.4293     77.4848      5.5368   6.3443631995e+01   6.3503675991e+01    0.2363961    0.1490557  -8.72 0.0006851527    1.594    0.372
        57  -9.0484    250.0662      7.5991   3.7287804698e+01   2.2068163416e+01    0.2717715    0.1348217 -79.06  0.001313339    2.148    0.534
        58  -8.8434    175.4410      3.9678   4.3305124243e+01   4.0474159197e+01    0.2760002    0.1121857  58.88 0.0006551161    2.125    0.530
        59  -8.1729    180.4434      8.5511   4.4046384467e+01   3.8758518206e+01    0.1364598    0.1220535  67.37 6.377709e-05    1.082    0.076
        60  -9.9646    181.4836      4.6143   4.2780843852e+01   3.8872699605e+01    0.4523686    0.3379716  83.88   0.00174991    1.234    0.190
        61 -10.3258    138.9799      4.4932   4.8675517942e+01   4.9685088990e+01    0.4914329    0.3467078 -28.67  0.002248196    1.546    0.353
        62 -10.2953    139.0136      1.4425   4.7595200689e+01   4.9933919992e+01    0.2499677    0.1605913  78.20 0.0003474968    1.589    0.371
        63 -10.3038    221.7363     12.4051   4.0710314622e+01   2.8055509186e+01    0.3352784    0.2571357 -55.80 0.0009389239    1.184    0.156
        64  -9.8522    211.4914      4.4736   3.9665477288e+01   3.1376462659e+01    0.4403712    0.2801828  20.98  0.002102934    2.568    0.611
        65 -10.0555    207.9115      3.3143   3.9697935549e+01   3.2369496342e+01    0.3135973    0.2485032 -45.38  0.001649141    1.250    0.200
        66  -9.2610    190.0708      6.3278   4.2299631927e+01   3.6526625295e+01    0.3482773    0.1962321 -41.55  0.001710442    1.763    0.433
        67  -9.1475    134.5287      6.4921   5.0161660454e+01   5.0614356908e+01    0.2456229    0.1691656 -28.57  0.000631758    1.575    0.365
        68  -8.9308    131.6933      4.6550   5.0003322386e+01   5.1474199794e+01    0.4500596    0.2240044  29.22  0.001893547    2.502    0.600
        69  -9.8361    217.8570      5.1106   3.9257293177e+01   2.9767367404e+01    0.3332959    0.2388759  40.97  0.001568321    1.780    0.438
        70  -8.4060     70.2102      4.4800   6.5312938140e+01   6.4989353404e+01    0.4603991    0.2405611  47.56  0.002405678    1.809    0.447
        71  -9.4638    226.1490      8.5423   3.9377226291e+01   2.7425360052e+01    0.3063432    0.2213959  22.37  0.001494137    2.105    0.525
        72  -9.8718     53.9906    142.7687   1.1287459244e+02   3.9592730895e+01    0.5881173    0.2636568  62.24  0.002242909    3.295    0.697
        73  -9.3797    183.1413    249.8274   1.0036479409e+02  -1.8802445750e+00    0.1687463    0.1190746  22.62  0.001083045    1.335    0.251
        74  -9.3125    161.8221    250.1857   1.0426847753e+02   1.4212764739e+00    0.1681561    0.1231733  25.18   0.00108851    1.358    0.264
        75  -9.7849    150.9796    249.5429   1.0616203173e+02   3.2233449116e+00    0.1895748    0.1465773  73.11  0.001136978    1.608    0.378
        76  -9.4479    125.2141    249.8772   1.1088936900e+02   7.1900242327e+00    0.2237684    0.1423126  23.13  0.001244955    2.185    0.542
        77 -10.2882     46.6518    144.2332   1.1496828776e+02   4.0100279237e+01      0.39388    0.2840985 -16.63  0.002033956    2.250    0.556
        78  -9.5189     47.7663    139.4572   1.1401798247e+02   4.1112280756e+01    0.3352349     0.191285 -75.31  0.001695983    1.594    0.373
        79 -10.0806     40.9120    146.4782   1.1671268487e+02   4.0199563399e+01    0.2919941    0.2456479  12.76  0.001113024    1.627    0.385
        80 -10.4557     38.2980    143.0816   1.1694403871e+02   4.1277496665e+01    0.3396586    0.2998302  -4.74 0.0005186306    1.573    0.364
        81  -9.9809     22.8893    146.3657   1.2114640744e+02   4.1990976770e+01    0.2220854    0.1412817 -88.51  0.001099557    1.340    0.254
        82  -8.4491     70.5949    142.7946   1.0854952143e+02   3.7428208070e+01    0.1918185    0.1216119 -76.61 0.0006388093    1.583    0.368
        83  -8.6336     80.1848    140.8813   1.0569897197e+02   3.6497073210e+01    0.1847367    0.1623723 -40.48 0.0005304748    1.302    0.232
        84  -9.7481     55.1918    136.8264   1.1166531237e+02   4.0871026583e+01    0.2458327    0.2059936 -35.70 0.0006606904    1.460    0.315
        85 -10.7233     52.5366    132.7523   1.1174295198e+02   4.2168695520e+01    0.4554403    0.2776048  32.55  0.002366523    1.878    0.468
        86  -9.3389    236.0314    135.4973   6.9180134948e+01   6.2851842845e+00    0.2058815    0.1393186  45.41 0.0007161055    1.586    0.369
        87 -12.1172     32.0267     60.2459   1.0322490597e+02   6.1101423071e+01     1.668173    0.6388029 -28.81  0.005422365    5.138    0.805
        88  -8.9597     31.8874    134.4972   1.1750556956e+02   4.3947861815e+01    0.1621786    0.1260455  34.42 0.0005249473    1.527    0.345
        89 -11.3498     56.0583    125.9736   1.0965470949e+02   4.3380612877e+01    0.5495354    0.3999304  15.54  0.002699242    1.841    0.457
        90 -10.9559     60.2313    120.5132   1.0748854251e+02   4.4179987941e+01    0.3575826    0.3084822  58.71   0.00206381    1.244    0.196
        91 -10.0633     61.7791    109.3394   1.0482469211e+02   4.6668470055e+01    0.4009058    0.2745565 -13.37  0.001916399    2.221    0.550
        92  -9.9979     64.0997    113.6802   1.0502330251e+02   4.5324812679e+01     0.368669    0.1808368  45.51  0.001607777    2.293    0.564
        93  -9.5994     68.6690    116.3167   1.0421276094e+02   4.4073914355e+01    0.2323963    0.1933295  62.58  0.000681137    1.305    0.234
        94 -10.7631     66.0370    128.6790   1.0734309580e+02   4.1450013061e+01     0.315495    0.2591715 -50.91  0.001125646    1.225    0.184
        95 -11.3782     67.8111    122.9671   1.0577980160e+02   4.2589176995e+01    0.9320925    0.4129519 -45.13  0.003722647    2.469    0.595
        96  -9.5898     73.0637    129.5460   1.0555244813e+02   4.0267414409e+01    0.2615578     0.188094 -61.99  0.000457545    1.258    0.205
        97  -9.2831     81.0845    124.9478   1.0241340299e+02   4.0187750815e+01    0.2171212    0.2008487 -56.31  0.001251341    1.089    0.081
        98  -8.6999     74.5301    124.9541   1.0426046796e+02   4.1163783399e+01    0.2085744     0.127736 -59.34 0.0003431074    1.478    0.323
        99 -10.6803     91.8685    114.3359   9.7017282259e+01   4.0983687471e+01    0.6455902    0.4367124 -70.82  0.002980825    1.675    0.403
       100 -10.0424     91.2544    121.8577   9.8897836654e+01   3.9301288601e+01    0.4541453    0.3301981 -35.93  0.001297412    1.563    0.360
       101  -8.8802     88.4888    119.5354   9.9167772380e+01   4.0311174405e+01    0.2482472    0.2281185 -38.11 0.0005824519    1.157    0.136
       102 -11.6699     75.5692    120.0563   1.0297743770e+02   4.2191577739e+01    0.2663011    0.2503411  52.53 0.0004274013    1.155    0.134
       103 -10.6553     19.8064    118.3647   1.1868208804e+02   4.8810334747e+01    0.4021486    0.3033039 -69.74   0.00175544    1.073    0.068
       104 -10.2400    105.1612    117.2049   9.3933823973e+01   3.7957098278e+01    0.5725572    0.3898636  62.26  0.002567985    1.791    0.442
       105  -9.0763     99.3554    113.1293   9.4584949465e+01   3.9965097857e+01    0.2878692    0.2074102 -70.01  0.001293667    1.552    0.356
       106  -9.9661    116.1505    116.4934   9.0741139394e+01   3.6022890631e+01    0.2777148    0.2451374 -51.16 0.0002443195    1.097    0.088
       107  -8.6111     82.1838    114.3466   9.9829973287e+01   4.2556873085e+01    0.2671405    0.1416848  25.85  0.001072406    2.543    0.607
       108  -9.1827    133.6208    110.2606   8.4502282927e+01   3.3805136764e+01    0.2206261    0.1457325 -35.89 0.0004715376    1.602    0.376
       109  -9.6912    149.1826    107.2833   7.9795122918e+01   3.0976035447e+01     0.465718     0.220671 -37.10  0.001666788    2.236    0.553
       110  -9.6337     23.9029    108.9851   1.1618522726e+02   5.0697736757e+01    0.3715835    0.1478676  35.11  0.001752886    2.784    0.641
       111  -9.6627    113.4837    107.5468   8.9192312468e+01   3.8591168100e+01    0.2827022    0.2471461 -49.02 0.0006964195    1.101    0.092
       112 -10.5624     69.1247    105.4298   1.0173217158e+02   4.6612922532e+01    0.5522864    0.2681145 -34.46  0.002037721    3.077    0.675
       113  -9.4089     74.6422    107.1347   1.0043800642e+02   4.5416942663e+01    0.2535656    0.2138078  18.30 0.0008903011    1.399    0.285
       114 -10.8085     39.0820     80.0670   1.0571996730e+02   5.6089879110e+01    0.7636681     0.489947  67.81  0.003760292    2.454    0.592
       115  -9.7445     52.5176     83.7042   1.0193573592e+02   5.3811798251e+01    0.7449146    0.2823043 -50.36  0.002698815    2.185    0.542
       116  -9.6566     57.1899     85.5763   1.0081727371e+02   5.2818165433e+01    0.3976251     0.260847   0.74   0.00191702    2.210    0.547
       117  -9.8555     51.3250     92.6444   1.0448176881e+02   5.1892863010e+01    0.4082649    0.2364984 -39.19  0.001493147    1.788    0.441
       118 -11.3734     48.8963    100.0622   1.0688661884e+02   5.0426957295e+01    0.9179793    0.6720063 -69.15  0.003444324    1.257    0.205
       119  -9.9161     39.0676     96.8184   1.0937041027e+02   5.2221336049e+01    0.3389928    0.2166859 -32.86  0.001230677    1.813    0.448
       120  -9.6641     44.2795     92.9832   1.0687696630e+02   5.2590483445e+01    0.3248893    0.2204878 -89.96 0.0009237099    1.869    0.465
       121 -10.0119     42.8080     87.0766   1.0606020181e+02   5.4113641969e+01    0.4169633    0.2024887 -46.96  0.001207324    1.806    0.446
       122  -9.7451     39.5173     92.4716   1.0833744789e+02   5.3194735710e+01    0.2448397    0.1727726 -43.40 0.0005297095    1.337    0.252
       123 -10.9438     34.1825     91.4035   1.0988072753e+02   5.3949106821e+01    0.4951762    0.3125867   7.00  0.002401049    2.167    0.539
       124 -11.6050    142.3352    101.6102   7.9927034278e+01   3.3733739499e+01    0.6026659    0.3565644  33.27  0.002359481    2.049    0.512
       125 -10.0318    133.7773    102.4960   8.2358035097e+01   3.5460153538e+01    0.3873133    0.2910447 -41.89 0.0008851856    1.309    0.236
       126  -9.2568    132.5903     97.7645   8.1341709705e+01   3.6734898639e+01      0.35913     0.230241 -48.09  0.001127049    1.557    0.358
       127  -8.8256    105.4309    102.7550   9.0205274098e+01   4.1239296960e+01    0.2173802    0.1374037 -38.81 0.0009420422    1.629    0.386
       128  -8.5109     95.9935    103.0287   9.3028606445e+01   4.2910309216e+01    0.1692614    0.1676739  51.14  0.000382906    1.074    0.069
       129 -10.4049     77.6892    101.5497   9.8183181075e+01   4.6276765746e+01    0.4296643    0.2895792  26.36   0.00132563    1.761    0.432
       130  -9.7950     62.0447    102.8387   1.0334265183e+02   4.8181918475e+01    0.3195086    0.2071504 -54.31 0.0002545381    1.347    0.258
       131  -9.4118     63.3822     98.3836   1.0190657880e+02   4.9057268610e+01    0.4210098    0.2189243  46.47  0.001870268    2.280    0.561
       132  -9.1346     39.8676    102.7923   1.1027318555e+02   5.0732423913e+01    0.2203547    0.1951774 -62.88  0.000843412    1.063    0.059
       133  -9.7637     34.6523     99.9080   1.1137234784e+02   5.1914149123e+01     0.374904    0.2225074  87.66   0.00181123    2.194    0.544
       134 -12.0941     20.2601     83.7149   1.1305152069e+02   5.6855732412e+01     1.005597    0.7283409 -13.82  0.003134258    1.709    0.415
       135 -10.8862      4.4107     98.2124   1.2049243983e+02   5.4535518438e+01    0.6754555    0.3068329 -68.12   0.00362441    1.629    0.386
       136 -10.5475      4.2325     86.2017   1.1883839703e+02   5.7286332807e+01    0.6611072    0.2742094 -57.42  0.003473815    1.763    0.433
       137 -10.2403    110.9401    100.6101   8.8052060346e+01   4.0656390671e+01    0.2641049    0.2106214 -45.83 0.0002719345    1.203    0.169
       138 -10.2532    156.3410     95.7758   7.4889231670e+01   3.1671122313e+01    0.4330909    0.3022868 -29.66  0.001895481    1.537    0.349
       139  -8.3453     93.7300     97.6586   9.2289282099e+01   4.4540331614e+01    0.1502052    0.1118817 -23.62 0.0003164524    1.607    0.378
       140  -9.4906     87.8437     97.1097   9.3931127316e+01   4.5678433894e+01    0.2257393    0.1977317 -78.03 0.0006021785    1.246    0.198
       141  -9.4942     81.8231     97.2629   9.5827500960e+01   4.6628751627e+01    0.2690636    0.1965168  43.84 0.0002523676    1.496    0.332
       142 -10.6062     70.7771     94.7958   9.8679061119e+01   4.8873559336e+01    0.4967666    0.3318635 -79.54 0.0007176035    2.016    0.504
       143  -9.0408    151.0676     95.8204   7.6150627754e+01   3.2910444907e+01    0.2452947    0.2166008 -89.67 0.0008931669    1.286    0.222
       144 -10.7770    115.7481     95.0961   8.5154448438e+01   4.0906631679e+01    0.5898691    0.3870886  43.67  0.001946528    1.579    0.367
       145 -11.0280    124.1768     92.0084   8.1930413423e+01   3.9796067402e+01    0.7060742    0.4141198  47.09  0.002111931    1.756    0.431
       146  -8.6455    188.9447     94.4866   6.7539777533e+01   2.4033810681e+01    0.2637071    0.2034688  -6.82  0.000902897    1.609    0.379
       147  -8.7776    138.7437     94.9278   7.8941683716e+01   3.5949888791e+01    0.3310303    0.1999726  22.27  0.001173074    2.709    0.631
       148  -9.4912    173.4015     92.5408   7.0170026647e+01   2.8182890733e+01    0.3649765    0.2311714  49.51  0.001553849    1.596    0.373
       149 -10.7995    106.6079     88.1671   8.5775168245e+01   4.4246129249e+01     1.221025    0.5725066 -26.72  0.003426789    4.587    0.782
       150 -10.3908    112.7425     85.9324   8.3327023419e+01   4.3489800475e+01     1.256709    0.3529689 -36.82  0.003095374    5.174    0.807
       151 -10.2131    101.2349     68.5835   8.1256376705e+01   4.9346257139e+01     0.480732    0.3124949 -42.58  0.002248845    1.486    0.327
       152 -10.0695    131.8337     74.1262   7.4417649076e+01   4.1690955542e+01    0.3491871    0.2883945 -39.53 0.0008376432    1.199    0.166
       153  -9.8487    124.6186     74.7214   7.6521387095e+01   4.3215031681e+01    0.6114107    0.2501819  46.79  0.001916392    2.467    0.595
       154 -10.3710    107.3599     68.3209   7.9322883383e+01   4.8162818668e+01     0.602572    0.3197246 -47.51  0.002474673    1.967    0.492
       155 -11.0994    125.0912     68.1674   7.4267003467e+01   4.4353069202e+01     1.152974    0.6601387 -66.42  0.003746821    3.689    0.729
       156 -11.8921    116.8186     70.1507   7.7194086353e+01   4.5812717857e+01    0.9344689    0.8121932   0.41  0.004874688    1.231    0.188
       157 -11.8288    111.7400     63.5226   7.6422363026e+01   4.8151770298e+01    0.3325197    0.3197395 -37.50 0.0002638714    1.088    0.081
       158  -9.5292     76.0384     89.5181   9.5616601855e+01   4.9303722115e+01     0.314337    0.2538657  54.17  0.001040981    1.439    0.305
       159  -9.7400     71.7628     89.4002   9.6970455709e+01   4.9969956307e+01    0.2665661    0.1448421  33.50  0.001197343    2.059    0.514
       160  -9.6133     83.1426     85.3700   9.2179336948e+01   4.9106184332e+01    0.4074746    0.2263794 -29.41  0.001380889    2.384    0.580
       161 -10.3451     87.9086     90.3552   9.2078559892e+01   4.7198195712e+01    0.4482649    0.2392797 -51.05 0.0009632739    1.760    0.432
       162 -10.9195     83.1989     90.0408   9.3471359922e+01   4.8053929375e+01    0.5113627    0.3182394  15.96  0.001022079    2.371    0.578
       163  -9.9939     90.7282     87.1077   9.0278840213e+01   4.7433190974e+01    0.4054594    0.3301232  71.04  0.001818209    1.552    0.356
       164  -8.6744    187.7755     89.7784   6.6479002808e+01   2.5180191952e+01    0.2092802    0.1785337 -75.31 0.0004363984    1.315    0.240
       165  -8.6263    194.0002     89.4684   6.5206460185e+01   2.3717125652e+01    0.2220993    0.1524164  54.03 0.0003452815    1.497    0.332
       166  -9.4742     54.3181    100.7050   1.0530407501e+02   4.9649491579e+01    0.2668948    0.1767027  36.42  0.001017004    1.709    0.415
       167 -10.0481    145.2749     87.4658   7.5125464075e+01   3.5953305180e+01    0.4652302    0.3672119  -3.81  0.001361767    1.586    0.369
       168  -9.6871    147.0000     82.9607   7.3357627983e+01   3.6427968304e+01    0.6001831    0.2145387 -32.57  0.001759641    3.454    0.711
       169  -9.4014    155.4236     86.0845   7.2297400482e+01   3.3798444290e+01    0.3331636    0.2364909  22.20  0.001403714    1.849    0.459
       170 -10.4328    118.7411     86.6425   8.1840647516e+01   4.2088749739e+01     0.430724    0.2685379  45.89  0.001455399    1.654    0.395
       171 -11.3016    135.5045     81.4155   7.5749588159e+01   3.9431515980e+01    0.8169656    0.6201068   1.50  0.003660339    1.736    0.424
       172  -9.3208     75.9426     84.0255   9.4134236118e+01   5.0551968869e+01    0.2304699    0.2063996  40.79   0.00129641    1.238    0.192
       173 -10.8781    162.7681     81.2770   6.9218456468e+01   3.2913386308e+01     1.059022    0.7594987 -11.17  0.004564084    1.817    0.450
       174  -9.1932    169.0307     78.7030   6.7112095911e+01   3.1831654092e+01     0.222309     0.206034  56.15 0.0003994072    1.087    0.080
       175  -9.3858    170.7156     70.5067   6.4331940861e+01   3.2856360817e+01    0.3054659    0.1928834  54.05 0.0008525439    1.573    0.364
       176  -8.9018    159.2252     54.2462   6.1653065369e+01   3.8449594638e+01    0.1990034     0.171234 -69.17 0.0002605929    1.273    0.214
       177 -10.4809    165.9061     68.6539   6.4758485370e+01   3.4388175995e+01    0.5993201    0.3467635 -36.24  0.001794628    1.716    0.417
       178  -9.9088    160.7154     50.4004   6.0128623835e+01   3.8661875897e+01    0.4463384    0.3178901  74.44  0.001909478    1.558    0.358
       179 -10.8709    157.4922     42.2179   5.8126575397e+01   4.0681473840e+01    0.8210655    0.4672026 -27.06  0.003535159    1.876    0.467
       180 -10.0257    152.8196     43.5181   5.9479057827e+01   4.1687315700e+01    0.3968908    0.2651313 -28.25 0.0009310752    1.565    0.361
       181 -11.0011    164.6699     60.5470   6.2524457216e+01   3.6058693348e+01    0.6101793    0.3648065 -54.96 0.0006418343    2.006    0.502
       182 -10.5711    166.3647     53.9127   6.0127936564e+01   3.6680019190e+01    0.7326812    0.3958497 -40.23  0.003034371    1.848    0.459
       183  -9.8774    106.4392     76.7563   8.2337940531e+01   4.6675121151e+01    0.5793754    0.2597623  47.03  0.002191711    2.369    0.578
       184 -10.5826    103.4087     80.7802   8.4501264940e+01   4.6443892627e+01    0.4328834    0.3117312  28.57 0.0006184027    1.556    0.357
       185 -10.3221     98.7887     77.1576   8.4779881525e+01   4.8090270251e+01    0.4707904    0.3876698  25.05  0.001890891    1.302    0.232
       186  -8.1578     59.0511     80.5496   9.8863942099e+01   5.3717049692e+01    0.1739687     0.135718  31.12 -4.699939e-05    1.448    0.309
       187  -8.8803    185.2814     78.9394   6.3928609352e+01   2.7732086394e+01    0.2149424    0.1932003 -36.38  0.000267244    1.098    0.089
       188  -9.8959    152.0249     76.5172   7.0208711487e+01   3.6435011843e+01    0.5462202    0.3747482  -0.46  0.002186706    2.220    0.549
       189 -11.0863    150.5245     67.4474   6.7731009542e+01   3.8439336444e+01     1.217325    0.5903602 -33.49  0.004613779    2.116    0.527
       190  -9.7248    144.1269     58.1487   6.6200651174e+01   4.1602277390e+01    0.3431482    0.2503276  47.64 0.0006406129    1.347    0.257
       191 -12.0982    147.4775     53.4830   6.3904523679e+01   4.1528493354e+01    0.6250157    0.3939805  49.66 2.304548e-05    1.540    0.351
       192 -10.1007    144.9981     49.0024   6.2962206273e+01   4.2842799703e+01    0.5057023    0.2801151  40.76  0.002076842    1.936    0.483
       193  -9.5402      5.2095     77.1388   1.1704160164e+02   5.9275942786e+01    0.2303349    0.1878549  72.00  0.001592613    1.455    0.313
       194  -9.9361      3.1956     73.2466   1.1707124549e+02   6.0244725852e+01    0.5003762    0.1778278 -38.72  0.002279551    2.912    0.657
       195  -9.6781    214.7374     76.1381   5.8067724209e+01   2.0977383387e+01    0.2763686    0.2620822  45.38  0.001043054    1.140    0.123
       196  -9.6216     45.6732     76.7282   1.0255129768e+02   5.6158730548e+01    0.2935567    0.1986668  35.93 0.0009350021    1.722    0.419
       197 -10.2692    203.9803     74.1575   5.9272517755e+01   2.3909841842e+01    0.4770844    0.3565384  21.05  0.001697444    1.771    0.435
       198  -9.3251    146.8619     74.9412   7.0934833556e+01   3.7981910039e+01    0.2211663    0.1995866   5.44            0    1.198    0.165
       199  -8.8388     95.4308     72.5126   8.4345313508e+01   4.9678746641e+01    0.2561681    0.1787319 -70.53  0.001119943    2.149    0.535
       200 -11.4640    138.7591     69.2021   7.1085693642e+01   4.0982294707e+01     1.305904    0.8361373  77.20  0.004769032    2.447    0.591
       201  -9.0838    131.3648     67.2386   7.2313241698e+01   4.3082425498e+01    0.2941787    0.2338737  33.60  0.000767559    1.311    0.237
       202 -11.0571    136.9325     60.6515   6.8739055803e+01   4.2929204601e+01    0.8744146    0.5452088  28.45  0.001273641    2.056    0.514
       203 -10.0685    179.3451     68.5926   6.2073941462e+01   3.0999107930e+01    0.9272052    0.3315561  55.45  0.003100183    2.723    0.633
       204  -9.2877    227.2593     65.0561   5.3368525968e+01   1.9757241466e+01    0.3058127    0.2068522  33.44  0.001426334    1.985    0.496
       205  -8.4250    238.5193     65.4859   5.1994019760e+01   1.7103485237e+01    0.1375254    0.1288782 -36.43 6.892785e-05    1.108    0.098
       206 -10.2552    150.7548     59.4716   6.5132043759e+01   3.9741933027e+01    0.6605162    0.2499027  56.50  0.002235605    2.655    0.623
       207  -9.2191    211.4713    239.5131   9.3781546220e+01  -4.9626669299e+00    0.1951156    0.1047061 -21.40  0.001030284    2.381    0.580
       208  -9.8713     10.8152     63.4250   1.1231791904e+02   6.1990437718e+01    0.3541771    0.1787253 -50.34  0.001617923    1.504    0.335
       209 -10.7541      4.2260     57.0419   1.1349310583e+02   6.3717701618e+01    0.4538964    0.2714431  42.03  0.002728437    2.280    0.561
       210 -10.0980      4.0650     51.9153   1.1239064027e+02   6.4807278263e+01    0.2567395    0.1298088 -45.19  0.000982041    1.533    0.348
       211  -9.5293    207.3086     61.3939   5.5276948404e+01   2.5127378465e+01    0.2860219    0.2347791 -60.96 0.0007632832    1.213    0.175
       212  -9.9220    174.0648     57.5570   5.9781573819e+01   3.4139447082e+01     0.754548    0.3739414 -12.08  0.002218524    4.325    0.769
       213  -9.3562    179.0607     44.9861   5.5101734607e+01   3.4735713079e+01    0.2981327    0.2359224  16.83 0.0003393269    1.572    0.364
       214  -9.4676    173.5041     39.2969   5.4306851830e+01   3.6960759491e+01    0.3153067    0.3089352  -9.52  0.001061657    1.097    0.088
       215  -9.3131    191.9744     44.7071   5.2956869406e+01   3.1456118109e+01    0.3752395    0.2351419 -86.01  0.001428283    2.038    0.509
       216 -10.7672    172.4327     47.2242   5.6928732634e+01   3.6123774303e+01    0.7018573    0.4987953 -76.05  0.003222793    1.731    0.422
       217 -10.6423    194.0189     50.0309   5.4162899683e+01   3.0172168705e+01    0.4374831    0.3146643  76.96  0.001687309    1.458    0.314
       218 -10.5532    185.3566     55.8418   5.7252167837e+01   3.1514254221e+01    0.3737493    0.3203389  63.87 0.0008525193    1.156    0.135
       219 -11.4351    183.4509     51.8064   5.6391942551e+01   3.2612626534e+01     0.618268    0.3634923  56.45 0.0004397765    1.656    0.396
       220  -8.9868    212.3986     59.8963   5.4117197057e+01   2.4104374679e+01    0.2763205    0.1818937  27.67 0.0008179813    2.222    0.550
       221  -9.3969    200.9727     59.7512   5.5805309063e+01   2.6957021487e+01    0.3416902    0.2246087  81.96 0.0008716877    1.811    0.448
       222  -9.4780    107.0495     59.6804   7.6465652710e+01   4.9845041288e+01    0.2544629     0.220834  34.83 0.0005268106    1.157    0.136
       223  -9.4476    244.2599     56.0629   4.9013374136e+01   1.7197124122e+01    0.3597332    0.1632805 -36.85  0.001571394    1.919    0.479
       224 -10.4045    133.6163     54.4051   6.7446906968e+01   4.4770169384e+01    0.6926672    0.3770636 -12.01  0.002390002    3.141    0.682
       225 -10.4087    121.2057     54.0253   7.0493204454e+01   4.7734558940e+01    0.5365049    0.4619956  -5.04  0.002389296    1.206    0.171
       226  -9.5772    118.2411     43.0384   6.7328039434e+01   5.0160687406e+01     0.544023    0.1823012 -35.87   0.00188233    2.923    0.658
       227  -9.5256    233.5547     55.6870   5.0197070180e+01   1.9683609119e+01    0.3752193    0.2047813  50.51  0.001702372    2.067    0.516
       228  -7.9982    203.2875     56.6539   5.4592723797e+01   2.6850024207e+01    0.1569937    0.1055405 -62.23 0.0007022383    1.653    0.395
       229  -8.8536     12.3118     56.6150   1.1015001150e+02   6.3361057382e+01    0.1890942    0.1095126  23.40  0.001118242    2.098    0.523
       230 -10.3757     71.1933     52.6810   8.5725061933e+01   5.7757184188e+01    0.4137091    0.2824499 -43.31  0.001949374    1.391    0.281
       231  -9.8599     76.0905     51.9729   8.3717707956e+01   5.7091826910e+01    0.2394434    0.1857144  28.21  0.001327411    1.334    0.250
       232  -9.6183    211.6465     51.3224   5.1933187534e+01   2.5561761843e+01    0.3857821    0.2734935 -16.00  0.001861516    1.711    0.415
       233 -11.5159     58.0973     48.6062   8.9142429369e+01   6.0467417714e+01    0.6358334    0.5674841  89.81  0.003350984    1.641    0.391
       234  -9.3667    222.6291     56.0946   5.1697328258e+01   2.2195843816e+01    0.3363796    0.2417926 -76.04  0.001680627    1.545    0.353
       235  -9.1281      9.9117     52.1256   1.1001821553e+02   6.4448219798e+01    0.1544484     0.141423 -48.06 0.0004757666    1.203    0.168
       236 -10.1733    116.7455     49.7875   7.0187990698e+01   4.9441814652e+01    0.5490344    0.3863773  16.49  0.002550833    1.740    0.425
       237 -11.5865     40.1369     65.8190   1.0165290190e+02   5.9132036954e+01    0.9374277    0.5495673 -35.80  0.004943401    1.632    0.387
       238  -9.4498    201.9596     48.3240   5.2491235397e+01   2.8408486953e+01    0.2596084    0.2157237 -21.94 0.0004191671    1.320    0.242
       239 -10.0874    206.9962     46.0897   5.1165903310e+01   2.7463024719e+01     0.385442    0.2008639  62.58 0.0007603132    1.891    0.471
       240  -9.3676    186.4024     61.3571   5.8676523792e+01   3.0387358600e+01    0.4037881    0.2411518 -66.28 0.0009509101    2.341    0.573
       241  -9.3577    105.6483     44.0219   7.1182769157e+01   5.2795913193e+01     0.542346    0.3086576 -41.96  0.001968278    1.855    0.461
       242 -10.3658     14.4179    237.5054   1.2921666135e+02   2.3850064105e+01    0.2872195    0.1329436 -88.59  0.001831621    1.851    0.460
       243  -9.0556     55.5143    237.9472   1.2231565785e+02   1.9093002603e+01    0.1547489   0.09694117 -77.25  0.001026785    1.596    0.373
       244  -8.5810    172.6591    237.6631   1.0059845099e+02   1.4662600072e+00    0.1251047   0.08644088  13.41 0.0007050567    1.762    0.432
       245  -8.8070     21.0267    232.3244   1.2787560559e+02   2.4104148432e+01    0.1482839    0.1033624  64.43 0.0005800657    1.090    0.083
       246 -10.2368    110.4582     17.6122   5.9516780737e+01   5.5263736539e+01    0.2609663    0.2239858  33.36 0.0007064461    1.049    0.046
       247  -9.0801     12.6618    231.9631   1.2924247921e+02   2.5030233959e+01    0.2276148   0.08341368  53.27  0.001331647    2.003    0.501
       248 -10.6909    113.1651     32.9894   6.4883541601e+01   5.2757885316e+01    0.4183182    0.2146796 -30.20 0.0003959209    1.974    0.493
       249 -12.0188    106.0798     33.0746   6.6838201977e+01   5.4322625007e+01    0.5630198    0.3721749   8.10  0.001394246    1.885    0.469
       250  -8.2656    226.7147    231.6750   8.9837212407e+01  -6.3204397968e+00    0.1216752   0.07767025   8.73 0.0003237716    1.603    0.376
       251  -9.0796    219.4009    230.6652   9.0967095549e+01  -5.0740045689e+00    0.2185329    0.1338905  35.67 0.0005770738    1.384    0.277
       252  -9.3177    202.1147    228.9602   9.3824062670e+01  -2.1099539387e+00    0.1852962    0.1485826  25.78 0.0003934901    1.014    0.014
       253  -8.2818     63.7193    229.3748   1.2019057755e+02   1.9609683784e+01    0.1243961   0.06822818  69.37 0.0007011328    1.705    0.413
       254 -10.1670    148.0010     34.8864   5.7560549200e+01   4.4096015612e+01    0.8057183    0.2482246  60.06  0.002633994    3.055    0.673
       255 -10.2072    155.8005     31.3864   5.4897006839e+01   4.2560338708e+01     0.429944    0.2858857   4.60  0.001925067    2.054    0.513
       256 -10.6458    142.1291     44.5329   6.2083458235e+01   4.4225253548e+01    0.5029525    0.3158632  27.69 0.0008871895    2.016    0.504
       257  -9.4344    142.7298     39.0370   6.0068566699e+01   4.4860103920e+01     0.310925     0.234276 -29.22 0.0008835717    1.375    0.272
       258  -9.4665     75.8138     46.1422   8.1630350181e+01   5.8184739709e+01    0.3089623    0.1940788  28.96  0.001542325    1.700    0.412
       259 -10.1106     76.6494     41.5467   7.9545439716e+01   5.8827545201e+01    0.3185152    0.2241826 -26.65 0.0006520332    1.332    0.249
       260 -10.7372     66.8942     43.9611   8.4042147542e+01   6.0018529992e+01     0.381276    0.3182151 -31.88  0.001504226    1.131    0.116
       261  -9.9310    136.1826     41.8387   6.2488251654e+01   4.6082957764e+01    0.3755994    0.2769804 -76.77  0.001745597    1.862    0.463
       262  -9.6646    131.3064     40.0676   6.2992655941e+01   4.7522364337e+01    0.7025654    0.3033136 -20.27  0.002405899    3.187    0.686
       263  -9.5332     16.3316     44.7593   1.0525317202e+02   6.5549347367e+01    0.2336978    0.1762426 -11.55  0.001271715    1.390    0.280
       264  -9.0446    248.8227     44.1952   4.5706708725e+01   1.7837628094e+01    0.1693098    0.1585635  18.89 0.0004613351    1.357    0.263
       265  -9.0259    137.3680    224.7098   1.0557976214e+02   9.3555056987e+00     0.155029    0.1193941 -41.82 0.0007836116    1.617    0.382
       266  -8.9292    112.0037    225.4985   1.1064335626e+02   1.3330532744e+01     0.185184   0.08218455  57.01 0.0008095793    2.458    0.593
       267  -9.2446     41.1441    221.3593   1.2370227768e+02   2.3932744548e+01    0.1878234     0.132673 -75.34  0.001042392    1.431    0.301
       268  -8.9006    235.6780    219.3284   8.6182725618e+01  -6.1466687787e+00    0.1044645   0.09838737  61.34 0.0004320176    1.691    0.409
       269  -8.5625    224.6985    215.3502   8.7434961944e+01  -3.9100317252e+00    0.1085614    0.1013952  77.20 0.0007038788    1.695    0.410
       270  -9.3535     26.8031    212.3947   1.2571235361e+02   2.7287602568e+01    0.1372506    0.1030774  32.79 0.0009551569    1.735    0.423
       271  -9.4808    233.8539    199.8635   8.2993327550e+01  -3.2743975596e+00    0.2022813     0.152385   4.64  0.001224933    1.211    0.174
       272  -9.4564     27.9259    193.6186   1.2420132687e+02   3.0997755691e+01    0.2440195    0.1440507 -89.70  0.001499217    1.417    0.294
       273  -9.4712     11.3102    192.7285   1.2736851845e+02   3.2816907731e+01    0.2740444    0.1154977  42.02  0.001562092    2.165    0.538
       274 -10.8857    219.7819     34.0889   4.6380001967e+01   2.5929864509e+01    0.4486297     0.369472 -42.29  0.001223154    1.176    0.150
       275  -9.7489    215.1371     39.6213   4.8371736245e+01   2.6335475535e+01    0.6487374    0.2834618 -31.49  0.002210644    2.238    0.553
       276  -9.0129    206.9714     33.7155   4.7819493002e+01   2.9137290980e+01    0.2722602    0.1875668  75.73   0.00108433    1.432    0.302
       277 -10.6466    212.4270     30.7534   4.6367550913e+01   2.8158453505e+01    0.6816159    0.4966967  34.53  0.003498741    1.775    0.436
       278 -10.4466    215.1575     25.2216   4.4613749332e+01   2.8169997769e+01    0.4023722    0.3161924  61.90 0.0005717629    1.305    0.234
       279  -9.9406    215.0436     21.3488   4.3626855504e+01   2.8660156884e+01    0.3956262    0.2050493  67.31  0.001096704    1.832    0.454
       280  -8.5878    197.0551     41.9694   5.1427606010e+01   3.0541143337e+01    0.1684415    0.1571853 -77.43 0.0003232884    1.005    0.005
       281  -9.0208     22.8443     41.2705   1.0128283933e+02   6.5748647898e+01    0.2010977    0.1395589 -57.26  0.000754168    1.420    0.296
       282 -10.9494    194.2202     54.0783   5.5281650498e+01   2.9522429345e+01    0.6511962    0.4958139  41.38  0.003104816    1.460    0.315
       283  -8.6048    112.4862     41.5080   6.8306099803e+01   5.1690203008e+01    0.1429957    0.1353962  12.83 -3.367023e-05    1.030    0.029
       284  -9.0653    219.6408     42.8309   4.8651621261e+01   2.4800677329e+01    0.2046636    0.1160289 -42.00 0.0007404306    1.624    0.384
       285  -8.9961    235.5237     39.9436   4.6091364592e+01   2.1420408536e+01    0.2055577    0.1265993 -32.43  0.001023308    1.576    0.365
       286  -9.0474     62.4344     40.0542   8.4204762504e+01   6.1383028376e+01    0.2387613    0.1630301  13.14 0.0006301359    1.621    0.383
       287  -8.6794    126.8588     39.1967   6.3741953230e+01   4.8712584979e+01    0.2014446    0.1637054  14.12 0.0006236625    1.321    0.243
       288  -8.8644    202.6841     37.8405   4.9498182433e+01   2.9673935446e+01    0.3046883    0.1706937  55.28 0.0007812401    1.786    0.440
       289  -8.4937    110.3896     38.2287   6.7640436219e+01   5.2641837949e+01    0.1828096    0.1307283 -38.84 0.0003315863    1.470    0.320
       290  -9.4486    198.6541     33.8573   4.8935158210e+01   3.1214623195e+01    0.5117283    0.1736807 -29.83  0.001817896    2.946    0.661
       291  -8.4765    215.5116    189.5079   8.4376747296e+01   1.3800928931e+00    0.1362067    0.1160419  10.64  0.000287565    1.037    0.036
       292  -8.7393    123.9481     36.0182   6.3288437865e+01   4.9847841612e+01    0.1777487    0.1657576  31.28  0.001006086    1.010    0.010
       293 -10.3100    244.6044     33.4481   4.3611794557e+01   2.0196890221e+01    0.8528159    0.2943117  75.29  0.003130096    3.543    0.718
       294  -9.5931    234.5384     33.5251   4.4633238226e+01   2.2491282726e+01    0.2225523    0.2163941  88.08 0.0008761747    1.180    0.153
       295  -8.6102      7.9921    185.9936   1.2759289815e+02   3.4520767414e+01    0.1349121   0.09936854  80.11 0.0003293674    1.019    0.019
       296  -9.6651    182.3320     33.9353   5.1277862354e+01   3.5387023225e+01    0.6414247    0.1580407  56.06  0.002011584    3.416    0.707
       297  -9.6157    134.9723     34.1322   6.0038348117e+01   4.7445384494e+01    0.3394509    0.2304402  25.42 0.0009676372    1.720    0.418
       298  -8.8946    138.2553     31.0197   5.8224000713e+01   4.7038752927e+01    0.2013306    0.1871087 -14.24 0.0007862378    1.122    0.109
       299  -9.3880     11.7699    184.6623   1.2676680799e+02   3.4464399095e+01    0.1880426    0.1494713 -67.92 0.0006152192    1.427    0.299
       300  -9.3431    158.2602     19.9439   5.0714630591e+01   4.3278612791e+01    0.3061899     0.254238 -37.02  0.001022096    1.276    0.217
       301  -8.3403     18.3010    182.6400   1.2531974743e+02   3.4290401507e+01    0.1265352   0.06583602  70.40 0.0007036737    1.718    0.418
       302 -10.8059     25.9175    176.9553   1.2330156566e+02   3.4783715202e+01    0.4236998    0.3102382 -61.59   0.00257128    1.492    0.330
       303 -10.3558     30.5090    172.0267   1.2188705920e+02   3.5410610399e+01    0.2880147    0.2198849 -83.51  0.001125966    1.106    0.096
       304  -8.7030     36.9683    179.4899   1.2117265290e+02   3.3071979467e+01    0.1834991   0.06915013  55.15 0.0008101941    2.640    0.621
       305 -10.2236    176.8171     19.6267   4.7804011466e+01   3.8529311673e+01    0.3768113    0.2777852 -86.45 0.0007197676    1.410    0.291
       306  -9.8200      1.7196    178.2625   1.2835237953e+02   3.6684287108e+01    0.2622981    0.1212807 -87.57  0.001500868    1.724    0.420
       307 -10.0991      7.8117    176.8436   1.2704245338e+02   3.6479973003e+01    0.3299601    0.1546515  60.87  0.001706013    1.916    0.478
       308  -8.8407     65.5551    173.2224   1.1415321293e+02   3.1001113619e+01    0.1793542     0.110075 -58.66 0.0005139121    1.632    0.387
       309 -11.2637     41.5233     53.9587   9.7543765457e+01   6.1462853118e+01    0.2373547    0.2051995   3.55 0.0003232726    1.241    0.194
       310 -10.4215    226.2365     28.2408   4.4194858809e+01   2.5117555913e+01    0.4992826    0.2893475 -36.31  0.002107045    1.622    0.384
       311  -8.9694    203.4180     29.0691   4.7004063827e+01   3.0616376456e+01    0.2374423    0.2033293   1.88 0.0008769659    1.454    0.312
       312  -9.7064    204.8474     24.5261   4.5601773218e+01   3.0811116836e+01    0.4448538    0.2530409 -29.24   0.00186764    1.823    0.451
       313  -9.4525    146.0228     29.3758   5.6071717491e+01   4.5299600691e+01    0.4403619    0.2334002  61.82  0.001899058    1.797    0.443
       314  -8.9866    167.2483     29.2734   5.2229583988e+01   3.9874696788e+01    0.3415283    0.1776357  60.29  0.001470866    1.766    0.434
       315  -9.2793    246.2115    171.4145   7.5238832033e+01  -1.2480362297e+00    0.1710418    0.1249327  50.66 0.0008923553    1.713    0.416
       316  -8.5822     80.3258    176.3077   1.1116704844e+02   2.8225381015e+01    0.1241355    0.1052569 -29.70 0.0004198565    1.652    0.395
       317  -8.6326    187.8600     20.0729   4.6453324566e+01   3.5639195145e+01    0.3563048    0.2003488  53.99    0.0016535    1.740    0.425
       318  -8.8568    159.5494     24.6460   5.2030854333e+01   4.2414638150e+01    0.3431977    0.2908282  32.24  0.001887392    1.259    0.205
       319  -8.9975    153.9182     24.5649   5.2976070798e+01   4.3868839936e+01    0.3930733    0.2673616 -76.09  0.001832507    1.871    0.465
       320  -8.3218    250.2898     25.6461   4.1295305001e+01   1.9911234738e+01    0.1414355   0.07882897 -58.50 0.0007026838    1.676    0.403
       321  -8.7855    166.9584     25.5311   5.1098001070e+01   4.0400211817e+01    0.2239636    0.1349901  68.19  0.001025613    1.587    0.370
       322  -9.8533    147.3434     23.9778   5.3969726930e+01   4.5611242115e+01    0.2771758    0.2102193  52.68 0.0009489094    1.221    0.181
       323 -10.3986     32.0518    166.2772   1.2100591143e+02   3.6544377081e+01    0.2267723    0.1787873  57.86 0.0004389675    1.252    0.202
       324  -9.8319     18.8945    165.8281   1.2388456256e+02   3.7917344156e+01     0.175452    0.1431584 -75.34 0.0009463016    1.223    0.182
       325 -10.1520    129.1079     23.4811   5.7459771285e+01   5.0202916227e+01    0.2478938    0.2137651  30.28  0.000475766    1.124    0.110
       326 -10.3689      2.2226    159.4187   1.2701665727e+02   4.0726200916e+01    0.4153581    0.1633783 -89.84  0.001992003    2.274    0.560
       327  -8.5578    137.0000     24.0500   5.6007352497e+01   4.8198290963e+01    0.2097615   0.08154437 -25.77            0    2.738    0.635
       328  -9.6037     97.2773     22.0606   6.4857960525e+01   5.7652896842e+01     0.310479    0.1982491  41.11 0.0008850064    1.451    0.311
       329  -9.2911     81.8824     20.2736   6.8795755021e+01   6.0992432728e+01    0.3514651      0.32582  71.71  0.002211552    1.454    0.312
       330  -8.9992     28.8603    158.1975   1.2093834441e+02   3.8704322992e+01    0.1818885    0.1361423  77.76 0.0003808357    1.158    0.136
       331  -9.9302    245.8650     18.6907   4.0090309529e+01   2.1732961374e+01    0.3681395    0.2059873  72.22  0.001931945    1.777    0.437
       332  -8.1213     25.3357    153.3075   1.2127130038e+02   4.0164133250e+01    0.1183828   0.08304106 -49.37 0.0007041715    1.674    0.403
       333 -11.2306     14.1293    151.4561   1.2371483673e+02   4.1572595054e+01    0.3810242     0.253552  70.74  0.002420999    1.369    0.270
       334 -10.1504     30.5374    151.4772   1.1984273123e+02   4.0090641071e+01    0.2578081     0.170482 -66.05  0.000671761    1.338    0.253
       335  -9.3964     67.5160    148.5283   1.1025950591e+02   3.6483122222e+01    0.2549559    0.1229425 -77.06  0.001033479    2.431    0.589
       336 -11.5528     80.8990     76.0701   9.0159068507e+01   5.1495763395e+01      1.14361    0.5050281  48.18   0.00242044    2.860    0.650
       337  -8.9141    198.4035     16.1111   4.4065996535e+01   3.3399527419e+01    0.2299267    0.1722438  58.59  0.001254803    1.331    0.249
       338  -9.4885    126.0508     15.3049   5.5062996052e+01   5.1841704371e+01    0.2128433    0.1771964  23.61 0.0001641946    1.201    0.167
       339  -9.4998    235.5090    249.2247   9.1104213525e+01  -9.6271559011e+00    0.2164029    0.1256288  32.25  0.001101976    1.376    0.273
       340 -13.3045     37.1002    120.1539   1.1406321995e+02   4.6864090602e+01     1.678498     1.433342 -49.04   0.00402564    1.246    0.197
       341 -10.2955    107.7018    247.9012   1.1385406230e+02   1.0153977854e+01    0.2581436    0.1780481 -83.60 0.0009094891    1.705    0.413
       342  -8.9417     67.8122     13.3113   7.0428475992e+01   6.4443340915e+01    0.1972976    0.1387266  41.94 0.0004981388    1.433    0.302
       343  -8.9637     30.8278    247.9571   1.2708774041e+02   2.0252622130e+01    0.1450825     0.107472 -59.22  0.001080842    1.985    0.496
       344 -10.6117    106.1662     51.8176   7.3921591458e+01   5.1410760701e+01    0.5213047    0.3561856  39.44  0.001013906    1.464    0.317
       345  -8.8552     10.9829    248.4889   1.3024151924e+02   2.2273519724e+01    0.1577833   0.03924278  54.55 0.0008104338    2.676    0.626
       346  -8.8987      3.4852    246.5215   1.3131187835e+02   2.3354653231e+01    0.1645882   0.06731638 -69.66   0.00102763    2.510    0.602
       347 -13.1340     12.3570    127.4284   1.2177812969e+02   4.7250438623e+01      1.42728    0.5371615 -84.08  0.004203991    2.712    0.631
       348 -10.5091    141.5270    244.0613   1.0723497532e+02   5.5396744804e+00     0.352731    0.2396721  17.60  0.002010367    2.042    0.510
       349 -11.7313     30.8541     72.2834   1.0681665031e+02   5.8594650501e+01    0.7494732    0.3225164 -46.11  0.003563056    1.942    0.485
       350 -11.8731     67.7403     75.0165   9.4294593474e+01   5.3750768233e+01    0.8837008    0.4281804 -51.51  0.003869809    1.885    0.469
       351  -9.2889     91.0000    244.9275   1.1657977297e+02   1.3087111949e+01    0.1620671   0.06359041 -64.79 0.0008014418    2.936    0.659
       352 -11.2013     99.0380     58.8538   7.8600988213e+01   5.1628162543e+01     1.003587    0.4482548 -32.19  0.003018261    2.444    0.591
       353 -11.5368     88.5980     58.0247   8.1640735195e+01   5.3777114939e+01    0.8561581    0.6891696  20.77 0.0003688683    1.294    0.227
       354  -9.2376    188.7324    243.9572   9.8534601614e+01  -1.9855135129e+00    0.1301348    0.1039014 -28.48 0.0006846825    1.491    0.329
       355 -11.5023     36.6174     27.2061   8.9733630880e+01   6.6976234636e+01     0.232007    0.1779764 -18.28 0.0002904194    1.079    0.073
       356 -11.3672     42.2170     49.8688   9.5912150128e+01   6.2203438710e+01    0.7347776    0.3162574  26.64  0.002860844    2.680    0.627
       357 -12.5787     48.8269     39.0421   8.9247487574e+01   6.3454283234e+01    0.4964284    0.3832871  39.40 0.0009029768    1.592    0.372
       358 -11.7540     56.5923     37.7663   8.5582997570e+01   6.2631580445e+01    0.4399689    0.3189574   0.40  0.001246425    1.440    0.306
       359 -10.4297      5.1656    147.1412   1.2541983646e+02   4.3250074401e+01    0.2909901     0.177025  41.39  0.001486841    1.790    0.441
       360 -10.7080      6.1241    142.6951   1.2481912092e+02   4.4188270640e+01    0.3613878    0.2624248  63.71  0.001925568    1.343    0.255
       361 -10.6369     30.7141    142.6724   1.1880776207e+02   4.2130262197e+01    0.4578208    0.2606632 -53.89  0.001424356    1.748    0.428
