#   1 NUMBER                 Running object number                                     
#   2 MAG_AUTO               Kron-like elliptical aperture magnitude                    [mag]
#   3 X_IMAGE                Object position along x                                    [pixel]
#   4 Y_IMAGE                Object position along y                                    [pixel]
#   5 X_WORLD                Barycenter position along world x axis                     [deg]
#   6 Y_WORLD                Barycenter position along world y axis                     [deg]
#   7 A_WORLD                Profile RMS along major axis (world units)                 [deg]
#   8 B_WORLD                Profile RMS along minor axis (world units)                 [deg]
#   9 THETA_WORLD            Position angle (CCW/world-x)                               [deg]
#  10 FWHM_WORLD             FWHM assuming a gaussian core                              [deg]
#  11 ELONGATION             A_IMAGE/B_IMAGE                                           
#  12 ELLIPTICITY            1 - B_IMAGE/A_IMAGE                                       
         1 -12.9506    119.2197     39.8960   3.1191609342e+01   5.0563222394e+01     1.929968    0.7669669 -26.95   0.00656886    2.890    0.654
         2 -12.2710    160.0601     29.6971   1.9368415526e+01   4.1483409730e+01    0.4713685    0.4024487   1.46 0.0003610249    1.356    0.262
         3 -10.9768    105.6011      2.5494   1.8290585120e+01   5.8526497350e+01     0.531269    0.3091282 -56.09  0.002396742    2.204    0.546
         4 -12.3360    104.6348     13.7062   2.3640326186e+01   5.7653621534e+01    0.5973346    0.4234914  -8.78  0.003036207    1.539    0.350
         5 -12.2279    105.6238     20.5172   2.6471540483e+01   5.6609773009e+01    0.4443429    0.3524433 -62.34 0.0005831102    1.485    0.326
         6 -10.3126     12.7415      8.5021   6.0752646455e+01   7.5170581392e+01    0.4084115    0.1971154 -58.43  0.001788735    2.570    0.611
         7 -11.7200     26.2594     28.5465   6.2278694519e+01   6.9995227268e+01    0.5129557    0.3361332 -47.06  0.002142587    1.302    0.232
         8 -11.0488      5.9812     10.9231   6.6900570543e+01   7.5291550733e+01    0.4597821     0.372113  13.49  0.003243896    1.395    0.283
         9 -11.9122     20.3748     21.8560   6.2678221541e+01   7.1926023676e+01    0.8417681    0.3536016 -37.84   0.00347714    2.235    0.553
        10 -11.9661     15.8937     14.3955   6.1820908061e+01   7.3789302131e+01    0.7262029    0.3037888 -32.72  0.003269613    2.577    0.612
        11 -11.8319     22.5009     11.2322   5.5777969302e+01   7.3662108345e+01    0.4787206    0.3155194   8.93  0.002813406    1.689    0.408
        12 -10.1012      9.5611     29.9150   7.2562154716e+01   7.1169185475e+01    0.5266871    0.3228247 -10.52  0.002653734    1.916    0.478
        13 -11.1148    122.0407      5.9681   1.6691236717e+01   5.4057744343e+01     0.509981    0.2062352 -21.57  0.001134209    2.566    0.610
        14 -11.4105    146.1999     25.5542   2.0159496541e+01   4.5638414461e+01     1.015279    0.5852505 -87.56  0.004101777    2.309    0.567
        15 -10.0097    120.8185     11.6240   1.9288489770e+01   5.3817342998e+01     0.458996    0.1785157  66.68 0.0007741224    2.493    0.599
        16 -10.9572    135.1265     22.2586   2.0882005774e+01   4.8933482186e+01    0.4799138    0.3993452  50.87  0.002174261    1.192    0.161
        17 -10.1652    127.1723     11.6791   1.8140670826e+01   5.2175811647e+01    0.3395387    0.2640676 -87.50  0.001248202    1.387    0.279
        18 -11.0611    126.8982     16.6027   2.0184675520e+01   5.1720200524e+01     0.364714    0.2491109  38.82  0.001480478    1.556    0.357
        19 -11.7836     35.6083     17.9942   5.1839973938e+01   7.0831959874e+01    0.6477695    0.2726727 -34.99  0.002127835    2.305    0.566
        20 -11.9346     48.7104     12.7379   4.2141183898e+01   6.9650077540e+01     0.616592    0.3510739  49.55  0.003123342    2.036    0.509
        21 -11.6987     67.6692     18.8771   3.7462595623e+01   6.5270827275e+01    0.4886192    0.4431403 -76.57 0.0009162663    1.444    0.307
        22 -12.6342    164.4960     18.2906   1.4878718637e+01   4.1679030855e+01    0.6022571    0.3269248  40.24  0.001819033    2.275    0.560
        23 -11.1150    134.8870     15.0929   1.8153475836e+01   4.9810605898e+01    0.6789991     0.355077  57.29  0.002650285    1.779    0.438
        24 -11.8635    228.6913     15.9503   7.8408057306e+00   2.6051742711e+01    0.3891566    0.3135217 -40.47  0.001658617    1.121    0.108
        25 -11.0611    225.6656     13.7182   7.4953704696e+00   2.6982713782e+01    0.2592802    0.2252017 -31.55  0.000427851    1.199    0.166
        26 -11.6794     85.7972     14.1248   2.8845842428e+01   6.2047072595e+01    0.6178232    0.4799836 -29.78  0.001979476    1.298    0.229
        27 -10.1607     88.9133      7.2272   2.4479036983e+01   6.2103034971e+01    0.3474734    0.2513026  11.73  0.001167689    1.491    0.329
        28 -10.4285    147.7259     16.2719   1.6536933082e+01   4.6313420110e+01     0.444733    0.2273015  43.08  0.001512847    2.217    0.549
        29 -12.1836    239.0109     16.4912   7.2374609156e+00   2.3701314009e+01     0.735265    0.2871506 -88.63  0.002895675    3.456    0.711
        30 -10.1634    218.9999     12.5342   7.6868106650e+00   2.8650779615e+01    0.2551943    0.2042447 -53.00  0.001303558    1.066    0.062
        31 -11.1504    192.3396      8.7257   8.8330047792e+00   3.5521181334e+01    0.6929058    0.3564352   4.42  0.002563674    3.668    0.727
        32 -10.1096     98.9610     11.5711   2.4018694677e+01   5.9265109425e+01    0.4052688    0.2021182  -7.17  0.001592181    2.714    0.631
        33 -11.5298    212.3137      8.9812   7.2520356773e+00   3.0602573113e+01    0.6300567    0.3615929  -1.90  0.002806766    2.670    0.625
        34 -10.8732    218.3964      3.9254   5.4783770915e+00   2.9679540132e+01    0.3088153    0.2880564  89.89  0.001206173    1.181    0.153
        35 -11.5306    223.8599      2.7150   4.8113343236e+00   2.8535153610e+01    0.4489697    0.2505637  88.35 0.0003104999    1.806    0.446
        36 -10.4487     85.3185      7.5237   2.5620130848e+01   6.2901177288e+01    0.3652657    0.2651851 -35.70  0.001981582    1.453    0.312
        37 -11.2014    169.8783      9.2243   1.1229093066e+01   4.1226187283e+01    0.4211503    0.2178239  59.77  0.001887309    1.864    0.464
        38 -10.6566    145.2931      9.7105   1.4490627329e+01   4.7634304038e+01     0.243599    0.2187201  37.43 0.0003567204    1.185    0.156
        39 -11.7060    246.9148      6.1389   4.2738463253e+00   2.3107522966e+01    0.3942799    0.2994148  -1.69  0.002391914    1.774    0.436
        40 -11.0144    244.1385      2.5310   3.5825377094e+00   2.4063773458e+01    0.4125136    0.2484747  45.59  0.002201737    2.357    0.576
        41  -9.7581      1.2203      7.8148   6.8879238022e+01   7.6219944774e+01    0.3221717   0.07300576 -55.78  0.001279945    3.287    0.696
        42 -10.8105      2.7182      1.8854   6.4441782289e+01   7.7217323129e+01    0.3378457    0.1868712  -0.37  0.001928809    2.121    0.528
        43 -10.8407    232.2172      7.2123   5.4096228014e+00   2.6188993900e+01    0.2850164    0.1920349 -67.15  0.001013084    1.350    0.259
        44 -12.2127    233.4537      2.8022   4.2492060401e+00   2.6361653893e+01    0.4628396    0.2301363 -59.88 0.0009403172    1.832    0.454
        45 -10.8500    184.8277      6.2885   8.7915222100e+00   3.7662472676e+01    0.4120236    0.2333472 -49.98  0.001171724    1.659    0.397
        46  -9.4535    157.5947      7.2086   1.1977347355e+01   4.4639012469e+01    0.1883949    0.1359865  -0.88 0.0006366116    1.675    0.403
        47 -10.4373    154.2703      1.9441   1.0538345902e+01   4.5995143258e+01    0.5937747    0.2503946 -79.09  0.002003426    3.541    0.718
        48  -9.7395     78.1827      7.4255   2.7680351301e+01   6.4514281793e+01    0.2520816    0.1665404  63.73  0.001293598    1.658    0.397
        49 -10.9412     74.3906      3.4226   2.6667870112e+01   6.5768232508e+01    0.5371733    0.3480757  52.04  0.002868727    1.470    0.320
        50  -9.9737     62.3154      6.7948   3.2809053390e+01   6.7919597088e+01      0.26615    0.1905637  27.77  0.001495149    1.366    0.268
        51 -10.7792    176.2326      5.7061   9.4349566523e+00   3.9921887091e+01    0.4781182    0.2194291 -89.12 0.0009731865    2.504    0.601
        52  -9.7795    163.4194      6.4792   1.1045435398e+01   4.3180559829e+01    0.1935014    0.1388783   1.02 6.118869e-05    1.719    0.418
        53 -10.1314     41.4864      4.0403   4.0319332145e+01   7.2078851598e+01     0.294053    0.1868214   1.09  0.001020254    1.825    0.452
        54 -10.9061    206.5139      2.7486   5.9938336280e+00   3.2619326690e+01    0.3972226    0.2833623 -86.76  0.002244026    1.336    0.251
        55 -10.1981    141.6777      3.4848   1.2676299428e+01   4.9167975268e+01    0.3501095     0.250151  87.66  0.001622361    1.407    0.289
        56 -11.5704    133.9899      2.7453   1.3473192078e+01   5.1246713619e+01    0.4363677     0.300458  76.04  0.001408442    1.399    0.285
        57  -9.5254    128.7468      1.3587   1.3700974617e+01   5.2731481653e+01    0.2126521    0.1307527  73.43 0.0007681741    1.558    0.358
        58 -11.1753    113.7267      2.3374   1.6621543357e+01   5.6506238718e+01    0.4302575    0.2761987  73.55  0.001293453    1.556    0.357
        59 -10.8201     22.1831      3.2994   5.1047827336e+01   7.5008404489e+01    0.2512869     0.175851 -23.41 0.0009751367    1.231    0.188
        60  -9.8535     25.9792      3.7447   4.8906624657e+01   7.4449191629e+01    0.1573843    0.1328592  -8.00 0.0001899038    1.058    0.054
        61  -9.2769     33.5951      1.7172   4.2995495498e+01   7.3649980964e+01    0.1530868    0.1054614 -34.78 0.0003035311    1.423    0.297
        62 -10.0510     13.0775      2.0043   5.6522771801e+01   7.6261416147e+01    0.1866734    0.1512096  -5.74  0.000438877    1.143    0.125
        63 -11.5017     12.3684    136.1872   8.9532476690e+01   4.5378164361e+01    0.5491779    0.3236816 -55.68   0.00305396    1.801    0.445
        64 -10.1489     13.0095    122.4895   8.8154693140e+01   4.8663299028e+01    0.4583392    0.1288489 -59.92  0.001816005    2.968    0.663
        65  -9.4510     47.4005    134.8162   7.9507305301e+01   4.2276468746e+01    0.2539799    0.1200309 -74.16  0.001014912    1.990    0.498
        66  -9.9517     73.5402    133.0595   7.1756558521e+01   3.9228433365e+01    0.3135362    0.1800774 -37.13   0.00129603    2.547    0.607
        67  -9.9588    103.9557    131.2551   6.2963837793e+01   3.4645104116e+01    0.2308743    0.2024577 -64.14  0.000807235    1.116    0.104
        68  -9.3269     93.1886    129.6680   6.5588117981e+01   3.6911104071e+01    0.2123121     0.182621 -82.71   0.00113957    1.138    0.121
        69 -10.0487     26.9228    126.2410   8.4410773783e+01   4.6560827534e+01    0.3935112   0.09027138 -62.68  0.001105883    3.251    0.692
        70  -9.7796     32.8951    125.7612   8.2575500220e+01   4.6103717796e+01    0.2714028    0.1424268  76.22  0.001225617    2.143    0.533
        71 -10.9956     10.8572    126.9520   8.9188670120e+01   4.7733217209e+01    0.5645986     0.269342 -72.13   0.00196091    1.716    0.417
        72 -10.1706      2.2459    125.8566   9.1575198129e+01   4.8604342156e+01    0.2506238    0.1441552  72.37  0.001405139    1.544    0.352
        73  -9.6476     83.2635    124.3195   6.7338767456e+01   3.9854040068e+01    0.3669708     0.241723  -1.36  0.001421656    3.110    0.678
        74 -11.6762    104.5798    122.6079   6.0938044896e+01   3.6556240051e+01    0.4093649    0.3320843  68.13  0.001607725    1.311    0.237
        75 -10.0574     49.6621    123.2102   7.7159822395e+01   4.4891923534e+01    0.2457523    0.2006916   8.61  0.001149039    1.626    0.385
        76  -9.5289     56.2068    122.1826   7.5004144440e+01   4.4331092213e+01    0.1978862    0.1492805  71.75 0.0007094158    1.340    0.254
        77  -8.7216     47.6403    115.6727   7.6579166076e+01   4.7026032263e+01     0.202027    0.1398588  22.12 0.0006403544    1.786    0.440
        78  -9.9188     48.7551    112.1752   7.5631753428e+01   4.7773953383e+01    0.2544602    0.2401255  89.20 0.0009707953    1.107    0.097
        79 -10.1484     44.8307    119.8537   7.8123161567e+01   4.6302129360e+01    0.2897356    0.2100661  70.43 0.0006280622    1.387    0.279
        80 -10.2327     43.5415    116.4914   7.8005047021e+01   4.7294059729e+01    0.2668806    0.2048047  74.37 0.0007557884    1.281    0.219
        81 -10.5939      7.0733    115.7268   8.9320086323e+01   5.0752182557e+01    0.4055904     0.184911 -62.13  0.001349145    1.895    0.472
        82 -12.3987      2.5824    111.7585   9.0355267760e+01   5.2014796603e+01    0.4502703    0.2813403 -81.98 0.0008445965    1.273    0.214
        83 -11.4505      5.1225    105.3583   8.8954137476e+01   5.3433436245e+01    0.3903793    0.3295933  34.16   0.00262705    1.415    0.293
        84  -9.8140     58.0194    115.4683   7.3271610069e+01   4.5775924795e+01     0.282574     0.180876 -84.89 0.0007454056    1.678    0.404
        85  -9.6581     79.0753    114.7209   6.6606297397e+01   4.2878797514e+01    0.2786286    0.2045618 -55.74  0.000936844    1.296    0.228
        86  -9.3196     67.7712    114.8197   7.0101241642e+01   4.4582944970e+01    0.2059005    0.1587116  73.05   0.00106316    1.375    0.273
        87 -11.0243     30.4674     97.0443   7.9209811436e+01   5.3554284468e+01    0.7877975     0.555446 -27.00  0.004243052    1.839    0.456
        88 -10.5216     49.0473     91.0562   7.1391793698e+01   5.3044923447e+01     0.401813    0.3239179  78.93  0.001813745    1.332    0.249
        89 -11.2000     26.8478     85.7851   7.8549868744e+01   5.6707658263e+01    0.8342606    0.4998498  25.05  0.004256309    1.962    0.490
        90 -10.2877     35.4067     92.4399   7.6617984995e+01   5.4229106678e+01    0.3307823    0.2283956 -83.11  0.001077415    1.403    0.287
        91 -11.9155     42.6115     85.2091   7.2460966086e+01   5.5260617377e+01    0.9370235    0.4307498  17.70  0.002922477    3.239    0.691
        92 -11.8680      9.3726     97.3171   8.6650633815e+01   5.5157012792e+01    0.5120998    0.4666273  43.33 0.0008700658    1.300    0.230
        93 -11.7842     28.9649    105.6229   8.1082378601e+01   5.1533487243e+01     1.246254    0.6812837  -9.04  0.005145268    3.551    0.718
        94 -12.8953     17.6779    100.4674   8.4184208073e+01   5.3783721539e+01    0.3341652    0.2816671  89.46 0.0004474537    1.075    0.070
        95 -11.9316     21.2809     93.4426   8.1907912092e+01   5.5261135489e+01    0.8511826    0.4175165  65.36  0.003006574    2.650    0.623
        96 -11.3282     21.5566    114.6777   8.4701761049e+01   4.9915374338e+01    0.4309589     0.267944   9.20  0.002155319    2.264    0.558
        97 -11.4850     28.2867    112.9934   8.2347395677e+01   4.9742001454e+01    0.3520583       0.3081  10.79 0.0009486937    1.459    0.314
        98  -8.6553    104.3374    112.7120   5.8713239716e+01   3.8924626230e+01    0.1553205    0.1166589  79.13 0.0002409727    1.635    0.388
        99 -11.2310     80.0663    108.2944   6.4888016729e+01   4.4295531944e+01    0.4536218    0.3426359  27.69 0.0009208636    1.551    0.355
       100 -10.7450     15.6027    109.1567   8.5955079437e+01   5.1769917004e+01     0.399305    0.2534086  29.06   0.00201102    1.814    0.449
       101  -9.5961    121.2276    108.7114   5.3063925296e+01   3.6478973709e+01    0.3073238    0.1969612  20.08   0.00117833    2.502    0.600
       102  -9.8442    101.8037    109.4005   5.8631291083e+01   4.0183258819e+01    0.2131365     0.147273  28.96 0.0009504952    1.739    0.425
       103  -9.9874    182.0188    104.7539   3.8086111477e+01   2.3844534760e+01    0.3589894    0.2671349   7.80  0.001646272    1.782    0.439
       104  -9.3551    143.0685    106.0169   4.6823042167e+01   3.2358563330e+01    0.2492092    0.1916076 -82.63  0.001125125    1.691    0.409
       105 -10.3532     86.7894    104.0372   6.1799539926e+01   4.4195086954e+01    0.4262739     0.229332  49.42  0.001762192    2.020    0.505
       106  -9.8498     50.7655    101.9923   7.3079610766e+01   5.0093681680e+01    0.2962866    0.1852821 -68.00 0.0008333084    1.443    0.307
       107 -10.0150     52.7549     98.3025   7.1646623730e+01   5.0769760719e+01     0.436648    0.1994674 -62.18  0.001324022    1.935    0.483
       108  -8.9458    120.4428    101.4947   5.1364826289e+01   3.8253425045e+01    0.1537163    0.1485469 -50.11 5.799587e-05    1.039    0.037
       109  -8.8923     64.6799    101.7225   6.8351010069e+01   4.8293363612e+01    0.1401653    0.1090653 -29.58 0.0001667191    1.578    0.366
       110  -9.1718    159.0218     99.5815   4.1423642842e+01   3.0051685556e+01    0.2176869    0.1513975  50.88 0.0003056565    1.484    0.326
       111 -10.6069     81.0642     98.0525   6.2118614068e+01   4.6624319220e+01    0.2779545    0.2261414  83.71 0.0004297925    1.374    0.272
       112 -11.0588     79.9483     93.1151   6.1208926072e+01   4.8003495723e+01    0.8218547     0.552102  43.07  0.003907691    1.576    0.366
       113 -10.1545     80.5314     84.0462   5.8515547201e+01   5.0056313248e+01     0.404529    0.3629043   2.71  0.002185915    1.304    0.233
       114 -10.7617     76.2783     78.4083   5.8317286477e+01   5.2106891600e+01    0.6409227    0.3335629 -60.50  0.002571921    2.092    0.522
       115 -10.2466     72.7987     78.4214   5.9547293355e+01   5.2689657407e+01    0.4082952    0.3077834 -86.58   0.00163842    1.683    0.406
       116 -11.6833     68.7617     95.7694   6.5605464828e+01   4.9159747168e+01    0.3869733    0.3401037   7.49 0.0005976802    1.384    0.278
       117 -10.9260     43.0615     94.4685   7.4258675762e+01   5.2898125845e+01    0.3724928    0.3422956  74.52  0.002036738    1.137    0.121
       118 -10.5292    120.3924     90.2292   4.8197706400e+01   4.0735034536e+01    0.2815595    0.2230464 -49.19 0.0007473694    1.225    0.184
       119 -11.7837    125.8810     94.7357   4.8031832244e+01   3.8559476943e+01    0.2891378    0.2727533  62.32 0.0001943985    1.085    0.078
       120 -10.0419    121.7684     94.0087   4.8920362231e+01   3.9615748974e+01    0.2968689    0.2112841 -43.00 0.0007247883    1.377    0.274
       121 -10.8457     98.6720     91.0733   5.4711843126e+01   4.5057965072e+01    0.3321936    0.2347955  49.70  0.001548455    1.490    0.329
       122 -11.2978     89.8008     88.6367   5.6787505712e+01   4.7312822978e+01    0.6824609    0.3178173 -45.83  0.002024162    2.078    0.519
       123 -11.6660      7.1519     88.7521   8.6383322674e+01   5.7420646612e+01    0.5123831    0.3956697  17.38  0.002405931    1.620    0.383
       124  -9.7174     66.2454     88.6272   6.4685859220e+01   5.1288143425e+01    0.3296583    0.2186139  -9.68  0.001372306    2.615    0.618
       125  -9.5444    104.2671     87.5160   5.1992947651e+01   4.4746390470e+01    0.2046234    0.1502738  30.00 0.0009323546    1.599    0.374
       126 -10.4613    143.2382     84.4747   4.0675822437e+01   3.6712561485e+01    0.2736594    0.2562091 -42.83  0.000363644    1.041    0.039
       127  -9.5668    120.4715     85.2481   4.6689201235e+01   4.1784891567e+01    0.3000228    0.1873663  38.33  0.001256614    1.786    0.440
       128 -10.0879    113.4478     83.3117   4.8050918800e+01   4.3737943217e+01     0.370551    0.3025014 -70.00  0.001800156    1.359    0.264
       129  -9.7696     67.0358     81.8252   6.2584023879e+01   5.2808226508e+01    0.3467093    0.2869627  -8.48  0.001826901    1.504    0.335
       130  -9.4744     46.5085     76.0692   6.8753383875e+01   5.7044362450e+01    0.2109264    0.1647969 -56.22  0.001167099    1.123    0.110
       131 -11.2638     58.8246     78.4421   6.4658131037e+01   5.4839818560e+01    0.6411746     0.393631 -62.86  0.002469279    1.568    0.362
       132 -11.7549     53.2464     74.4160   6.5670627669e+01   5.6576978806e+01     0.681973    0.3476398 -62.72 0.0009432141    1.917    0.478
       133 -12.7914      4.5465     61.7546   8.3330031153e+01   6.4163661327e+01    0.6725614     0.365998 -46.04 0.0009625469    1.677    0.404
       134 -11.2667      9.5431     62.4922   8.1224650250e+01   6.3707434178e+01    0.5110244    0.2516386 -47.44  0.001482811    1.804    0.446
       135  -9.3751    103.4937     79.9835   4.9932590371e+01   4.6572175636e+01    0.2321849    0.1467595 -46.22 0.0003561429    1.516    0.340
       136  -9.4391     88.7941     73.6517   5.2561625390e+01   5.0908305544e+01    0.2219643    0.1966901 -29.92 0.0003847701    1.161    0.139
       137  -9.5495     92.3752     72.1366   5.0890323088e+01   5.0540315134e+01    0.2914589    0.2197515 -78.70   0.00133152    1.736    0.424
       138 -10.5966     88.8668     77.7421   5.3840579101e+01   4.9983242017e+01    0.5154579    0.3391469  49.72  0.002359614    1.645    0.392
       139  -9.8228     94.3005     76.3829   5.1648910552e+01   4.9229847817e+01    0.4367547    0.2819694  49.75  0.001961363    1.660    0.398
       140  -9.8340     15.0512     67.6038   7.9818330339e+01   6.2116930485e+01    0.3729607    0.2473918   6.25  0.002110931    1.911    0.477
       141 -11.6786     13.5630     74.0822   8.1670739145e+01   6.0637194041e+01    0.5465786    0.3422079 -77.39  0.002357326    1.396    0.284
       142  -9.6521      8.9776     74.8047   8.3669509540e+01   6.0750863617e+01    0.1952229    0.1342003 -55.80 0.0002170398    1.266    0.210
       143  -9.3995    233.1823     77.6237   2.3009876156e+01   1.7065843435e+01    0.1768155    0.1259096  46.52 0.0005267478    1.629    0.386
       144 -10.8368    187.0854     72.3771   2.8301293061e+01   2.8294288358e+01    0.5741253    0.3398407 -43.04  0.002528331    1.585    0.369
       145  -9.2703    112.2527     75.4027   4.5892483464e+01   4.5675024997e+01    0.2043016    0.1488714  61.00 0.0004911754    1.534    0.348
       146  -9.6925    103.6133     74.8827   4.8266590456e+01   4.7647792911e+01    0.3102385    0.2005952  64.02  0.001297977    1.984    0.496
       147  -9.6048     66.2617     74.8090   6.0840719653e+01   5.4587836124e+01    0.2701384    0.1816199  61.41  0.001237568    1.941    0.485
       148  -8.9412     24.9545     74.0652   7.6977449683e+01   5.9773211964e+01    0.3784565    0.2027862 -35.50  0.001001954    2.202    0.546
       149 -11.7553     40.6175     69.9426   6.9511983017e+01   5.9217158381e+01    0.4672642    0.3092954 -65.21  0.001417696    1.387    0.279
       150 -11.2892     34.8600     72.0053   7.2419612710e+01   5.9342911331e+01    0.6893791    0.2757031  28.53  0.002905041    2.805    0.643
       151 -10.1045    153.7658     72.6757   3.4694852126e+01   3.6406951321e+01     0.412182    0.2146033  43.03  0.001533765    2.169    0.539
       152  -9.8216     19.4337     71.9290   7.8826371572e+01   6.0743855352e+01    0.2272374    0.1600768 -30.43 0.0006296318    1.611    0.379
       153  -8.8571    162.2860     71.2951   3.2512280798e+01   3.4551073543e+01    0.1503867    0.1214877  14.26 0.0003330886    1.545    0.353
       154 -11.2887    122.9873     68.8752   4.0776453178e+01   4.4553324543e+01    0.5378542    0.3221094  45.49   0.00191412    1.738    0.425
       155 -10.2631     78.9283     67.4568   5.3894789470e+01   5.4116994802e+01     1.887642    0.7040628 -59.97  0.004809371    5.533    0.819
       156 -12.3853     74.2613     51.0161   4.9618127840e+01   5.8430463510e+01    0.6924191    0.3878181 -54.34  0.001878798    1.999    0.500
       157 -11.2968     72.5302     47.4771   4.8861997549e+01   5.9449997892e+01    0.2653964    0.2299048 -35.77 0.0005611526    1.076    0.071
       158 -10.2719    219.3971     66.9477   2.2051844089e+01   2.1599455905e+01    0.4281579    0.2102492  69.74  0.001785338    2.534    0.605
       159 -11.5708      1.9981     71.7045   8.6052979460e+01   6.1887675867e+01     1.014691    0.1225324 -71.45  0.003005342    4.887    0.795
       160  -8.8947    192.3483     65.6975   2.5544693870e+01   2.8092957920e+01    0.1570945    0.1079541 -65.16 0.0007039648    1.693    0.409
       161  -9.6256     96.0595     64.9982   4.7270537847e+01   5.1304452164e+01    0.2307821    0.2263928 -56.92 0.0008055894    1.038    0.037
       162 -10.6222     91.7119     62.5956   4.7827127248e+01   5.2692673756e+01    0.3555804    0.2655659  60.95  0.000973615    1.562    0.360
       163  -9.4788    201.5197     64.6975   2.3888332666e+01   2.6053047126e+01    0.2441451    0.1340331  62.66 0.0006630023    1.971    0.493
       164 -10.5268    158.3102     63.1232   3.0750247311e+01   3.6951250003e+01    0.5531396    0.2450857  43.61  0.001928709    2.683    0.627
       165 -10.4029     59.0473     63.7711   6.0154042852e+01   5.8235629128e+01    0.3469041    0.2746899 -89.26  0.001108681    1.616    0.381
       166 -10.5402     65.0039     61.7790   5.7136919715e+01   5.7755696885e+01    0.3658462    0.2824725  40.69  0.001941013    1.414    0.293
       167  -9.5447     51.0526     56.6804   6.1071744293e+01   6.0982278715e+01    0.2588736    0.1732699 -49.21  0.001227446    1.325    0.245
       168 -11.0055     40.7527     56.9067   6.5639488592e+01   6.2258041301e+01    0.3677744    0.2196957  38.57 0.0009970918    1.901    0.474
       169 -10.2085     50.5171     61.4827   6.2894349744e+01   5.9971489880e+01    0.3183022    0.2434588  44.62  0.001591775    1.490    0.329
       170 -11.3948     43.1647     62.1850   6.6228903547e+01   6.0751926823e+01    0.3033404    0.2303044 -51.41 0.0004705421    1.147    0.128
       171 -10.7731     46.0396     59.0369   6.4007445813e+01   6.1119135950e+01     0.326112    0.2581518 -73.09 0.0008970855    1.379    0.275
       172  -9.5230    106.3071     63.4127   4.3559137015e+01   4.9427058248e+01    0.2969979      0.14517  44.31 0.0006106331    2.149    0.535
       173 -10.8771    234.0058     61.2902   1.8841304037e+01   1.9206140602e+01    0.3322226    0.1823022 -32.71  0.001599216    1.564    0.361
       174  -9.6926    113.9008     61.1864   4.0585046298e+01   4.8144943714e+01    0.2415506    0.2100793 -68.11  0.001061002    1.254    0.203
       175  -9.4152     84.3971     61.3233   4.9838256515e+01   5.4407290749e+01    0.2463646    0.1846247  68.33   0.00116949    1.728    0.421
       176 -10.5151    125.2154     56.4841   3.5904956262e+01   4.6332998562e+01    0.8787194    0.5532745  11.10   0.00314811    3.000    0.667
       177 -10.3107    122.9477     44.5013   3.2052570477e+01   4.8917602229e+01    0.3187119    0.2846385  37.49 0.0007753401    1.157    0.135
       178 -10.4344    109.6235     40.2605   3.3817682528e+01   5.2829406953e+01      0.63956    0.3656798 -20.11  0.001629377    2.140    0.533
       179 -10.4732    112.2209     50.7857   3.7227902080e+01   5.0444314426e+01    0.3379385    0.2925573 -16.34 0.0008578298    1.220    0.180
       180 -10.6278    116.0012     49.0117   3.5533493004e+01   4.9857117280e+01    0.3391473    0.2740896   3.65 0.0006770086    1.483    0.326
       181  -9.6391    213.7388    248.4163   5.9692654062e+01  -3.2570306355e+00    0.1516253   0.07701785  26.44  0.000941342    1.599    0.375
       182 -11.3029     25.3681     57.5301   7.2823234863e+01   6.3713451627e+01    0.7128721    0.4827506  42.28  0.003000525    1.752    0.429
       183 -10.6799     31.7588     52.9801   6.8511300872e+01   6.4153962384e+01    0.5266674    0.2551098  16.46  0.002324505    2.780    0.640
       184  -9.1750    135.5638     59.2088   3.4351272996e+01   4.3316021765e+01    0.2241684    0.1498698 -20.97 0.0009511155    1.761    0.432
       185 -10.1533    106.0301     58.1912   4.1759979387e+01   5.0504375924e+01      0.31337    0.2207955 -80.27  0.001309427    2.177    0.541
       186  -9.9998     91.8452     57.1979   4.5810578740e+01   5.3756407501e+01    0.3138879    0.2339337  64.06 0.0006992989    1.617    0.382
       187 -10.0604     87.9980     55.5533   4.6474177721e+01   5.4869537749e+01    0.4127291     0.206108 -33.85  0.001407945    2.182    0.542
       188  -9.3571     79.9641     58.2428   5.0275919842e+01   5.5894591327e+01    0.2367994    0.1709787   2.28 0.0007463974    1.976    0.494
       189 -10.5760    157.8461     55.1975   2.8284554795e+01   3.8377024895e+01    0.4898658    0.4049671 -68.96  0.002359461    1.289    0.224
       190  -9.6630    154.3673     51.3953   2.7696691475e+01   3.9870713618e+01     0.351002    0.2103421 -14.12  0.001199277    2.263    0.558
       191  -9.2982    219.8673     56.1500   1.9157055523e+01   2.3037854227e+01    0.1781898    0.1589458  -6.27 0.0002666457    1.268    0.211
       192  -9.1480     66.8583     54.9098   5.3952491722e+01   5.8934866127e+01    0.1957301    0.1650433 -67.41   0.00105841    1.334    0.251
       193  -9.3718    201.5437     53.2425   2.0679418718e+01   2.7739577848e+01    0.1971394    0.1372501 -17.65 0.0008538496    1.605    0.377
       194  -9.9409     57.3792     41.6458   5.2595296093e+01   6.3206824637e+01    0.3246093    0.1878528  50.92  0.001486226    2.204    0.546
       195 -11.2296     60.9477     48.0060   5.3685940030e+01   6.1350477588e+01    0.8644317    0.3159141 -43.84  0.003244231    2.517    0.603
       196  -9.9169     55.7586     50.7290   5.6920491561e+01   6.1596551147e+01    0.2195265    0.1841758  27.42 0.0004239454    1.300    0.231
       197 -10.2266     52.0771     48.3078   5.7590243977e+01   6.2656138493e+01    0.2441881    0.2080782 -32.99 0.0004870965    1.081    0.075
       198 -11.1229     45.0023     48.4839   6.0823117568e+01   6.3600411745e+01    0.4810426    0.3869781 -36.56  0.002802463    1.133    0.117
       199 -11.3107     44.0358     43.9757   5.9557996647e+01   6.4690524414e+01    0.3016729    0.2482043  10.59            0    1.340    0.254
       200 -11.2421     39.6552     43.8626   6.1590677064e+01   6.5276984277e+01    0.5311028    0.3326167  -2.49  0.002089257    2.328    0.570
       201 -10.1642    144.8520     50.6673   2.9352993448e+01   4.2418223746e+01    0.3352582    0.2137645 -28.60 0.0003818215    1.615    0.381
       202  -9.6258    146.5146     47.4813   2.7910216027e+01   4.2496125927e+01    0.3056048    0.1517488 -29.04 0.0007998657    2.081    0.519
       203 -10.0737    240.6194     50.7054   1.5512439955e+01   1.9221264154e+01    0.2170822    0.1982413   5.84 0.0008772161    1.316    0.240
       204 -11.6753     83.2299     47.0554   4.4778496451e+01   5.7472873427e+01    0.3539145    0.2847518 -13.91 0.0007129871    1.361    0.265
       205 -10.0806    172.9302     48.7240   2.3546915186e+01   3.5521401988e+01    0.4540921    0.2168433  63.93   0.00178468    2.160    0.537
       206 -10.3465     26.5890     48.1528   6.9473360637e+01   6.5762603291e+01    0.4579508    0.2468589 -10.51  0.001986386    2.998    0.666
       207 -10.3357     20.1775     46.3225   7.2110232926e+01   6.6746899521e+01    0.4557296    0.2799996 -30.96  0.002463947    1.716    0.417
       208 -10.4728     26.0539     42.8303   6.7972280874e+01   6.7001201201e+01    0.4449492    0.2720045  48.99  0.001750826    2.214    0.548
       209  -9.9411     22.9750     37.3029   6.7619432439e+01   6.8497402060e+01    0.4027656    0.2166376  43.83  0.001992815    2.455    0.593
       210  -9.8502      2.0133     48.7715   8.1972375322e+01   6.7358825883e+01    0.3741633    0.1873173 -79.22   0.00189319    1.920    0.479
       211  -9.5803      5.0139     43.2032   7.9122587180e+01   6.8492592209e+01    0.3413388    0.1220273 -52.87   0.00131874    2.052    0.513
       212 -10.0170     12.8602     47.1980   7.6088876396e+01   6.7098675808e+01    0.3498205     0.110388 -43.57  0.001396699    2.908    0.656
       213  -9.2801    160.7011     43.5752   2.3932111224e+01   3.9423179386e+01     0.536749    0.2983396 -49.34  0.001812169    1.874    0.466
       214 -10.4694    155.8918     42.3679   2.4373669590e+01   4.0844674269e+01    0.3264563     0.303117   0.09 0.0009901762    1.185    0.156
       215 -10.3070    135.0309     45.9715   2.9793802683e+01   4.5660494525e+01     0.348215    0.2162753  63.64 0.0004597439    1.681    0.405
       216 -10.0166    139.3693     43.6416   2.8019682191e+01   4.4917809019e+01    0.4409625    0.2797973  23.39  0.001506734    2.309    0.567
       217 -10.1474    200.2930     45.0917   1.8531048089e+01   2.9185468087e+01    0.4319497    0.2184675  79.90  0.001730486    2.495    0.599
       218  -9.7249    153.1787     37.2199   2.3091146111e+01   4.2281755023e+01    0.2949762    0.2433627 -39.13 0.0009330006    1.187    0.158
       219  -9.2091     91.0346     41.3180   3.9768976701e+01   5.6880536649e+01    0.2000976     0.191925  37.38 0.0007304743    1.077    0.072
       220  -9.3349    189.0000     40.0054   1.8508725411e+01   3.2673625152e+01    0.2411691    0.0789969 -28.77 0.0005532486    2.926    0.658
       221 -11.6815     79.4520     35.3314   4.1097880571e+01   6.0332625788e+01    0.8057666    0.5277305 -33.89   0.00396046    1.469    0.319
       222  -9.6153    206.2259     37.7110   1.5735318268e+01   2.8727515099e+01    0.2038308     0.168193 -59.74 0.0004625806    1.125    0.111
       223 -10.1848     59.8251     23.5923   4.3093467718e+01   6.6036009015e+01    0.3688514    0.1689997 -34.95 0.0007756021    2.072    0.517
       224 -10.9531     61.2334     35.8729   4.8422933057e+01   6.3667057977e+01    0.4802352    0.3305691 -19.10   0.00169253    1.635    0.388
       225 -10.5443     68.7908     32.9006   4.3976071230e+01   6.2834948053e+01    0.5003687    0.3225138  59.36  0.002371868    2.053    0.513
       226 -11.0584     56.8203     31.1361   4.8127217170e+01   6.5277763403e+01    0.3849871    0.3071336 -26.64  0.000782314    1.156    0.135
       227 -11.5900     49.0198     30.4743   5.1368825188e+01   6.6652517982e+01    0.7034022    0.2925894  34.43  0.002011219    2.708    0.631
       228 -10.8421     43.0077     28.0870   5.3145276250e+01   6.7986225201e+01    0.2054528    0.1758544 -15.50 0.0003016147    1.080    0.074
       229 -11.1443      4.4249     36.2613   7.7578648254e+01   7.0092834086e+01    0.4089525    0.2963108 -11.65  0.002231061    1.551    0.355
       230 -11.1567    175.3297     33.8752   1.8487209175e+01   3.6970808446e+01    0.7540187    0.4521939 -62.36  0.002761768    1.891    0.471
       231  -9.6380    132.4576     36.8299   2.6971735599e+01   4.7697148269e+01    0.4063381    0.2331788 -86.48  0.001444469    3.010    0.668
       232  -9.0772    139.3713     36.1698   2.5302169921e+01   4.6015029938e+01       0.2195    0.1267715 -41.93 0.0004015013    1.718    0.418
       233  -9.0359     94.6060     36.2761   3.6491253567e+01   5.6937529095e+01    0.1464501    0.1146691 -79.97 0.0006992688    1.741    0.426
       234  -9.9889    174.6871    246.6586   6.6044548560e+01   2.1209198636e+00    0.2032582    0.1427523  20.55  0.001198846    1.262    0.207
       235 -11.8901    164.3681     27.6586   1.8033402260e+01   4.0611337011e+01    0.3007994    0.2826098 -69.84  0.000474061    1.007    0.007
       236  -9.0099     34.6740    245.3260   9.1238003018e+01   2.0515077573e+01    0.1161106   0.05235108  58.80 0.0007049531    1.695    0.410
       237 -11.8361    126.2505    241.3902   7.4166351866e+01   9.5980922396e+00    0.3236015    0.2439064  65.70  0.001912137    1.496    0.331
       238 -11.2852    147.3360    238.1261   6.9909433248e+01   7.0847357763e+00    0.4197306    0.2428086  43.11  0.001946419    1.425    0.298
       239 -11.7370    106.7971     32.0321   3.1174262761e+01   5.4765308206e+01    0.6871316    0.4132211  13.81   0.00261164    2.722    0.633
       240 -12.1992    114.6533     25.0361   2.6250968086e+01   5.3813370461e+01    0.7949231    0.3162376  55.77  0.001926517    2.332    0.571
       241 -10.1713    240.6613     32.4996   1.1029398904e+01   2.1499774026e+01    0.3175647    0.1871395  50.75  0.001628338    2.109    0.526
       242 -10.9776    188.9828     28.4038   1.5033089747e+01   3.4169177749e+01    0.4896575     0.317762  -0.11  0.002192716    2.186    0.543
       243 -11.0177     32.4097     30.6622   5.9836360654e+01   6.8879549640e+01    0.3622986    0.2064972 -55.12 0.0004514439    1.743    0.426
       244 -10.7126    167.1150    237.9112   6.6287749482e+01   4.2920532810e+00    0.1731488    0.1597581   7.34 0.0009579557    1.222    0.182
       245  -9.0208     15.3948    233.7876   9.4173059828e+01   2.4485587059e+01    0.1303072   0.08392874 -78.15 0.0009457223    1.660    0.398
       246  -8.9456    205.6537    233.6985   5.8988115351e+01  -5.6676476970e-01    0.1164827   0.07092748  11.54 0.0005715269    1.685    0.407
       247 -10.4760    197.2157    232.3784   6.0240084833e+01   7.5042757986e-01    0.1598123   0.08809472  41.10 0.0009488114    1.673    0.402
       248 -11.2321     67.8435    240.8598   8.4989823070e+01   1.7439023526e+01    0.2667207    0.1957966  23.15  0.001475044    1.751    0.429
       249  -9.6750    247.0194    231.2549   5.1959020782e+01  -5.6480133370e+00    0.1326469   0.07297134  29.60 0.0004480749    1.522    0.343
       250  -8.9699    181.2750    228.3523   6.2475308854e+01   3.5212042582e+00    0.1148983   0.07868158   5.50  0.000700432    1.641    0.390
       251 -10.0363     86.7827     29.6752   3.6026401829e+01   5.9700267721e+01    0.4100893    0.2351438  24.02  0.001562747    2.540    0.606
       252 -12.0576    126.0291     28.4142   2.5091111151e+01   5.0503771516e+01    0.5382269    0.4253838  82.79   0.00273729    1.387    0.279
       253 -11.0484    183.0231     25.3105   1.4803843567e+01   3.6060187527e+01    0.5037634    0.3221767 -16.49  0.002138451    1.786    0.440
       254  -9.7442    187.1647     23.1679   1.3665320119e+01   3.5256550192e+01    0.2715752    0.2165472  23.14 0.0007577335    1.581    0.367
       255  -9.3344     97.7412     27.8762   3.1867102483e+01   5.7500666628e+01    0.5216998    0.2133184 -43.15  0.001928457    2.675    0.626
       256  -9.1487     75.5193    224.4927   8.2283956356e+01   1.9293577280e+01    0.1178032   0.09170362  55.70 0.0007205722    1.002    0.002
       257  -9.9578    234.2198    223.0781   5.2701256622e+01  -3.1787997065e+00    0.1344567   0.07948035 -24.20 0.0007956312    1.665    0.400
       258  -9.6156     65.6764    222.3320   8.4051051620e+01   2.0940880540e+01    0.1261412   0.06717376  61.17 0.0007050397    1.704    0.413
       259  -9.1044    153.3056    219.3056   6.6416200494e+01   8.9636381287e+00    0.1176164   0.08636976   9.47 0.0003602947    1.604    0.376
       260  -9.5480    164.5340    211.9691   6.3237289778e+01   8.3499749829e+00    0.1853739    0.1416015  34.72 0.0004779171    1.109    0.098
       261  -9.4841    152.5964    206.7974   6.4805466103e+01   1.1035370935e+01    0.1594434    0.1213292 -65.72 0.0009518871    1.753    0.429
       262  -9.9910    230.4837     26.9419   1.0489724127e+01   2.4397536670e+01    0.2047815    0.1150546 -32.06  0.001022656    1.563    0.360
       263 -10.2088    155.5977     24.5560   1.8287005797e+01   4.3291263724e+01    0.3849939    0.2246699 -79.65  0.001109769    2.220    0.550
       264  -9.0924    155.2514     20.9687   1.7086506817e+01   4.3805364888e+01     0.199506    0.1436654  -7.22 0.0004743775    1.646    0.393
       265  -9.2693    213.1035     24.6550   1.1424668617e+01   2.8685697210e+01    0.2647703    0.1248355  84.77  0.001100963    2.499    0.600
       266 -10.2380     90.8322     22.8161   3.1567555450e+01   5.9792285582e+01    0.3102876    0.2487356   4.32  0.001487383    1.332    0.250
       267  -9.2551    169.1591     23.5786   1.6013168619e+01   3.9852572877e+01    0.2088418    0.1238355  56.48  0.000590442    1.688    0.407
       268 -10.1825     38.7472     22.0359   5.2302971618e+01   6.9688192278e+01    0.2311513     0.166428 -34.24 0.0004431224    1.223    0.182
       269  -9.0495     61.4968    206.5260   8.3633915548e+01   2.4458804205e+01    0.1224496   0.09531808  61.75 0.0001060741    1.022    0.022
       270  -9.6433     16.8396    205.9793   9.2748624760e+01   2.9544773683e+01    0.2041263   0.08667865  66.90  0.001103639    1.998    0.500
       271 -10.3496     43.3083     13.7002   4.5348413386e+01   7.0393341600e+01    0.2084388    0.1945917  26.84 0.0004900692    1.253    0.202
       272  -9.6368    223.1160     22.1101   9.8633590136e+00   2.6634606264e+01    0.2209064    0.1293053 -58.03 0.0006103534    1.611    0.379
       273 -10.7995    178.8174     20.8413   1.3917126310e+01   3.7663492570e+01    0.5268944     0.249981  42.09    0.0020236    2.788    0.641
       274  -9.7378      4.5212    204.8258   9.5131231016e+01   3.0916792098e+01    0.1986124   0.08585043 -78.09  0.001139106    2.123    0.529
       275  -9.4828      5.6772     22.0575   7.2057989603e+01   7.3085066112e+01    0.1654224     0.127077 -46.22 0.0005196512    1.033    0.032
       276  -9.2971    216.4416     20.7328   1.0067712212e+01   2.8347736881e+01    0.1746861    0.1270375 -15.56  0.000934064    1.563    0.360
       277  -9.6673     78.3795    203.7658   7.9819515224e+01   2.2787577092e+01    0.1706319    0.1276809  56.32 0.0005528627    1.108    0.098
       278 -10.4284      6.0278    198.7281   9.4598025302e+01   3.1996793408e+01    0.1978414    0.1210187 -73.78  0.001305502    1.659    0.397
       279  -9.9389    138.9983    198.4985   6.6346755234e+01   1.4614758464e+01    0.1805896   0.09573859  56.45 0.0007315751    2.359    0.576
       280 -10.1085     74.9042     19.3105   3.5023830713e+01   6.3742305004e+01    0.3142307    0.2168787  13.59  0.000939831    1.706    0.414
       281  -9.9131     47.3056     18.9606   4.6328415404e+01   6.8920918002e+01    0.3073144    0.1612079 -33.49  0.001169164    1.780    0.438
       282  -8.5482      1.4687     20.5343   7.4246110438e+01   7.3653570384e+01    0.1222926   0.09125217 -43.80 0.0005976994    1.063    0.059
       283  -9.4366    233.7494    196.7722   4.8448074004e+01  -5.2578499350e-02    0.1983315    0.1271088 -23.00   0.00112264    1.459    0.315
       284  -9.7108     81.2283     19.3852   3.2911068403e+01   6.2388191592e+01    0.2530553    0.1951873  58.40  0.001184075    1.397    0.284
       285  -8.9387     83.5130    195.5400   7.7853833102e+01   2.3705441687e+01    0.1282856    0.1055978  60.45 0.0001192622    1.023    0.023
       286  -8.8394    171.6854    190.6655   5.8513245555e+01   1.0537559864e+01    0.1319287   0.09453045   4.30 0.0004167696    1.688    0.408
       287  -8.8691     53.3126    190.3113   8.4018548909e+01   2.8773896243e+01    0.1091901   0.09535532 -38.36 0.0007029732    1.631    0.387
       288  -9.2198    191.2840     17.6895   1.1579135468e+01   3.4836754277e+01    0.1480139   0.09185907 -57.51 0.0002543062    1.571    0.363
       289  -9.8718    186.9876     15.2023   1.1275979858e+01   3.6196533626e+01    0.2279719    0.1996836 -31.79 0.0006651884    1.174    0.148
       290 -11.6401      5.0252    185.7694   9.4264068619e+01   3.4751876466e+01    0.4079059     0.331073  82.54  0.002383183    1.172    0.147
       291  -9.4391     74.9866     13.7820   3.2117819520e+01   6.4457790588e+01    0.2050825    0.1586214 -84.67  0.001061927    1.930    0.482
       292 -11.0989      3.2358    182.0000   9.4482630391e+01   3.5699908353e+01    0.2670239    0.1970072  88.34  0.001392943    1.178    0.151
       293  -9.5055     28.1629    175.8530   8.8569226304e+01   3.4727811544e+01    0.1557114    0.1328877 -74.23 0.0005828307    1.314    0.239
       294  -9.5046     52.1341    174.2493   8.2805495603e+01   3.2401745714e+01    0.2599894    0.1359401  74.17  0.001240987    2.084    0.520
       295  -9.4260     39.4922    173.9422   8.5774395536e+01   3.3945082598e+01     0.182937    0.1086826 -80.09 0.0006525012    1.543    0.352
       296  -9.6508     16.0000    173.9992   9.1241976326e+01   3.6314673337e+01    0.1936553   0.05745433 -79.13 0.0008061646    2.968    0.663
       297 -10.3734     14.1386    159.3114   9.0759124531e+01   3.9786440169e+01     0.311195    0.1879187 -84.23  0.001537817    1.390    0.281
       298 -11.8117      9.0877    166.8494   9.2424384876e+01   3.8511774170e+01    0.4283588    0.2794402  42.69  0.001779123    1.476    0.322
       299 -11.1800     11.1397    162.4857   9.1685301173e+01   3.9320431169e+01    0.3431066    0.2019673  72.54  0.001730073    1.409    0.290
       300 -10.5227     18.6800    165.1302   9.0050323893e+01   3.8051885708e+01     0.254809     0.229186  10.27  0.001784073    1.561    0.360
       301 -10.3989    197.9999     28.5084   1.4035219046e+01   3.1897539434e+01    0.4181381    0.2843312 -27.09  0.002118245    1.461    0.316
       302  -9.7622    204.9991    163.2286   4.7123688517e+01   9.1901332185e+00    0.2194289    0.1765018 -20.65 0.0005937517    1.179    0.152
       303 -10.8054     28.0040    161.6300   8.7522843221e+01   3.7957103145e+01    0.3210363    0.2494774 -62.39  0.001860816    1.430    0.300
       304  -9.6542     38.1628    160.1664   8.4863118788e+01   3.7233825012e+01    0.1863957    0.1644229 -82.96 0.0009285515    1.183    0.155
       305  -9.9930    104.1219    155.0803   6.7405982292e+01   2.9155489685e+01    0.2721865    0.2397271 -67.85   0.00155587    1.150    0.131
       306 -10.5327      9.4010    155.5391   9.1680094251e+01   4.1053695779e+01    0.2490347    0.1748738 -87.99  0.001357346    1.170    0.146
       307 -12.4512     23.0737    149.1069   8.7734660831e+01   4.1363949559e+01    0.6423309    0.3616108 -41.16  0.001940625    2.643    0.622
       308 -10.8873     16.6089    147.8106   8.9314462381e+01   4.2251654125e+01    0.3138568    0.1849975 -85.26 0.0003927949    1.421    0.296
       309 -10.4888      4.0214    153.5160   9.2886717632e+01   4.1945210846e+01    0.2765852    0.1377356  52.42  0.001389927    1.751    0.429
       310 -11.4018     47.2881    147.0903   8.1094525750e+01   3.9296818779e+01    0.6338292    0.3736443 -49.35  0.003163663    1.989    0.497
       311 -10.2493     30.3090    152.2176   8.6127091136e+01   3.9925235857e+01    0.2443174    0.2068796 -85.71  0.001227961    1.125    0.111
       312  -9.9943     62.3965    151.5737   7.7629822156e+01   3.6325543612e+01    0.3139707    0.2289454 -12.53  0.001556087    2.328    0.570
       313 -10.3212    104.3558    147.6040   6.6029326174e+01   3.0801294012e+01     0.296249    0.2725752 -48.89            0    1.186    0.157
       314 -10.7499      3.0976    147.6776   9.2778820151e+01   4.3365295569e+01    0.3497545    0.2113571  53.62  0.002124056    1.483    0.326
       315 -11.3806      5.8243    142.1946   9.1731263610e+01   4.4448390514e+01    0.5409493    0.2250088  78.43 0.0003946067    2.287    0.563
       316 -11.0732      2.3781    140.1981   9.2509232699e+01   4.5170162182e+01    0.4407468    0.1808559 -78.09  0.001863495    1.964    0.491
       317 -11.0633     33.5164    144.4324   8.4518438446e+01   4.1459061280e+01    0.3953273    0.2354856  55.68  0.001661686    1.583    0.368
       318  -9.1879    217.5703    138.7976   3.9798615097e+01   1.0756042472e+01    0.1804205    0.1187054 -41.58 0.0003784042    1.532    0.347
       319 -10.3228     80.1523    138.2650   7.0802756763e+01   3.6965585227e+01    0.3268288    0.2540751  49.42 0.0008973004    1.264    0.209
       320 -10.5190     40.2170    138.0938   8.1962646896e+01   4.2287948096e+01    0.3269863    0.2216626  77.35  0.001084659    1.396    0.284
       321  -9.6902     39.3572    133.4515   8.1639151280e+01   4.3523252656e+01    0.2030831    0.1345826  24.35  0.001076264    1.832    0.454
       322  -9.8865     32.0658    137.6881   8.4202686953e+01   4.3244447077e+01    0.2878536    0.2215503  39.15 0.0009292486    1.402    0.287
       323 -11.5883     23.5751    136.9513   8.6498252680e+01   4.4238367857e+01    0.5055556    0.3068056  52.30 0.0008575542    1.571    0.364
       324 -10.7815     30.0115    132.9548   8.4265091255e+01   4.4608442912e+01    0.3705641    0.3187954 -50.38  0.000971684    1.370    0.270
