#   1 NUMBER                 Running object number                                     
#   2 MAG_AUTO               Kron-like elliptical aperture magnitude                    [mag]
#   3 X_IMAGE                Object position along x                                    [pixel]
#   4 Y_IMAGE                Object position along y                                    [pixel]
#   5 X_WORLD                Barycenter position along world x axis                     [deg]
#   6 Y_WORLD                Barycenter position along world y axis                     [deg]
#   7 A_WORLD                Profile RMS along major axis (world units)                 [deg]
#   8 B_WORLD                Profile RMS along minor axis (world units)                 [deg]
#   9 THETA_WORLD            Position angle (CCW/world-x)                               [deg]
#  10 FWHM_WORLD             FWHM assuming a gaussian core                              [deg]
#  11 ELONGATION             A_IMAGE/B_IMAGE                                           
#  12 ELLIPTICITY            1 - B_IMAGE/A_IMAGE                                       
         1 -15.7021     68.5362    143.1166   3.3136296806e+01  -4.3270310488e+01   0.07398757   0.04697491  75.31  0.004077322    1.937    0.484
         2 -14.0731    215.9735     26.7759   2.9839674285e+01  -4.3588078542e+01   0.04052737   0.03076858 -41.99  0.004625912    1.307    0.235
         3 -12.0533    227.1811      9.8011   2.9514102471e+01  -4.3694797186e+01   0.01110603   0.01084155 -32.22 0.0007487137    1.029    0.028
         4 -10.6013     93.2515    235.6568   3.3522081520e+01  -4.2107559908e+01  0.009385805  0.007299537 -43.65 0.0003744976    1.296    0.229
         5 -16.7408    119.7568    232.2258   3.3087972076e+01  -4.1982959152e+01    0.3111453    0.1923814  74.45   0.03065178    1.994    0.498
         6 -13.4428     89.2325    215.0276   3.3414382773e+01  -4.2357721269e+01   0.04052286   0.01556136  56.09  0.002334491    2.523    0.604
         7 -12.2197     67.6716    213.5727   3.3735233361e+01  -4.2504746837e+01   0.01063238   0.01022599  25.31 0.0004455763    1.049    0.047
         8 -10.8009    210.8903    198.8423   3.1425887905e+01  -4.1775290354e+01  0.009677177  0.008645442  11.13  0.000445548    1.167    0.143
         9 -11.6267     55.0218    191.9313   3.3753456968e+01  -4.2818599304e+01   0.01782686  0.009537447  72.49 0.0004036261    2.368    0.578
        10 -10.4221    234.3221    191.2966   3.1009443091e+01  -4.1706906932e+01  0.006697234    0.0049378  18.84 0.0002376099    1.620    0.383
        11 -11.7130    157.1776    184.7803   3.2120400781e+01  -4.2266657020e+01  0.009202379  0.007550902  17.07 0.0004429741    1.340    0.254
        12  99.0000     42.9295    209.5880   3.4086381960e+01  -4.2697789540e+01    0.2580689    0.1772314  71.40   0.02756341    1.641    0.391
        13 -18.5777     17.5271     83.7002   3.3437013825e+01  -4.4231885429e+01    0.6891637   0.05561418  61.18   0.02375967   14.955    0.933
        14 -13.3996     95.8284    178.4751   3.3009132417e+01  -4.2716559897e+01   0.03096062   0.01733956 -87.13  0.002043928    3.563    0.719
        15 -13.7537     86.9342    170.3621   3.3078879957e+01  -4.2859812527e+01    0.0467092   0.02028797 -17.57  0.003430668    3.057    0.673
        16 -11.8782     73.5263    179.4409   3.3362557513e+01  -4.2842797588e+01   0.01829407   0.01217198  87.27  0.001340132    2.053    0.513
        17 -12.8129     60.0366    178.5931   3.3565157017e+01  -4.2934305580e+01   0.02617676   0.01484598  30.28  0.001364583    2.331    0.571
        18 -10.6527     49.9673    180.9874   3.3741813087e+01  -4.2969193982e+01    0.0105293  0.009011446  -6.49 0.0004163218    1.201    0.167
        19 -11.1389     53.6442    179.8044   3.3674728602e+01  -4.2959868745e+01  0.008614913  0.007920536 -71.66  0.001061353    1.181    0.153
        20 -10.8261    175.2932    179.6492   3.1801077692e+01  -4.2208200739e+01  0.006732529  0.004962333 -66.16 0.0007030658    1.677    0.404
        21 -14.4522    112.1633    169.9488   3.2685449617e+01  -4.2708546808e+01   0.04515481   0.02571842 -81.92  0.003503801    3.552    0.718
        22 -11.4370     36.9647    176.2372   3.3905582190e+01  -4.3099921610e+01   0.01145847  0.008580021   0.94 0.0008292192    1.527    0.345
        23 -11.6222     46.5346    173.9386   3.3737049988e+01  -4.3067265430e+01   0.01615907   0.01020625  44.22   0.00166254    1.649    0.394
        24 -11.8174     61.0307    158.6486   3.3383650325e+01  -4.3146521629e+01   0.03301349  0.007683029  57.18    0.0020148    3.867    0.741
        25 -12.3817     65.9912    157.0448   3.3292889775e+01  -4.3133735861e+01   0.01604174   0.01151366 -44.82 0.0004186327    1.423    0.297
        26 -13.9225     71.8355    165.0667   3.3268986577e+01  -4.3010282594e+01    0.0412139   0.02920072  61.23   0.00339125    1.466    0.318
        27 -11.5488     68.5716    173.5481   3.3390481172e+01  -4.2937506612e+01   0.01204047    0.0114289  36.04 1.811054e-05    1.070    0.065
        28 -12.0100     65.0322    170.6051   3.3421032772e+01  -4.2991303329e+01   0.02240556   0.01100274 -35.23 0.0008739233    1.916    0.478
        29 -13.0147    172.3489    174.3898   3.1801101639e+01  -4.2283686661e+01   0.02252167   0.01638835  34.63  0.001331927    1.499    0.333
        30 -13.4447    105.2016    171.8316   3.2808683068e+01  -4.2731150877e+01    0.0179802   0.01398922  33.58  0.002012988    1.376    0.273
        31 -12.1044    180.8052    169.0486   3.1626916457e+01  -4.2287928412e+01   0.01371849  0.009498675  79.19  0.001422008    1.805    0.446
        32 -11.0997      9.2235    166.0666   3.4257012959e+01  -4.3378422342e+01  0.009474125  0.008023039  33.84 0.0007152697    1.226    0.185
        33 -11.8823     45.7382    163.2899   3.3661159257e+01  -4.3188807253e+01   0.01038748  0.008735913 -48.45 0.0004565032    1.227    0.185
        34 -11.2613      2.5372    162.6568   3.4334313079e+01  -4.3455929524e+01  0.009219204  0.005973428 -25.51 0.0002960139    1.509    0.337
        35 -11.3741     99.6896    160.8801   3.2801744455e+01  -4.2884555996e+01  0.008840732  0.008283518  75.07 0.0004863525    1.136    0.120
        36 -10.4495      7.2303    161.2517   3.4248769481e+01  -4.3443318236e+01  0.006046334   0.00476116  25.95 0.0002059611    1.391    0.281
        37 -13.6820     78.2647    154.5581   3.3080940789e+01  -4.3085619473e+01    0.0246478   0.01971226 -36.03  0.001694017    1.215    0.177
        38 -13.3212     80.8419    158.0274   3.3070011087e+01  -4.3031904321e+01   0.02440167   0.01699687   9.39  0.001633963    1.808    0.447
        39 -11.9760     84.3350    154.3636   3.2984948322e+01  -4.3050383260e+01   0.01358071   0.01034694  14.88 0.0007857369    1.522    0.343
        40  -9.9554     46.3201    157.2746   3.3602010782e+01  -4.3251175689e+01  0.006606282  0.004910229  18.56 0.0005800105    1.572    0.364
        41 -12.2790    115.8700    154.8701   3.2500921160e+01  -4.2849560325e+01   0.01073441   0.01023597  -6.49 -0.0006383859    1.030    0.029
        42 -13.7605    133.1723    145.6319   3.2155663844e+01  -4.2841767145e+01   0.04474219   0.01560012  66.51   0.00306088    3.969    0.748
        43 -10.6188     71.7347    217.2025   3.3702195422e+01  -4.2440342494e+01  0.007945299  0.006948599  18.08 0.0002668758    1.201    0.167
        44 -12.1748     53.9063    148.2106   3.3407634691e+01  -4.3304195399e+01   0.02231795    0.0165519  68.10  0.002493487    1.462    0.316
        45 -11.6221     57.9764    149.5089   3.3354874947e+01  -4.3265140077e+01   0.01089352  0.008844111  40.89 0.0003247812    1.268    0.212
        46 -12.0801     90.8453    148.4570   3.2834058981e+01  -4.3074608393e+01   0.01167772   0.01121624 -17.46 0.0003572161    1.006    0.006
        47 -13.1873    108.8357    145.4691   3.2529915597e+01  -4.2995564153e+01   0.01541244   0.01452832   5.22 0.0006866071    1.064    0.060
        48 -13.7473     96.5395    143.3190   3.2702223539e+01  -4.3095327750e+01   0.02918161   0.01923978  18.87   0.00238215    1.989    0.497
        49 -10.0328     50.3072    142.2620   3.3414136651e+01  -4.3391238963e+01  0.006476472  0.004906937  17.52 0.0002966547    1.526    0.345
        50 -13.8427    106.4461    131.9352   3.2451826020e+01  -4.3157588661e+01   0.02665906   0.02009085  76.81  0.002969445    1.539    0.350
        51 -11.5931     63.2426    237.3529   3.3997851775e+01  -4.2270672109e+01   0.01321925  0.006244628  47.78  0.001174009    2.165    0.538
        52 -12.5442    135.2271    130.9064   3.1998026842e+01  -4.2988492858e+01   0.01506318   0.00953551  65.18  0.001540593    1.721    0.419
        53 -12.8726     96.0557    130.6833   3.2602475075e+01  -4.3235860542e+01   0.01376174   0.01234191  -2.53 0.0004318538    1.136    0.120
        54 -12.6414    114.7000    125.3713   3.2267828861e+01  -4.3177339778e+01   0.01252096   0.01193401 -20.97  0.001311561    1.015    0.015
        55 -12.3807     53.7554    231.0906   3.4093598325e+01  -4.2396514732e+01   0.02433151   0.01406357  70.56  0.002335796    2.028    0.507
        56 -11.8143    102.5065    120.4890   3.2415269893e+01  -4.3306550670e+01   0.01258663   0.01050787  17.04 0.0005391004    1.301    0.232
        57 -13.6399     80.0341    141.9060   3.2946848244e+01  -4.3212772710e+01   0.02022811   0.01598559  36.10  0.001034097    1.333    0.250
        58 -11.5813     70.7851    233.2295   3.3847917122e+01  -4.2270407391e+01  0.009392047  0.007669376   4.97  0.001081063    1.335    0.251
        59 -11.8603     33.3530    119.0783   3.3485789110e+01  -4.3748306500e+01   0.01276385  0.009117517  -1.97  0.001321946    1.639    0.390
        60 -11.1807    159.4478    116.2064   3.1498519567e+01  -4.2994251961e+01  0.008551879  0.006425281  79.71 0.0004953109    1.591    0.371
        61 -11.1231    110.2228    115.5955   3.2253494514e+01  -4.3311476562e+01    0.0087004  0.006191211 -14.55 0.0002827359    1.506    0.336
        62 -11.3897     96.0258    114.2724   3.2462915664e+01  -4.3414521280e+01   0.01040849  0.009217339  58.50 0.0002945243    1.167    0.143
        63 -12.5783     58.6021    112.2370   3.3030733020e+01  -4.3668466422e+01   0.01286271   0.01051013  -3.43 0.0007786356    1.307    0.235
        64 -10.6493    155.7050    111.3329   3.1513799510e+01  -4.3070669243e+01  0.006677367  0.004963893 -65.08 0.0004690442    1.640    0.390
        65 -12.8463    116.3383    109.0721   3.2102501178e+01  -4.3343901070e+01   0.01405151  0.009351088 -37.53  0.001493492    1.454    0.312
        66 -10.5018     59.5826    226.2800   3.3964285160e+01  -4.2414260542e+01   0.01545103   0.01161462 -74.82   0.00167924    1.667    0.400
        67 -12.3933     56.3874    142.8357   3.3323764325e+01  -4.3347823188e+01   0.01977657   0.01105767 -61.99  0.001678689    2.743    0.635
        68 -11.9039     90.0000    221.9796   3.3459804301e+01  -4.2277000939e+01   0.01652146  0.009153748  56.68  0.001007087    1.811    0.448
        69 -12.9089    111.6536     99.0114   3.2088527953e+01  -4.3482406678e+01   0.01901208     0.010797 -57.24  0.001704267    2.378    0.579
        70 -12.2925     51.9650     96.4879   3.3001088715e+01  -4.3881160301e+01    0.0141661  0.009803616 -49.53  0.001203803    1.554    0.356
        71 -11.5013     98.5232     88.7701   3.2204681009e+01  -4.3675869863e+01   0.01633018  0.008102464 -56.55  0.001277599    3.103    0.678
        72 -11.7392    103.6826     77.9463   3.2030357563e+01  -4.3760838901e+01   0.02165391    0.0107561 -51.70  0.001828623    2.576    0.612
        73 -13.3777    173.5402     67.4993   3.0855406695e+01  -4.3428629586e+01   0.01755843   0.01681932 -30.41 0.0008686892    1.026    0.026
        74 -10.9483     69.5054     63.5043   3.2441244301e+01  -4.4131592356e+01  0.006496975   0.00621508 -39.12 -1.718265e-05    1.049    0.047
        75 -14.2088    190.4768     54.1541   3.0476464416e+01  -4.3462203338e+01   0.05063629     0.037653  14.42  0.003838972    1.624    0.384
        76 -12.7896    196.1776     48.9369   3.0342365520e+01  -4.3480982644e+01   0.02091035   0.01534294   4.51   0.00118004    1.663    0.399
        77 -11.1884     61.4844     61.4903   3.2550323039e+01  -4.4203431022e+01  0.006474969  0.006234909 -32.03 0.0002227755    1.031    0.030
        78 -13.1050    213.5654     32.5021   2.9928237315e+01  -4.3542846682e+01   0.03437963   0.01610637 -42.47    0.0030546    2.157    0.536
        79 -12.5168     92.0673    240.1626   3.3577124455e+01  -4.2065454040e+01   0.01695368  0.008486893  53.59  0.000912803    1.975    0.494
        80 -11.1050     60.8037     21.5969   3.2213358843e+01  -4.4640893863e+01  0.009694889  0.005616035 -39.54 0.0009492083    1.684    0.406
