#   1 NUMBER                 Running object number                                     
#   2 MAG_AUTO               Kron-like elliptical aperture magnitude                    [mag]
#   3 X_IMAGE                Object position along x                                    [pixel]
#   4 Y_IMAGE                Object position along y                                    [pixel]
#   5 X_WORLD                Barycenter position along world x axis                     [deg]
#   6 Y_WORLD                Barycenter position along world y axis                     [deg]
#   7 A_WORLD                Profile RMS along major axis (world units)                 [deg]
#   8 B_WORLD                Profile RMS along minor axis (world units)                 [deg]
#   9 THETA_WORLD            Position angle (CCW/world-x)                               [deg]
#  10 FWHM_WORLD             FWHM assuming a gaussian core                              [deg]
#  11 ELONGATION             A_IMAGE/B_IMAGE                                           
#  12 ELLIPTICITY            1 - B_IMAGE/A_IMAGE                                       
         1 -11.1952     45.1564     12.2091   2.9988967035e+01   7.2619456533e+01    0.5279515     0.206589  49.87  0.002156329    2.283    0.562
         2 -11.9978     49.7765     14.4800   2.9120323045e+01   7.1307473155e+01    0.6358209     0.349511  49.77  0.001852557    1.647    0.393
         3 -11.7546     55.8685     19.9345   2.9609590468e+01   6.9184657707e+01    0.5370572    0.3300467  63.05  0.001647285    1.725    0.420
         4 -12.2997     16.7496     13.7261   5.2117620531e+01   7.7400127474e+01    0.9408831     0.459471 -40.08  0.004460651    2.099    0.524
         5 -10.7551     15.7106      4.6500   4.6168755920e+01   7.9144721527e+01    0.2626099    0.1674315 -15.83 0.0007099194    1.953    0.488
         6 -11.6531     11.3316      3.5023   4.9946642416e+01   7.9940110440e+01    0.4542001    0.3120128  26.44  0.002057541    1.366    0.268
         7 -10.7022    151.6192     15.1203   5.8824569342e+00   4.5051902949e+01    0.4272296    0.3202513 -35.28  0.002390248    1.380    0.275
         8 -10.3418    181.9301     13.7049   2.8771535676e+00   3.7763218350e+01    0.3404892    0.1203808 -60.78  0.001338298    2.779    0.640
         9 -10.1409     35.0882     13.7928   3.7198234628e+01   7.4424619115e+01    0.2250137    0.1950949  -6.38 0.0007920004    1.197    0.164
        10  -9.6529     79.4842     11.9643   1.6578894309e+01   6.4436772018e+01    0.2796336     0.152658 -48.67 0.0006105297    2.054    0.513
        11 -11.2886     76.9283      7.6191   1.4916980639e+01   6.5544531911e+01    0.5415559     0.340066  49.96  0.002707281    1.511    0.338
        12  -9.9266     27.7842     11.4498   4.0796408148e+01   7.6116130952e+01    0.2285141    0.1824294 -35.59  0.001361578    1.312    0.238
        13 -10.0380     69.4397      9.9846   1.8428882866e+01   6.7200865705e+01    0.2654062    0.1949581 -34.90 0.0008233114    1.482    0.325
        14 -11.0873     68.8166      5.6454   1.6068296776e+01   6.7802787735e+01    0.3002448     0.268277 -47.41  0.001808116    1.226    0.184
        15 -10.8520    129.0517      8.9249   6.2312282896e+00   5.1582672744e+01    0.2442439    0.1952857 -74.86 0.0003544837    1.094    0.086
        16 -10.8658    124.0080      6.6394   5.9797002676e+00   5.3142486417e+01     0.398513    0.2163525 -76.67   0.00174685    1.854    0.461
        17  -9.5820    115.1710      8.8292   8.0133626382e+00   5.5295027222e+01    0.1878776    0.1483283  60.05  0.000450644    1.276    0.216
        18 -10.9712     97.7423      7.1199   1.0092689125e+01   6.0123242521e+01    0.4949349    0.1964526 -54.81  0.001787621    3.119    0.679
        19 -11.7203     86.6239      6.7937   1.2149895507e+01   6.3100444755e+01    0.4783989    0.2549579  60.45  0.001764512    1.634    0.388
        20  -9.9091      3.1615      8.1420   6.3372121353e+01   7.9931714230e+01    0.1919112     0.149053 -22.86 0.0006571356    1.178    0.151
        21 -11.7582    241.7359      4.4667   3.5766234050e+02   2.6245971891e+01    0.2689642    0.2297639 -75.90  0.002107118    1.316    0.240
        22 -10.9908    174.0268      3.6396   6.1385884579e-01   4.0671477570e+01    0.3191054    0.2172209 -57.28   0.00123633    1.195    0.163
        23  -9.8669      4.1764      4.0536   5.9212943891e+01   8.0643880174e+01    0.1923865    0.1443157 -21.02  0.000740046    1.254    0.203
        24 -11.3516    114.7373      1.8965   5.2472756425e+00   5.6040647957e+01    0.4362029    0.2010018  80.74  0.001299355    1.951    0.487
        25  -9.0618    219.9937      1.2114   3.5774913643e+02   3.0754871845e+01    0.1355734    0.0818863 -87.23            0    1.572    0.364
        26 -10.1358    178.9663      1.4200   3.5970290851e+02   3.9712382059e+01     0.179544    0.1092585  86.90 4.268888e-05    1.499    0.333
        27 -11.0260    248.4952     16.1672   3.5980831875e+02   2.3809797463e+01    0.3033211    0.1850946  32.33   0.00153788    4.082    0.755
        28  -9.8803     32.5744     10.2605   3.6335174055e+01   7.5434387992e+01     0.174852    0.1235126 -20.89 0.0009454428    1.590    0.371
        29  -9.5527     13.9415    117.0550   8.1371430828e+01   5.1410012833e+01    0.2365811    0.1567764 -42.65  0.001127256    1.711    0.415
        30  -9.5760     91.7669    116.2245   5.1426212553e+01   4.0771519811e+01    0.2052779    0.1888161 -11.93 0.0003870029    1.290    0.225
        31  -9.4128     87.5506    116.4806   5.2876852904e+01   4.1514115093e+01    0.1573375    0.1523954  76.34 -1.937879e-06    1.043    0.041
        32 -10.0401     21.4414    114.2392   7.7969677216e+01   5.1591375002e+01    0.2811256    0.1260788 -69.62  0.001016679    2.036    0.509
        33  -9.6833     96.1510    111.8493   4.8951071584e+01   4.0998510393e+01    0.2068127    0.1884086 -24.65 0.0004146852    1.280    0.219
        34  -8.9788     79.6480    110.7134   5.4238403456e+01   4.4477166455e+01     0.158076    0.1279815 -11.86 0.0007022552    1.665    0.399
        35  -9.6122     13.2512    105.9937   8.0581960149e+01   5.4553780162e+01    0.1992741    0.1723886 -88.91 0.0002512063    1.061    0.057
        36 -12.4733    246.3009    102.5273   1.7609717459e+01   1.3345761081e+01    0.4387999     0.133725 -31.92  0.001793691    3.046    0.672
        37 -10.3889      1.8923    104.6797   8.5483596688e+01   5.5607496116e+01    0.2798921    0.1652765 -61.13  0.001335739    1.621    0.383
        38 -11.3861    230.9463    101.2955   1.9056408935e+01   1.5938167936e+01    0.3386033     0.110792 -47.48  0.001350604    3.054    0.673
        39 -10.8489    210.7786    100.7890   2.1459244826e+01   1.9489003420e+01    0.3935179    0.1487634 -54.37  0.001307895    4.284    0.767
        40 -11.4900    237.0069     95.7819   1.7238102353e+01   1.5741027358e+01    0.4277496   0.08655834 -35.62   0.00147186    3.902    0.744
        41 -10.9537     64.8268     96.2270   5.6271858228e+01   5.0922629432e+01    0.3459301    0.2616305  45.45 0.0008262657    1.293    0.227
        42  -9.3058    143.4476     96.4686   3.2052321875e+01   3.4145414096e+01    0.1497512    0.1439779 -62.17 0.0001561731    1.054    0.051
        43 -11.1504      5.7834     95.6623   8.2968500621e+01   5.7901637045e+01    0.4985943    0.2632317  13.94  0.002237348    2.055    0.513
        44  -9.7277    105.2101     94.5760   4.1498729233e+01   4.3215831574e+01    0.2330304    0.1513073  35.72 0.0009585717    1.756    0.431
        45  -9.5878     20.2859     94.6664   7.5926879770e+01   5.7171547980e+01    0.1553458     0.100208  61.93   0.00031761    1.622    0.384
        46 -10.2676    132.9130     92.3973   3.3367957393e+01   3.7380703243e+01    0.2622522    0.2057649 -60.74 0.0005544411    1.279    0.218
        47 -10.0932     37.0328     90.0111   6.7056338756e+01   5.6730858524e+01    0.2381901    0.1699125 -35.85 0.0004302518    1.607    0.378
        48 -12.4011    248.5686     93.1293   1.5511722528e+01   1.4283920184e+01    0.4480055    0.1490484 -42.64  0.002106613    2.286    0.563
        49 -11.4552    113.5113     85.0032   3.6246080866e+01   4.3456456228e+01    0.5252596    0.4289127   3.57  0.002412881    1.765    0.433
        50 -10.9940    164.3357     85.5408   2.4940206920e+01   3.1495184776e+01     0.331824    0.2537532 -12.54  0.001071324    1.792    0.442
        51 -10.6873     12.0223     85.7275   7.8753240063e+01   6.0271338822e+01    0.2513452    0.1904852 -67.19 0.0003362622    1.226    0.184
        52 -12.4532    238.8197     82.8029   1.4364202254e+01   1.7254855685e+01    0.4969929    0.1227081 -43.49  0.001961296    3.059    0.673
        53 -11.2267     99.8094     82.8642   3.9670567341e+01   4.7088926772e+01    0.7044172    0.2649725  49.18  0.002301872    2.639    0.621
        54  -9.3623     78.0155     77.9755   4.5721338871e+01   5.2976751956e+01    0.1878472    0.1733776  58.67            0    1.052    0.049
        55 -11.2118     54.4907     78.6937   5.5917063953e+01   5.7220075245e+01    0.3331172     0.268747  69.65  0.001627118    1.353    0.261
        56 -12.3247     36.0987     73.2362   6.3497430947e+01   6.1338157179e+01    0.6153485      0.47667  -0.48  0.002066504    1.523    0.343
        57 -11.0402     32.4964     67.5215   6.3890799035e+01   6.3269806142e+01    0.5121459    0.2932109 -47.43  0.002260304    1.750    0.429
        58 -10.5085      4.0122     75.0667   8.1664980402e+01   6.3632462886e+01    0.2349721    0.1450148  53.41   0.00113456    1.708    0.415
        59 -10.7252     99.8584     72.7624   3.6376479861e+01   4.9278986583e+01    0.4014639    0.2624176  63.87  0.001175958    1.650    0.394
        60  -9.5209     76.6923     72.5247   4.4419918726e+01   5.4523304697e+01    0.2900104    0.1424821 -50.29  0.001089765    2.069    0.517
        61 -11.2962     63.9225     69.5369   4.8705886262e+01   5.7789357787e+01    0.2631873    0.2444036 -63.64 0.0002413065    1.083    0.077
        62 -10.2077      7.7740     68.7027   7.8599668429e+01   6.5148640726e+01    0.2206887    0.1865705 -78.96 0.0004149865    1.117    0.104
        63  -9.6199     83.3051     68.0755   4.0357875144e+01   5.4089514712e+01    0.2108862    0.1927881 -73.14 0.0002475426    1.096    0.088
        64 -11.1333     27.5427     65.2584   6.6103376033e+01   6.4426765361e+01    0.3689538    0.2594214 -86.98   0.00178332    1.613    0.380
        65  -9.9445    204.6976     65.8558   1.4151078498e+01   2.5972124883e+01    0.2578388    0.1390375 -49.76   0.00122837    1.599    0.374
        66 -11.7403    248.8746     54.8230   7.7169431724e+00   1.9245005874e+01    0.4809766    0.2210415 -45.78  0.002725628    1.595    0.373
        67  -9.0761    192.2774     65.7214   1.5582426079e+01   2.8589202646e+01    0.1365185   0.08916498 -61.96 0.0002306276    1.501    0.334
        68  -9.9914    164.5195     64.0081   1.9006470328e+01   3.5131558824e+01    0.2207481   0.09757148 -54.91 0.0008099139    2.525    0.604
        69 -10.6300      4.5146     63.6284   7.9787684408e+01   6.6662427623e+01    0.2535786      0.20479 -56.13 0.0007205866    1.148    0.129
        70 -10.1860     99.4273     61.7959   3.2674117019e+01   5.1623129089e+01    0.3908281    0.2409808 -66.90  0.001540616    2.142    0.533
        71 -10.0985     44.3436     62.9793   5.5967844385e+01   6.2773120029e+01    0.2789224    0.2004688  57.93 0.0008471778    1.579    0.367
        72 -11.2412     22.0608     61.8923   6.8490809611e+01   6.5860436593e+01    0.3207013    0.2683468 -35.01  0.001666466    1.211    0.174
        73 -10.4421     22.2759     58.0449   6.7311769067e+01   6.6823480217e+01    0.2110082    0.2048782  58.27 0.0004230355    1.077    0.071
        74  -9.9640    236.5887     62.2482   1.0229073483e+01   2.0410955560e+01      0.16909   0.09936763 -28.58  0.000651316    1.653    0.395
        75 -10.9287    145.9961     60.6788   2.1179295449e+01   4.0177924202e+01    0.3373465    0.2604564 -13.14  0.001095996    1.783    0.439
        76 -11.0667    148.3161     55.4176   1.9144347600e+01   4.0462276243e+01    0.3605209    0.2598419   4.01  0.001578338    2.395    0.583
        77  -9.5425    114.4793     60.9346   2.8143954824e+01   4.8058501433e+01    0.2208592     0.150929 -42.80 0.0003601835    1.484    0.326
        78 -11.6194     66.4191     59.7785   4.4044508941e+01   5.9526253774e+01    0.4596713    0.3630259  78.34  0.001430983    1.506    0.336
        79 -10.8893     15.8028     60.2083   7.1986207161e+01   6.6845522312e+01    0.4771462    0.3211128 -25.38  0.001793433    1.639    0.390
        80  -9.7986     57.0084     60.0063   4.8455662247e+01   6.1314237786e+01    0.1794141    0.1725323  51.30 0.0003299124    1.020    0.020
        81  -9.6026    154.5751     75.4856   2.3961406096e+01   3.5539012172e+01    0.1470868    0.1362364 -63.31 3.065654e-05    1.050    0.048
        82 -10.8928      3.0365     58.9822   7.9998557521e+01   6.7947381332e+01    0.3589281    0.2752009 -34.26   0.00133742    1.300    0.231
        83 -10.6091      3.4837     55.4670   7.9111343533e+01   6.8839256238e+01    0.2346871    0.2059239   6.26 0.0007498481    1.210    0.174
        84 -11.3719    228.5470     57.1806   9.8115230187e+00   2.2534796781e+01    0.3239422    0.1850486 -39.06  0.001855152    1.383    0.277
        85  -9.1879    124.7255     59.6821   2.5227546038e+01   4.5699069763e+01    0.1440459    0.1230671  18.46 0.0002732094    1.568    0.362
        86  -9.6372     83.7958     58.1576   3.6494007601e+01   5.6067613086e+01    0.2168371    0.1868341  23.64  0.001077497    1.381    0.276
        87 -10.2594     46.5035     57.0846   5.2699064099e+01   6.3836922353e+01    0.3335654    0.1753333  48.68  0.001346586    2.093    0.522
        88  -9.9557     29.0000     56.9906   6.2788655942e+01   6.6355417636e+01    0.2376163   0.07912681 -62.79 0.0008028717    2.945    0.660
        89  -9.8691    136.5047     56.0370   2.1520404740e+01   4.3335992371e+01    0.2283649    0.1435597 -39.83   0.00102709    1.573    0.364
        90  -9.5541     78.1927     55.8169   3.7655351793e+01   5.7824568921e+01    0.2072307    0.1839254  15.66 0.0004472171    1.342    0.255
        91  -9.6970     99.4105     55.2907   3.0267488467e+01   5.2872338412e+01    0.2045341    0.1429401 -53.31 0.0007210955    1.479    0.324
        92 -10.3675     70.0162     55.3022   4.0731086577e+01   5.9733725659e+01    0.2197822    0.1973713  55.77  0.001154694    1.075    0.070
        93 -10.9685    170.2551     49.7373   1.4138273709e+01   3.5965893466e+01     0.427507    0.3314619 -32.02  0.002331536    1.376    0.273
        94 -10.7564     85.9774     51.2254   3.2973145480e+01   5.6910482297e+01    0.6136834     0.383364 -87.00  0.002253531    2.787    0.641
        95  -9.9709     45.6730     52.6912   5.1449068784e+01   6.4988592424e+01    0.1490011    0.1139985 -13.42 0.0002940154    1.657    0.396
        96 -10.4357    128.3157     50.5925   2.1356014354e+01   4.6326921026e+01    0.4223326    0.2407113  55.28  0.001774814    1.741    0.426
        97 -10.1684     73.9131     50.7842   3.7268420921e+01   5.9797380307e+01    0.2267276    0.2037537  25.37 0.0005281131    1.238    0.192
        98 -10.6478    233.4367     49.8214   7.8024892347e+00   2.2587901984e+01    0.2501037   0.08404048 -37.86  0.001153999    2.156    0.536
        99 -11.1361     94.1016     48.0494   2.9042388446e+01   5.5506782887e+01    0.4253178     0.222657 -36.34  0.001373135    2.075    0.518
       100  -9.2277     91.5448     43.5392   2.7974468329e+01   5.6927785686e+01    0.2186782    0.1404657  68.78 0.0001473023    1.626    0.385
       101  -9.6264    178.7107     48.4390   1.2711880569e+01   3.4163285445e+01    0.1754599    0.1251376  60.81 0.0009337162    1.542    0.351
       102 -11.3721    248.9863     44.8156   5.6548002750e+00   2.0454622340e+01     0.332338    0.2044727 -43.94  0.002173818    1.177    0.151
       103 -11.0974     51.3103     46.2771   4.5699797225e+01   6.5396735067e+01    0.3963327    0.2605062  45.29  0.001654495    1.495    0.331
       104 -10.9034    119.4474     43.2865   2.0639727966e+01   4.9791878188e+01    0.5057583    0.2646314 -51.72 0.0001854259    2.004    0.501
       105 -10.7100     38.9855     43.5954   5.1509310061e+01   6.8110541929e+01    0.3312089    0.3026635  36.05  0.001904307    1.086    0.079
       106 -10.9685     23.3098     44.4636   6.2212326709e+01   7.0047735775e+01    0.4398983     0.236432  23.58   0.00200509    1.893    0.472
       107 -10.6290    158.9869     39.4363   1.2614860452e+01   4.0179402505e+01    0.2556621    0.1909778 -45.53 0.0003163759    1.246    0.197
       108  -9.8140     89.9489     39.2634   2.6643621323e+01   5.8040195738e+01    0.2040789    0.1858098  61.22 0.0002143698    1.065    0.061
       109 -10.3968     56.6407     39.1917   3.9677849008e+01   6.5771749539e+01    0.2793547    0.1084642  48.21 0.0009005118    2.521    0.603
       110  -9.6387     96.1106     38.0901   2.4332387006e+01   5.6663952391e+01     0.215219    0.1912141  46.42 0.0004010547    1.198    0.166
       111 -10.2391     76.5824     35.1414   2.9235862116e+01   6.2006053205e+01    0.2851386    0.2260184  89.37 0.0009467233    1.442    0.307
       112 -10.0619     47.0204     35.8450   4.3075526887e+01   6.8313550676e+01    0.2115366     0.187053  65.63 0.0004614686    1.247    0.198
       113 -11.1317     39.4367     35.7005   4.7503312324e+01   6.9701798575e+01    0.5103673     0.238272  44.50  0.002112811    2.175    0.540
       114 -10.9331     26.7884     34.6118   5.5553157875e+01   7.1854935819e+01    0.3399681    0.2879666  23.72  0.001666143    1.159    0.137
       115 -10.4377    119.0735     35.1610   1.7691418512e+01   5.1099497086e+01    0.2257671    0.2060858 -56.98 0.0003417383    1.126    0.112
       116  -9.9709    131.0262     34.4732   1.5215119389e+01   4.8044337912e+01    0.2193863    0.1345954  69.08 0.0004563754    1.530    0.346
       117  -9.9349     13.4900     34.5597   6.5932018557e+01   7.3347467785e+01    0.1306838    0.1225422 -23.97 0.0001039434    1.017    0.017
       118 -11.0974    226.1464     33.1528   4.6382707917e+00   2.6025510448e+01    0.1782855    0.1506383 -44.05 0.0008889114    1.210    0.173
       119 -10.0720     51.8014     33.1915   3.9102767210e+01   6.7878241281e+01    0.1926453    0.1628503  14.73 0.0004848821    1.316    0.240
       120 -10.9922      4.2333     31.6022   7.2858245785e+01   7.4708927421e+01     0.352374    0.2195672  39.33  0.001242443    1.781    0.439
       121 -11.1487     92.4220     31.1028   2.2324155102e+01   5.8667438931e+01    0.2594203    0.2225886  69.87 0.0002595766    1.071    0.066
       122  -9.7815     17.7622     31.1875   6.0985564615e+01   7.3693878497e+01    0.1810061    0.1789479 -81.00 0.0004783452    1.136    0.120
       123 -10.3298     58.8143     29.6168   3.3734068306e+01   6.7020293238e+01     0.297844    0.2029809  44.89  0.001471411    1.393    0.282
       124 -10.0767    153.2821     27.9658   9.7922241175e+00   4.3126890476e+01    0.1953428    0.1639077 -57.80 0.0004064911    1.096    0.087
       125  -9.9149    103.9718     28.0984   1.8106563316e+01   5.6069645315e+01    0.2181107     0.195039  81.33 0.0003357154    1.014    0.014
       126  -9.8535    160.8947     26.8599   8.5628178342e+00   4.1345312711e+01     0.201109    0.1784895  70.01 0.0007733064    1.258    0.205
       127 -11.2755     47.4119     26.3348   3.7693580578e+01   6.9976149890e+01    0.4679666    0.3076796  -9.04  0.001441972    2.394    0.582
       128 -10.7182      1.5392    240.8813   9.0425342504e+01   2.2322546370e+01    0.1883904    0.1281731 -71.34 0.0004048226    1.860    0.462
       129  -9.5373      6.4101    230.4521   8.9112300938e+01   2.3958473223e+01    0.1222072   0.08867054  49.24 -3.306953e-05    1.017    0.016
       130 -10.8263      3.1370    216.5369   8.9562643756e+01   2.7128563719e+01    0.2341489      0.14211 -63.96   0.00133631    2.051    0.513
       131 -11.1196     50.1251     19.3610   3.2057995489e+01   7.0531979840e+01    0.3615873    0.2309297  39.70  0.001567636    1.536    0.349
       132 -11.1710     83.6291     25.6559   2.2335138339e+01   6.1688237595e+01    0.4360452    0.3049802  23.88  0.001763909    1.951    0.487
       133 -10.5440     87.6901     24.3307   2.0522526915e+01   6.0828223923e+01    0.2374445    0.1753244  87.99 0.0005507859    1.436    0.304
       134  -9.5137     31.7510     25.7617   4.7276312766e+01   7.2931311722e+01    0.2075759    0.1143113 -60.12 0.0008901007    2.461    0.594
       135  -8.9528    121.3148     25.6651   1.3664205803e+01   5.1776176933e+01    0.1578448   0.09832539 -66.00 0.0007046846    1.690    0.408
       136 -11.0695    239.5531     23.3622   1.7204991414e+00   2.4631235569e+01    0.2850508    0.1556718 -20.39  0.001242459    2.345    0.574
       137  -9.1882    136.5991     23.8329   1.0603559092e+01   4.7953821611e+01    0.1989131    0.1166569 -45.88 0.0004370146    1.604    0.376
       138  -9.7777    128.7306     24.0293   1.1833354016e+01   5.0007574804e+01    0.1917311    0.1714864 -63.01  0.000331605    1.102    0.093
       139 -10.6890     98.4739     22.7625   1.7059548583e+01   5.8214553299e+01     0.265321    0.2340818  75.25  0.000576036    1.032    0.031
       140 -10.4324     38.3527     22.8194   4.1015429461e+01   7.2328632418e+01    0.2189282    0.1763751  48.28 0.0004378595    1.252    0.201
       141  -9.6758     66.5463     20.5756   2.5488662724e+01   6.6612012498e+01    0.1410769    0.1287195  59.13 0.0001030814    1.009    0.009
       142 -11.1618    108.9857     17.9167   1.2783481630e+01   5.5996735790e+01     0.344445    0.2480343  48.37  0.001013223    1.495    0.331
       143 -10.5034     70.6870     18.4639   2.2809741351e+01   6.5886524331e+01    0.2473076    0.1950511  86.91 0.0006314272    1.380    0.276
       144  -9.9037      8.7365     19.5911   6.3635190668e+01   7.7092375056e+01    0.2376967    0.1169653  26.13  0.001147595    1.968    0.492
       145  -9.3191    180.6924    210.3050   4.7375538525e+01   6.5288209912e+00    0.1039731   0.09291522  50.06 0.0007016631    1.607    0.378
       146 -10.1716    238.0052    194.0041   3.5268002332e+01   1.9842605398e+00    0.1475753    0.1311392 -45.94  0.001012717    1.762    0.432
       147 -10.9505    243.9731    180.2312   3.2168029695e+01   3.0827274102e+00    0.2347804    0.1229944 -39.69  0.001068172    1.786    0.440
       148  -9.0292     25.5090    175.4804   8.1825399632e+01   3.4677659483e+01    0.1411891    0.1183905  56.88 3.294493e-05    1.003    0.003
       149  -9.7505     23.6071     16.7551   4.7987103022e+01   7.5879468600e+01    0.1696253    0.1250313 -57.41 0.0003782484    1.618    0.382
       150 -10.1811     85.3342     15.7376   1.6968923811e+01   6.2502853777e+01    0.3667637    0.1685628  66.91  0.001508702    1.983    0.496
       151 -10.1746    126.0840     14.6050   8.7288186157e+00   5.1789743286e+01    0.2917988    0.1475431  60.86  0.001292601    1.859    0.462
       152 -11.2366    224.0156    172.8301   3.3791124801e+01   6.4800317154e+00    0.2098594    0.1411992 -30.77 0.0006745521    1.254    0.202
       153  -9.9432     21.5349    169.9760   8.2676427392e+01   3.6455663567e+01    0.2122474    0.1678332  40.05 0.0005436872    1.155    0.134
       154 -10.0743    120.6375     12.8710   8.8336532898e+00   5.3425929634e+01    0.2528714    0.1663085  65.64 0.0007341792    1.409    0.290
       155 -10.6000      6.6168    160.0223   8.6788426549e+01   4.0289380769e+01    0.3587511     0.179096 -53.23 0.0009717055    2.381    0.580
       156 -10.1352     12.2773    158.3841   8.4902301056e+01   4.0273045167e+01    0.2496965    0.1508308  38.32 0.0007341322    1.460    0.315
       157  -9.1535     39.9906    147.7436   7.4789041943e+01   4.0395959277e+01    0.2214269    0.1390314  70.94 0.0004082987    1.629    0.386
       158 -10.1129    162.9761     11.7557   3.7861411632e+00   4.2548032378e+01    0.1762727       0.1023  81.34 0.0005599768    1.591    0.371
       159 -11.3509    239.7074    147.1069   2.6940714219e+01   8.0594782368e+00    0.1881679    0.1225297 -42.38  0.001201596    1.440    0.305
       160 -10.3872     25.0027    146.6598   7.9841622365e+01   4.2277841116e+01    0.3060664       0.2272   3.62  0.001254396    1.641    0.391
       161 -10.4125    249.0119    145.2258   2.5409434770e+01   7.1077151996e+00     0.127253   0.09219534  37.55 0.0008894041    1.706    0.414
       162  -9.9346      6.9655    143.0173   8.5847981565e+01   4.4768138509e+01    0.2229807    0.1525941 -49.64  0.001014398    1.684    0.406
       163 -11.3314    245.9753    137.9802   2.4456818323e+01   8.4902965212e+00    0.1731291    0.1224846 -52.38  0.001133091    1.672    0.402
       164  -9.7629     28.7929    138.1900   7.7708924230e+01   4.4220683661e+01    0.2181202    0.1750825  63.17 0.0003503319    1.134    0.118
       165  -9.4497     51.5274    136.5120   6.9311428690e+01   4.2013490915e+01    0.1545937    0.1397609  66.32  1.94781e-05    1.011    0.011
       166  -9.9794     11.1273    132.4073   8.3702215079e+01   4.7357953396e+01    0.4535621    0.1404393 -76.28  0.001584128    2.889    0.654
       167 -12.0360    236.1050    129.7135   2.4127525291e+01   1.1022488638e+01      0.42122    0.1813937 -31.06  0.002080008    2.073    0.518
       168  -9.9456     17.7922    132.1745   8.1197862292e+01   4.6897863067e+01    0.2243676    0.1711417  59.15 0.0005423017    1.195    0.163
       169 -10.1285     76.7862    130.4028   5.9469452996e+01   3.9827087751e+01    0.5174538    0.3153338  -2.47  0.001693333    3.558    0.719
       170  -9.4999     58.1534    129.8394   6.5882267738e+01   4.2910109558e+01    0.2049581    0.1848013 -22.05 0.0004511921    1.320    0.242
       171 -10.7014    135.0227    125.0110   4.1217713579e+01   2.9964359880e+01    0.2294929    0.2216036 -80.75 0.0004136809    1.032    0.031
       172 -12.1058    245.0953    119.7962   2.1120879218e+01   1.1130028013e+01    0.2743922    0.1355596 -32.68  0.001110478    1.636    0.389
       173 -11.7834    249.8995    116.2309   1.9893010683e+01   1.0937007166e+01    0.4179789    0.1016693 -33.13  0.001551153    3.750    0.733
