#   1 NUMBER                 Running object number                                     
#   2 MAG_AUTO               Kron-like elliptical aperture magnitude                    [mag]
#   3 X_IMAGE                Object position along x                                    [pixel]
#   4 Y_IMAGE                Object position along y                                    [pixel]
#   5 X_WORLD                Barycenter position along world x axis                     [deg]
#   6 Y_WORLD                Barycenter position along world y axis                     [deg]
#   7 A_WORLD                Profile RMS along major axis (world units)                 [deg]
#   8 B_WORLD                Profile RMS along minor axis (world units)                 [deg]
#   9 THETA_WORLD            Position angle (CCW/world-x)                               [deg]
#  10 FWHM_WORLD             FWHM assuming a gaussian core                              [deg]
#  11 ELONGATION             A_IMAGE/B_IMAGE                                           
#  12 ELLIPTICITY            1 - B_IMAGE/A_IMAGE                                       
         1 -12.2095    195.7182     32.8417   5.4916684473e+01   3.1608312948e+01     1.120518    0.8811836  25.29  0.004371867    1.478    0.323
         2 -12.3746    206.9453     19.2222   4.9485063809e+01   3.0271418831e+01     0.995889    0.7644185  24.25  0.005163566    1.575    0.365
         3  -8.7060     59.6786      2.9778   7.4399662892e+01   6.7618604745e+01    0.2109499     0.093914  -9.83 0.0007050086    4.360    0.771
         4  -8.5461    173.6961    248.6933   1.0564010950e+02   3.5134045660e+00    0.1065302   0.07057606  22.63 0.0002295087    1.603    0.376
         5 -10.6208     83.0796    249.4339   1.2075305478e+02   1.6376341693e+01    0.7049863    0.1896888  43.31  0.003539843    2.573    0.611
         6 -10.0231     78.0371    243.4768   1.2115828577e+02   1.7908978248e+01    0.1928235    0.1395694  62.97 0.0009531283    1.078    0.073
         7 -11.2204    127.0727    245.7676   1.1312722563e+02   1.0814227503e+01    0.4274236    0.3066272  18.28  0.002860192    2.041    0.510
         8 -11.3068    100.5592    249.5741   1.1789406923e+02   1.4030120861e+01     0.757136    0.2387736  48.58   0.00226151    2.310    0.567
         9 -12.1206    116.4331    248.1540   1.1513594836e+02   1.2018552184e+01    0.8410969    0.4408538  36.96  0.004706651    1.714    0.417
        10 -14.8270     53.6159    204.8908   1.2262894364e+02   2.7365518354e+01      4.50498     2.744033 -72.03   0.03018261    1.683    0.406
        11 -11.8406    126.5441    229.6653   1.1158259950e+02   1.3160677452e+01    0.6073167    0.2381447  44.70  0.003145523    1.940    0.484
        12  -9.4311     84.5430    234.8933   1.1941718200e+02   1.8368360736e+01    0.2053023    0.1014479 -72.49  0.001114625    2.395    0.583
        13 -12.2985     24.2248    194.7088   1.2741971475e+02   3.2475348290e+01     1.047233    0.2590965  47.97  0.002212321    2.828    0.646
        14  -9.4652    194.3262    195.4762   9.4585577488e+01   6.8616732090e+00    0.2911686    0.2280857 -33.39   0.00185585    1.484    0.326
        15  -8.3059    208.5243    184.2510   9.0101007334e+01   5.8788714722e+00    0.1676605     0.115741 -13.07 0.0008248293    1.643    0.391
        16 -10.2910     71.7173    181.3540   1.1696581429e+02   2.9503159521e+01    0.3594133    0.2419613 -44.46  0.001950303    2.168    0.539
        17 -10.2179     76.0294    175.6734   1.1543742374e+02   3.0037288258e+01    0.2707849     0.226408 -53.73 0.0008074977    1.492    0.330
        18  -7.8537     99.3670    180.6795   1.1110221811e+02   2.5633108414e+01    0.1367914    0.0830555  67.46 0.0007037868    1.789    0.441
        19 -11.8056     98.9119    227.6569   1.1629036172e+02   1.7522684746e+01    0.9590253    0.2413659  48.16  0.004089958    3.078    0.675
        20  -7.8410    196.3244    170.3125   8.9759149057e+01   1.0094973965e+01    0.1375305   0.09530786  14.91 0.0007040601    1.660    0.397
        21 -10.9376     84.5728    165.1230   1.1228419768e+02   3.0950628690e+01    0.4664015    0.3895343  77.77  0.001062739    1.060    0.056
        22 -11.8971     72.4799    161.3758   1.1451993490e+02   3.3443778230e+01    0.6974807     0.412734 -56.55  0.001734365    1.801    0.445
        23 -11.2788     70.5016    145.0311   1.1282633886e+02   3.7202478923e+01    0.5228396     0.382178 -68.61  0.001950752    1.296    0.228
        24 -11.2763     64.9584    142.0056   1.1375667039e+02   3.8606448644e+01    0.4255155    0.3470019  86.22  0.001368686    1.083    0.077
        25 -10.3749     90.4916    158.8057   1.1008082886e+02   3.1364316768e+01    0.4765754    0.3438509 -27.09  0.001840182    2.324    0.570
        26  -7.7232    139.5969    156.5043   9.8664935477e+01   2.3351984617e+01    0.1364382    0.1251078  61.49 0.0002323541    1.043    0.041
        27 -10.4122     43.6067    148.2899   1.1966042855e+02   3.9810129318e+01    0.2685483    0.2167291  60.45  0.001094664    1.175    0.149
        28 -11.7720    116.8577    229.9212   1.1332570158e+02   1.4573164854e+01    0.5986806    0.2772672  48.67  0.003390178    1.677    0.404
        29  -9.3447    103.8312    142.5433   1.0435733724e+02   3.2630249804e+01    0.4497249    0.2739693 -27.59  0.001814171    3.228    0.690
        30 -10.5309     91.5546    142.7672   1.0736452661e+02   3.4592646080e+01    0.2499498    0.2360865 -51.43 0.0006386589    1.239    0.193
        31 -10.8308     58.5968    132.0076   1.1394558952e+02   4.1637604044e+01     0.473675    0.2318542 -68.01  0.002313561    1.877    0.467
        32  -8.7411    112.6642    132.0655   1.0024726101e+02   3.3308747437e+01    0.2432908    0.1863431  56.43 0.0008572934    1.282    0.220
        33  -8.2138    105.8529    130.8245   1.0169086981e+02   3.4789529655e+01    0.2008405    0.1599466  75.50  0.001079942    1.330    0.248
        34  -9.1328     99.8715    128.4945   1.0274513640e+02   3.6328518898e+01    0.2441883    0.2019388 -32.07  0.001099368    1.495    0.331
        35  -9.9050     43.7908    126.8378   1.1706827137e+02   4.4523780000e+01    0.2474003    0.1295411  60.16  0.001239025    2.088    0.521
        36  -9.4844    118.2900    126.1543   9.7646803410e+01   3.3522378963e+01    0.2306208    0.1853071 -31.17  0.001200354    1.490    0.329
        37  -8.0965    108.5794    120.2831   9.8844338532e+01   3.6582782719e+01    0.1849205    0.1326404 -43.96 0.0004282121    1.481    0.325
        38 -10.8762    143.8190    229.2984   1.0848198024e+02   1.0558393788e+01    0.2745772    0.2060064  47.75  0.001925887    1.050    0.048
        39  -7.9686    167.6733    112.3588   8.2892698101e+01   2.5897774870e+01     0.156014    0.1200169 -79.81  0.000704345    1.783    0.439
        40  -8.0245    114.6554    111.3086   9.5259250496e+01   3.7383409420e+01    0.1509052     0.112658  82.11 0.0002332433    1.698    0.411
        41  -8.1586    205.9992    110.0045   7.4734706755e+01   1.7586902002e+01    0.1783042    0.1684229   0.90 0.0007601667    1.007    0.007
        42  -9.4579     40.9997    107.2151   1.1502520261e+02   4.9275846080e+01    0.3619321    0.1189675 -73.71  0.001301561    3.498    0.714
        43 -10.1731     32.5140    104.5714   1.1708925509e+02   5.0713237122e+01    0.3676872    0.1191322 -64.64  0.001583292    2.431    0.589
        44 -13.5042     10.5170    206.6855   1.3047535843e+02   3.1616519361e+01    0.7271754    0.6536981  56.94  0.003615323    1.486    0.327
        45  -7.6475     86.3250     99.6356   1.0029287011e+02   4.4996452730e+01    0.1479673    0.1062949  84.26 0.0003232947    1.794    0.443
        46 -16.3464      5.6937    238.5703   1.3244993204e+02   2.6730927478e+01     17.30818     1.084249 -79.03   0.01005748   12.185    0.918
        47 -10.6643    158.1782    229.0007   1.0591561804e+02   8.3449172975e+00    0.4181572    0.1752915  55.65  0.001828047    3.180    0.686
        48 -10.7891    138.6202    230.8311   1.0957495536e+02   1.1148405901e+01    0.3499638    0.2220907  83.42  0.001970571    2.629    0.620
        49  -8.7563     93.1956    236.4447   1.1805763953e+02   1.6960643431e+01    0.1675329    0.1321214  84.01 0.0005513682    1.316    0.240
        50  -8.9194    157.2994     59.5928   7.0053669316e+01   3.7806333456e+01    0.3211694    0.2324121 -65.22 0.0007821618    1.737    0.424
        51  -8.0663    159.4636     53.2744   6.7555606990e+01   3.8263031111e+01    0.2111214    0.1399045 -44.30 0.0009268828    1.561    0.359
        52 -10.9215    186.6268     39.4548   5.8271801023e+01   3.3150840562e+01    0.4061576    0.3627231   8.20  0.001037375    1.224    0.183
        53 -11.8215    137.1665    243.9068   1.1123389567e+02   9.5789452182e+00     0.691697    0.3020178  31.85  0.003405435    2.748    0.636
        54  -9.4804     83.2003    243.1760   1.2027851117e+02   1.7283593149e+01    0.1912303    0.1167658 -67.03  0.001115712    1.973    0.493
        55 -10.9629     32.8864     28.3194   9.8393299726e+01   6.7268927518e+01    0.3408896    0.2512603 -44.08  0.002178044    1.141    0.124
        56 -10.7240     32.7720     34.0384   1.0058428084e+02   6.6173837832e+01    0.5548019    0.1119955 -53.64  0.001841139    4.181    0.761
        57 -10.8033     28.0644     35.0570   1.0305845720e+02   6.6425759079e+01    0.4315677    0.2204711 -29.60  0.002152571    2.259    0.557
        58  -8.5809     29.6550     18.6712   9.5947903326e+01   6.9387871156e+01    0.1284424   0.07752421 -22.14 0.0007050486    1.751    0.429
