#   1 NUMBER                 Running object number                                     
#   2 MAG_AUTO               Kron-like elliptical aperture magnitude                    [mag]
#   3 X_IMAGE                Object position along x                                    [pixel]
#   4 Y_IMAGE                Object position along y                                    [pixel]
#   5 X_WORLD                Barycenter position along world x axis                     [deg]
#   6 Y_WORLD                Barycenter position along world y axis                     [deg]
#   7 A_WORLD                Profile RMS along major axis (world units)                 [deg]
#   8 B_WORLD                Profile RMS along minor axis (world units)                 [deg]
#   9 THETA_WORLD            Position angle (CCW/world-x)                               [deg]
#  10 FWHM_WORLD             FWHM assuming a gaussian core                              [deg]
#  11 ELONGATION             A_IMAGE/B_IMAGE                                           
#  12 ELLIPTICITY            1 - B_IMAGE/A_IMAGE                                       
         1 -14.8880    162.9899     42.1648   7.9844254877e+01   3.9536070451e+01      1.31887     1.075063  -4.84  0.003336307    1.419    0.295
         2 -14.5738    176.1897      9.4130   6.7297237375e+01   3.9957071144e+01    0.9976862    0.9795005  80.88  0.003787722    1.098    0.089
         3 -12.8486    196.9926      6.5035   6.3988219033e+01   3.4800474395e+01    0.3896897    0.2147638 -73.18  0.001724127    2.066    0.516
         4 -12.1528    125.0451    243.7437   1.3189395226e+02   9.7073325302e+00    0.2027395    0.1539387 -64.02 0.0008491693    1.630    0.387
         5 -20.0271     75.4792    174.5505   1.3375004180e+02   3.0268903664e+01     16.70782     6.341137 -67.31   0.07074957    2.656    0.623
         6 -14.1831    175.3201    185.9190   1.1401741406e+02   1.0406843369e+01     1.014114    0.5277398 -62.74  0.003769493    3.746    0.733
         7 -11.5859    170.4160    185.2303   1.1488544502e+02   1.1473729544e+01    0.2709617    0.2606658 -43.58 0.0008330753    1.169    0.144
         8 -12.7109    153.5973    185.3674   1.1837268453e+02   1.4679387995e+01    0.3238863    0.2558676 -73.29  0.001453048    1.532    0.347
         9 -11.3956    119.0102    239.9104   1.3256866517e+02   1.1247759349e+01    0.1863159    0.1455439 -83.57 0.0005826134    1.463    0.317
        10 -10.7226    138.6725    246.3122   1.2975331080e+02   7.1716534612e+00    0.2612501    0.1629918  80.12  0.001440606    2.476    0.596
        11 -10.9620      8.0000    239.0469   1.5132217258e+02   2.5729558151e+01    0.1263385   0.04450956 -81.83  0.000733279    2.484    0.597
        12  -9.8764    131.3506    236.8439   1.2999880635e+02   9.7744506456e+00    0.3093101    0.1455123 -55.64 0.0008275746    2.643    0.622
        13 -10.2175     25.5318    184.9842   1.4531882619e+02   3.4142008402e+01    0.1473692    0.1074582  87.74 9.734184e-05    1.094    0.086
        14 -11.1123     21.8153    241.5282   1.4927600783e+02   2.3889674238e+01    0.1648648   0.09533184 -88.98  0.001212241    1.483    0.326
        15 -10.9551     28.4687    179.4608   1.4431043809e+02   3.4988012159e+01     0.209099    0.1804375 -26.65  0.001047549    1.913    0.477
        16 -10.5299     16.4520    250.2671   1.5048649886e+02   2.2994884171e+01    0.1221851   0.07267364  83.98 0.0009411711    1.344    0.256
        17 -13.7904    207.2955    178.0619   1.0628362262e+02   5.5116729307e+00    0.5866952    0.4942316   7.69  0.002553561    1.175    0.149
        18 -12.3776    203.4813    172.2952   1.0586897207e+02   7.1789737964e+00    0.5048698    0.3809675 -21.74  0.002734655    1.428    0.300
        19 -10.6059     30.3227    182.9781   1.4421047686e+02   3.4061338667e+01    0.1604591    0.1142998 -88.55 0.0003478161    1.146    0.127
        20 -10.8389    126.5832    236.2038   1.3079523985e+02   1.0639526917e+01    0.2652665    0.1305611 -40.49  0.001256369    3.546    0.718
        21 -12.1023      5.6925    177.5226   1.4872706612e+02   3.7527978834e+01    0.3102084    0.1777632  57.83  0.001236218    1.489    0.328
        22 -11.1540    138.9752    250.0025   1.3010836657e+02   6.5894292058e+00    0.2260003    0.1874969  20.85  0.001607469    1.521    0.342
        23 -13.6168    195.7046    170.5311   1.0702474855e+02   9.0167135018e+00    0.7022592    0.4499402 -48.68  0.001914994    1.823    0.451
        24 -11.8281    193.6863    165.3223   1.0636722477e+02   1.0313398900e+01    0.2812819    0.2349992  75.95 0.0009368039    1.535    0.348
        25 -13.3080    177.6283    170.9416   1.1073768922e+02   1.2585506015e+01    0.5209513    0.3506776 -49.01   0.00258993    1.667    0.400
        26 -10.1332     11.7328    173.7592   1.4728952171e+02   3.7781946016e+01   0.09331445   0.07488238 -68.21 0.0006760288    1.428    0.299
        27 -10.5489     25.6895    229.9736   1.4807792151e+02   2.5483091617e+01    0.1744311   0.07791322 -83.59  0.001068201    2.011    0.503
        28 -11.7932    230.0012    166.0114   9.9693357658e+01   3.0248740774e+00    0.1989331    0.1731757 -76.33 0.0008102878    1.689    0.408
        29 -11.5669    201.2695    164.2499   1.0465817127e+02   8.9544511341e+00    0.4740705    0.3144268 -42.63  0.002357316    1.627    0.385
        30 -10.5040     25.4230    224.6888   1.4783954027e+02   2.6460287440e+01    0.1487383   0.08006321 -70.23 0.0006462599    1.905    0.475
        31 -10.8898    222.3750    161.5968   1.0013926485e+02   5.1713631347e+00    0.2549035    0.1972402 -55.84 0.0008220319    1.699    0.411
        32 -12.9543    164.0925    156.2203   1.1063268265e+02   1.8128540159e+01    0.3383063    0.3217465 -21.24  0.000884038    1.133    0.118
        33 -14.7733    134.3538    146.5316   1.1536887980e+02   2.6240656943e+01     1.576025    0.5441036 -57.77  0.004640459    4.188    0.761
        34 -10.4401     22.9540    156.0954   1.4352708166e+02   4.0545340382e+01    0.1742799    0.1368721  87.46 0.0005018143    1.028    0.027
        35 -10.3614     22.5511    221.1356   1.4813340922e+02   2.7412884886e+01    0.1171909   0.08248121 -75.16 0.0004027358    1.521    0.342
        36 -12.2942    207.3457    212.1310   1.1244695093e+02   4.7727493130e-01     0.232986    0.1505801  31.62 0.0009597366    1.343    0.255
        37 -14.3643    143.5490    143.7335   1.1262276333e+02   2.4956533476e+01     1.126818    0.5035979 -60.90  0.003659823    3.487    0.713
        38 -12.5362    173.7051    148.5988   1.0694056330e+02   1.7561844931e+01    0.4104719    0.3296148  57.52  0.001725335    1.278    0.218
        39 -12.9018     11.6444    205.8959   1.4921012059e+02   3.1363800655e+01     0.346021    0.2485139  34.48   0.00257893    1.796    0.443
        40 -12.7532    161.5790    197.6640   1.1879101164e+02   1.0988862706e+01    0.3543791    0.2825359 -85.81  0.002012335    1.639    0.390
        41 -12.8453    134.8395    112.8653   1.0752286231e+02   3.3407810508e+01    0.6552049     0.187826 -46.84  0.001922873    3.513    0.715
        42 -14.2040    135.7062    127.4570   1.1086279907e+02   3.0074708407e+01     1.640752    0.3638345 -51.06  0.003970551    5.490    0.818
        43  -9.9049      1.6755    139.7589   1.4700066063e+02   4.5855123740e+01    0.1002053    0.0738489 -55.60 0.0002307103    1.526    0.345
        44 -10.7266      7.9208    138.0511   1.4539770999e+02   4.5780540826e+01    0.1753868    0.1343664 -81.95 0.0002869547    1.071    0.067
        45 -12.5207    163.8180    202.9867   1.1920145358e+02   9.6755835144e+00    0.2953773     0.254108  78.43 0.0003717444    1.360    0.265
        46 -12.0208    154.4758    195.9706   1.1994878723e+02   1.2600211413e+01    0.4485941    0.2839682  78.91  0.001954618    2.781    0.640
        47 -12.7184    160.6113    127.9755   1.0510244618e+02   2.4531197314e+01    0.4175796    0.3559458 -65.16  0.002097111    1.277    0.217
        48 -12.4212    157.5753    201.8504   1.2025936731e+02   1.1008775365e+01    0.4962032    0.3013108  65.73  0.001821659    2.238    0.553
        49 -12.1991    140.3486    120.5028   1.0806315943e+02   3.0577366873e+01    0.3306968    0.2384282  81.71 0.0006980059    1.898    0.473
        50 -10.9156    167.4707    112.6069   9.9724314429e+01   2.6040620831e+01    0.3236589    0.2189037 -72.57  0.001256136    2.199    0.545
        51 -11.0565    139.1262    200.8418   1.2381470625e+02   1.4521235526e+01    0.2548954    0.2020233  81.78 0.0008040537    1.424    0.298
        52 -10.5000    135.6432    196.3247   1.2385437222e+02   1.5969676525e+01    0.2578294    0.1692914  87.95  0.001240486    2.228    0.551
        53 -10.8879    205.3260    110.2335   9.1407713572e+01   1.7521532267e+01    0.3185838    0.2083613  46.37 0.0008822412    1.550    0.355
        54 -10.6003    117.3634    201.8199   1.2837690668e+02   1.8117991957e+01    0.2359929    0.1455412  55.53 0.0009194535    1.452    0.311
        55 -11.8355    169.8421    195.1836   1.1672905947e+02   9.8695975785e+00    0.2704056    0.1979126  43.04   0.00084275    1.190    0.160
        56 -13.0955    180.5202    193.2861   1.1428952511e+02   8.1757305942e+00    0.4306245     0.330666 -67.63    0.0017721    1.797    0.444
        57 -13.8754    165.7437    188.8407   1.1646973985e+02   1.1737636102e+01    0.7885852     0.399794  44.11  0.003610609    1.742    0.426
        58 -14.4231    151.4072     56.7640   8.6971778291e+01   4.0311367188e+01      1.24885     1.114555  29.40 0.0009592008    1.169    0.144
        59 -13.7931    174.4620    192.6801   1.1538174193e+02   9.4210831305e+00    0.6580288    0.3785414 -55.15  0.002973995    2.265    0.558
        60 -13.0886    166.5756     33.8568   7.6503738362e+01   3.9716285714e+01      0.43093    0.3942199  43.57  0.000883714    1.110    0.099
        61 -11.2795     13.5053     59.9511   1.3267233425e+02   6.2750956979e+01    0.1770669    0.1577674  61.81 0.0004548696    1.413    0.292
        62 -10.3732    144.7281     33.9680   8.0689316758e+01   4.5370542790e+01    0.1940295     0.191227 -73.94 0.0002508921    1.068    0.064
        63 -11.7458    133.8543    246.2090   1.3059535652e+02   7.9501645418e+00     0.162884    0.1378991  57.18    0.0003921    1.127    0.113
