#   1 NUMBER                 Running object number                                     
#   2 MAG_AUTO               Kron-like elliptical aperture magnitude                    [mag]
#   3 X_IMAGE                Object position along x                                    [pixel]
#   4 Y_IMAGE                Object position along y                                    [pixel]
#   5 X_WORLD                Barycenter position along world x axis                     [deg]
#   6 Y_WORLD                Barycenter position along world y axis                     [deg]
#   7 A_WORLD                Profile RMS along major axis (world units)                 [deg]
#   8 B_WORLD                Profile RMS along minor axis (world units)                 [deg]
#   9 THETA_WORLD            Position angle (CCW/world-x)                               [deg]
#  10 FWHM_WORLD             FWHM assuming a gaussian core                              [deg]
#  11 ELONGATION             A_IMAGE/B_IMAGE                                           
#  12 ELLIPTICITY            1 - B_IMAGE/A_IMAGE                                       
         1 -12.7189    218.6417     53.2470   2.8770500334e+01   2.4853137637e+01    0.9492093    0.7442561 -32.57  0.005951034    1.124    0.110
         2 -13.0359    239.2220     38.8898   2.3553519906e+01   2.2537475722e+01    0.7243342    0.7106187 -16.62  0.005520328    1.225    0.184
         3 -12.1444      3.5929      4.4875   8.4176774555e+01   7.8445151181e+01    0.6114939    0.5641652 -32.19  0.004215018    1.125    0.111
         4 -11.7861     69.2128    245.8055   9.4481182455e+01   1.6899437723e+01    0.4963846    0.2633804  70.06  0.002832936    2.599    0.615
         5 -10.5179    134.8044    249.9070   8.1408554562e+01   8.9644514942e+00    0.1824344    0.1502649  51.27  0.001376073    1.600    0.375
         6 -15.7972      7.6635    239.4589   1.0701191634e+02   2.3671809085e+01     9.471974     5.086037 -86.68   0.05930389    2.086    0.521
         7 -11.1052     95.9945    243.5368   8.8697006942e+01   1.4327037227e+01    0.1929218    0.1615394 -63.02  0.001458066    1.600    0.375
         8 -13.9041      8.7375    207.6886   1.0600586223e+02   2.9385431898e+01     2.605399     1.413428 -21.05   0.01264431    3.619    0.724
         9 -10.3996    101.5664    239.2437   8.7151049649e+01   1.4347318473e+01    0.1743388    0.1184959 -69.48  0.001142579    2.076    0.518
        10 -10.5869    128.8268    229.9494   8.0467690270e+01   1.2493411128e+01    0.2125835    0.1687024 -65.47  0.001003212    1.841    0.457
        11  -9.7903    108.9911    225.0000   8.4169812445e+01   1.5710296561e+01    0.2106691   0.05482748  30.23 0.0008101722    2.996    0.666
        12 -14.6420      9.3188    192.9428   1.0542604799e+02   3.2304868561e+01     1.892166     1.270177 -71.62  0.006989233    1.666    0.400
        13 -10.1941     78.5878    217.0150   9.0241949311e+01   2.0732624782e+01    0.2788835    0.1361587  36.36  0.001489428    1.575    0.365
        14 -11.3671     40.6348    211.2049   9.8705375474e+01   2.5905401172e+01    0.3246826    0.2043923  72.15  0.001210525    1.651    0.394
        15  -9.5676     79.9858    209.4270   8.9228519830e+01   2.1953249235e+01    0.2093325    0.1557026  68.28 0.0005502125    1.539    0.350
        16  -8.6472    193.3027    195.6537   6.2817308002e+01   9.0514699681e+00    0.1012901   0.09559865  47.50 0.0007039761    1.688    0.408
        17 -11.5220     46.0882    167.8633   9.4187069124e+01   3.4477864944e+01    0.3015403    0.2659013  16.98 0.0004298167    1.221    0.181
        18 -12.6637      2.3093    198.0240   1.0725709499e+02   3.1784015324e+01    0.3361163    0.2309256 -85.30 0.0009317514    1.524    0.344
        19 -10.4648     59.8102    158.6375   8.9263699200e+01   3.5052488681e+01    0.2451673    0.2301153  14.23 0.0003914796    1.154    0.133
        20 -12.8373     44.3647    154.6718   9.3452436896e+01   3.7737548777e+01    0.5222386    0.3439924 -21.20  0.001544729    2.148    0.534
        21  -9.8611    113.9812    249.0000   8.5477276590e+01   1.1476000463e+01    0.1982922   0.04845215  29.75 0.0008109609    3.002    0.667
        22 -11.7950     69.1701    152.7454   8.5743732499e+01   3.5247590927e+01    0.6905341    0.4268797  33.12  0.001330787    1.470    0.320
        23 -12.4357     68.2881    143.8056   8.4758810463e+01   3.7480498804e+01    0.9327962     0.507593  57.63  0.003131213    2.172    0.540
        24 -11.1548     24.6109    149.2966   9.9033419653e+01   4.0906920757e+01    0.2560407    0.2232712  49.01 0.0007601345    1.057    0.054
        25 -10.4644     42.4586    145.9574   9.3155526651e+01   4.0039921173e+01    0.2698412    0.1622752  43.88 0.0007402347    1.516    0.340
        26 -10.5302    237.9884    144.0200   4.6155736603e+01   9.7422359297e+00    0.1974203     0.122923  -0.25  0.001147751    1.748    0.428
        27 -11.1266     74.0482    137.9919   8.2062217253e+01   3.8079691814e+01    0.3064824    0.2821437 -64.49 0.0004566532    1.142    0.124
        28 -10.2308     86.7042    141.0130   7.8667118598e+01   3.5493415086e+01    0.3145115    0.2783827 -61.59 0.0008274658    1.203    0.169
        29 -10.2196    104.5545    130.3969   7.1353092939e+01   3.4998896640e+01     0.599636    0.3020749  37.69  0.002466519    1.864    0.463
        30  -8.9850     85.5557    152.6763   8.0907101729e+01   3.2986532140e+01    0.1730186    0.1384556 -84.69 0.0006121528    1.445    0.308
        31  -8.8564     90.8874    137.8027   7.6841085459e+01   3.5585438863e+01    0.2143455    0.1913692   3.76 0.0004422679    1.208    0.172
        32 -10.1460    248.9917    246.9927   6.1228914028e+01  -2.8442573211e+00    0.1305074    0.1066813  12.36  0.001150835    1.741    0.426
        33  -9.9887     88.4227    125.7641   7.5313227108e+01   3.8800518840e+01    0.2647514    0.2398919  33.04 0.0003873921    1.063    0.060
        34  -9.0930    101.9262    118.4804   6.9578455873e+01   3.8164994399e+01    0.2062646    0.2015325 -37.18 0.0003155449    1.061    0.058
        35 -10.5567    245.1634    113.1630   3.9074222414e+01   1.2605403400e+01    0.1632745    0.1265744 -41.01  0.001096846    1.351    0.260
        36  -8.6839    205.5363    110.4755   4.4075778677e+01   1.9559706113e+01    0.1314562    0.1143244 -14.15 9.066515e-05    1.031    0.030
        37 -10.3641    242.7706    101.4143   3.6935691674e+01   1.4456263710e+01    0.1519615    0.1070563  33.35 0.0009541753    1.648    0.393
        38  -9.1423     35.0032     97.9364   8.9625975239e+01   5.3066240614e+01    0.2138069    0.2011732  74.28  0.000490832    1.044    0.042
        39  -9.9247     53.0267     90.7041   8.0702891789e+01   5.2854467596e+01    0.3455971    0.1855621 -51.64  0.001467932    1.815    0.449
        40  -9.1603     41.5128     92.0729   8.5846208049e+01   5.3914056077e+01     0.207039     0.195716  29.90 0.0005414972    1.089    0.082
        41  -9.0492    167.4633     86.5153   4.4846827368e+01   3.0951657831e+01    0.1423024    0.1356821 -15.54 0.0001048928    1.024    0.023
        42 -10.7474      7.0098     86.1380   1.0023825075e+02   5.8215887588e+01    0.3090281     0.201213  12.25  0.001627377    1.688    0.408
        43  -9.0624    184.3449     77.3211   3.9409193601e+01   2.8741673381e+01    0.1427258    0.1054441  15.71 0.0007049812    1.731    0.422
        44 -10.6025     13.3285     59.9225   9.3505943448e+01   6.4703989296e+01    0.2665412    0.2309084  72.12 0.0004876023    1.236    0.191
        45  -9.7507    244.9829    250.0000   6.2223156423e+01  -2.7493217380e+00    0.1506058   0.04181974  29.47 0.0008061325    2.968    0.663
        46 -10.4988     11.1657     53.0730   9.3465129216e+01   6.6572870410e+01    0.2258098    0.1628027 -43.82  0.001244114    1.291    0.225
        47 -10.0945      2.8359     50.3146   9.8041300884e+01   6.7641559096e+01    0.2065261    0.1611173  39.92  0.001206652    1.428    0.300
        48 -12.5382     37.7380    173.9214   9.7021666948e+01   3.3958546616e+01     1.126245    0.6841956  -4.05 0.0005287723    2.404    0.584
        49 -11.5408     80.6591    245.1403   9.2036253511e+01   1.5781100320e+01    0.2945052    0.1956682  74.15  0.001938926    2.004    0.501
        50 -10.9752      2.0000     38.4786   9.6541579262e+01   7.0627987093e+01    0.4097751    0.1605682 -79.25  0.001695807    2.532    0.605
        51 -10.8729      2.7046     24.7086   9.2806809369e+01   7.3932668395e+01    0.3050885    0.1586139 -62.65  0.001541945    1.655    0.396
