#   1 NUMBER                 Running object number                                     
#   2 MAG_AUTO               Kron-like elliptical aperture magnitude                    [mag]
#   3 X_IMAGE                Object position along x                                    [pixel]
#   4 Y_IMAGE                Object position along y                                    [pixel]
#   5 X_WORLD                Barycenter position along world x axis                     [deg]
#   6 Y_WORLD                Barycenter position along world y axis                     [deg]
#   7 A_WORLD                Profile RMS along major axis (world units)                 [deg]
#   8 B_WORLD                Profile RMS along minor axis (world units)                 [deg]
#   9 THETA_WORLD            Position angle (CCW/world-x)                               [deg]
#  10 FWHM_WORLD             FWHM assuming a gaussian core                              [deg]
#  11 ELONGATION             A_IMAGE/B_IMAGE                                           
#  12 ELLIPTICITY            1 - B_IMAGE/A_IMAGE                                       
         1 -11.7144     20.1551     18.8056   1.0065573685e+02   7.2206865579e+01    0.9567951    0.7299241 -88.33  0.005622515    1.845    0.458
         2 -11.3049     17.0617      3.1527   9.4488412985e+01   7.5600507922e+01    0.3960737    0.2892484 -32.58  0.001810005    1.154    0.134
         3 -11.7095     11.6772      2.5785   9.8178524845e+01   7.6240202102e+01    0.4351734    0.2329683 -31.82  0.001777379    1.816    0.449
         4 -11.3805     23.5322      7.3629   9.2528688505e+01   7.4100866400e+01    0.4205758     0.350981   1.76  0.002106164    1.230    0.187
         5 -13.0686     31.7897      2.1419   8.3908626751e+01   7.3927267582e+01    0.4213117    0.2324795  30.58 0.0006696185    2.001    0.500
         6 -11.8912     60.4203     22.8343   8.1244267252e+01   6.5804425661e+01    0.5678504     0.366741 -61.33  0.002543688    2.312    0.567
         7 -10.7964     64.3924     14.3370   7.5047700433e+01   6.6444717918e+01    0.4948594    0.2440557  28.93  0.001927932    2.918    0.657
         8 -12.2549     84.8507     20.2857   7.0666128461e+01   6.1282852490e+01    0.7043415    0.4448628 -38.07  0.001407574    1.569    0.363
         9 -11.3686      4.6935     18.5703   1.1064706427e+02   7.3451256184e+01    0.4427297    0.2891286  27.44  0.002291546    1.823    0.451
        10 -10.7181     91.8815      6.6429   6.1581299956e+01   6.1420065655e+01    0.4755916    0.3292731  43.78   0.00154983    1.392    0.282
        11 -11.5856     74.0965      7.0415   6.7261627024e+01   6.5449356462e+01    0.2836511    0.2593526 -24.15 0.0003227864    1.123    0.109
        12 -11.9167     75.5536     15.2393   7.1263541285e+01   6.4033045487e+01    0.8757347    0.5125057   2.17  0.003528032    2.700    0.630
        13 -11.1673     70.1620     15.2227   7.3249803899e+01   6.5158921645e+01    0.5052702    0.2560217 -22.52  0.001921357    2.214    0.548
        14 -11.9845     81.2870      6.2742   6.4466864163e+01   6.3941144135e+01    0.4730361    0.2750374  44.33 0.0002118281    1.671    0.401
        15  -9.7511     34.9866     15.4708   9.0059121886e+01   7.1151663375e+01    0.3210475    0.2031886 -15.27 0.0008943467    2.002    0.500
        16 -10.5370     55.0562     13.2148   7.8459023297e+01   6.8371470418e+01    0.4150046    0.1695116 -39.42  0.001615547    2.299    0.565
        17 -10.1084     59.2835     10.1253   7.4790920277e+01   6.8061229403e+01    0.2558897    0.1729193  32.22 0.0009977168    1.546    0.353
        18 -10.7140    168.9786     13.3709   5.0295613710e+01   4.0552775606e+01    0.2884812    0.1838352  52.25 0.0006038764    1.579    0.367
        19 -10.5717    100.1159     12.9081   6.2546489387e+01   5.8698420385e+01    0.3365838    0.2215443  -6.14  0.001255754    1.715    0.417
        20 -10.4670     30.7751     12.9621   9.1154557503e+01   7.2173394271e+01    0.2108236    0.1681848 -26.03  0.000387644    1.121    0.108
        21 -10.2941    157.1033     11.8857   5.1309730519e+01   4.3882228181e+01    0.2322529    0.1861118 -59.01 0.0004946826    1.293    0.226
        22 -10.1692    138.1994     11.8691   5.4146761972e+01   4.8966731749e+01    0.3035137    0.1999493 -59.86 0.0008295799    1.761    0.432
        23 -10.5282    133.0332     11.4770   5.4866124459e+01   5.0387517331e+01    0.2875745    0.2018005   8.69 0.0008329981    1.656    0.396
        24 -11.5441    116.9006      8.9259   5.6805410132e+01   5.4903023555e+01    0.7259011    0.2850896 -38.24  0.002672297    2.571    0.611
        25 -10.0907     50.4787     11.3508   7.9531742366e+01   6.9475924917e+01    0.2630576    0.1778259  -3.61 0.0007602958    1.811    0.448
        26  -9.9108      5.5172     11.4636   1.0731514732e+02   7.4927868388e+01    0.2163238    0.1234056 -45.52 2.520779e-05    1.416    0.294
        27  -9.3617      6.4793      7.9859   1.0503386758e+02   7.5586771274e+01    0.2044378    0.1537723 -73.86  0.000582326    1.514    0.339
        28 -11.1391    235.7954      9.9462   4.3154446734e+01   2.4291189168e+01    0.3133901    0.1990731   2.91  0.001599026    1.976    0.494
        29  -9.4648     39.8746     10.8523   8.4705697701e+01   7.1279834206e+01    0.1649119    0.1486367 -50.67 0.0004571626    1.306    0.234
        30 -11.0686    127.3264      8.3840   5.4575375065e+01   5.2220405597e+01    0.3001234    0.2328566 -52.77 0.0001217022    1.394    0.283
        31 -10.7590    146.0630      6.6875   5.0887696382e+01   4.7361210239e+01    0.4969524    0.2800405 -26.55  0.002210803    1.750    0.429
        32  -9.3401     43.4389      7.9440   8.1028752628e+01   7.1202808250e+01    0.1722996    0.1063516 -56.15 0.0008021797    2.375    0.579
        33  -9.8403    228.9127      5.3576   4.2404497560e+01   2.6267977025e+01    0.1763695    0.1574816 -68.94 0.0004988376    1.106    0.096
        34 -10.9643    167.9288      2.2919   4.6571001143e+01   4.1864537245e+01     0.244706    0.2135764 -31.42 0.0002982894    1.145    0.127
        35 -10.3839    125.8892      2.2312   5.2168273037e+01   5.3184631085e+01    0.3347101    0.2004345 -59.95   0.00145079    2.045    0.511
        36  -9.4831     60.5593      5.5260   7.1495468555e+01   6.8461343262e+01      0.13414    0.1199515  -3.73 0.0003318817    1.012    0.012
        37  -9.5879    108.0106      8.9594   5.8731329838e+01   5.7181775539e+01    0.2320293    0.1595528  25.28 0.0007895184    1.598    0.374
        38 -10.3165     13.3236    222.0039   1.2891433782e+02   2.8865975517e+01    0.1500447    0.1153522  44.97 0.0007812952    1.275    0.216
        39 -10.1419    247.3414    250.0652   9.1391923855e+01  -3.3893107971e+00    0.2050799    0.1073313  16.54  0.001394871    1.530    0.347
        40 -10.5104    250.3988    245.5707   9.0365047823e+01  -3.4016277128e+00    0.3074407     0.111876 -23.65  0.001877634    3.007    0.667
        41  -9.8500     72.5173    250.0533   1.1981845147e+02   1.8462898673e+01    0.1526946    0.1409317   3.17   0.00135959    1.636    0.389
        42 -12.1034     74.5242    238.5275   1.1874064674e+02   1.9871250491e+01     0.380504     0.296262  83.96  0.003138599    1.422    0.297
        43 -13.1937      7.0127    244.4305   1.3060960773e+02   2.5918996569e+01    0.9659637    0.6003698  20.41    0.0067302    2.279    0.561
        44 -10.6369     21.9546    220.4944   1.2730019966e+02   2.8317502895e+01    0.1501683    0.1067147  68.07 0.0005571551    1.139    0.122
        45  -9.4120    250.5086    219.4331   8.6662105033e+01  -1.3050214655e+00    0.1058796   0.07233141  14.46 0.0001107688    1.030    0.029
        46 -11.5703    241.0273    211.8430   8.6914916412e+01   5.8558909644e-01    0.3372853    0.2155758  12.97  0.002416937    1.255    0.203
        47  -9.9092    174.2670    219.4645   9.8892107330e+01   9.0867354707e+00    0.2294105   0.08646391  35.57  0.001152119    2.135    0.532
        48 -11.8312     28.9608    248.3861   1.2710297864e+02   2.3309714966e+01    0.6985465    0.2314274  65.90  0.003991432    2.898    0.655
        49  -9.6932    248.8369    227.3703   8.8067712064e+01  -1.7679894062e+00    0.1476986   0.06752056  27.66  0.000831837    1.699    0.411
        50 -10.7996      9.7145    217.0341   1.2941158505e+02   3.0009791674e+01    0.2606398    0.1188825  53.54  0.001113447    1.517    0.341
        51  -9.6161     38.0320    217.4953   1.2418836299e+02   2.7224489399e+01    0.1526845   0.08231643  37.80 0.0006434259    1.539    0.350
        52 -10.5274     31.1687    215.6873   1.2539114020e+02   2.8224155577e+01    0.2324985    0.1525504  37.90  0.001580957    1.387    0.279
        53  -9.4470    201.5507    215.5485   9.3707434569e+01   5.6293350510e+00    0.1135242   0.08281456  20.74 0.0004127919    1.073    0.068
        54  -9.7554    194.5345    215.4799   9.4870651430e+01   6.6368615154e+00    0.1128972   0.08555324  24.40 -3.171379e-05    1.005    0.005
        55  -9.3260    136.9669    216.0000   1.0519764148e+02   1.4929212480e+01    0.1924769   0.05186792  38.61 0.0007953871    2.894    0.654
        56  -9.6240    170.2976    213.3430   9.8777076940e+01   1.0416023592e+01    0.1138972   0.07675742  11.61 0.0004618297    1.669    0.401
        57 -11.1349     21.4179    212.2894   1.2707913000e+02   2.9746109230e+01    0.3143449    0.1131696  49.32  0.001864388    1.908    0.476
        58 -10.1733    208.9931    212.0755   9.1976155949e+01   4.9487024440e+00    0.1700179    0.1258804  20.20 0.0004397861    1.028    0.027
        59  -9.2917     76.3511    212.2927   1.1647620264e+02   2.3726117276e+01   0.09941152   0.08333978   9.55 0.0007030098    1.676    0.403
        60  -9.4709      2.2875    212.3372   1.3063330091e+02   3.1437883660e+01    0.1377197   0.08379322  35.81 0.0005138858    1.531    0.347
        61 -11.8322      4.9335    207.9367   1.3002286031e+02   3.1969364372e+01    0.4638129    0.1958413  75.08  0.002900828    2.024    0.506
        62 -11.5263     18.7859    203.0031   1.2720667297e+02   3.1608318009e+01     0.283135    0.2185374  79.26  0.001081978    1.206    0.171
        63 -10.3376    175.2859    202.6924   9.6393015379e+01   1.1025472216e+01    0.1898377    0.1513106  41.65 0.0005444134    1.240    0.193
        64  -9.2390     68.0060    203.7691   1.1744774322e+02   2.6193748991e+01    0.1451435   0.07645693  38.68 0.0004608622    1.563    0.360
        65  -9.3120    242.6661    202.2796   8.5173186461e+01   1.2651058547e+00   0.09133442   0.08129954  31.02 0.0005870875    1.610    0.379
        66  -9.4741    223.5951    201.8031   8.8046646798e+01   3.9591525498e+00    0.1310416   0.09951104 -32.08 0.0005124912    1.673    0.402
        67 -10.0995     10.9648    208.3084   1.2890221489e+02   3.1384218230e+01    0.1539332    0.1273347 -69.98 0.0007004896    1.592    0.372
        68  -9.6233     34.4857    201.0899   1.2401589752e+02   3.0423607292e+01     0.138453   0.09329285 -87.63 0.0004796522    1.459    0.314
        69  -9.2865    227.1422    196.8653   8.6693484634e+01   3.9689589276e+00     0.163023     0.104898  13.74 0.0008533212    1.367    0.269
        70  -9.8022    124.0325    205.9705   1.0648571733e+02   1.8270840624e+01    0.1669593    0.1330996  41.36            0    1.008    0.008
        71 -10.2772    215.6489    194.6322   8.8181939274e+01   5.8888815316e+00     0.191173    0.1236432  -9.96 0.0006331219    1.597    0.374
        72  -9.4700    232.3201    191.2851   8.4962094317e+01   3.8085781817e+00    0.1171867   0.06977548  13.69 0.0002664639    1.592    0.372
        73  -9.5053    211.3884    188.7921   8.7927444747e+01   7.1970055467e+00    0.1606892   0.09861077 -13.70 0.0009469814    1.771    0.435
        74  -9.8856      1.7679    188.4290   1.3005173864e+02   3.5729368980e+01    0.1831837   0.09330524  72.79  0.001199722    1.568    0.362
        75  -9.4129     61.6363    184.8168   1.1719976059e+02   3.0399191830e+01    0.1592899   0.09789863  87.93 0.0009472129    1.728    0.421
        76 -11.3157     16.0214    182.7249   1.2688917938e+02   3.5599258388e+01    0.3772707    0.1553975  70.69  0.002052273    2.212    0.548
        77 -10.0073    167.4611    183.4908   9.4919614401e+01   1.4887300658e+01    0.1237917    0.1041413  30.16 0.0004192672    1.022    0.021
        78  -9.5004     58.4981    182.4530   1.1768066954e+02   3.1225777920e+01    0.1163835   0.09548701  59.59 0.0002567504    1.034    0.033
        79  -9.7297      2.0173    180.2997   1.2973786911e+02   3.7241431684e+01    0.1502861    0.1057153  57.12 0.0004936598    1.104    0.095
        80  -9.8924    244.2456    178.3731   8.0916012130e+01   3.4275301198e+00    0.2060678    0.1161076 -11.20  0.001012282    1.741    0.426
        81 -10.7777    224.2191    178.4107   8.4039733065e+01   6.4237295899e+00    0.2033779    0.1758559   7.98 0.0004620812    1.183    0.155
        82  -9.6073     70.0853    177.8490   1.1468231387e+02   3.0674959373e+01    0.1606898    0.1419686 -13.52 0.0006166123    1.622    0.383
        83  -9.2972     36.4430    178.4576   1.2223215414e+02   3.4460721135e+01     0.113924   0.08979413  64.65 0.0001830575    1.011    0.011
        84  -9.9718     46.6083    177.0595   1.1987151533e+02   3.3643093132e+01    0.2138961    0.1576785  35.21  0.001118278    1.388    0.279
        85  -9.9254    200.5332    176.2594   8.7642316574e+01   1.0446838786e+01    0.1635736    0.1077505 -13.77 0.0009450281    1.654    0.395
        86 -11.1544     18.1965    172.9803   1.2594200943e+02   3.7305125125e+01    0.5221581    0.1483649  58.10  0.002300787    3.145    0.682
        87 -10.8815     12.9658    171.0229   1.2700475426e+02   3.8152254750e+01    0.3137738    0.1281526  85.51  0.001361368    2.299    0.565
        88  -9.4387     75.2344    170.7715   1.1276460049e+02   3.1378952115e+01    0.1539679    0.1448644  -8.57    0.0010567    1.412    0.292
        89 -11.4841     50.3689    165.5573   1.1803633781e+02   3.5524497682e+01    0.5519308    0.2766605 -57.59 6.460331e-05    2.224    0.550
        90 -11.3861     44.4003    162.2466   1.1915856999e+02   3.6878384651e+01     0.864753    0.4191783 -47.03  0.004116161    3.084    0.676
        91 -11.5001     36.1311    162.8625   1.2117694860e+02   3.7632608305e+01    0.5077987    0.3383097  75.21    0.0024646    1.321    0.243
        92 -11.8514     36.9335    157.8516   1.2058585292e+02   3.8595252455e+01    0.2226462    0.1714157  73.72  0.000275244    1.087    0.080
        93  -8.8829     59.6844    167.6871   1.1605001116e+02   3.3985984492e+01    0.1087863   0.09403639 -29.19 0.0003134294    1.641    0.391
        94  -9.2767    210.0216    166.0000   8.4147693710e+01   1.0194513379e+01    0.1963098   0.06301033  43.57 0.0007564066    2.876    0.652
        95  -9.7170     67.0551    165.0477   1.1404219553e+02   3.3595754356e+01    0.2055412    0.1214098  62.07  0.001030948    1.660    0.398
        96  -9.3516    200.4410    162.5663   8.5169368219e+01   1.2263210759e+01    0.1248859    0.1076326  17.41 0.0002486176    1.048    0.046
        97 -10.1336    247.4801    158.4753   7.6779585147e+01   5.0648949519e+00    0.1176436   0.09535482   2.64 5.927043e-05    1.068    0.064
        98  -9.4990    237.9930    158.6912   7.8241745545e+01   6.5211591474e+00    0.1971149   0.07008845  28.81 0.0007030327    4.139    0.758
        99 -11.2799     22.3876    156.3446   1.2399767070e+02   4.0328511270e+01    0.4167849    0.3097415  45.90   0.00287597    1.262    0.208
       100  -8.8235    151.6648    153.3263   9.2888902065e+01   2.2374628809e+01    0.1326249    0.1042804  74.94  0.000705155    1.719    0.418
       101 -10.3724     12.2200    153.1991   1.2626323858e+02   4.1869978356e+01    0.2479772    0.1579601  20.81  0.001123176    1.938    0.484
       102 -10.4002    178.1446    151.4491   8.7158053106e+01   1.7830399592e+01    0.2378856    0.2212734  50.76  0.000955997    1.238    0.192
       103  -9.0455    147.6654    156.3259   9.4289253421e+01   2.2580262540e+01    0.1324264     0.102577  73.12 0.0007051414    1.716    0.417
       104 -10.3046     17.7987    146.5471   1.2448225037e+02   4.2822883622e+01     0.248574    0.1830672 -23.86  0.000891885    2.139    0.533
       105  -9.9309    207.0139    146.2921   8.0824713911e+01   1.3314856564e+01    0.1816361    0.1524688  26.67 0.0006590384    1.108    0.098
       106 -11.4828     10.3677    145.6206   1.2629289199e+02   4.3632908040e+01    0.4272124    0.1479107  36.68  0.002162569    2.435    0.589
       107 -10.5670     22.6628    144.2819   1.2308573197e+02   4.2888540354e+01    0.1743143    0.1311215  87.21 0.0002787791    1.136    0.120
       108 -10.3990     19.7992    141.3864   1.2361205560e+02   4.3774343419e+01    0.2864768    0.1373118  87.32 0.0006109404    1.953    0.488
       109 -10.7274     15.8350    139.8219   1.2453281857e+02   4.4452968758e+01    0.2727962    0.1649133   8.01  0.001520952    2.500    0.600
       110  -9.4946     50.1870    141.2144   1.1560353135e+02   4.0732539536e+01    0.2023254    0.1232319 -32.71 0.0009534628    2.837    0.647
       111  -9.2201    239.9897    140.7789   7.4389594706e+01   8.2771624307e+00    0.1514776    0.0939727  41.03 0.0004719709    1.619    0.382
       112 -10.2689     55.4696    136.4528   1.1361649202e+02   4.1160243603e+01    0.2380884    0.1311889  74.53 8.182633e-06    2.155    0.536
       113  -9.7027     53.3564    132.8827   1.1373831641e+02   4.2218387003e+01    0.1984329     0.116509 -68.88  0.001042793    1.617    0.381
       114 -11.2954      9.1226    136.8294   1.2609354132e+02   4.5641607143e+01    0.2035557    0.1520659 -89.68 0.0002850529    1.136    0.120
       115 -11.4474      3.4876    135.7878   1.2750779108e+02   4.6281011653e+01      0.46782    0.2032741 -56.77  0.002406402    2.579    0.612
       116 -10.3751     21.0808    135.6400   1.2283839169e+02   4.4934478954e+01    0.2235401    0.1515386 -77.13 0.0007201663    1.331    0.249
       117  -9.3551    137.8467    135.3870   9.2429388968e+01   2.8165036717e+01    0.2041996    0.1244855  33.33 0.0009464942    1.717    0.418
       118  -9.2821    122.5501    135.4866   9.6049065285e+01   3.0990933819e+01    0.1368985    0.1295518  46.07 6.676133e-05    1.023    0.022
       119  -9.3628    250.0067    134.2323   7.1591347342e+01   7.3761236144e+00    0.1497965   0.09574666  41.45 0.0008758218    1.623    0.384
       120 -10.0803    106.9751    133.2337   9.9468991487e+01   3.4213145042e+01    0.2259608    0.2052429 -59.32  0.000974673    1.153    0.133
       121 -11.7705     37.6540    130.5097   1.1781694556e+02   4.4515918968e+01      0.37745    0.2617578 -82.70  0.001411066    1.300    0.231
       122 -10.9373     33.1880    125.8515   1.1857568674e+02   4.6031760989e+01    0.2279432    0.1791995  72.75 0.0003218404    1.119    0.106
       123  -9.0419    227.3053    131.7226   7.4424481820e+01   1.1586966099e+01    0.1127765    0.1015798 -56.73 0.0002492551    1.549    0.354
       124 -10.5661     73.9076    129.3969   1.0756116595e+02   4.0292642442e+01    0.2386072      0.18674 -62.46 0.0006868343    1.282    0.220
       125  -8.9489    243.2735    128.6268   7.1371149159e+01   9.1625681569e+00    0.1191773   0.09089939 -44.99 0.0004795532    1.684    0.406
       126 -11.5375     11.1561    122.8894   1.2460106273e+02   4.8610151031e+01    0.6249985     0.218113  55.84  0.002787455    2.784    0.641
       127 -11.5398     23.5100    106.8365   1.1938575339e+02   5.1360997483e+01    0.3635843    0.2202218  60.07   0.00129625    1.632    0.387
       128 -12.6030     15.5526    109.3924   1.2215524972e+02   5.1399902192e+01    0.5354741    0.4502928  68.17 0.0009073192    1.122    0.108
       129  -9.0736      6.6808    126.3002   1.2609303261e+02   4.8162480933e+01    0.1249993   0.06821882  62.13 0.0007023135    1.621    0.383
       130 -11.1572      2.3841    123.2129   1.2709759022e+02   4.9149684614e+01     0.536938    0.1609248 -72.24  0.002231167    2.691    0.628
       131  -9.7348     81.9985    124.9856   1.0458176115e+02   4.0077799346e+01     0.162411    0.1494154  80.92 0.0003896908    1.012    0.012
       132  -9.6205    225.6744    124.2891   7.3060035608e+01   1.2841139728e+01    0.1185825    0.1029516 -60.02 0.0004805195    1.612    0.380
       133  -9.6809    219.5538    124.4968   7.4072600415e+01   1.3954949756e+01    0.1320651    0.1151432  -0.76 0.0001672748    1.015    0.015
       134  -9.7492     20.8092    121.4100   1.2170212898e+02   4.8184597449e+01    0.1517977    0.1181912   0.00 0.0009446165    1.796    0.443
       135  -9.0299     64.6763    120.2523   1.0869292545e+02   4.3652495489e+01    0.1353774   0.09201697  64.72 0.0002927586    1.542    0.351
       136  -9.7696     32.7235    119.0021   1.1795068961e+02   4.7661211036e+01    0.1754042    0.1393247 -84.98 0.0003979982    1.098    0.090
       137  -9.9784    249.5239    118.4966   6.8317249541e+01   9.2817862999e+00    0.1259438     0.104466  -7.48 5.332224e-05    1.023    0.022
       138  -9.6323    220.4409    116.9626   7.2232745703e+01   1.4795214112e+01    0.1981303    0.1195923 -28.94 0.0004803872    1.546    0.353
       139 -10.3334     51.1052    116.3711   1.1210020721e+02   4.6282916631e+01    0.3087556    0.1593544 -62.75  0.000845037    1.786    0.440
       140  -9.5795    166.3698    115.7561   8.1774701762e+01   2.5993122277e+01    0.1912349    0.1339329 -26.46 0.0003681609    1.526    0.345
       141  -9.2870    214.1921    115.5902   7.2916570806e+01   1.6196937372e+01    0.1832837    0.1165724  35.02 0.0005190871    1.593    0.372
       142  -9.9850     35.0699    114.3146   1.1668093294e+02   4.8525900821e+01    0.2028874    0.1659886  89.62 0.0005089633    1.059    0.055
       143 -12.0773     35.3714    108.2617   1.1579900939e+02   4.9924251844e+01    0.4839206    0.2618563  72.02  0.001480498    2.120    0.528
       144 -10.9585    249.0378    111.8529   6.6923722926e+01   1.0149544203e+01    0.2274149    0.1600546 -21.58 0.0006547231    1.225    0.184
       145  -8.7928    212.6541    112.6925   7.2491048549e+01   1.6903445991e+01    0.1435433   0.09695988  14.89 0.0006431926    1.699    0.411
       146  -9.9739     86.3534    116.7568   1.0182270340e+02   4.1231375079e+01     0.192823    0.1226186 -50.23 0.0004942362    1.617    0.381
       147 -10.1883     55.6517    109.8859   1.0968450633e+02   4.7244198112e+01    0.3182538    0.1866855   5.00   0.00129348    3.381    0.704
       148 -11.6570     17.1369    115.6444   1.2225655379e+02   4.9818194718e+01    0.4718683    0.2340074 -60.80  0.002168852    1.903    0.475
       149 -10.9668      6.1727    105.8365   1.2476885803e+02   5.2890613830e+01    0.3615134    0.2211099 -70.74  0.001722845    1.417    0.294
       150 -10.7199      2.4418    105.7365   1.2592688165e+02   5.3146478431e+01     0.244735    0.1479938 -75.45 0.0004936064    1.386    0.278
       151 -12.4964      2.7834    100.4808   1.2541841936e+02   5.4351971806e+01    0.2521332    0.2114625  71.95 0.0003874297    1.122    0.108
       152 -11.2711      1.4748     96.0066   1.2548870380e+02   5.5476896509e+01    0.3778179    0.1589407 -81.98 0.0008249589    1.961    0.490
       153 -10.6508     62.4506    106.8071   1.0702821855e+02   4.7076771518e+01    0.2495546    0.2046714 -30.05 0.0006745061    1.526    0.345
       154 -11.0359    243.4300    104.7416   6.6075129360e+01   1.2016192338e+01    0.2396144    0.1508934 -10.15 0.0006796311    1.574    0.365
       155 -10.9698    247.6065    102.2558   6.4954257956e+01   1.1548598158e+01    0.2206461    0.1810578  43.35  0.001012167    1.361    0.265
       156  -9.8662    223.1875    104.0772   6.8802559808e+01   1.5981037445e+01    0.2041344    0.1646468   0.85 0.0004812419    1.188    0.158
       157 -10.6641     36.4487    101.5917   1.1450554395e+02   5.1403402027e+01    0.4346028    0.1818348  42.04  0.001965085    2.366    0.577
       158  -9.4547    119.4979    101.5018   8.9219862535e+01   3.8494981974e+01     0.145663    0.1414869   6.62 0.0008092898    1.084    0.078
       159  -9.9479    146.1143     99.4660   8.2112255359e+01   3.3271144203e+01    0.3480286    0.2386753   2.88  0.001453998    2.285    0.562
       160 -10.0137     91.4901    100.5306   9.6826357053e+01   4.4005338753e+01    0.1411437    0.1364086 -81.70  0.000809696    1.024    0.023
       161 -10.9084     62.1462     98.7806   1.0557578453e+02   4.9005251427e+01    0.3346696    0.2827968  30.44 0.0009692296    1.325    0.245
       162 -10.6538     66.7319     97.8418   1.0389760208e+02   4.8580421181e+01    0.3617268    0.1765698 -56.34  0.001591998    1.905    0.475
       163  -9.1755     50.5756     99.4601   1.0949386054e+02   5.0340278081e+01    0.1330004    0.1184797 -79.11 7.115431e-05    1.023    0.022
       164 -11.4889     20.0010     96.9326   1.1936722186e+02   5.4005707808e+01    0.3851358    0.2180085 -86.34  0.002047956    1.612    0.380
       165 -10.7767     94.7657     91.3384   9.3564217075e+01   4.5460066923e+01    0.5057943     0.333231   0.51  0.001921856    3.146    0.682
       166  -9.9849     40.9454     96.8892   1.1226375730e+02   5.2058201625e+01    0.1951209     0.164643 -51.54 0.0004828815    1.251    0.200
       167 -10.2910     14.0692     96.8623   1.2135937842e+02   5.4470411208e+01    0.1953143    0.1466408  73.72  0.001035941    1.223    0.182
       168  -9.6980    249.7541     95.5727   6.3146648783e+01   1.1949245137e+01    0.1443759    0.1281997  69.81 0.0003114694    1.475    0.322
       169 -10.1946     31.5237     93.5364   1.1495209218e+02   5.3818695595e+01    0.3462445    0.1465327 -80.74   0.00134025    2.551    0.608
       170 -11.2832     25.5853     91.6507   1.1674328037e+02   5.4810217012e+01    0.2575208    0.2397451 -13.68 0.0003041411    1.331    0.249
       171 -10.6662     22.9369     86.7932   1.1698232291e+02   5.6203284828e+01    0.2781318     0.187423 -65.51 0.0008962353    1.287    0.223
       172 -11.0907    104.0030     91.9261   9.0996637298e+01   4.3586501020e+01    0.2672823    0.2153804 -45.93  0.000323848    1.236    0.191
       173 -11.4209     10.2860     90.7929   1.2199716804e+02   5.6176576132e+01    0.2759693    0.2264742  38.07 0.0008838972    1.372    0.271
       174 -10.3382      4.6250     86.3947   1.2353645158e+02   5.7572475802e+01    0.3467152    0.2197325  85.48  0.002055289    1.384    0.277
       175 -10.4949     14.8497     83.3466   1.1946255602e+02   5.7650709102e+01    0.3797022    0.1599906 -57.95  0.001091331    2.045    0.511
       176 -12.4495     21.2183     77.8706   1.1625087595e+02   5.8494390963e+01     0.551648    0.2973401 -65.89 0.0002814365    1.543    0.352
       177 -12.0609     13.6001     77.2911   1.1910684343e+02   5.9193975443e+01    0.5305672    0.2497718 -46.99  0.002193169    2.205    0.546
       178 -12.0567      5.6392     75.7982   1.2199354227e+02   6.0045338485e+01    0.7507952    0.3998146 -51.84  0.002768193    1.797    0.443
       179 -11.0247    158.0131     90.2170   7.6952956902e+01   3.2283904124e+01    0.2815934    0.2155196 -33.20  0.001393023    1.304    0.233
       180  -9.0722     21.2882     91.3543   1.1821077468e+02   5.5239720286e+01    0.1303957   0.08155586 -49.04 0.0003969838    1.674    0.402
       181 -10.9538     46.4409     84.3578   1.0800178402e+02   5.4444773833e+01    0.8205962    0.4601882  63.99  0.003665635    2.373    0.579
       182 -10.1917     39.3989     79.8965   1.0968049601e+02   5.6308939383e+01    0.2552308    0.1651192 -46.86     0.001344    1.564    0.361
       183  -8.9908    139.2968     87.7017   8.0489793080e+01   3.6991798135e+01    0.1483117     0.119542 -79.91 0.0006990613    1.572    0.364
       184 -10.4740    112.4663     86.5149   8.7104026090e+01   4.3036073955e+01    0.3056085    0.2142069 -66.38  0.001354419    1.748    0.428
       185 -10.8117     67.1644     84.9912   1.0083263956e+02   5.1523052510e+01    0.3547279    0.2243117 -35.36  0.001529175    1.963    0.490
       186 -10.5752    167.5865     84.5031   7.3366891087e+01   3.1050155425e+01    0.4068751    0.2746152  83.88  0.001690619    2.340    0.573
       187 -10.2157     29.9482     82.4064   1.1369868213e+02   5.6649315965e+01    0.3427428    0.1585963 -63.91  0.001620942    1.813    0.448
       188 -10.3029    117.9540     82.8835   8.4543759500e+01   4.2626968790e+01     0.273408    0.2142176 -41.19   0.00131193    1.271    0.213
       189  -8.9483     56.2782     83.7086   1.0432885656e+02   5.3364214599e+01     0.134612    0.1007433  77.85 0.0002905586    1.525    0.344
       190  -9.1318     95.7072     80.6893   9.0350158273e+01   4.7609978820e+01    0.1445714     0.116589 -11.51 0.0002864169    1.588    0.370
       191 -10.2890     70.9409     79.3467   9.8088469381e+01   5.2249400046e+01    0.2209083    0.1694071  62.30 0.0009271408    1.470    0.320
       192 -10.6811     92.2489     77.1087   9.0380719773e+01   4.9043136040e+01    0.3428437    0.2702561  73.29  0.001714751    1.528    0.346
       193 -11.9149     58.4068     74.9283   1.0141083184e+02   5.5140020218e+01     0.613705      0.37526  66.42  0.002018356    2.340    0.573
       194 -11.5564     62.0453     72.1357   9.9316335224e+01   5.5266601347e+01    0.4635106    0.3524473 -47.16  0.001356161    1.259    0.206
       195  -9.4929    150.7841     77.3769   7.4820718221e+01   3.6217600452e+01    0.2104546    0.1370277  42.15 0.0004004854    1.589    0.371
       196  -9.6320    122.0243     76.0621   8.1392432035e+01   4.3094125297e+01    0.2368417    0.1870616 -85.72 0.0008370256    1.639    0.390
       197 -12.4479     44.6300     75.2485   1.0668520264e+02   5.6834510980e+01    0.2757195    0.2349272  54.40 0.0004021236    1.261    0.207
       198 -10.9219     37.5218     69.7847   1.0822281625e+02   5.8932290057e+01    0.6472065    0.3831743  64.74   0.00305296    2.249    0.555
       199 -10.1132     28.0059     68.0198   1.1172180350e+02   6.0291943288e+01    0.1947235    0.1570466 -51.36 -0.007547014    1.186    0.157
       200 -10.7573     31.0262     65.6241   1.0994509991e+02   6.0583375047e+01    0.3697989    0.1830903 -66.14  0.001293731    1.760    0.432
       201  -9.6135     32.8972     75.8433   1.1135176009e+02   5.7951311324e+01    0.1691226    0.1378612  73.45            0    1.275    0.216
       202 -10.2104    138.9688     74.8768   7.6763010472e+01   3.9445171103e+01    0.2550794    0.2163095 -35.26 0.0004114952    1.171    0.146
       203  -9.8707    145.4461     73.6975   7.4895048703e+01   3.8129104145e+01     0.288303    0.1429453 -39.80  0.001122374    1.979    0.495
       204 -10.5894    102.8140     73.0552   8.5883370122e+01   4.7814766617e+01    0.2639285    0.2139926  47.34 0.0008017689    1.264    0.209
       205  -9.8365    150.4925     72.4242   7.3378903377e+01   3.7146156145e+01    0.1482675    0.1477889 -19.19   4.9528e-05    1.024    0.023
       206 -10.3748    128.9208     71.7308   7.8242734613e+01   4.2360162310e+01    0.2579315    0.2108014 -47.25 0.0001716358    1.233    0.189
       207 -11.4462     77.3499     71.2587   9.3568797974e+01   5.3022393445e+01    0.5327595    0.3767537  72.82  0.001370358    1.942    0.485
       208 -10.7487     77.1561     63.8265   9.1309421977e+01   5.4688403364e+01    0.3973963     0.292939 -48.69  0.001179691    1.279    0.218
       209 -10.5299     86.4023     57.6782   8.5995019235e+01   5.4271308241e+01    0.4069402    0.2494208 -38.92  0.001844438    1.613    0.380
       210 -11.3528     87.1008     52.3480   8.3816678382e+01   5.5207775565e+01    0.3499538    0.2703654 -64.16  0.000596288    1.508    0.337
       211 -10.0867    116.6473     71.3354   8.1358376612e+01   4.5208871180e+01    0.2883265    0.1855951  45.60 0.0006921457    1.579    0.367
       212 -12.2855     94.3052     68.3969   8.7026890453e+01   5.0499874211e+01    0.4095767    0.2816994 -38.70 0.0004443465    1.461    0.315
       213 -10.9158    103.0797     68.1488   8.4230565630e+01   4.8764400881e+01    0.3497198    0.2748978  57.62  0.001000708    1.367    0.268
       214 -10.2867     99.7278     65.1064   8.4243498698e+01   5.0078488859e+01    0.3075996    0.2257486 -25.70  0.001336662    1.555    0.357
       215 -10.2095     68.7528     67.7416   9.5575164505e+01   5.5237407562e+01    0.4474193    0.1729237 -49.55  0.001532714    2.379    0.580
       216 -11.4292     50.8348     67.8051   1.0241665070e+02   5.7826831273e+01    0.4863555     0.267406 -38.20  0.001636842    2.130    0.531
       217 -10.6884     51.1747     63.1232   1.0097972709e+02   5.8870042121e+01    0.5522974    0.2577817 -38.00  0.002173107    2.729    0.634
       218 -10.2733     87.9927     83.4233   9.3536641449e+01   4.8444227488e+01    0.2444976    0.1914581 -68.82 0.0002337234    1.359    0.264
       219 -10.3079    140.3070     68.9948   7.4601890579e+01   4.0183428593e+01    0.2138445    0.1957259 -24.24 0.0003480897    1.097    0.089
       220  -9.8733    123.0487     68.4348   7.8697184438e+01   4.4326910512e+01    0.2383595    0.1903971 -39.50 0.0006550372    1.235    0.190
       221 -10.3401     17.1631     59.3810   1.1460781474e+02   6.3246146467e+01    0.3955968    0.1985775  60.91  0.001791622    2.715    0.632
       222 -11.8346     16.5243     67.9023   1.1646727435e+02   6.1250110882e+01    0.2732741    0.2108523 -75.29  6.71318e-05    1.096    0.087
       223 -11.4494     21.3334     65.8391   1.1407232181e+02   6.1382625600e+01    0.4153826    0.3369834  41.85  0.002630618    1.388    0.280
       224  -9.7285    146.2792     67.8144   7.2865406119e+01   3.8953099996e+01    0.3347852    0.1943596 -25.67  0.001363247    1.921    0.480
       225 -12.4681      4.1815     65.0804   1.2120538891e+02   6.2688412015e+01    0.4145904    0.2683907  66.00 0.0005422183    1.633    0.388
       226  -9.3209    155.7276     66.2683   7.0348115845e+01   3.6910346462e+01    0.1455813    0.1169185 -68.16            0    1.476    0.322
       227  -9.8074     83.9717     72.3287   9.1636366191e+01   5.1617569921e+01    0.1906005    0.1818381  45.14 0.0002919266    1.098    0.090
       228 -10.9420     84.1270     61.3985   8.8064809791e+01   5.3935360372e+01    0.4832701    0.2574135  47.96  0.002053926    2.018    0.505
       229  -9.5015    120.3118     65.0100   7.8290749251e+01   4.5596732753e+01    0.2143418    0.1941041 -35.07 0.0004090415    1.091    0.083
       230  -9.1437    216.1896     64.3819   5.9717291627e+01   2.2714199520e+01    0.1854147    0.1359006  82.01 0.0009417976    1.718    0.418
       231  -9.5868     41.5088     64.0656   1.0519383829e+02   5.9846980190e+01    0.1786628    0.1745408  60.38 0.0004570662    1.139    0.122
       232 -10.9341     10.9554     62.5824   1.1792629309e+02   6.2899527609e+01    0.2146312    0.1645788 -79.31 0.0003346608    1.119    0.106
       233  -9.9163    201.1418     62.0468   6.1163653579e+01   2.6491471017e+01    0.2099416    0.1832758   6.47 0.0003086196    1.196    0.164
       234  -9.5896    140.8518     62.1245   7.2243177307e+01   4.1244346866e+01    0.2320167    0.1980188 -61.07 0.0004201265    1.280    0.219
       235 -11.4875     62.7724     60.4157   9.5555589825e+01   5.7820130184e+01    0.7049876    0.3294129  25.10  0.002612459    3.270    0.694
       236 -10.7859     57.7070     59.1316   9.7145548373e+01   5.8869635380e+01    0.3483521    0.2511078  36.26  0.001848453    1.514    0.340
       237 -10.8434     45.5039     49.7610   9.9257141841e+01   6.2655079488e+01    0.4112006    0.2149423 -51.52  0.001509926    1.674    0.403
       238 -11.3353     29.6105     60.8248   1.0943868917e+02   6.1860821712e+01    0.6251923    0.2571959  15.59  0.002472701    3.636    0.725
       239 -12.7800     37.3398     50.9600   1.0332315586e+02   6.3368415738e+01    0.8067608    0.6520308 -16.52  0.004173917    1.430    0.301
       240 -10.5607     99.7595     55.5896   8.0907331872e+01   5.1953701341e+01    0.3528518    0.2211468  50.28  0.001125587    1.660    0.398
       241  -9.9956     47.4916     58.0444   1.0100883241e+02   6.0520059200e+01    0.3206679    0.1813376 -74.89  0.001223265    2.323    0.570
       242 -10.1188     43.9581     57.0379   1.0221207605e+02   6.1194258571e+01    0.2023425    0.1791297 -56.15 0.0003302627    1.004    0.003
       243 -10.9202      5.5625     58.3781   1.1961406425e+02   6.4215621628e+01    0.2909438    0.1652849 -73.36  0.001622114    1.431    0.301
       244 -11.1777      5.2848     51.9499   1.1866296780e+02   6.5757943323e+01     0.333306    0.2444939 -61.59 0.0008748203    1.136    0.119
       245 -10.7498    103.5979     57.2318   8.0330767092e+01   5.0809545512e+01    0.5486529    0.2561519 -31.36  0.001981975    2.558    0.609
       246 -10.4425    147.0050     57.0065   6.9177565506e+01   4.0575540265e+01    0.2264384    0.2171202 -44.63  0.001220211    1.047    0.045
       247 -10.7957    130.3711     55.6143   7.2494915144e+01   4.4907084108e+01     0.463971    0.2646597  38.10  0.001456984    2.018    0.504
       248 -10.4959    122.9970     56.3213   7.4592026875e+01   4.6554448788e+01    0.2780783    0.2142032 -46.07  0.000423496    1.314    0.239
       249 -13.0017    128.5364     50.4628   7.1105850925e+01   4.6222398836e+01    0.4394609    0.3502058   7.52  0.002121931    1.493    0.330
       250 -10.1928     75.4061     55.8629   8.9236354637e+01   5.6702289506e+01    0.2203262    0.2037457  32.32  0.000369183    1.149    0.130
       251 -10.2110     61.5899     54.1997   9.3959537979e+01   5.9375959700e+01    0.2528751    0.2303212  70.79 0.0009211454    1.241    0.194
       252 -11.0351     12.5040     51.6291   1.1516738690e+02   6.5410131822e+01    0.2595333    0.2285621  77.73 0.0008285342    1.218    0.179
       253  -9.2116    109.3164     52.3153   7.6859182397e+01   5.0454608394e+01    0.1537092    0.1180981  10.55  0.000393151    1.648    0.393
       254 -11.0329     69.9270     50.4430   8.9332780211e+01   5.8803757300e+01    0.4238659    0.3241804  89.76  0.001825138    1.866    0.464
       255 -11.3824    103.4345     48.3928   7.7096084017e+01   5.2493351175e+01    0.5589285    0.4113638 -40.94  0.002733476    1.328    0.247
       256 -10.9466     77.9501     48.7287   8.5671181910e+01   5.7703487482e+01    0.4803426    0.2525514 -29.72  0.001882892    2.438    0.590
       257 -10.8026     82.1850     46.8490   8.3415790060e+01   5.7261199807e+01     0.205918    0.1801904 -37.37  0.000458697    1.086    0.079
       258  -9.7762    220.7261     48.9708   5.4978957210e+01   2.3593940120e+01     0.193306    0.1604013 -28.37            0    1.091    0.084
       259  -9.3635    166.7522     49.3241   6.2794303215e+01   3.6745716816e+01    0.2038803    0.1320796  52.15 0.0003510637    1.549    0.354
       260 -11.6164    151.5819     48.0315   6.5188195439e+01   4.0813387998e+01    0.7433957    0.3658199  49.09  0.002191818    2.037    0.509
       261 -10.5267     95.0372     48.6346   7.9783543097e+01   5.4285287357e+01    0.3478061    0.2088388 -26.78  0.001474071    1.929    0.482
       262 -10.2847    120.1902     47.4350   7.2077574793e+01   4.8757029087e+01    0.2476358    0.2039906 -32.72 0.0003374398    1.197    0.165
       263  -9.8924      4.5281     46.9994   1.1812107566e+02   6.6966297263e+01    0.2917718    0.1307082 -50.15  0.001390998    1.921    0.479
       264 -10.2259      6.9836     41.3819   1.1570330015e+02   6.8151634033e+01    0.3358601    0.1269959 -64.44   0.00101007    2.003    0.501
       265 -10.1022    142.8286     45.8833   6.6222564707e+01   4.3371240870e+01    0.2796808    0.2308367 -63.41 0.0007561425    1.349    0.259
       266  -9.7406     86.2009     45.6203   8.1528335143e+01   5.6695412128e+01    0.2027947    0.1753533 -44.54 0.0005647185    1.131    0.116
       267  -9.9923     51.2614     45.0040   9.5030490624e+01   6.2919120859e+01    0.3458093    0.2073119  55.12  0.001589054    2.294    0.564
       268 -10.7049     52.2228     40.8094   9.3002361158e+01   6.3672528960e+01    0.4512618    0.3211124 -86.63  0.002153584    2.257    0.557
       269  -9.1607    233.4153     45.5315   5.2679886923e+01   2.1154984029e+01    0.1334337    0.1182428 -21.26 0.0001306279    1.054    0.051
       270  -9.9649    185.8460     44.8333   5.8306817879e+01   3.2507561897e+01    0.2016674    0.1633063 -57.37 0.0002452329    1.298    0.230
       271  -8.9925    167.4700     44.4559   6.1074610713e+01   3.7242451624e+01    0.1474956    0.1447912 -32.61 0.0008082543    1.002    0.002
       272 -10.9361     89.5884     39.7645   7.7989560691e+01   5.7070778530e+01    0.7065571    0.2876463 -51.36  0.002293474    3.455    0.711
       273  -9.6729     80.3396     26.1837   7.5081227855e+01   6.1346263112e+01    0.4076668    0.1648196 -50.65  0.001291683    3.894    0.743
       274 -12.1513     81.6144     36.7180   7.9431489635e+01   5.9276885214e+01    0.5959668    0.5283964  88.66  0.001504937    1.385    0.278
       275 -10.9976     11.6688     44.2614   1.1394381961e+02   6.7197271392e+01     0.458364    0.2152327 -51.21   0.00152638    1.781    0.439
       276 -10.0135    110.5286     41.7285   7.2448242423e+01   5.2017115181e+01    0.2558756    0.2085512 -60.89 0.0002872941    1.399    0.285
       277 -10.8224     96.9591     40.9778   7.6122883173e+01   5.5255411722e+01     0.314394    0.2420234  47.83 0.0008558169    1.329    0.248
       278 -11.2376     68.4844     38.9917   8.5363166795e+01   6.1370447579e+01    0.6340963    0.3666095 -13.69  0.002267101    3.518    0.716
       279 -10.8740     34.2477     34.2157   9.9077248446e+01   6.7452894192e+01    0.5427988    0.1806532  39.79  0.002104535    3.484    0.713
       280 -10.5414     23.4277     41.2251   1.0709642589e+02   6.6999414151e+01    0.2570936    0.1991607  36.27 0.0009981268    1.498    0.333
       281 -11.0483     19.9635     38.0121   1.0792666837e+02   6.8029662700e+01    0.2974665    0.2235569 -40.83  0.001331879    1.242    0.195
       282 -12.0293     27.6246     37.8669   1.0384637641e+02   6.7363331673e+01    0.4280089    0.2787901 -69.90  0.001785935    1.581    0.368
       283 -12.3338     24.1203     35.2108   1.0479284977e+02   6.8294075614e+01    0.3278609    0.2390802  -6.05 0.0003336783    1.648    0.393
       284  -9.7264    172.7800     41.5579   5.9254390357e+01   3.6264767496e+01    0.1930137    0.1450136  85.11 0.0003039644    1.517    0.341
       285 -10.1388     42.5582     39.3126   9.6901130380e+01   6.5333793024e+01     0.527293    0.3410515 -50.90  0.001583321    1.366    0.268
       286  -9.5815    226.4457     40.4398   5.2045161940e+01   2.3281084594e+01    0.1351131    0.1213032 -32.60 0.0001351296    1.002    0.002
       287  -9.6803    215.7128     40.5625   5.3229829557e+01   2.5742034712e+01    0.1697577    0.1343923 -87.37 0.0003704643    1.430    0.301
       288 -10.3831     78.8374     30.9064   7.7834652520e+01   6.0867102723e+01    0.3962327    0.2813067  15.08    0.0016878    1.789    0.441
       289 -10.0123     61.8709     37.8231   8.7580877752e+01   6.2753460503e+01    0.1977367    0.1726852 -21.16 0.0002960847    1.131    0.116
       290  -9.2200    199.6394     37.7318   5.4299602073e+01   2.9946634410e+01    0.1466308    0.1035009  33.22 0.0006668051    1.645    0.392
       291 -10.8177    101.7953     36.8698   7.2951262173e+01   5.4859920686e+01    0.2891953    0.2242903  30.92 0.0007215478    1.387    0.279
       292 -10.4733    105.1220     34.1389   7.0840807437e+01   5.4524499062e+01    0.3091797    0.2317177 -71.45 0.0006632311    1.782    0.439
       293 -10.4923     96.0430     36.3239   7.4459576909e+01   5.6257706968e+01    0.3968195    0.2350975 -57.62     0.001112    2.348    0.574
       294 -10.9029     97.9564     31.7921   7.1913964979e+01   5.6564763774e+01    0.3451759    0.2500882  26.99  0.000730096    1.569    0.363
       295 -11.0375    101.0903     28.6337   6.9600007344e+01   5.6325133618e+01     0.282403     0.249977 -51.92 0.0003717747    1.218    0.179
       296 -10.7392     10.1564     25.3034   1.0945404245e+02   7.1624053401e+01    0.2959533    0.2275594 -27.06 0.0007315224    1.330    0.248
       297 -10.7440      9.7900     34.8314   1.1255727175e+02   6.9499212089e+01    0.3829743    0.2313921   3.56  0.001896252    2.074    0.518
       298 -11.1291      7.0817     30.1149   1.1279632254e+02   7.0738685515e+01    0.4504777    0.3514006  43.42  0.002941913    1.558    0.358
       299 -10.4011    167.5200     36.3258   5.8357129953e+01   3.8309478425e+01    0.4499805    0.1298884  54.44  0.001438267    3.141    0.682
       300  -9.8275    155.4682     35.7475   6.0177699112e+01   4.1538208670e+01    0.2705141    0.1675631  39.82  0.001162586    1.783    0.439
       301  -9.4105    146.9724     35.9906   6.1824175843e+01   4.3728280264e+01    0.1815123    0.1713046  60.82 0.0003817178    1.065    0.061
       302  -9.4381    127.4535     36.4582   6.6093633963e+01   4.8691753733e+01     0.215714    0.1365365 -39.53 9.644836e-05    1.573    0.364
       303  -9.8504    125.7909     32.8625   6.5057083088e+01   4.9635375889e+01    0.2430394    0.1977785  54.87 0.0006292029    1.222    0.182
       304  -9.5015     60.2153     33.2478   8.6297373886e+01   6.3928365797e+01    0.1820972    0.1742162  15.50 0.0003339641    1.112    0.101
       305  -9.6902     57.2758     35.0071   8.8353387495e+01   6.4072975275e+01    0.1936466    0.1252567 -53.91 0.0009492277    1.603    0.376
       306 -10.2298     56.1433     30.9536   8.7052964487e+01   6.5049640262e+01    0.2715015    0.1785308 -34.94  0.001034531    1.445    0.308
       307  -9.7786    150.5368     34.5035   6.0619062608e+01   4.2996271885e+01    0.1479583    0.1464794   4.46 0.0008094857    1.014    0.014
       308  -9.9766    129.6917     32.5688   6.4066844534e+01   4.8681121775e+01    0.2547569    0.1806334 -14.33 0.0005762379    1.547    0.354
       309 -10.7718     49.2016     30.6014   9.0102774468e+01   6.6209844720e+01    0.4739702    0.2599393 -33.53  0.002189425    1.920    0.479
       310 -10.5839     42.8319     31.8775   9.3762910492e+01   6.6864381281e+01    0.1996941    0.1833628  -7.04 0.0004849599    1.130    0.115
       311 -10.8706     16.7527     29.8562   1.0706646435e+02   7.0125711383e+01    0.5235555    0.4192162  63.14  0.003291036    1.579    0.367
       312  -9.9171     24.8360     26.8615   1.0128666379e+02   7.0050034419e+01    0.1917426    0.1629229 -47.14 0.0005195974    1.030    0.029
       313 -11.5051    232.6121    245.2631   9.2903557990e+01  -1.2723725700e+00    0.5349698    0.1964566 -19.09  0.002787429    3.987    0.749
       314 -10.9768    236.7699    246.7509   9.2485733785e+01  -1.8930394721e+00    0.3204344    0.1308979  27.30  0.002001088    1.917    0.478
       315 -12.0986    226.2183    246.2289   9.3980440130e+01  -5.7435730480e-01    0.4430772    0.2477041  10.14  0.003119981    1.726    0.421
       316  -9.1605    143.4445    245.4892   1.0724019394e+02   1.0225029153e+01    0.1060583   0.07694691  36.59 -0.0001569621    1.007    0.007
       317  -9.4975    115.5403    244.5170   1.1196243745e+02   1.3981539700e+01    0.1057321   0.07709066  40.82 0.0001746953    1.025    0.024
       318 -11.2337    177.3233     30.0988   5.4831617445e+01   3.6520547233e+01    0.4313547    0.2343472 -40.74  0.001853883    1.775    0.436
       319 -10.3604    207.6129     30.2054   5.1167391537e+01   2.8852840280e+01     0.187723     0.129634 -10.30 0.0002649638    1.556    0.357
       320  -8.9213    168.6804     30.2951   5.6140245697e+01   3.8757796701e+01    0.1549595    0.1078274 -60.90 0.0002448941    1.611    0.379
       321  -9.8922    139.6172     29.9912   6.1008091268e+01   4.6456955794e+01     0.283724    0.1485625 -14.79  0.001074407    2.330    0.571
       322 -10.2585    153.2858     28.8092   5.8073964578e+01   4.3004935779e+01    0.2525136    0.1803911 -49.91  0.001190307    1.468    0.319
       323 -10.4279    112.0139     25.0100   6.5077418849e+01   5.4201248020e+01    0.2790385    0.2215431  21.44 0.0004317844    1.369    0.270
       324  -9.3173    104.7331     25.3499   6.7121334682e+01   5.5937878875e+01    0.1494319    0.1102394 -57.36 0.0005882175    1.619    0.382
       325 -10.5169    109.2493     28.8569   6.7455022067e+01   5.4336742494e+01    0.2501091    0.2334219 -84.52 0.0003558169    1.186    0.157
       326 -10.3926    107.9949     24.6991   6.5965731048e+01   5.5235937166e+01    0.3197919    0.2246583 -45.07  0.001081933    1.510    0.338
       327 -11.2551    214.1844     26.4803   4.9422572000e+01   2.7669281211e+01    0.4703055    0.2670664 -39.82  0.001181762    1.588    0.370
       328  -8.9598    120.2408     27.9968   6.4359621925e+01   5.1726444208e+01    0.1770745     0.124556 -27.28            0    1.417    0.294
       329 -11.4528     70.4719     25.7123   7.8528767108e+01   6.3425162595e+01    0.3631595    0.3099031  36.20  0.002070558    1.213    0.175
       330 -10.8096    237.4127     25.4012   4.7054859913e+01   2.2435066281e+01    0.2364027    0.1946934 -48.25 0.0005629534    1.121    0.108
       331  -9.2999    146.1541     26.1509   5.8332251620e+01   4.5223397612e+01    0.2015958    0.1670765 -59.41  0.001020776    1.287    0.223
       332 -10.6625    134.9587     22.7210   5.9076316057e+01   4.8603867129e+01    0.4536544    0.2567537  40.67  0.001896029    1.917    0.478
       333 -11.1819    129.4327     23.5044   6.0491395192e+01   4.9955038671e+01    0.5682016    0.4047635  87.35  0.002636207    1.693    0.409
       334 -10.9065    130.3522     20.1940   5.8953782439e+01   5.0121096249e+01    0.4174435     0.278375 -70.82  0.001071752    1.949    0.487
       335 -10.1695    109.6072    243.0679   1.1287495555e+02   1.4929646801e+01    0.2201153    0.1356795  60.79 0.0009473355    1.734    0.423
       336 -10.2519    179.3287    243.6537   1.0102965702e+02   5.6725556766e+00   0.09807386   0.07089975  52.30  0.000705007    1.754    0.430
       337 -10.8492    197.2705     24.8862   5.0715758419e+01   3.1995755928e+01    0.2486626     0.221183 -42.72 0.0003442451    1.058    0.055
       338 -11.1645    172.1680     24.2553   5.3598107856e+01   3.8546427041e+01    0.4487437    0.2578762 -65.48  0.001838294    2.204    0.546
       339 -10.4354      5.7247    235.3906   1.3060850646e+02   2.7404593088e+01    0.3144275    0.1312136  43.53  0.001768264    1.598    0.374
       340 -10.0204     93.7910     24.0004   6.9636734759e+01   5.8716341259e+01    0.2739014    0.2105808 -26.64  0.001409318    1.273    0.214
       341  -9.6271     96.7170     23.7137   6.8631934176e+01   5.8078985093e+01    0.2104545    0.1845679 -24.64 0.0003840526    1.115    0.103
       342  -9.8119     54.0238     23.9012   8.4653574997e+01   6.6722395376e+01    0.2065204    0.1804716 -22.99 0.0006796261    1.041    0.039
       343 -10.6365    120.2201     21.5063   6.1628154827e+01   5.2590460571e+01    0.2960966      0.22428   0.29 0.0003675957    1.477    0.323
       344 -10.3568    191.0190     21.2712   5.0297907158e+01   3.3969093358e+01    0.1967522    0.1807672 -86.90 0.0003329133    1.100    0.091
       345  -9.6040    113.5718     20.3423   6.2649996079e+01   5.4429997709e+01    0.3062282   0.09462501 -40.01 0.0009640899    3.314    0.698
       346 -10.6277     65.1128     20.4722   7.8044170259e+01   6.5334772482e+01    0.2552639    0.2069669 -55.85 0.0007335407    1.468    0.319
       347 -10.3234     45.2703     20.5964   8.7225205968e+01   6.8723611024e+01    0.2718928    0.2090203  48.69  0.001231494    1.576    0.365
       348 -10.9965     37.4990    242.5448   1.2543692534e+02   2.3325907398e+01    0.2222319    0.1095978  43.75  0.001585883    1.403    0.287
       349 -10.8070     10.2366     15.4998   1.0570610623e+02   7.3745443557e+01    0.2268617    0.1623752 -35.69 0.0005446587    1.256    0.204
       350 -10.2240    161.9400     20.0246   5.3565971096e+01   4.1731611538e+01    0.2138247    0.2125969  54.08 0.0003266729    1.026    0.025
       351  -9.8561    217.5458     16.4913   4.6298425016e+01   2.7886888131e+01     0.251998    0.1245008  67.01  0.001134345    2.084    0.520
       352  -9.8251    108.1723     17.3784   6.2619569406e+01   5.6159375167e+01    0.2055209    0.1822767  56.61  0.001118039    1.132    0.116
       353 -11.0513     35.4094    239.7698   1.2568051582e+02   2.3953248020e+01    0.2577982    0.1846582 -52.24  0.002024752    2.220    0.549
       354 -10.8975    156.3677    241.1933   1.0458892749e+02   9.0091456931e+00    0.1891125    0.1372564 -60.27  0.001396641    2.152    0.535
       355  -9.9886     88.8541    240.9724   1.1636722166e+02   1.7805243339e+01    0.1400464    0.1137657 -20.93  0.001068549    2.020    0.505
       356  -9.4042     50.3219    240.3164   1.2311614787e+02   2.2323791496e+01   0.08378487   0.07477397  14.28 0.0004157359    1.663    0.399
       357 -10.2935    195.6897    238.3690   9.7728385656e+01   4.0469496404e+00    0.2097566    0.1347195  23.08  0.001257214    1.228    0.185
       358  -9.2317    243.3209    237.6460   9.0312675539e+01  -1.9430196139e+00   0.08402172   0.07302648  30.53 0.0007046797    1.754    0.430
       359 -10.8765    177.0413    235.3334   1.0042042675e+02   6.8729402884e+00    0.3447274    0.1845004  12.42   0.00184978    2.837    0.647
       360 -11.8392     29.4833    233.4725   1.2645682817e+02   2.5508634977e+01    0.3669169    0.1599475  69.60  0.002350048    2.108    0.526
       361  -9.6446     50.5477     15.4915   8.1867164385e+01   6.8782827039e+01    0.2655016    0.1306074  42.64  0.001216451    2.184    0.542
       362 -10.2493    159.9135    235.8810   1.0339117814e+02   9.1487460981e+00    0.1681003    0.1179502  23.99 0.0006574497    1.261    0.207
       363 -12.3856     20.3293    248.5601   1.2853567208e+02   2.4105285690e+01    0.6335567    0.1523572  39.61  0.003572574    2.395    0.582
       364 -10.5715     26.5861     13.8950   9.4220500591e+01   7.2508540013e+01    0.2007175    0.1544936 -12.52 0.0004022636    1.347    0.258
       365  -9.3357    231.3274    235.3200   9.1769810357e+01  -2.7318348202e-01    0.1078786    0.0585402  14.51 0.0005078426    1.684    0.406
       366  -9.4285     90.1176     13.1239   6.5421595804e+01   6.1063925437e+01    0.1781234    0.1632729 -56.41 0.0002698089    1.235    0.190
       367 -11.1128    153.5720    233.9456   1.0426782804e+02   1.0248477337e+01    0.2025386    0.1672296  -7.56 0.0009591946    1.478    0.323
       368 -10.0868    167.0363    233.7019   1.0191813133e+02   8.4262476821e+00    0.1554313    0.1095968  32.71 0.0006312246    1.049    0.047
       369 -10.2032     86.0599    232.8476   1.1625988666e+02   1.9317537974e+01    0.1708946    0.1081665  53.33 0.0006318708    1.273    0.215
       370  -9.9429     79.9733    231.6314   1.1727859675e+02   2.0241537836e+01    0.1768449    0.0903627  48.49 0.0006187629    1.470    0.320
       371 -10.0473    141.8687    220.8591   1.0485938785e+02   1.3560193447e+01    0.1747689    0.1275932  27.14 0.0008667942    1.246    0.197
       372 -10.7260      4.9956    226.2482   1.3050744135e+02   2.8909801538e+01    0.4054256    0.1093501  63.86  0.002166261    2.926    0.658
       373 -10.1549    190.5209    227.3173   9.7156212756e+01   5.8974212665e+00    0.2725424     0.105475 -37.68  0.001480821    3.215    0.689
       374 -10.0026    129.9866    226.9554   1.0770222686e+02   1.4398536138e+01    0.2643329    0.1097545  51.74  0.001305396    2.655    0.623
       375 -10.8929    120.1744    226.6339   1.0946240122e+02   1.5785322247e+01    0.1751038    0.1041672  46.61  0.000605113    1.350    0.259
       376  -9.8074     87.6034    227.1940   1.1553458557e+02   1.9968452695e+01    0.1241006   0.09961273 -55.57  0.000949737    1.668    0.400
       377 -10.4235     66.6500    226.6520   1.1938112053e+02   2.2587860821e+01    0.2658406    0.1268867  46.96  0.000930539    1.530    0.347
       378  -9.0936    144.2987    226.3324   1.0504687143e+02   1.2492251710e+01    0.1064542   0.07587337  13.19  0.000572657    1.647    0.393
       379  -9.8308     24.0306    232.4302   1.2737267476e+02   2.6199366821e+01    0.1703853    0.1027362  52.76 0.0007813371    1.141    0.124
       380  -9.2881    156.3039    224.3516   1.0267131597e+02   1.1053319503e+01    0.1097669   0.07529559  12.02 0.0007040605    1.704    0.413
       381 -10.6720    122.8892    221.4793   1.0843062994e+02   1.6141804426e+01    0.3231349    0.2086261  56.61  0.002114505    1.581    0.368
       382  -9.0735     80.6557    223.3340   1.1652730631e+02   2.1424253865e+01    0.1175727   0.06176811  58.03 0.0007050064    1.763    0.433
