#   1 NUMBER                 Running object number                                     
#   2 MAG_AUTO               Kron-like elliptical aperture magnitude                    [mag]
#   3 X_IMAGE                Object position along x                                    [pixel]
#   4 Y_IMAGE                Object position along y                                    [pixel]
#   5 X_WORLD                Barycenter position along world x axis                     [deg]
#   6 Y_WORLD                Barycenter position along world y axis                     [deg]
#   7 A_WORLD                Profile RMS along major axis (world units)                 [deg]
#   8 B_WORLD                Profile RMS along minor axis (world units)                 [deg]
#   9 THETA_WORLD            Position angle (CCW/world-x)                               [deg]
#  10 FWHM_WORLD             FWHM assuming a gaussian core                              [deg]
#  11 ELONGATION             A_IMAGE/B_IMAGE                                           
#  12 ELLIPTICITY            1 - B_IMAGE/A_IMAGE                                       
         1 -11.5670     60.1520     46.5024   7.3232161734e+01   6.0284894234e+01     1.139214    0.8577918  -1.03  0.006552563    1.355    0.262
         2 -13.1931     42.7627     45.2047   7.9862409499e+01   6.3086862083e+01    0.8616058    0.6093401  49.15 0.0009684725    1.957    0.489
         3 -11.4248    154.7495     23.5476   4.1285451518e+01   4.2867021586e+01    0.8549393    0.4525711  37.60  0.003808872    2.621    0.619
         4 -10.7409    139.1817     31.0830   4.6017450281e+01   4.5719859113e+01    0.7239326     0.346319 -16.71  0.002041385    3.321    0.699
         5 -10.9925    145.5494     23.9572   4.2828931354e+01   4.5012806027e+01    0.9300165    0.3744548  46.25    0.0037825    2.706    0.630
         6 -12.5334    119.6118     57.9245   5.8548910632e+01   4.6622460614e+01     2.771198     1.444834 -64.62  0.008441921    4.897    0.796
         7 -12.5421    125.0351     27.6298   4.7656817931e+01   4.9457558078e+01    0.7795277    0.5635284  51.74  0.002536025    1.236    0.191
         8 -11.5781    135.8440     23.4010   4.4303941451e+01   4.7378588395e+01    0.8642398    0.3635116  53.84   0.00382532    2.046    0.511
         9 -12.4896    131.2775     14.6487   4.2425031854e+01   4.9347716707e+01     3.450653     0.620344  59.92   0.01141279    3.715    0.731
        10 -11.9449    113.9763     38.8405   5.3752680662e+01   5.0649032430e+01    0.6070376    0.4297031 -22.13  0.002000158    1.619    0.382
        11 -12.6495    119.3541     37.7911   5.2151627944e+01   4.9553676234e+01    0.8283153    0.5958452 -80.79  0.002753503    1.895    0.472
        12 -12.1082    107.0458     31.7713   5.3041201516e+01   5.3097938673e+01     0.750937    0.4163898  17.04  0.002999837    3.204    0.688
        13 -11.5399    165.4583     17.7518   3.8245476005e+01   4.0952061076e+01    0.6534774    0.3849996  29.59  0.003049744    2.812    0.644
        14 -10.7600     79.8210     33.5363   6.1339807786e+01   5.8630349797e+01    0.7284032    0.4653908  -1.31  0.003629487    2.049    0.512
        15 -11.0096    183.2459     25.5020   3.8003077765e+01   3.5938029873e+01    0.6808769     0.311959  46.93  0.002964666    2.792    0.642
        16 -10.2910     47.2042     19.4894   6.7446512426e+01   6.6231991894e+01    0.3203821    0.2204925 -21.52  0.001704178    1.436    0.304
        17 -12.5756     36.1119     17.1721   7.1252908206e+01   6.8190483490e+01    0.5490101    0.3644476 -31.96  0.003455993    1.557    0.358
        18 -11.8406     20.1565     21.4327   8.1011256185e+01   6.9606950421e+01    0.6726825    0.2419166 -38.59   0.00257477    2.547    0.607
        19 -12.6643     17.0919     12.5011   7.8571201475e+01   7.1210044415e+01    0.7074994    0.4793416  -8.92  0.003867059    1.257    0.205
        20 -12.0906     23.1843     11.4465   7.4848936786e+01   7.0636966598e+01    0.4860346    0.2917505  11.03  0.002117891    1.591    0.371
        21 -11.9557     48.3733     12.9058   6.3995759135e+01   6.6817341872e+01    0.6387208    0.2816407  44.59  0.002315718    2.084    0.520
        22  -9.7156     86.5182      7.3707   4.9242642430e+01   6.0089825672e+01     1.657279    0.5444888  66.71  0.005392167    4.777    0.791
        23 -11.1466     90.7880     20.7542   5.3248220408e+01   5.7895681382e+01     0.574699    0.3390582 -32.61  0.002817969    1.893    0.472
        24 -11.5831     85.8147     14.6660   5.2265574191e+01   5.9566581205e+01    0.5607094    0.3136151  -6.62  0.002469154    2.372    0.578
        25 -10.5483     76.5188      3.9563   5.0536701515e+01   6.2452437417e+01    0.3495988    0.3024859  27.78  0.001697437    1.093    0.085
        26 -10.9741    178.8530     21.0128   3.7422865963e+01   3.7464839784e+01    0.5330713    0.2383235  48.66  0.001936603    2.650    0.623
        27 -11.9927     68.2679     18.0227   5.8925435561e+01   6.2725772862e+01    0.5068018     0.387724  39.81  0.001722033    1.149    0.129
        28 -12.0663    237.5390     15.9992   3.0883826273e+01   2.5283406477e+01    0.4503662    0.3308722  74.12   0.00311674    1.398    0.285
        29 -11.8556     27.3371     27.9123   8.0155871472e+01   6.7819306958e+01    0.5914322    0.4135469  12.80  0.002763537    1.294    0.227
        30 -10.5272    211.1308     17.1774   3.3235083953e+01   3.0635005605e+01    0.3235111    0.1630571 -35.42  0.001082966    2.038    0.509
        31  -9.7421     78.4768      7.5272   5.1452413774e+01   6.1747944881e+01    0.2123911    0.1581285  55.23 0.0006104698    1.249    0.199
        32 -11.8148    191.9869      8.4298   3.3049595718e+01   3.5793017249e+01    0.6508267    0.4484274 -15.97  0.001746645    2.085    0.520
        33 -11.2095    227.4624     15.4504   3.1529279577e+01   2.7384279413e+01     0.451332    0.2740123  87.78  0.001313223    1.472    0.321
        34 -12.1625    104.7033     12.6846   4.6915484624e+01   5.5652499200e+01    0.4937068    0.4519399 -54.31  0.001839153    1.292    0.226
        35 -10.1223      5.2176     12.5316   8.5284779279e+01   7.2377443625e+01    0.3100749    0.1675302  25.12  0.001800693    1.835    0.455
        36  -9.3284      5.3220      9.3346   8.3738110047e+01   7.2828219203e+01    0.1561083    0.1061667 -12.82 0.0008813421    1.164    0.141
        37 -11.4083    211.8347      9.8055   3.1615205915e+01   3.1288624567e+01    0.4455889    0.3270102   9.39  0.002246304    2.568    0.611
        38 -11.8089    246.9272      6.6701   2.8516151643e+01   2.4490470344e+01    0.4762302    0.3641263  20.92    0.0030101    2.768    0.639
        39 -11.3616    239.4632      4.6442   2.8609298761e+01   2.6157367673e+01    0.5343627    0.2029561  63.15  0.002631857    2.707    0.631
        40 -10.5963    232.5150      7.4434   2.9595344717e+01   2.7239082264e+01    0.3680943    0.2035855 -75.15  0.001589645    1.593    0.372
        41 -10.4810    232.6793      3.1766   2.8768849560e+01   2.7659475323e+01    0.2755311    0.1343819  72.83  0.001059499    1.878    0.468
        42 -10.7810    218.9249      2.8599   2.9647180454e+01   3.0510698672e+01    0.2824147    0.2100763 -36.22 0.0009255728    1.548    0.354
        43 -11.3293    224.7010      2.3801   2.9147692859e+01   2.9362492832e+01    0.4888481    0.2203972  85.02  0.001464779    2.035    0.509
        44  -9.9951     65.8307     10.4459   5.6518309630e+01   6.3971340619e+01    0.2444771    0.1745442  49.79 0.0008959357    1.323    0.244
        45  -9.7454     62.7617      6.7986   5.5944121557e+01   6.4896576279e+01    0.2561895    0.1672394  33.92  0.001558412    1.294    0.227
        46  -9.8586    168.8465      9.7470   3.5771388480e+01   4.0966922397e+01    0.3980442    0.1376652  55.60  0.001694366    2.655    0.623
        47  -9.4015    163.1121     10.1130   3.6543971140e+01   4.2272369509e+01    0.2259724    0.1465755  63.01 0.0007008404    1.363    0.266
        48  -9.5783      1.2295      7.7540   8.5452768540e+01   7.3405507365e+01    0.2461307   0.07414684 -44.56 0.0009290758    3.026    0.670
        49 -11.1203      2.3652      1.9913   8.1912739299e+01   7.4098110369e+01    0.2757831    0.1550163   6.04  0.001595241    1.632    0.387
        50  -9.8876     12.0242      1.4895   7.5889069589e+01   7.3184822063e+01      0.48295    0.1318378  34.58  0.002174422    3.466    0.711
        51 -10.8594    183.9464      4.7760   3.2968723591e+01   3.7969682511e+01    0.3929536    0.3275971 -20.05  0.002639012    1.582    0.368
        52 -11.0801    176.9200      5.8585   3.3926368174e+01   3.9471729212e+01    0.4170806    0.1860569  81.65 0.0009550572    2.150    0.535
        53  -9.4567    157.6217      7.0961   3.6421247612e+01   4.3844464996e+01    0.2096715    0.1670696   4.73 0.0007610449    1.735    0.424
        54  -9.8700    157.9452      2.7008   3.5216241002e+01   4.4162626029e+01    0.3135397    0.1569358  50.87  0.001589932    2.018    0.504
        55  -9.5632    108.5096      5.5421   4.3633098446e+01   5.5418090540e+01    0.1865676    0.1252097 -21.69  0.001085936    1.754    0.430
        56 -11.1723    115.7671      2.8794   4.1376530320e+01   5.3980502018e+01    0.4130335    0.2028473  64.63  0.001887373    1.689    0.408
        57 -10.2949     41.3038      4.4435   6.2906798204e+01   6.8861517844e+01    0.3207477    0.1852615   5.36   0.00172313    1.958    0.489
        58 -11.7777    134.5912      2.8000   3.8311525448e+01   4.9623615143e+01    0.4895013    0.2623045  81.86  0.001830141    1.898    0.473
        59  -9.6382    142.9117      3.5794   3.7361750750e+01   4.7609500670e+01    0.3517572    0.1763279  72.05  0.001778422    1.711    0.415
        60 -10.5631    205.5030      2.4472   3.0571383640e+01   3.3409757428e+01     0.471145    0.1870009  81.81  0.002117201    2.361    0.577
        61  -9.3913    151.8518      1.3762   3.5592641226e+01   4.5700686046e+01    0.2415616    0.1036045  74.87  0.001055215    2.061    0.515
        62 -10.7628     82.2058      1.3252   4.7956636490e+01   6.1491148075e+01    0.1975627   0.09325036  56.20 0.0003238542    1.736    0.424
        63  -8.8046     33.5316      1.5145   6.4851730054e+01   7.0360928700e+01    0.1175913   0.08745739  14.54  0.000362427    1.059    0.056
        64 -10.8802    105.2628      1.8086   4.2976684880e+01   5.6446178914e+01    0.5374827    0.1929303  67.88  0.002230243    2.677    0.626
        65 -12.2138     22.7207    149.0573   1.1083073405e+02   4.1675522006e+01    0.7133531    0.3439196 -42.33  0.003143989    2.446    0.591
        66  -8.2742    217.0000    250.0217   8.0111361386e+01  -8.2016324767e+00    0.1742287   0.06216626 -39.58 0.0007949092    2.891    0.654
        67 -10.1406    142.8217    249.8302   9.4785726436e+01   2.3163116163e+00    0.1792175    0.1369961  49.04  0.001077709    1.339    0.253
        68 -10.9029     16.0826    148.0503   1.1259566803e+02   4.2497971911e+01    0.3465623     0.289491 -83.32  0.000767373    1.043    0.041
        69 -10.3846     73.3323    152.5790   9.6708667442e+01   3.4744067191e+01    0.5423822    0.3184603  69.69  0.002116821    2.551    0.608
        70  -9.0887     33.3344    154.6644   1.0852908664e+02   3.9246812974e+01    0.2136089    0.1357515  34.46  0.001100232    1.673    0.402
        71 -10.7689     31.1345    151.8352   1.0878391418e+02   4.0180893866e+01    0.3452559    0.2440846 -64.70  0.001110164    1.256    0.204
        72 -10.8935      3.3288    152.7925   1.1660390337e+02   4.2305346020e+01    0.4411539    0.3644675 -78.64  0.002890301    1.033    0.032
        73 -10.4601      3.5036    147.0215   1.1600099147e+02   4.3702040375e+01    0.2496469    0.1748551 -74.57 0.0008719217    1.179    0.152
        74 -11.9942      2.2460    142.2198   1.1587098768e+02   4.4960351481e+01    0.6790147    0.3967529  58.66  0.003645482    1.866    0.464
        75 -11.1326     46.7841    146.5669   1.0347268317e+02   3.9810446623e+01    0.6935298    0.3992276 -53.98  0.003280788    1.613    0.380
        76  -9.6999     41.7582    148.9598   1.0531563772e+02   3.9781637710e+01    0.2339512    0.1930301 -13.39  0.001282577    1.502    0.334
        77 -10.6547     63.1209    150.7135   9.9346041837e+01   3.6675513957e+01    0.4203535    0.3004552   1.67  0.001244598    1.934    0.483
        78  -9.5451    234.4929    150.2148   5.8750747613e+01   5.3222219096e+00     0.251564    0.1674093   1.20  0.001208073    2.279    0.561
        79 -10.4571    239.6525    146.6373   5.7211491550e+01   5.0851201706e+00    0.2343821    0.1824835 -31.62  0.000706064    1.126    0.112
        80  -9.4231     73.8874    146.2691   9.5390484275e+01   3.6250683443e+01    0.2967111    0.1729746 -37.40  0.001071488    2.089    0.521
        81 -10.9635    249.1201    142.1416   5.4885728495e+01   4.3084434898e+00    0.4315989    0.2307479 -28.47  0.002089095    1.967    0.492
        82 -10.9794     33.4360    144.3801   1.0709833812e+02   4.1825644279e+01    0.4265891    0.2809043  52.69  0.001353905    1.649    0.394
        83  -9.4385    234.1696    143.7401   5.7486883987e+01   6.5057249179e+00    0.2123052     0.137986 -71.55 0.0009441323    2.731    0.634
        84  -9.4913    132.8825    140.4003   7.7639270874e+01   2.7063038335e+01    0.2827704    0.2137464 -58.38 0.0008589375    1.393    0.282
        85 -10.4995    216.9930    138.3479   5.9197847123e+01   1.0525629938e+01    0.3391876    0.2392048 -49.46  0.001067511    1.369    0.270
        86  -9.8572     79.8583    137.2272   9.1831553317e+01   3.7593370203e+01    0.4087083    0.2611651 -30.83  0.001737007    2.008    0.502
        87 -10.1042     47.0664    135.0506   1.0148964447e+02   4.2689374459e+01    0.4183123    0.2104817 -65.16  0.001682849    1.848    0.459
        88 -10.2416     39.1203    137.4844   1.0434799276e+02   4.2970622718e+01    0.3898767    0.1990487  45.70 0.0008850466    2.166    0.538
        89 -10.9639     22.7980    127.0677   1.0783019135e+02   4.7156208351e+01    0.2723932    0.2084999  29.66  0.000308466    1.476    0.322
        90  -9.7694     32.6070    137.7119   1.0637426252e+02   4.3587674041e+01    0.3380661    0.2386886  46.16  0.001373942    1.531    0.347
        91 -12.4064     27.9906    133.7986   1.0720744920e+02   4.5014145491e+01    0.8933606    0.5679058  -4.31  0.001455637    2.194    0.544
        92  -9.6872    245.3884    134.7694   5.3960733061e+01   6.1570500493e+00    0.1826148    0.1073798 -32.97 0.0003860777    1.566    0.361
        93 -10.4023     74.1459    132.4065   9.2571138953e+01   3.9684992031e+01    0.3351526    0.2217332 -32.29  0.001491898    1.814    0.449
        94 -10.1323     61.4143    132.4157   9.6526386465e+01   4.1527881074e+01    0.4202611    0.2885664  10.71  0.001539428    1.862    0.463
        95  -9.4639     38.6324    133.1618   1.0380078960e+02   4.4111166253e+01    0.2281854    0.1826812  52.69 0.0008136256    1.356    0.263
        96  -9.5382    103.8115    130.9260   8.3371376556e+01   3.4985301353e+01    0.2257132    0.2046519 -19.16 0.0003350723    1.191    0.161
        97 -10.3209     93.0891    129.8360   8.6262131945e+01   3.7194845554e+01    0.3817813    0.2275142 -66.15  0.001546576    1.998    0.499
        98 -10.2093      9.6835    130.3191   1.1235186051e+02   4.7373443019e+01    0.3079355    0.1808994  33.07  0.001655349    1.900    0.474
        99 -10.6214      9.7808    127.3761   1.1194980269e+02   4.8089843514e+01    0.4095916    0.2507219 -24.20  0.001635628    2.073    0.518
       100 -10.1756    240.2990    127.1088   5.3149722575e+01   8.3242505347e+00    0.3031044    0.2171813 -62.83  0.001677408    1.605    0.377
       101 -10.1840     78.6343    128.2344   9.0295163963e+01   4.0016054280e+01    0.2625984    0.1891699 -19.95  0.001146954    1.803    0.445
       102  -9.4908     53.4342    125.3073   9.7673603546e+01   4.4355436088e+01    0.3191231    0.1640636 -54.56  0.001389987    1.744    0.427
       103  -9.7744     56.7306    122.2230   9.5984546689e+01   4.4695788727e+01     0.267545    0.1951823 -36.55 0.0008957632    1.434    0.303
       104 -10.1197     49.5940    123.1998   9.8509030418e+01   4.5355701112e+01     0.295922    0.2442559 -11.00  0.001009918    1.397    0.284
       105 -11.2460     44.5041    118.7018   9.9311705420e+01   4.7069404446e+01     0.594501    0.3730321 -83.91  0.001902736    2.017    0.504
       106  -9.8839      2.0246    125.8875   1.1415267679e+02   4.8958795950e+01    0.2295587    0.1563972 -76.63 0.0008240121    1.246    0.198
       107 -12.8132    103.7675    122.3459   8.1344836311e+01   3.7029651353e+01    0.4019804     0.374255   3.66  0.000505232    1.144    0.126
       108 -10.1773     18.9398    122.7023   1.0841063697e+02   4.8555279722e+01    0.2830195    0.1630951 -63.94 0.0008073032    1.456    0.313
       109  -9.2835     71.3261    120.9134   9.0977748588e+01   4.2950134280e+01    0.2108831    0.1794337 -48.90 0.0005316177    1.117    0.105
       110  -8.9233    221.4853    120.5017   5.4623620805e+01   1.2910430095e+01    0.1385847    0.1217286 -49.83 0.0001582278    1.044    0.042
       111 -11.9730     49.2969     99.3844   9.3478835544e+01   5.1150889570e+01     1.673683    0.6067097 -47.76  0.006369328    2.469    0.595
       112 -11.9316      7.2137     88.9450   1.0692591753e+02   5.7437978059e+01    0.6707285    0.4274182  27.09  0.002557997    1.816    0.449
       113 -11.8198      9.5085     97.3335   1.0756674782e+02   5.5348608838e+01    0.5066034    0.4482549  -1.21 0.0004616597    1.282    0.220
       114 -10.8412     18.6949    106.0331   1.0579929211e+02   5.2633862337e+01    0.2235983    0.2107907 -23.48 0.0001878611    1.154    0.134
       115 -12.2939     34.7401     93.6425   9.7475682908e+01   5.4129945032e+01     1.285487     0.746105 -52.47  0.006477911    1.494    0.331
       116 -11.2431     26.6391     85.6334   9.8730642286e+01   5.6738868951e+01    0.7840571    0.4650659  21.67   0.00361596    1.845    0.458
       117 -11.9081     17.8685    100.7357   1.0514574908e+02   5.3960919745e+01    0.6436586    0.3276669  20.29  0.001795645    2.228    0.551
       118 -11.6316     44.0808     85.6899   9.1996567774e+01   5.4906425146e+01    0.5544645    0.4553537  16.96  0.001668801    1.278    0.217
       119 -10.7019     37.7152     86.1433   9.4554119131e+01   5.5526855796e+01    0.3495044     0.274038  52.20  0.001972609    1.602    0.376
       120 -11.6363     22.9576     94.8163   1.0213456365e+02   5.4948236905e+01    0.4210317    0.2957484 -17.33 0.0009042534    1.575    0.365
       121 -11.5303     18.3173     90.6583   1.0303393146e+02   5.6284306964e+01    0.4613136    0.2952728 -59.35 0.0009789971    1.344    0.256
       122 -12.1115     25.2554    113.6449   1.0486197961e+02   5.0251130683e+01     1.129427    0.4569428  17.48  0.004633661    3.054    0.673
       123 -12.0768     25.0138    108.3335   1.0400060707e+02   5.1561772784e+01    0.9473683    0.5356033 -31.96  0.004566318    2.000    0.500
       124  -9.0508     13.6927    118.9621   1.0955734584e+02   4.9873693519e+01    0.1789621    0.1362094 -66.04 0.0003107347    1.111    0.100
       125  -9.4198    113.7487    116.1024   7.6920396292e+01   3.6516410488e+01    0.3030038    0.1916626 -43.24  0.001302622    1.587    0.370
       126 -10.5126      7.0194    114.4771   1.1109919636e+02   5.1417945629e+01    0.3171016     0.229576 -57.09  0.001350172    1.165    0.142
       127 -12.5793      2.2671    111.4425   1.1224816236e+02   5.2434389528e+01    0.4111287    0.2456307 -73.32  0.000543936    1.437    0.304
       128 -11.2171      4.3894    105.1413   1.1063322385e+02   5.3816417741e+01    0.4258291    0.3459999  46.76  0.002696457    1.455    0.313
       129  -9.3428     79.1201    114.3053   8.6938353081e+01   4.3314005210e+01    0.2734182    0.1928532 -42.47  0.001299268    1.397    0.284
       130  -9.4098     67.0015    114.4837   9.0924922588e+01   4.5157911729e+01    0.2821184    0.1774362  48.08  0.001277491    1.807    0.447
       131  -9.8257     66.9960    110.0829   8.9895894662e+01   4.6213752733e+01    0.4443457     0.302542 -37.00  0.002128139    1.515    0.340
       132  -9.0810    126.6110    113.7618   7.2793980513e+01   3.4376377420e+01     0.214391    0.1467844 -55.45 0.0008912503    1.555    0.357
       133  -9.2224    139.5479    113.4997   6.9398171682e+01   3.1648008198e+01     0.152724    0.1510705 -58.69 0.0001812022    1.006    0.006
       134 -10.0626    132.2993    110.9256   7.0568664218e+01   3.3774090948e+01    0.4853011    0.2102859 -51.94  0.001667545    2.581    0.613
       135  -9.7707    103.2790    105.9730   7.7312103456e+01   4.0877201273e+01    0.4855038    0.3299821  51.80  0.001370143    1.596    0.373
       136 -10.0654    104.0002    112.7205   7.8866146002e+01   3.9215234096e+01    0.2840951     0.275837 -79.56            0    1.072    0.067
       137 -10.2768    101.7856    109.3930   7.8660207376e+01   4.0399815153e+01     0.463577    0.2961712  33.15  0.001327762    1.665    0.399
       138  -9.8174     94.1966    112.3149   8.1710695049e+01   4.1159690119e+01    0.3072255    0.2566577 -45.96  0.001167729    1.172    0.147
       139 -10.0349     48.9583    112.3691   9.6519046396e+01   4.8095362109e+01    0.2895005    0.2539805  51.62 0.0009737852    1.272    0.214
       140 -10.4573    170.4504    110.5998   6.1616576631e+01   2.5407149338e+01    0.4132133    0.3062613 -44.89  0.001528925    1.309    0.236
       141 -10.6985    147.0721    111.4160   6.7031967544e+01   3.0434028739e+01    0.3737569    0.2213417 -40.08  0.001564949    1.714    0.417
       142  -9.9415    120.1286    109.3302   7.3388220355e+01   3.6713530001e+01    0.2722645    0.2080973 -34.31 0.0007043845    1.381    0.276
       143 -11.5392     79.6925    108.0821   8.5215466523e+01   4.4685474461e+01    0.6296487    0.3444205  29.22 0.0009272164    2.030    0.507
       144 -11.6693     88.3792    104.6691   8.1544366764e+01   4.3968674036e+01    0.4946745     0.327107  36.79  0.002280808    1.543    0.352
       145 -10.6761     15.5176    109.5553   1.0749648701e+02   5.2026073974e+01    0.3254821    0.2020642  44.27  0.001731133    1.896    0.473
       146 -10.5018    107.4973    111.9936   7.7654704939e+01   3.8695473724e+01    0.5145062    0.3296382 -60.00  0.002192202    1.784    0.439
       147 -10.3968    175.7570    107.3590   5.9737241318e+01   2.4864045013e+01    0.3213647    0.2081851 -31.67  0.001435368    1.699    0.412
       148  -9.3622    157.8041    106.3642   6.3269055835e+01   2.9071785240e+01    0.2167984    0.1397476  40.15  0.000618092    1.677    0.404
       149 -10.3851    143.1622    105.8958   6.6539459923e+01   3.2445850817e+01    0.3229628    0.3037826 -79.21  0.001139198    1.098    0.090
       150 -11.2816    145.4915    100.1744   6.4473157781e+01   3.3084971595e+01    0.4292351     0.318172 -33.19 0.0004863729    1.443    0.307
       151  -9.7460    181.5234    103.9866   5.7786404982e+01   2.4230628125e+01    0.2309717    0.1398621 -42.11 0.0007599088    1.586    0.369
       152 -10.2077     57.5149    102.3097   9.1269691921e+01   4.9398568834e+01    0.3122384    0.2289957 -41.43 0.0009233686    1.290    0.225
       153  -9.2752     57.5966     97.2486   8.9987095153e+01   5.0561950437e+01    0.2555313    0.1269787 -54.28  0.000964984    1.898    0.473
       154 -11.0385     89.5290     89.9225   7.7104625109e+01   4.6994478172e+01    0.6306926     0.475531 -17.35  0.002518326    1.560    0.359
       155 -10.0188     80.5146     98.4870   8.2437870036e+01   4.6740249842e+01     0.290666    0.2451262 -11.84 0.0008284435    1.284    0.221
       156  -9.6577     77.6679     96.7036   8.2900799257e+01   4.7620657756e+01    0.3265927    0.2352834 -11.96 0.0007623265    1.769    0.435
       157  -9.8649     82.5175     93.4688   8.0395732836e+01   4.7501897687e+01     0.334352    0.2252831  20.63 0.0008073254    1.742    0.426
       158 -10.7804     78.1900     92.8456   8.1663000882e+01   4.8384990239e+01    0.5330514    0.3763556  24.20  0.002590178    1.533    0.348
       159 -11.0660     67.8174     95.7307   8.5998335954e+01   4.9420909948e+01     0.508305    0.4150908  13.74  0.002323058    1.305    0.234
       160  -9.6832    142.4399     95.6654   6.3987372451e+01   3.4670097090e+01    0.3587887    0.1730564  38.25  0.001298128    2.475    0.596
       161 -10.2727     43.0689     94.6674   9.4619704458e+01   5.2990115603e+01    0.3544269    0.3149181  -4.61  0.002127684    1.162    0.139
       162  -9.8063    210.1124     98.0640   5.1450539574e+01   1.9145661451e+01     0.239671    0.2058259  59.06  0.001385647    1.260    0.206
       163 -11.1390    121.1861     88.9976   6.7505841371e+01   4.0732089996e+01    0.8651561    0.5388478  -1.17   0.00286692    3.722    0.731
       164 -10.5905    122.3157     93.6731   6.8528568509e+01   3.9549741569e+01    0.3006522    0.2902655  67.64 0.0008082314    1.059    0.055
       165  -9.5223    160.4035     93.8304   5.9464048870e+01   3.0918332551e+01     0.367585    0.2058291  68.61  0.001402791    2.445    0.591
       166 -10.7298    152.6976     91.9214   6.0625004230e+01   3.3049987070e+01     0.444813    0.3302522  38.86  0.002138259    1.458    0.314
       167 -11.0642     98.5349     91.0712   7.4613576660e+01   4.5028876056e+01    0.3068089    0.2511232  40.25  0.001573438    1.218    0.179
       168 -10.5000    183.4351     85.5247   5.2893501249e+01   2.7151414875e+01    0.7756408    0.2479735 -47.45  0.002535187    3.276    0.695
       169 -10.0634     66.5491     88.7862   8.4549444696e+01   5.1157165260e+01    0.3290827    0.2287387  -4.30   0.00105283    1.857    0.461
       170 -10.6038    104.4980     87.1949   7.1690978822e+01   4.4629108546e+01    0.5218397     0.318442 -17.54  0.001985448    2.670    0.625
       171 -11.6667    113.8485     83.7674   6.7993997613e+01   4.3346894817e+01    0.5661674    0.4514682 -84.64  0.002743172    1.666    0.400
       172 -10.1200    108.9872     80.7438   6.8468264505e+01   4.4966820272e+01    0.3129931    0.2746972  12.33   0.00104272    1.220    0.181
       173  -9.5432    136.6956     86.1803   6.2750053362e+01   3.7808086642e+01    0.5462128    0.1430117  50.36   0.00156879    3.760    0.734
       174 -10.8302    143.1101     84.2846   6.0705697350e+01   3.6690361696e+01    0.3220593    0.2982599  68.76  0.000740803    1.069    0.065
       175 -11.9528     76.3776     80.0605   7.8563017113e+01   5.1400417172e+01    0.9220225    0.6969691  83.81  0.002188892    2.171    0.539
       176 -10.3128     67.1302     82.2424   8.2468779365e+01   5.2470715231e+01    0.3901133    0.2954405 -37.54  0.002068583    1.263    0.208
       177 -10.2700     60.5495     83.5840   8.5244341648e+01   5.3184146350e+01    0.2940791     0.239421 -50.73 0.0005069398    1.234    0.190
       178 -11.7933     53.4440     76.2776   8.5788353030e+01   5.5737979487e+01    0.6380609    0.5559594  16.56  0.003806078    1.160    0.138
       179 -10.8546     58.3871     77.6089   8.4307899327e+01   5.4762511654e+01    0.3408828    0.2542798 -46.20 0.0007293635    1.295    0.228
       180 -10.6488    125.9053     93.8883   6.7636030859e+01   3.8721545790e+01    0.4023458    0.3292762  23.56 0.0008939674    1.377    0.274
       181  -9.6972      1.4461     80.7067   1.0763256410e+02   5.9628562090e+01    0.3752152     0.171643 -75.42  0.001067612    2.373    0.579
       182 -11.5841      2.1229     71.3632   1.0549853876e+02   6.1652922386e+01    0.6585004    0.2026813 -61.98   0.00283625    2.549    0.608
       183 -13.0489      4.2024     61.6158   1.0239044468e+02   6.3610567574e+01    0.3234571    0.2795579 -49.16 0.0004519116    1.143    0.125
       184 -12.0177      9.9252     62.1890   9.9981739529e+01   6.3133471163e+01    0.5309905    0.3230035 -40.23  0.001213633    1.354    0.261
       185 -10.8751    103.1857     75.4469   6.8541709958e+01   4.7187742144e+01     0.683944    0.3552367 -48.78  0.002815258    2.133    0.531
       186  -9.9254    233.0536     77.6049   4.3801189304e+01   1.7844819657e+01    0.2853286    0.2074892 -37.50  0.001187728    1.353    0.261
       187 -11.7049     13.9421     74.3236   1.0121798852e+02   6.0274013603e+01    0.5298882    0.3827287 -67.58  0.001959921    1.425    0.298
       188  -9.6795     94.2781     75.3135   7.1206145581e+01   4.9019830678e+01     0.614413      0.52661 -68.79  0.003093307    1.427    0.299
       189 -10.3256     83.9960     61.0402   6.9877620727e+01   5.3619928983e+01    0.6445833    0.4685771  79.65  0.002718804    2.430    0.589
       190 -11.6221     85.2674     73.3067   7.3467573844e+01   5.1138592158e+01    0.9335114    0.6715022  69.76  0.003816204    2.118    0.528
       191 -11.4684     91.5182     62.9001   6.8078695720e+01   5.1829244794e+01    0.9832843    0.3873002  47.98  0.003619046    2.546    0.607
       192 -10.9027     76.0587     63.6666   7.3452638892e+01   5.4619894078e+01    0.6208767     0.330044 -49.40  0.001981095    2.145    0.534
       193 -10.5720     91.8088     57.4254   6.6153535141e+01   5.2698112980e+01    0.3561883    0.2896141  50.51 0.0009928995    1.260    0.206
       194 -10.4696     87.6579     56.6576   6.7198320471e+01   5.3653267121e+01     1.122715    0.4522675 -50.37  0.003871101    3.706    0.730
       195 -12.7049     74.7021     53.4105   7.0396614904e+01   5.6645672522e+01    0.6973245    0.5589383  -4.13 0.0005800538    1.282    0.220
       196 -10.0293    126.9622     76.9742   6.2504953190e+01   4.1725938726e+01    0.2246356    0.2163716  51.73  0.000344529    1.007    0.007
       197 -12.2121    186.3652     70.7638   4.8743456565e+01   2.8951175198e+01    0.8718112     0.550805 -42.14  0.003447231    1.536    0.349
       198  -9.4864     63.3759     75.7202   8.1883218088e+01   5.4406051677e+01    0.4195812     0.209131  32.31  0.001551724    2.064    0.515
       199  -8.4032     61.0212     72.7781   8.1853932734e+01   5.5360740028e+01    0.5045765    0.1697867  42.50  0.001773885    3.374    0.704
       200  -9.5728     24.8381     74.4737   9.6737630463e+01   5.9366247438e+01    0.2433081    0.1519451 -46.22 0.0005346894    1.359    0.264
       201  -8.9966    197.6414     74.6838   4.7939365291e+01   2.5772446540e+01    0.1357665    0.1092945  23.22 0.0006539942    1.754    0.430
       202 -11.2716     40.9430     72.4115   8.9579168897e+01   5.8138829088e+01    0.5687371    0.2795417 -53.05  0.002264534    1.937    0.484
       203 -11.5901     35.1276     71.9756   9.1823450539e+01   5.8885242145e+01     0.697758    0.2489048  27.82  0.002854647    2.907    0.656
       204 -10.0840    153.7376     72.6266   5.5156469852e+01   3.6268990446e+01    0.3449074    0.2158455  37.81  0.001060749    1.905    0.475
       205 -11.7767    122.9164     69.1186   6.1179004260e+01   4.4029257496e+01    0.5109895    0.4556536  39.54  0.001614445    1.097    0.089
       206  -9.3778    162.2972     70.9938   5.3017582621e+01   3.4523244769e+01    0.2675386    0.1968044 -89.39  0.001302953    1.600    0.375
       207  -9.8262     13.9041     67.6056   9.9612073345e+01   6.1720191512e+01    0.4506369    0.2374179   8.67   0.00233679    2.151    0.535
       208  -9.9114    171.9408     68.8480   5.0680310092e+01   3.2604864950e+01    0.4137875     0.236066 -51.99  0.001838973    1.836    0.455
       209  -9.1439    172.2882     64.6484   4.9526084486e+01   3.3190231721e+01    0.2420912    0.1916507 -60.01 0.0006458631    1.260    0.206
       210  -9.8872    169.0194     62.9960   4.9658727489e+01   3.4217765022e+01    0.2754025    0.2462357 -52.78 0.0009007233    1.126    0.112
       211 -11.3709    220.0658     66.5657   4.3017169713e+01   2.2185875908e+01    0.5809931    0.3255252  57.68  0.002964587    1.902    0.474
       212 -10.1460    165.6124     83.6844   5.5742498225e+01   3.1572174895e+01    0.3576759    0.2696715 -58.76  0.001443519    1.383    0.277
       213  -9.6323    192.4360     65.7680   4.6582262163e+01   2.8353581967e+01    0.2633251    0.1924443 -77.72 0.0007972099    1.449    0.310
       214 -10.5847     58.8807     62.7659   7.9452178307e+01   5.7633398747e+01    0.4567585    0.3437712 -50.02  0.002531939    1.458    0.314
       215  -9.3911     52.7007     65.9457   8.2899947977e+01   5.7928826819e+01     0.240244    0.1592776  41.74  0.001245826    1.699    0.412
       216  -9.0532    201.4778     64.5195   4.4984921059e+01   2.6513985221e+01    0.2794431     0.188394  61.87  0.001062927    1.498    0.332
       217  -9.3810    198.3154     62.6384   4.4982965838e+01   2.7505568277e+01    0.2493896    0.1890254 -70.95 0.0008065197    1.290    0.225
       218 -11.4273    234.3362     61.2015   4.0224453655e+01   2.0056502723e+01    0.5293524     0.371584  76.20  0.002526262    1.470    0.320
       219  -9.6785    175.0174    246.9511   8.7757065196e+01  -1.9838480465e+00    0.2045521    0.1686721  18.50  0.001028814    1.012    0.012
       220 -11.0689     20.7864     46.4098   9.0299122841e+01   6.5372532761e+01    0.3760997    0.2511079 -39.51  0.001464556    1.291    0.225
       221 -11.3078     26.8442     47.3123   8.7763099584e+01   6.4610431449e+01    0.4512866    0.2397512 -11.64  0.001068236    2.495    0.599
       222  -9.5303     24.0589     38.3680   8.5882735568e+01   6.6483747515e+01    0.9962428    0.6505755  58.83  0.004675505    3.713    0.731
       223 -11.8992     25.7311     58.2184   9.1805721874e+01   6.2647704070e+01    0.7747353    0.6643592  -0.10  0.005141338    1.154    0.134
       224 -10.7729     34.5390     52.9254   8.6195232778e+01   6.2733613478e+01    0.3805537    0.2548693  28.05 0.0005462416    1.540    0.351
       225 -10.2425     55.1922     50.8570   7.6773004986e+01   6.0339025671e+01    0.1988121    0.1416451  -1.09 0.0004177304    1.513    0.339
       226  -9.2726    156.6367    246.3191   9.1424561499e+01   8.3961180501e-01    0.1282891   0.09322483  57.56 5.089294e-05    1.774    0.436
       227 -11.0987     40.6717     56.9518   8.4888426590e+01   6.1246460903e+01    0.4384726    0.2447128  33.54  0.001159887    1.863    0.463
       228 -11.2168     52.0694     61.8192   8.1808308703e+01   5.8812769466e+01    0.3202974     0.269082  43.13  0.001904617    1.409    0.290
       229 -11.5880     43.4995     62.0159   8.5358114855e+01   5.9922788845e+01    0.2760379    0.2351065 -35.57 0.0003707257    1.132    0.117
       230 -11.7001     46.6224     58.8050   8.3015799995e+01   6.0131345885e+01    0.4516541    0.3309631 -54.75 0.0006026523    1.588    0.370
       231 -10.1370    158.8167     62.6422   5.1412292392e+01   3.6689479845e+01    0.5927407    0.1931029  48.34  0.001989194    3.206    0.688
       232  -9.2832    163.7063    243.9578   8.9619125377e+01   1.7498929447e-01    0.1717627     0.157548   8.04 0.0005636201    1.114    0.102
       233 -11.4501    127.6227    241.5445   9.6894806459e+01   6.0973344867e+00    0.4522808    0.3502182  36.37  0.002157679    1.112    0.101
       234 -10.6942    147.3928    238.2048   9.2196978002e+01   3.6563422520e+00    0.2724498    0.2403298 -84.01  0.001370296    1.478    0.323
       235 -10.1935    150.3318    237.3314   9.1443924849e+01   3.3570608928e+00    0.2586361    0.1859221   1.56  0.001360346    1.680    0.405
       236 -10.2560    167.6300    237.8101   8.7882052991e+01   6.1664288927e-01    0.1658313    0.1248922 -56.02 0.0009518322    1.709    0.415
       237  -9.5351    233.4926    235.9588   7.4846993313e+01  -8.3263532398e+00    0.1730004     0.102058 -31.76 0.0009319233    1.571    0.364
       238 -10.6612    198.0540    233.2196   8.1007631564e+01  -3.1438867255e+00     0.330699    0.2952036  62.36  0.002120548    1.682    0.405
       239  -9.6146    205.0529    233.9752   7.9774501152e+01  -4.2561367100e+00      0.15705    0.1209258  18.57 0.0009842009    1.139    0.122
       240 -12.1820    117.7931     44.0186   5.4541208322e+01   4.9086152294e+01    0.7455335     0.471503  66.97  0.003331325    1.719    0.418
       241  -9.4020     15.1866    234.0827   1.1992407278e+02   2.2582525112e+01    0.1660957    0.1419605 -84.82 0.0009731081    1.262    0.207
       242 -10.2763    247.2155    231.4661   7.1714210457e+01  -9.3808222621e+00    0.2100383    0.1375774 -26.73 0.0007487641    1.322    0.243
       243 -12.4868    115.2859     24.9616   4.8823312121e+01   5.2013453470e+01     1.005168    0.3151882  61.81  0.002525263    3.039    0.671
       244 -11.0855     72.5021     46.9447   6.8838296424e+01   5.8087626443e+01    0.3261228    0.2204546 -42.89  0.001536081    1.639    0.390
       245  -8.7943    205.9801     61.7641   4.3736368616e+01   2.5934714658e+01    0.1614574    0.1066721  67.03 0.0004553998    1.515    0.340
       246  -9.2646    146.8845     60.8626   5.3254958389e+01   3.9801505341e+01    0.2183159    0.1888638  40.44  0.000525709    1.220    0.181
       247 -11.1486    106.2943     58.3681   6.2208744382e+01   4.9509380482e+01     0.429064    0.3035058  71.01  0.001485833    1.837    0.456
       248 -10.2933    136.6117     56.3675   5.4105412049e+01   4.2922928671e+01    0.6517297     0.433161   8.17  0.002784618    2.554    0.608
       249 -11.2783    145.8717     47.5621   4.9621923336e+01   4.2005891496e+01    0.8401235    0.4080925 -21.46  0.002876234    3.092    0.677
       250 -10.2065    145.3262     39.6781   4.7432799653e+01   4.3193608950e+01     0.229715    0.1871005 -56.54 0.0008001136    1.303    0.233
       251 -10.0529    242.5863    231.3904   7.2493110988e+01  -8.8116072188e+00    0.2155635    0.1686128  12.40  0.001504422    1.189    0.159
       252 -10.7430    157.3449     54.7427   4.9511340282e+01   3.8238766866e+01    0.5608337    0.3715712 -81.27   0.00231385    1.944    0.486
       253 -10.0917    155.6933     48.7853   4.8155340631e+01   3.9489059305e+01     0.489022    0.3405537  15.05  0.002288234    2.290    0.563
       254 -11.8110    156.8477     42.5775   4.6228898372e+01   4.0059795686e+01    0.9863909    0.4852272  73.37  0.004123021    2.294    0.564
       255 -12.7142    153.0493     35.8260   4.4981216643e+01   4.1835673194e+01    0.4157541    0.3154886  74.34  0.000449752    1.220    0.180
       256 -11.8557    159.3672     30.2957   4.2446286105e+01   4.0997885466e+01    0.5480765    0.4262611  89.71  0.003192645    1.236    0.191
       257 -11.4084    164.3714     27.5925   4.0986322806e+01   4.0124086361e+01    0.2949553    0.2358541  68.55 0.0006102188    1.128    0.114
       258  -9.9267    238.1491     55.7289   3.8701223334e+01   2.0081620365e+01    0.2112832    0.1549508 -44.17 0.0002371061    1.271    0.213
       259 -10.3438    240.3793     50.5912   3.7443217854e+01   2.0357804440e+01    0.2577477    0.2075728 -45.86 0.0009096356    1.237    0.192
       260 -10.0824     66.9066     54.5575   7.3602851152e+01   5.7819033540e+01    0.3409792    0.1864322 -46.38  0.001599526    2.009    0.502
       261  -9.4470    188.0850     55.0131   4.4598388649e+01   3.0962874892e+01    0.2460872    0.1677745  67.12  0.001301699    1.413    0.292
       262 -10.6264    137.6191     49.5395   5.1851065605e+01   4.3689550894e+01    0.7089172    0.2631911  41.53  0.002324147    3.632    0.725
       263  -9.7276    201.4931     53.0646   4.2308211096e+01   2.8200276704e+01    0.4544622    0.2340337  58.85  0.001862013    1.934    0.483
       264 -10.0089    201.6184     48.8037   4.1302693513e+01   2.8771686145e+01    0.2575873    0.2021921 -51.75  0.000844247    1.199    0.166
       265 -11.2083    201.4767     45.3482   4.0520147325e+01   2.9277697944e+01    0.5265856    0.2344875  78.15  0.002181309    2.710    0.631
       266  -9.7510    211.4816     52.2492   4.0886924686e+01   2.6114797894e+01    0.2098682    0.1789172 -73.67 0.0008858792    1.007    0.007
       267 -10.0580    244.9867     51.3112   3.7149015618e+01   1.9360897121e+01    0.1701564    0.1386075 -77.22 0.0008123926    1.106    0.096
       268 -11.2183    175.1032     48.1454   4.4790548785e+01   3.4964854197e+01    0.5358958    0.3056514  70.41  0.001566934    1.725    0.420
       269 -10.2412     91.6911     48.7558   6.3202349701e+01   5.4094682974e+01     0.237724    0.2164841 -81.67  0.000163802    1.389    0.280
       270 -10.7780     12.6913     48.1576   9.4734022747e+01   6.5732875442e+01    0.3731459    0.1738607 -33.90  0.001580566    1.949    0.487
       271  -9.5907     16.9995     42.0767   9.0653467614e+01   6.6508263192e+01    0.2562018     0.153891 -15.45  0.001050859    1.669    0.401
       272  -9.6568      2.0100     48.5858   1.0001835276e+02   6.6370240936e+01    0.2392682    0.1940307 -66.17  0.001639944    1.436    0.304
       273  -8.5086    106.2653     48.2570   5.8864591413e+01   5.1071824929e+01    0.1327376    0.1006312  23.73            0    1.447    0.309
       274 -10.6119    134.9687     45.7405   5.1257029089e+01   4.4848584364e+01    0.4070605    0.1898958  61.65 0.0007767875    2.075    0.518
       275 -10.0883    139.0043     43.8431   4.9866459451e+01   4.4150577464e+01    0.3316181    0.2076955  42.35  0.001063997    1.685    0.407
       276  -9.0707    101.2977     44.6447   5.8988459526e+01   5.2673780975e+01    0.1346065    0.1081987 -75.69 0.0007035104    1.698    0.411
       277  -9.3608      6.1518     42.9460   9.6313751563e+01   6.7193098687e+01    0.3461527    0.1887258 -24.53  0.001966067    1.715    0.417
       278 -10.0784     10.9917     30.6916   8.9604573521e+01   6.9018364571e+01    0.2853683    0.1907294 -19.23  0.001438691    1.272    0.214
       279  -9.7372      6.0011     31.1355   9.2417191719e+01   6.9335973754e+01      0.42831    0.1913472 -15.59  0.002014895    2.821    0.646
       280  -8.9701      3.5447     39.4308   9.6523083650e+01   6.8020171548e+01    0.1858197    0.1742427   7.85 0.0007551672    1.356    0.263
       281 -10.2385      5.6982     36.1255   9.4325300457e+01   6.8477699759e+01    0.3227877    0.2124762  23.68  0.002053076    1.675    0.403
       282 -10.0354    189.1096     39.6723   4.0720010160e+01   3.2840198308e+01    0.4596836    0.1911571 -24.95  0.001737086    3.642    0.725
       283 -10.7391     93.3738     41.1759   6.0020658532e+01   5.4846081625e+01    0.4906888    0.2547016  44.51  0.001806908    1.750    0.429
       284  -9.6497     85.9873     30.9977   5.8471341642e+01   5.7715692644e+01    0.2796228    0.1802734  20.58  0.001424018    1.806    0.446
       285 -10.5257     79.8290     39.2209   6.3484839579e+01   5.7857046269e+01     0.570276    0.3202197  67.55  0.002185031    3.640    0.725
       286  -9.4701     23.7699    231.8006   1.1806694024e+02   2.2159148737e+01    0.1728638    0.1091558  62.46 0.0007493669    1.322    0.244
       287  -9.8570    231.5656     39.3850   3.6010960114e+01   2.3627791854e+01    0.2132828    0.1598337 -77.42  0.000637032    1.157    0.136
       288  -9.3209    217.4245     39.7743   3.7483704649e+01   2.6530758103e+01    0.1603132    0.1187449 -29.40 0.0009460555    1.624    0.384
       289  -9.8384     67.9858    240.4793   1.0958574104e+02   1.4991619080e+01    0.1925072    0.1102466  36.34   0.00101819    1.581    0.367
       290 -10.9599    176.6951     36.6048   4.1606860144e+01   3.6121243840e+01    0.3803906    0.2739409 -39.73  0.002150236    1.453    0.312
       291 -10.9886    175.0329     31.2992   4.0483514552e+01   3.7167814418e+01    0.6170079    0.2493939  48.07  0.002059915    2.956    0.662
       292 -11.1155     60.9332     36.0844   6.8936617426e+01   6.1752978238e+01    0.4252287    0.2870877 -12.85  0.001246969    1.603    0.376
       293 -10.0644     67.2136     31.9351   6.4975307592e+01   6.1227742969e+01    0.4443651    0.3906988 -70.04  0.002218832    1.693    0.409
       294  -9.3949    193.9381     38.5072   3.9838139927e+01   3.1886490235e+01    0.1868923    0.1164951  67.45 0.0004584279    1.504    0.335
       295  -9.3574    183.8190     38.1468   4.1033808343e+01   3.4260596844e+01    0.2001819    0.1543943 -76.77 0.0006986553    1.226    0.185
       296  -9.7689    133.3788     37.1549   4.8962047053e+01   4.6356216716e+01    0.3935012    0.2488497  85.98  0.001828365    2.061    0.515
       297  -9.0855    206.5807     37.2634   3.8087488980e+01   2.9212425133e+01    0.1522961     0.121251 -31.89 0.0005812393    1.473    0.321
       298  -9.4336    176.6129     43.3083   4.3325850495e+01   3.5268483156e+01    0.2423997    0.1537889  81.34 0.0009141891    1.622    0.384
       299  -9.3340     94.0849     35.8847   5.7917302772e+01   5.5407374021e+01    0.1925931    0.1749618  78.56 0.0005887678    1.310    0.237
       300  -8.9875    249.3063     34.3272   3.3486866003e+01   2.0775009904e+01   0.09840945   0.09256323  29.76 0.0004811255    1.652    0.395
       301 -10.4719    240.0874     32.8685   3.3955438140e+01   2.2751389396e+01    0.3078722    0.2303297 -84.45  0.001453098    1.181    0.153
       302 -10.1315    240.7834     26.2734   3.2616913558e+01   2.3429539640e+01    0.2905074    0.1800062 -50.99 0.0009856797    1.346    0.257
       303 -10.0321     59.7780     23.8863   6.4393438723e+01   6.3589527498e+01    0.2940244    0.1940344  -6.12  0.001110323    1.672    0.402
       304  -9.0536     60.3710     19.5007   6.2312593367e+01   6.4010836338e+01    0.1867988    0.1575392   7.49 0.0005157648    1.090    0.082
       305 -12.2643     58.2442     29.8023   6.7434831015e+01   6.3087059088e+01    0.3493777    0.2468936   9.40  0.001034911    1.436    0.304
       306 -11.7542     49.6638     30.5690   7.1176744231e+01   6.4374052972e+01    0.7062163    0.2522359  37.71  0.003034495    2.631    0.620
       307 -10.7760    198.9277     29.0093   3.7051102555e+01   3.1946479018e+01    0.3869615    0.3580788 -64.36  0.001930226    1.198    0.165
       308  -9.1132     35.8400     31.6086   7.7651254831e+01   6.6199226767e+01    0.1637253    0.1053379  39.54 0.0009354628    1.768    0.434
       309  -9.2797    233.8172    223.3837   7.2661440226e+01  -6.5583971706e+00    0.1667737   0.09973316  18.65 0.0009408033    1.659    0.397
       310  -8.9702     13.9515     23.2895   8.5084612096e+01   6.9957646125e+01    0.3165731    0.2655339 -57.91  0.001104513    1.814    0.449
       311  -9.6637      6.0848     21.5850   8.8694993850e+01   7.0918714601e+01     0.425396    0.2158297   7.15  0.001932057    2.035    0.509
       312  -9.2787     10.2221    218.0151   1.1995090066e+02   2.6491339669e+01    0.1563938   0.08345691 -80.80 0.0006823964    1.660    0.398
       313 -10.4430    164.7269    212.3425   8.4366707388e+01   5.6539628911e+00    0.2925678    0.2298517  50.34 0.0006980773    1.426    0.299
       314  -8.6336      3.3122    213.2630   1.2109184039e+02   2.8171919717e+01    0.1025685   0.08547786 -53.81  0.000263003    1.537    0.349
       315  -8.6477    199.3322    210.3356   7.6825908856e+01   4.4566652977e-01    0.1406333   0.09416755  -4.05 0.0007052175    1.735    0.424
       316 -10.7424    189.1830     27.7148   3.7840012366e+01   3.4311659274e+01     0.327935    0.2869752   7.21  0.002035098    1.621    0.383
       317 -10.3250    230.4064     27.4028   3.3684509886e+01   2.5377035192e+01    0.3431186    0.1761219 -44.99  0.001586891    1.692    0.409
       318  -9.9627    153.2345    207.5673   8.6079166756e+01   8.5093530944e+00    0.2920597    0.2316135  74.02 0.0009713009    1.740    0.425
       319  -9.5997    250.4993     27.0110   3.2019545064e+01   2.1457595733e+01    0.1332307    0.1021912  -6.66 0.0004523906    2.425    0.588
       320  -9.7433     97.1486     26.3240   5.3620241560e+01   5.5916602012e+01    0.2274527     0.190256 -38.84  0.000811177    1.378    0.274
       321 -10.0906    213.8521     24.0010   3.4446073745e+01   2.9262449429e+01    0.2723114     0.211023  77.96   0.00178091    1.224    0.183
       322  -9.3428    216.5265     20.5005   3.3463220910e+01   2.9098307522e+01    0.1718127    0.1188018 -22.83 0.0006019232    1.975    0.494
       323  -9.4844    169.1889     23.8147   3.9337381040e+01   3.9414982135e+01    0.2662851    0.1524137  59.98  0.001323143    1.589    0.371
       324  -9.3627     61.1462    206.6338   1.0763033587e+02   2.3248957231e+01    0.1849997    0.1596538  48.06 0.0008069178    1.132    0.117
       325  -9.7882    123.9879    205.9661   9.2539392155e+01   1.3797168738e+01    0.2003812    0.1876239  28.05 -0.003769674    1.052    0.049
       326 -10.1792    238.1280    204.6298   6.8593458004e+01  -4.2913641784e+00    0.2566536    0.1580977 -28.43  0.001465001    1.428    0.300
       327 -11.3976      5.6417    199.9853   1.1976759337e+02   3.0928068788e+01    0.7699795    0.1517715 -67.68  0.002867521    3.742    0.733
       328  -9.0261    196.3316    204.7008   7.6404782308e+01   1.9004424846e+00    0.1233935    0.1090848  73.03  0.000502734    1.646    0.392
       329  -9.2926    223.7099     21.9619   3.3147345818e+01   2.7412327793e+01    0.2009012    0.1395917  72.66 0.0009016232    1.400    0.286
       330 -10.1757     16.9820    203.6728   1.1752522954e+02   2.9032983769e+01    0.2689878   0.09863207 -63.76  0.001215185    2.483    0.597
       331  -9.7164     74.3623     19.4783   5.7542776091e+01   6.1392562470e+01    0.2548611    0.1687687  37.11 0.0008623734    1.312    0.238
       332 -10.4899    234.1038    197.2718   6.7948113109e+01  -2.5667285582e+00    0.4493406    0.2599159 -37.37  0.002439904    1.561    0.359
       333 -10.5998    245.6468    200.9139   6.6641993439e+01  -4.7328068653e+00     0.202673    0.1518374   7.21 0.0007032374    1.291    0.225
       334  -9.4256     82.7168    196.2489   1.0109031300e+02   2.2616075452e+01     0.341582    0.2095444  18.70  0.001514727    2.169    0.539
       335 -10.6811    246.5083    193.4990   6.5144959629e+01  -3.6998602058e+00    0.2636145    0.1048521 -38.37  0.001215798    2.182    0.542
       336 -10.6111    186.2517     15.2100   3.5193779767e+01   3.6389070282e+01    0.2419263    0.1788741  85.54 0.0004317512    1.157    0.135
       337  -9.3734    191.4336     17.0612   3.5088331527e+01   3.5010983502e+01     0.253998      0.18958  15.72   0.00118568    2.227    0.551
       338  -9.8555     16.4475    191.5236   1.1670123046e+02   3.1897157001e+01    0.2101275    0.1756084  88.50 9.102345e-05    1.050    0.047
       339  -9.2673    205.0641     17.4943   3.3853570264e+01   3.1921279480e+01     0.181215    0.1053355  76.39 0.0006007768    1.539    0.350
       340  -9.9219    169.8754    191.1943   7.9433241090e+01   8.8946597028e+00    0.3861001     0.183588  26.07  0.001429691    2.756    0.637
       341 -11.9032      4.4766    185.4627   1.1901923985e+02   3.4381480305e+01    0.5023875    0.4476628  33.91  0.003311841    1.355    0.262
       342  -9.4553     75.6015     13.8463   5.4865387756e+01   6.1735661334e+01    0.2347999    0.1462741  51.02 0.0006153209    1.422    0.297
       343 -10.8453      2.9759    181.2468   1.1906058341e+02   3.5494335757e+01    0.2862924    0.2502012 -25.80  0.001624943    1.541    0.351
       344 -10.0173    214.4848    184.9904   6.9169223451e+01   2.4803189044e+00    0.1820206    0.1147742 -60.59  0.000810254    2.544    0.607
       345  -8.7348    173.4675    184.4675   7.7358931697e+01   9.6014182022e+00    0.1430336    0.1343637   0.06 0.0008088779    1.007    0.007
       346 -10.0444    250.3058    178.8463   6.1801856357e+01  -1.9077689238e+00    0.4599459     0.121424 -34.23  0.001538555    4.070    0.754
       347 -10.4173     51.9902    173.6795   1.0591599910e+02   3.2352566584e+01    0.5503654    0.2638746 -88.75  0.002021898    3.065    0.674
       348 -10.0370     27.7284    175.8907   1.1250906479e+02   3.4545071095e+01    0.2477782    0.1788426  46.85  0.001126326    1.382    0.276
       349  -9.9388    239.9402    184.6269   6.4586177163e+01  -1.3571854427e+00    0.2265242    0.1634548 -34.98 0.0005541043    1.227    0.185
       350 -10.0234    247.3466    174.0694   6.1369170271e+01  -7.1239316322e-01    0.4193595    0.1898368  24.85  0.001673334    3.746    0.733
       351  -9.6451    230.2924    175.4515   6.4470919014e+01   1.6310516663e+00    0.2107287    0.1254335  33.56 0.0004600861    1.846    0.458
       352 -10.3130     37.3819    172.7842   1.0966702288e+02   3.4290719895e+01    0.4829118    0.1734539  44.99  0.001906348    2.760    0.638
       353 -10.5776     35.2397    169.3948   1.0983414875e+02   3.5363687963e+01    0.3052915    0.1970977  47.45  0.001107057    1.553    0.356
       354  -8.9059    170.5507    172.0013   7.5511761393e+01   1.2678369467e+01    0.2172194    0.1413852 -43.75  0.000693616    1.521    0.342
       355 -11.7662      9.5659    166.9426   1.1627487224e+02   3.8385643436e+01    0.4970461    0.3802844  85.09  0.002001048    1.135    0.119
       356 -11.2333     13.3412    159.4196   1.1457202735e+02   3.9914194475e+01    0.5709242    0.1921774 -62.36  0.002406969    2.391    0.582
       357  -9.2753    198.1136    167.8836   6.8904169605e+01   8.4202087603e+00    0.2054975    0.1941342 -58.90 0.0006655466    1.213    0.176
       358  -9.3497    156.4559    166.1452   7.7496174650e+01   1.6603117927e+01    0.2194739    0.1463909 -45.98 0.0005134403    1.498    0.333
       359  -9.0288    152.4413    166.5219   7.8513521124e+01   1.7294761854e+01    0.1493006    0.1446811  -6.02 0.0001192679    1.016    0.016
       360 -10.2777     18.8145    164.9154   1.1368289290e+02   3.8090242168e+01    0.3043219    0.2491633 -35.20  0.001478109    1.489    0.328
       361  -9.3111    188.7227    163.4564   6.9873977057e+01   1.1003803721e+01    0.2582589    0.1693192 -22.66 0.0009641273    1.810    0.448
       362 -10.1270     39.7442    162.1982   1.0772339885e+02   3.6668509224e+01    0.4041641    0.2345929  68.77  0.001572737    2.045    0.511
       363  -9.9439    204.9731    162.9731   6.6562338965e+01   8.1237525756e+00    0.2490639    0.2030114  24.49 0.0005812596    1.300    0.231
       364  -9.7745    208.4729    160.9133   6.5475995247e+01   7.8859459104e+00    0.2572543    0.1678012 -44.01  0.001204554    1.452    0.311
       365 -10.7012     28.4791    161.6787   1.1074240237e+02   3.7980809990e+01    0.4411327    0.2179556 -55.60  0.001589875    1.893    0.472
       366 -10.3513    246.7499    159.2759   5.8610947054e+01   1.8163146575e+00    0.3948302    0.1519506 -38.55  0.001716178    2.209    0.547
       367  -9.4752    224.3722    157.6588   6.1950912461e+01   5.7131764117e+00    0.3402254    0.1538335 -45.70  0.001461492    2.105    0.525
       368  -9.4671    215.6166    157.6487   6.3491150367e+01   7.2273202635e+00     0.216681    0.1582975  -8.23  0.001109571    1.646    0.392
       369 -10.1949      9.4821    155.6716   1.1522972110e+02   4.1144400617e+01    0.2561154     0.180671 -61.72  0.001194074    1.292    0.226
       370 -10.5214    104.7824    154.1698   8.8134514399e+01   2.9172925624e+01    0.4035589    0.3141983 -38.57   0.00195375    1.377    0.274
       371 -11.8555     12.9624    138.6803   1.1239443769e+02   4.5069105375e+01    0.7850288    0.4544084 -81.01  0.004052762    1.592    0.372
