#   1 NUMBER                 Running object number                                     
#   2 MAG_AUTO               Kron-like elliptical aperture magnitude                    [mag]
#   3 X_IMAGE                Object position along x                                    [pixel]
#   4 Y_IMAGE                Object position along y                                    [pixel]
#   5 X_WORLD                Barycenter position along world x axis                     [deg]
#   6 Y_WORLD                Barycenter position along world y axis                     [deg]
#   7 A_WORLD                Profile RMS along major axis (world units)                 [deg]
#   8 B_WORLD                Profile RMS along minor axis (world units)                 [deg]
#   9 THETA_WORLD            Position angle (CCW/world-x)                               [deg]
#  10 FWHM_WORLD             FWHM assuming a gaussian core                              [deg]
#  11 ELONGATION             A_IMAGE/B_IMAGE                                           
#  12 ELLIPTICITY            1 - B_IMAGE/A_IMAGE                                       
         1 -14.9898      6.3790     70.8772   9.9136753807e+01   6.2093137587e+01     1.466424    0.8301074 -72.98   0.00680498    1.575    0.365
         2 -11.7350    194.6259     23.2263   2.3672575066e+01   3.3313502172e+01    0.4890668    0.2754827 -21.74  0.002438429    1.854    0.460
         3 -13.8742    188.2383     24.8918   2.4750020377e+01   3.4606331963e+01     3.076716    0.9319416 -58.24  0.007403313    7.806    0.872
         4 -14.7879    166.0915     28.2468   2.8282628079e+01   3.9563700678e+01     1.455514    0.9611261  87.05  0.007180301    1.620    0.383
         5 -14.4048    120.6176     36.8059   3.9266932814e+01   5.0076187675e+01     1.732831     0.684202  57.20  0.006344449    2.339    0.572
         6 -14.8077    146.9905     29.9466   3.1621314426e+01   4.4191257930e+01     1.501536    0.8766674  70.41  0.006841466    1.703    0.413
         7 -13.6547      3.1170     11.0230   8.8195677411e+01   7.6893397180e+01    0.8449821    0.4919985 -65.94  0.004557942    1.669    0.401
         8 -13.1399      7.8802      2.6699   7.9028017761e+01   7.8355207306e+01    0.6777845    0.4175532  34.19  0.003751619    1.809    0.447
         9 -15.9751     12.3396     21.9738   8.4281367598e+01   7.3860239651e+01     2.174574     1.105972 -38.18  0.007852118    1.849    0.459
        10 -13.9229     24.7343     13.5282   6.9928389992e+01   7.4397877861e+01    0.8044232    0.3443056  27.49  0.003467432    2.381    0.580
        11 -12.9123     44.1025     32.7388   6.6744756512e+01   6.7756209628e+01    0.8001291    0.5948642  40.72  0.004226292    1.395    0.283
        12 -13.0944    120.7970     25.7831   3.4953471571e+01   5.1526630817e+01    0.7889198    0.5767658  40.10  0.003320628    1.451    0.311
        13 -13.1039     55.5115     26.9484   5.7611409659e+01   6.6872123916e+01    0.7198657    0.4359547  42.92  0.003398594    1.606    0.377
        14 -13.2443     86.4539     14.6530   3.8676515175e+01   6.1761328193e+01    0.9829512    0.5351713 -58.83  0.003784402    2.870    0.652
        15 -15.1576     98.9219     11.1497   3.3596782799e+01   5.8977545258e+01     1.673955    0.9192405  67.14  0.007414615    1.730    0.422
        16 -12.3436     70.1394     15.8470   4.4971647314e+01   6.5538055749e+01    0.4131654    0.3543305  88.71  0.001838991    1.435    0.303
        17 -12.0193     58.9607     16.0776   4.9958396175e+01   6.7983672456e+01    0.3951184    0.3311172  36.74  0.002226635    1.109    0.099
        18 -13.3868    219.1255     15.5019   1.9744871171e+01   2.8762423380e+01    0.3475931    0.3035634   4.94   0.00194559    1.424    0.298
        19 -13.2092    215.0340     10.0061   1.8665732211e+01   3.0149362310e+01    0.4799494    0.2941616 -41.15  0.001529397    1.361    0.265
        20 -12.5240    222.9829      9.7568   1.8118485385e+01   2.8518721956e+01    0.3920737    0.2212788 -43.17  0.002275913    1.439    0.305
        21 -12.3019    223.6093      5.1642   1.6991868709e+01   2.8815196359e+01    0.3347869    0.2460254  32.59  0.002086523    1.896    0.473
        22 -11.8432     46.7592     12.6673   5.4283324643e+01   7.0981263121e+01    0.3210774    0.2503752  44.63  0.001392577    1.283    0.221
        23 -14.1088     40.5104      4.3831   5.2511465316e+01   7.3435915720e+01    0.8907986    0.6024854  36.95  0.004644679    1.375    0.273
        24 -12.2333    153.2108      8.6216   2.3528445592e+01   4.4910479817e+01      0.28248    0.2496482 -28.59 0.0009283863    1.209    0.173
        25 -11.0724     74.8189      8.5285   3.9177551408e+01   6.5365707161e+01    0.3678599    0.1991615 -15.69  0.001586287    2.243    0.554
        26 -10.9294     59.5205      7.1846   4.4352814417e+01   6.9106120238e+01    0.2460116    0.1684203  35.72 0.0009381425    1.405    0.288
        27 -11.7288    120.4597      3.5018   2.6004654296e+01   5.4018800229e+01    0.3326876    0.1700576  76.72  0.001433197    1.884    0.469
        28 -10.8014    117.4946      1.4999   2.5639171058e+01   5.4985756896e+01    0.2772729    0.1321707  77.59  0.001142977    2.051    0.513
        29 -10.5253     67.1464      3.8363   3.9181029398e+01   6.7745683852e+01    0.1953061    0.1453421  35.55 0.0004233608    1.285    0.222
        30 -13.2921    187.6133     11.0841   2.0939634592e+01   3.6171790701e+01     1.081902    0.4995445 -34.60  0.005152499    1.898    0.473
        31 -11.1051     81.5615      1.2186   3.3028602853e+01   6.4460836769e+01    0.4804639   0.01867979  59.20  0.001191786    5.436    0.816
        32 -11.2776     61.2701      1.4492   3.9965403417e+01   6.9391186038e+01    0.3738589    0.1239054  57.90  0.001363106    2.758    0.637
        33 -10.9481    123.5068     11.0604   2.8573419059e+01   5.2488373404e+01    0.2086591    0.1825559  74.40 0.0004213789    1.056    0.053
        34 -14.0701     30.0623    169.2456   9.9049807875e+01   3.5733932820e+01     2.622995     1.134575 -40.08   0.01017837    3.866    0.741
        35 -12.9034    107.6551    246.6102   8.6749306810e+01   1.2603249889e+01    0.5960842    0.4668748  71.50  0.004302823    1.797    0.443
        36 -13.2836     98.4333    239.0363   8.7998575506e+01   1.4799747334e+01    0.7421512    0.3904738  30.19  0.004414035    1.415    0.293
        37 -13.9792     91.6468    230.7576   8.8726839958e+01   1.6902685148e+01    0.5761722    0.5319091  25.95  0.004394053    1.201    0.168
        38 -12.4465     51.4523    248.5606   9.8547882212e+01   1.8337725377e+01    0.3645543    0.2959316  30.86  0.002856433    1.161    0.139
        39 -12.4529     60.2586    246.0268   9.6579234560e+01   1.7861530901e+01    0.3265895    0.3038727  29.64  0.002688708    1.272    0.214
        40 -10.8070     41.6634    250.3122   1.0063955666e+02   1.8998477948e+01    0.1179677   0.05391159  48.00 0.0007045572    1.688    0.407
        41 -12.6455      2.8814    248.8237   1.0835333450e+02   2.2562265156e+01    0.4186077    0.2468451  59.36  0.002922821    1.388    0.279
        42 -13.5170      9.5694    245.5455   1.0697101873e+02   2.2572719010e+01    0.6855058    0.2943128  49.45  0.003364715    1.648    0.393
        43 -11.9204     76.9651    156.6901   8.4218303850e+01   3.3269375314e+01    0.3990704    0.2828611  21.74  0.001192801    1.421    0.296
        44 -13.0070     73.4497    153.3389   8.4783077013e+01   3.4514769594e+01    0.7043065     0.445934  23.52  0.002897399    1.583    0.368
        45 -11.1561    188.4994    155.5215   5.6778208669e+01   1.5548442410e+01    0.1295812    0.1113475   1.70 0.0008101574    1.026    0.026
        46 -11.1313    110.1421    153.8573   7.4452283158e+01   2.8906849987e+01     0.222516    0.1920382  54.02  0.001244823    1.228    0.186
        47 -12.9062      6.8700    149.2617   1.0466346000e+02   4.2199109765e+01    0.4657659    0.2889741 -58.50  0.002571863    1.756    0.430
        48 -12.3202      6.0203    145.4928   1.0475382546e+02   4.3151312422e+01    0.2879254    0.2363822   4.52   0.00181402    1.411    0.291
        49 -11.2720    103.2442    149.9820   7.5664133377e+01   3.0845215013e+01    0.3104644    0.2105317 -23.96  0.001441492    1.953    0.488
        50 -12.3287    245.7062    148.8427   4.6141418168e+01   8.0102959535e+00      0.32396    0.2327544 -38.43  0.002181276    1.581    0.367
        51 -12.0866     60.6169    147.1970   8.7845100218e+01   3.7626147014e+01    0.3983801    0.2801322  10.11  0.001579024    1.654    0.395
        52 -14.4561     21.9598    181.0579   1.0194276300e+02   3.3825377091e+01    0.9189532     0.443009 -58.41   0.00463688    2.391    0.582
        53 -12.2986     40.7366    137.1889   9.3001362602e+01   4.2336161074e+01    0.3179362    0.2163477  57.01  0.001580336    1.439    0.305
        54 -12.1654    246.2855    136.6061   4.3743444391e+01   9.4274447483e+00    0.2644333    0.2284887  54.14  0.001911408    1.707    0.414
        55 -12.2634     44.8782    132.8877   9.1114048535e+01   4.2969656247e+01    0.5360426    0.3520238  82.17  0.002632558    1.677    0.404
        56 -12.1130    135.6452    132.3472   6.3556171912e+01   2.8888265696e+01    0.4210453    0.1283165  41.63  0.001368581    3.125    0.680
        57 -11.6715    134.9208    125.6712   6.2262417319e+01   3.0359120879e+01    0.2588827    0.2051496 -25.87  0.001293758    1.347    0.258
        58 -14.6086    106.2081    105.1050   6.5339039677e+01   4.0306312513e+01     2.312643      1.24643 -38.72  0.009221559    2.093    0.522
        59 -13.6199    108.8720    123.8603   6.8947204774e+01   3.5632695791e+01    0.8035519    0.5876035  28.59   0.00377574    1.369    0.269
        60 -13.4272    111.5945    116.5089   6.6495223581e+01   3.6748564545e+01    0.6398816    0.3645527  29.24   0.00243128    1.927    0.481
        61 -12.8148     84.7929    114.9601   7.4504922980e+01   4.1909188194e+01    0.8344675    0.3553943  30.49  0.002907832    2.458    0.593
        62 -12.5853     77.8748    109.7247   7.5725477938e+01   4.4309820134e+01    0.6285453    0.4164613  51.49  0.002858718    1.605    0.377
        63 -11.1628    181.3364    120.6822   5.0823960038e+01   2.2352072203e+01    0.1313082    0.1105781 -75.99 0.0007048758    1.701    0.412
        64 -12.1025      4.4369    119.4291   1.0397180678e+02   4.9660830316e+01    0.5601277    0.1819532  15.62   0.00219779    3.188    0.686
        65 -12.3718     49.0053     93.4655   8.3246796176e+01   5.2567813373e+01    0.4621754    0.3975293  44.46  0.002515402    1.168    0.144
        66 -12.5520     49.6472     98.5250   8.3995862151e+01   5.1188195003e+01      1.00622    0.5110781  18.06  0.004033936    2.306    0.566
        67 -11.4126     35.3192     86.4420   8.7756520822e+01   5.5932509294e+01    0.3230835    0.2346908 -14.28 0.0006527954    1.631    0.387
        68 -12.5153     42.4656     90.6181   8.5432622737e+01   5.4081633303e+01    0.4496545    0.2995538 -84.51  0.002114175    1.687    0.407
        69 -12.2054     19.1513     86.0989   9.4996448238e+01   5.7401764631e+01    0.4084501    0.2607702 -11.48  0.001028458    1.876    0.467
        70 -14.6458     24.8479     93.5390   9.3519861583e+01   5.5026057147e+01     1.408688      1.13912  -7.33  0.007850698    1.392    0.281
        71 -12.3743     36.6409     92.8651   8.8347440751e+01   5.4126959641e+01    0.4820189    0.3005337   5.97  0.001486391    1.932    0.482
        72 -14.9807     15.9371    107.8572   9.8836899735e+01   5.1940465578e+01       1.6049    0.9491677  57.54  0.006772803    1.709    0.415
        73 -11.6352    121.7049    112.2381   6.2605686399e+01   3.5705685674e+01     0.273609    0.2725884  82.90 0.0006836929    1.072    0.067
        74 -12.2123     62.9249    109.6211   8.1055780845e+01   4.6600405180e+01    0.5338612    0.4262959 -87.83   0.00273096    1.378    0.274
        75 -11.7371     42.1750    106.9081   8.8442720746e+01   4.9893008062e+01    0.3181866    0.2042609  16.15  0.001502363    1.711    0.416
        76 -13.4491      2.3433     97.1754   1.0338567545e+02   5.5446505795e+01    0.8325074    0.3141427 -86.37  0.003198268    2.498    0.600
        77 -12.4392    135.7923    102.8019   5.6485967091e+01   3.4746983193e+01    0.6318866    0.2696056  45.17  0.001712208    2.304    0.566
        78 -12.2444    120.8931    101.6084   6.0138665174e+01   3.8105490131e+01    0.3359682    0.2698085 -29.27  0.001662864    1.337    0.252
        79 -12.1498     60.8422     97.4859   7.9331355810e+01   4.9954901767e+01    0.4494861    0.3212862  54.47  0.001907773    1.514    0.339
        80 -11.3823     89.8810     97.2335   6.8599638348e+01   4.5210390227e+01    0.3481997    0.2562683 -74.41  0.001587053    1.699    0.411
        81 -11.3845    163.0888     97.0518   4.8725391886e+01   3.0004133196e+01    0.2290554    0.1819905 -77.27  0.001138567    1.711    0.416
        82 -13.0431    136.2632     94.9081   5.4264204258e+01   3.6188881069e+01    0.5140631    0.3991039  49.37  0.002553916    1.292    0.226
        83 -10.9341     81.3724     93.3580   7.0582380535e+01   4.7666041722e+01    0.3373049    0.2138011 -15.00  0.001253371    2.737    0.635
        84 -13.4263     95.5631    110.1978   6.9915003834e+01   4.1154336696e+01    0.9608675    0.7852644  59.86  0.004829891    1.331    0.249
        85 -12.6535    188.1633     84.2647   4.0803016484e+01   2.6769177133e+01    0.5321713    0.2177054  43.03  0.002070359    2.827    0.646
        86 -12.4662    158.5083     66.0016   4.1035357312e+01   3.6209242100e+01    0.8196675    0.2902514 -40.28  0.002898399    2.695    0.629
        87 -13.6705    163.7208     71.6311   4.1681116399e+01   3.4103725181e+01     1.342704    0.4937227  50.72  0.004893402    2.697    0.629
        88 -14.3001    169.5524     76.9796   4.2096216886e+01   3.1929708046e+01     1.255841    0.4837016  51.79  0.004742021    2.603    0.616
        89 -11.8084    158.2117     83.4134   4.6080065265e+01   3.3415797488e+01     0.326167    0.2601684  62.05 0.0007058304    1.354    0.261
        90 -13.0184    161.7732     79.6974   4.4328984036e+01   3.3238833921e+01    0.6338405    0.3946912  31.53  0.002105569    2.012    0.503
        91 -13.4505     65.0587     51.9777   6.4124131090e+01   6.0102027137e+01     1.342393    0.7487515 -34.84  0.005547146    2.062    0.515
        92 -13.6899     54.1903     67.5965   7.4492892050e+01   5.8342702024e+01     1.972516    0.7572979  30.73  0.007061235    2.664    0.625
        93 -13.3539     91.8961     57.7643   5.5620068343e+01   5.3427869016e+01    0.5998431    0.5598024  24.22  0.003091095    1.076    0.070
        94 -13.6708     87.4585     65.0794   5.9814201790e+01   5.2887006879e+01     1.087728    0.6951214  12.50  0.003944889    2.649    0.623
        95 -13.0208     54.4515     81.4985   7.8203444289e+01   5.4883736615e+01    0.6553831     0.481832 -75.66  0.003188259    1.515    0.340
        96 -12.4797     77.1718     73.2391   6.6409805195e+01   5.3132062378e+01    0.6645648    0.3696061 -33.70  0.002329578    2.273    0.560
        97 -14.0181     61.4072     75.5494   7.3595751635e+01   5.5311415923e+01    0.7529529    0.5789989 -23.23  0.001342674    1.511    0.338
        98 -13.2675     70.9278     75.0846   6.9471787371e+01   5.3835785911e+01    0.7333916    0.5073801  10.49  0.001957582    1.909    0.476
        99 -12.7890    216.0598     80.8927   3.5902551813e+01   2.1673578639e+01     0.583593      0.30663 -60.49  0.002415883    3.244    0.692
       100 -12.6579    135.3632     79.6847   5.0154715788e+01   3.9277307483e+01    0.6705632    0.3715682  50.73  0.002722906    1.793    0.442
       101 -11.8841    114.1911     79.7033   5.5846081436e+01   4.4068225171e+01    0.4106743    0.3397104 -53.78   0.00146308    1.284    0.221
       102 -11.5147     41.5273     76.0233   8.2700110322e+01   5.7937522010e+01    0.4243426    0.2949292  72.84  0.001951794    1.815    0.449
       103 -12.9351     28.3436    246.0748   1.0319247963e+02   2.0901143557e+01    0.4031308    0.2670418  48.03  0.002977198    1.154    0.133
       104 -13.7236      4.3329     63.5713   9.9303793416e+01   6.4061115241e+01    0.6289616    0.4591959  29.56  0.003573541    1.484    0.326
       105 -10.7615     97.4571     78.5445   6.0724368488e+01   4.7923349814e+01    0.1524903    0.1485835  31.96 0.0001003597    1.003    0.003
       106 -11.3663     27.3889     75.8421   8.9439545924e+01   5.9432765722e+01    0.4064757    0.2330365  73.87  0.001731831    2.302    0.566
       107 -13.3291    199.3099     69.9557   3.5478822527e+01   2.6504761230e+01    0.6565308    0.4015402  43.49  0.002945952    1.856    0.461
       108 -11.4943    117.7099     72.3914   5.2548693941e+01   4.4718706080e+01    0.2710703    0.2525469  24.12 0.0004502519    1.101    0.092
       109 -12.8638    134.5751     66.1343   4.6178050823e+01   4.1895951712e+01    0.6625925     0.451762  32.90  0.002110988    1.711    0.416
       110 -11.9779     99.7462     63.7818   5.5119773692e+01   5.0490272426e+01    0.4541364    0.3306391 -47.63  0.002133337    1.433    0.302
       111 -12.2120     31.3474     62.5457   8.4488561712e+01   6.2461645003e+01    0.5836333    0.3235754 -79.44  0.002492286    2.190    0.543
       112 -11.7965     25.0356     58.8633   8.7014804537e+01   6.3982486055e+01    0.5473486    0.3177304 -61.28  0.002208625    1.578    0.366
       113 -11.5651    199.9255     61.7812   3.3307678242e+01   2.7483173450e+01      0.20428    0.1795033  15.53   0.00123667    1.297    0.229
       114 -10.9025     85.6100     49.1813   5.4596445682e+01   5.6482174958e+01    0.2532408    0.2316409  -3.36 0.0005152356    1.154    0.133
       115 -12.8455     79.0342     60.2964   6.1321541830e+01   5.5626328501e+01      0.59278    0.5340599 -43.06  0.002614232    1.133    0.117
       116 -12.9973     82.2350     54.3153   5.7863143810e+01   5.6204476347e+01    0.6680069    0.4902988  37.41  0.002216994    1.351    0.260
       117 -13.4709    177.6829     57.0691   3.5172859471e+01   3.3055547420e+01    0.8931819    0.5318006 -44.98  0.003421531    1.631    0.387
       118 -11.1284     39.1019     59.9438   7.9676718700e+01   6.2248585682e+01    0.3145607    0.1966296  62.89  0.001355344    2.264    0.558
       119 -14.6638    119.6464     54.2295   4.5907524291e+01   4.7567730564e+01     1.137666    0.6783832  47.49  0.004925927    1.640    0.390
       120 -11.3399     17.5739     55.6415   9.0517937239e+01   6.5381475193e+01    0.3684606    0.2023756 -66.33  0.001751133    1.663    0.399
       121 -13.6772    103.1609     50.2947   4.9129973768e+01   5.2239831086e+01     1.148695    0.6307806 -56.45  0.002511984    2.509    0.601
       122 -13.1974     98.0034     50.0277   5.0649782143e+01   5.3504749005e+01    0.6615496    0.4504006 -55.90  0.002214838    1.741    0.426
       123 -10.1116     42.3188     53.2791   7.5883334362e+01   6.3446132135e+01    0.1458851    0.1055667 -20.63  0.000698704    1.578    0.366
       124 -11.4419     36.7290     53.5803   7.9031066399e+01   6.4081069063e+01    0.3425299    0.1888619  20.51  0.001516213    1.949    0.487
       125 -11.2925     38.0188     50.4890   7.7310413741e+01   6.4662469802e+01    0.2886792    0.1853194  24.92 0.0009689427    1.593    0.372
       126 -11.7603    136.2888     49.4694   4.0304591318e+01   4.4208462896e+01    0.2775581    0.2725154  51.37  0.000666653    1.038    0.037
       127 -10.5650     23.5252     49.9798   8.5602953199e+01   6.6328120009e+01    0.2001731    0.1265208 -61.81 0.0004755468    1.479    0.324
       128 -12.7830    154.1025     47.1144   3.6059200093e+01   4.0110689642e+01    0.4676625    0.3235492  66.23  0.002291626    1.461    0.315
       129 -13.1154    158.9579     43.1619   3.3988585697e+01   3.9456076179e+01    0.5039039    0.4271663  78.05  0.002361177    1.188    0.158
       130 -13.4287    171.9867    242.4396   7.3616037643e+01   5.6639850481e+00    0.5614858    0.3402331  15.63  0.003766041    1.309    0.236
       131 -11.9233    147.5814    238.8171   7.7862814062e+01   8.9965421776e+00    0.1233841    0.1141349 -63.91 0.0009480445    1.688    0.407
       132 -13.1987    213.0777     42.8543   2.6999578891e+01   2.7080956333e+01    0.6326653    0.2817754  65.38  0.002639177    2.424    0.587
       133 -13.3767    219.5279     41.5350   2.6054596776e+01   2.5909695254e+01    0.5752234    0.3751564 -79.06  0.002552063    1.814    0.449
       134 -12.6081      4.0464     43.2807   9.6362893085e+01   6.9211753043e+01     0.568736    0.3780413 -28.80  0.003130148    1.486    0.327
       135 -12.1444     11.6767     43.4850   9.1384681449e+01   6.8796330015e+01    0.4658779    0.2502621 -15.45  0.001969581    2.130    0.530
       136 -12.6963     24.4377    216.7987   1.0293996853e+02   2.6387121756e+01     0.655239    0.2539362  47.25  0.003482744    1.933    0.483
       137 -12.4842    109.9757     41.8976   4.3922016897e+01   5.1992952975e+01    0.5745987    0.2071984  54.11  0.001613333    2.582    0.613
       138 -11.7424     13.6816    222.6309   1.0553645702e+02   2.6216883164e+01    0.3917064    0.1352245  60.09   0.00153915    2.545    0.607
       139 -13.7124     26.4905    226.2875   1.0285523002e+02   2.4464266849e+01    0.6718826    0.4012417 -47.16  0.004094757    2.439    0.590
       140 -12.9918    139.3138     21.5330   2.9922829698e+01   4.7183586430e+01    0.8012627    0.3163322  62.66  0.001676444    2.279    0.561
       141 -12.2845     75.9740     37.0126   5.3163371621e+01   6.0847939250e+01    0.4441894    0.2727136  47.47  0.001072457    1.570    0.363
       142 -11.4503     70.6757     36.0095   5.4904548075e+01   6.2166466111e+01    0.2849278    0.2645281  46.66 0.0006530953    1.093    0.085
       143 -12.4305    242.3295     36.0322   2.2888317972e+01   2.2111340219e+01    0.4394548    0.2386713  77.62  0.002133999    2.213    0.548
       144 -13.3778    132.1985     32.7608   3.5268364825e+01   4.7651453023e+01    0.6483558     0.473149  51.17  0.001941146    1.348    0.258
       145 -13.9499     20.7576    224.1469   1.0403452658e+02   2.5350129382e+01    0.5179406    0.4239034  65.87  0.002410354    1.207    0.172
       146 -13.5750     65.2219    223.1839   9.4009104395e+01   2.1185922669e+01     1.054732    0.5462101  42.80  0.006051927    1.533    0.348
       147 -12.7578     59.3967    212.7848   9.4597607461e+01   2.3714259297e+01    0.3400117    0.2344492 -45.01  0.001237215    1.892    0.472
       148 -13.6536     64.5378    214.5197   9.3519443672e+01   2.2828757949e+01    0.5390935    0.3108671  48.69  0.002866336    1.526    0.344
       149 -12.0648     94.2217    217.9997   8.6957636580e+01   1.8736803493e+01     0.233522    0.1464424  30.53  0.001204882    1.257    0.205
       150 -10.9604     35.0279     34.7026   7.3144776888e+01   6.8656478251e+01    0.2365248    0.1840252  37.55 0.0005420802    1.359    0.264
       151 -13.1959    216.5026     28.1919   2.3050233398e+01   2.8008440350e+01    0.3566104    0.1971702 -38.19   0.00162063    1.512    0.339
       152 -11.9760    249.3585    216.0949   5.6928573745e+01   5.4969461512e-02    0.1899983    0.1265575  21.47   0.00146864    1.406    0.289
       153 -11.4285    156.6785    213.8694   7.2872592451e+01   1.1346144462e+01     0.221283   0.09796996 -36.60  0.001101968    2.621    0.619
       154 -12.0121     63.4698     24.9714   5.2717979505e+01   6.5612968152e+01    0.5498904    0.3546901  21.25  0.002465223    1.969    0.492
       155 -11.7842     30.8893     25.3534   7.1643985924e+01   7.1205334717e+01     0.473164    0.2717447   7.67  0.001602457    2.301    0.565
       156 -11.4288     36.3695     23.5878   6.7043113844e+01   7.0797492487e+01    0.3905973    0.2302078 -47.54  0.001896655    1.700    0.412
       157 -12.7930      4.2164    211.1643   1.0733696641e+02   2.9098663448e+01    0.4513457    0.2661446  84.88  0.002922802    1.705    0.413
       158 -11.9667     72.3507    207.2835   9.1069028924e+01   2.3293031079e+01    0.3334721    0.2553282 -87.93  0.002133473    1.570    0.363
       159 -11.9905     46.3705     20.4586   5.9123810948e+01   6.9738393858e+01    0.4031712    0.2851713  22.90  0.001928065    1.473    0.321
       160 -10.9202     51.2691     20.4194   5.6348306720e+01   6.8835966502e+01    0.2781912    0.1730606  47.15 0.0008504637    1.628    0.386
       161 -11.9522    223.4120     20.4696   2.0650362787e+01   2.7387802087e+01    0.2411112    0.2218958 -38.30  0.001301226    1.143    0.125
       162 -12.2215     41.2420    206.1199   9.8480955883e+01   2.6872520745e+01    0.2288049     0.139401  63.07  0.001350099    1.595    0.373
       163 -12.1711     57.6348    203.2868   9.4306629038e+01   2.5724864650e+01    0.4895824    0.2412771  77.44  0.002279217    2.876    0.652
       164 -12.9677     16.9581    195.8813   1.0387455920e+02   3.1120880996e+01    0.3614602    0.2576405 -68.82  0.002076215    1.617    0.381
       165 -13.7588     40.6593    195.1207   9.7940838350e+01   2.9133948411e+01    0.7269251    0.2358454  45.85  0.003169735    2.472    0.596
       166 -13.6970     22.4824    166.0558   1.0098329102e+02   3.7120633212e+01    0.5742208    0.3662237  27.53  0.001778403    1.461    0.315
       167 -15.4499      8.0221    183.1237   1.0564423358e+02   3.4479992465e+01     1.176757     1.054581  74.34  0.008532542    1.160    0.138
       168 -15.5369     15.7846    174.9249   1.0328932305e+02   3.5670472222e+01     2.429791    0.8444382  53.61    0.0107161    2.499    0.600
       169 -11.9896    249.2938    198.7461   5.4254810697e+01   1.8584879996e+00    0.2989683    0.1690112 -34.61  0.001989912    1.940    0.485
       170 -11.7666    164.5037    196.0102   6.8655488593e+01   1.2936132364e+01    0.1477516     0.115055 -76.12 0.0008105877    2.578    0.612
       171 -11.4323    201.0595    191.8379   6.0956588080e+01   8.5162756412e+00    0.1729972    0.1482118  13.84 0.0008261064    1.264    0.209
       172 -11.1126    206.3201    190.6718   5.9831200261e+01   7.9750652981e+00   0.09865095   0.09477015  35.24 0.0004312352    1.686    0.407
       173 -11.2414    155.6764    184.6632   6.8706244864e+01   1.5994628278e+01    0.1350861    0.0900558  -0.63 0.0007050971    1.716    0.417
       174 -11.5719    249.5815    182.2657   5.1515975098e+01   3.6236642356e+00    0.2041582    0.0856239 -33.32  0.001149594    2.163    0.538
       175 -11.6999     49.0753    181.5522   9.4762427824e+01   3.1123371732e+01    0.3024931    0.1903982 -68.98  0.001674124    1.741    0.426
       176 -12.0370    198.5401    181.3183   5.9635452426e+01   1.0281327325e+01    0.2228323    0.1829325  46.03  0.001447593    1.713    0.416
       177 -12.2075    124.3077    166.7800   7.2999467209e+01   2.4023737295e+01    0.5307686    0.3698199 -69.49  0.002668011    2.041    0.510
       178 -10.9934    177.5051    167.4722   6.1180931681e+01   1.5426390606e+01    0.1303366    0.1101947   7.21 0.0001595747    1.010    0.010
