#   1 NUMBER                 Running object number                                     
#   2 MAG_AUTO               Kron-like elliptical aperture magnitude                    [mag]
#   3 X_IMAGE                Object position along x                                    [pixel]
#   4 Y_IMAGE                Object position along y                                    [pixel]
#   5 X_WORLD                Barycenter position along world x axis                     [deg]
#   6 Y_WORLD                Barycenter position along world y axis                     [deg]
#   7 A_WORLD                Profile RMS along major axis (world units)                 [deg]
#   8 B_WORLD                Profile RMS along minor axis (world units)                 [deg]
#   9 THETA_WORLD            Position angle (CCW/world-x)                               [deg]
#  10 FWHM_WORLD             FWHM assuming a gaussian core                              [deg]
#  11 ELONGATION             A_IMAGE/B_IMAGE                                           
#  12 ELLIPTICITY            1 - B_IMAGE/A_IMAGE                                       
         1 -11.2016    227.5867     34.7733   3.5156076295e+01   2.5566627950e+01     1.048042    0.7206669 -65.26 0.0007787751    1.278    0.218
         2 -14.1481    179.1156     76.8326   5.1601109050e+01   3.0173242702e+01     6.711737     3.454879 -63.39   0.01866881    3.170    0.685
         3 -13.8339    243.3566     53.6448   3.7547945538e+01   1.9904155873e+01     3.319777     1.288358  67.17  0.009301268    2.805    0.644
         4 -12.5586    218.6599     74.5424   4.4902072923e+01   2.1813200483e+01     6.246941     1.762733 -46.49   0.02166651    3.322    0.699
         5 -12.0729    250.0761     26.6354   3.1636939900e+01   2.2102567472e+01     1.673068    0.4583395 -31.63  0.006267329    4.561    0.781
         6 -10.1558    213.9196     25.5888   3.4478401852e+01   2.9572000699e+01     1.379817    0.5448483 -23.33  0.004006151    4.295    0.767
         7  -8.5973    219.3465     37.2248   3.6489118627e+01   2.6982898713e+01     2.587233    0.6095051 -32.95   0.00883104    4.432    0.774
         8 -13.0882    248.1970     82.1803   4.2876588641e+01   1.4809081367e+01     2.874156     1.136138 -36.92  0.005218356    2.265    0.558
         9 -13.4757    226.4286     88.2956   4.6926626505e+01   1.8023023614e+01      8.80382     1.847109 -49.05   0.01811317    7.577    0.868
        10 -10.3752    232.8203     25.2741   3.2727829972e+01   2.5656752030e+01    0.5963026    0.2056687 -31.95  0.002601072    3.139    0.681
        11 -10.8340    134.1757     19.6502   4.3357726121e+01   4.8681442937e+01    0.4909642    0.3062131  -7.06  0.002471824    2.194    0.544
        12  -9.7021    207.1104     19.2904   3.3733665920e+01   3.1772309622e+01    0.4061229    0.2673269 -76.44 0.0009448785    1.411    0.291
        13  -9.3002    206.7531     13.6836   3.2522009974e+01   3.2462019382e+01    0.3391888    0.1809502 -73.43  0.001749578    1.931    0.482
        14  -8.7588    224.0213     18.6616   3.2100049051e+01   2.8231931466e+01    0.2771711    0.1906733 -31.30  0.001229371    1.665    0.400
        15 -10.4181    142.2527     15.2880   4.0658409810e+01   4.7200649033e+01    0.4621398    0.2545395 -46.05  0.001971916    2.036    0.509
        16 -10.3204    143.6089      7.2633   3.8067538511e+01   4.7616512548e+01    0.7989887    0.3045221 -12.83  0.002946608    4.613    0.783
        17  -8.4312    237.4686      2.5357   2.7916625124e+01   2.7246685752e+01    0.1938494    0.1636723 -84.70 0.0008113091    1.198    0.165
        18 -10.0658    240.4373      6.1203   2.8407627065e+01   2.6288939808e+01    0.2854713    0.2419528  33.32  0.001009384    1.912    0.477
        19  -9.1326    243.7542      1.3739   2.7313218947e+01   2.6140816934e+01    0.1879917    0.1421765 -88.21 0.0004902207    1.182    0.154
        20 -10.1053    237.0998     16.3202   3.0605117627e+01   2.5833226659e+01    0.2673699     0.239504 -52.52 0.0008994035    1.301    0.232
        21  -9.5271    238.2122     12.0226   2.9687561026e+01   2.6090368006e+01    0.2128249     0.120869 -38.39  0.000770983    1.697    0.411
        22  -9.9032    245.1689     15.7054   2.9910129850e+01   2.4319297295e+01    0.2498537    0.1655884 -35.95  0.000637694    1.600    0.375
        23 -10.0728    125.9413     14.2460   4.3123119554e+01   5.1144615695e+01    0.3316901    0.2668688 -38.08  0.001678881    1.413    0.292
        24 -11.6099    119.0803      9.8432   4.2946869992e+01   5.3137965052e+01    0.7220079    0.4286391  49.18  0.003486502    1.464    0.317
        25  -9.6020     92.3917     13.5057   5.0232657903e+01   5.8787998845e+01    0.3249003    0.1280537 -19.91  0.001370301    3.097    0.677
        26  -9.7373    113.8683      3.7269   4.1847939549e+01   5.4843079080e+01    0.3487922    0.2449603 -62.64  0.001993553    1.825    0.452
        27  -9.4988    216.0479      8.3732   3.0596157250e+01   3.1023350085e+01    0.2680006    0.1661959 -27.31  0.001084791    1.957    0.489
        28  -8.9999     93.0283      7.4943   4.7730407018e+01   5.9189550453e+01    0.1957544    0.1072932  56.95 0.0005682577    1.558    0.358
        29 -11.2758    249.6844      2.9688   2.7256021163e+01   2.4842446821e+01    0.2884378    0.2154597 -11.43  0.001804568    2.296    0.564
        30  -7.7072    165.2684      6.3759   3.5004200632e+01   4.2603462340e+01    0.1218214   0.08720643  39.23 0.0006992665    1.679    0.405
        31  -8.8042    249.5220    247.4925   7.4497926324e+01  -1.1323364701e+01    0.1164803   0.08403493  -3.79 8.067446e-05    1.015    0.015
        32 -12.5474    183.4232     89.3174   5.4022959210e+01   2.7034080852e+01      1.54764    0.9765248 -45.37  0.006820743    1.521    0.343
        33  -7.9361    232.3219    247.7199   7.7568941095e+01  -9.3648219134e+00   0.09919921   0.08842906  24.87 0.0002044958    1.586    0.370
        34 -11.5024    248.9394     60.0083   3.8284405237e+01   1.7945565432e+01    0.3728403    0.2306953 -46.68 0.0005156042    1.335    0.251
        35  -9.2923     42.2880    246.9054   1.1625044124e+02   1.6754125461e+01    0.2103213    0.1264995  49.51 0.0006093634    1.360    0.265
        36  -8.1509    206.3419    154.6474   6.4992407528e+01   9.9375096094e+00     0.142473    0.1137107 -75.57 0.0002209973    1.809    0.447
        37  -8.9699    133.9124    147.4605   7.9758267087e+01   2.5552299707e+01     0.639822    0.1898616 -52.69  0.001774342    3.838    0.739
        38  -9.6754    178.9175    147.0504   6.8911476661e+01   1.6670129335e+01    0.2432495    0.2341712 -53.32  0.001343107    1.116    0.104
        39 -11.4998     65.1546    143.0957   9.8505520789e+01   3.8295168871e+01     1.234457    0.9332336  41.82  0.006101721    1.392    0.282
        40  -7.8453    192.1605    144.1700   6.5487413280e+01   1.4650969912e+01     0.194292    0.1735287 -71.21 0.0005339129    1.323    0.244
        41  -8.5084    184.2614    144.0818   6.7098454399e+01   1.6221151062e+01    0.2665655    0.2058374  10.52 0.0008195219    1.558    0.358
        42  -8.5801    122.2920    144.1063   8.2097138308e+01   2.8589349415e+01    0.2340829        0.208  18.89 0.0002956919    1.181    0.153
        43  -9.1784    192.4090    235.4628   8.3188916057e+01  -2.3103941518e+00     0.238743    0.2277562 -82.40 0.0007341787    1.607    0.378
        44  -8.4673    190.4592    138.5047   6.4549099373e+01   1.6114768379e+01    0.1493798    0.1371303 -24.12 9.378624e-05    1.037    0.036
        45 -10.1062    209.2870    135.6834   6.0291856231e+01   1.2989736175e+01    0.4457102    0.3203558 -80.33  0.002039124    2.267    0.559
        46 -10.1760    182.5679    135.1292   6.5396641020e+01   1.8384017643e+01    0.5583018    0.2291499 -49.14  0.001953621    2.598    0.615
        47  -7.6975    140.7799    133.0245   7.4614122087e+01   2.7493185292e+01    0.2097235    0.1268455 -46.52 0.0003863294    1.627    0.385
        48  -8.9313    136.0000    128.9615   7.4860369051e+01   2.9397567062e+01    0.4489747   0.08855167 -46.72  0.001057253    4.988    0.800
        49  -8.7383    160.7987    128.9177   6.8725195303e+01   2.4211023628e+01     0.308277      0.22157 -62.42  0.001370401    1.664    0.399
        50  -8.0003    143.2913    137.0021   7.4927882702e+01   2.6079131016e+01    0.2263509     0.199562 -46.95  0.000711521    1.124    0.111
        51 -10.3373    212.3568    229.5563   7.8273818286e+01  -4.1833175884e+00    0.2248983    0.1891697  -6.00 0.0002775772    1.102    0.092
        52  -9.0358    180.2095    229.4728   8.4703507853e+01   4.6514149686e-01    0.2356072    0.1955091  34.71  0.001057703    1.262    0.208
        53  -9.5535    227.3420    119.8174   5.3727405709e+01   1.2473134632e+01    0.3163758    0.1425441 -47.63  0.001328246    2.112    0.527
        54  -8.0348    135.0000    119.9743   7.2869996458e+01   3.1626987910e+01    0.2633114     0.088476 -45.64 0.0008007708    2.931    0.659
        55  -8.6998    163.5220    117.0123   6.5153215630e+01   2.6128944502e+01    0.3402987    0.1423622 -48.18  0.001175371    2.476    0.596
        56  -7.5803    128.2353    118.3683   7.4262832593e+01   3.3398093964e+01    0.1588524    0.1197361 -19.07 0.0004647585    1.602    0.376
        57  -9.0222    134.5931    106.3111   6.9384243409e+01   3.4690804656e+01     0.387474    0.1442597 -47.88  0.001248486    2.805    0.643
        58  -8.4302    175.5205    113.5103   6.1669716010e+01   2.4226088920e+01    0.1506454    0.1441149 -46.02   7.7611e-05    1.012    0.012
        59  -8.1090     71.0127    112.7549   9.0305032220e+01   4.5096722583e+01    0.1950382    0.1813199 -35.76 0.0002496329    1.016    0.015
        60 -10.7644    205.6818    110.4511   5.5186580355e+01   1.8404660417e+01    0.4247039    0.3154915  43.35  0.002209363    1.498    0.333
        61  -9.1891    181.6303    225.0849   8.3679784223e+01   1.0020697745e+00    0.2249641    0.1689017  21.49 0.0003575431    1.189    0.159
        62  -8.7743    150.1431    103.3268   6.4701819440e+01   3.1886398777e+01    0.2986827    0.2335934  -9.92 0.0005764308    1.603    0.376
        63  -9.4365    121.5371    102.4559   7.1857437520e+01   3.8302667689e+01    0.3616408    0.2161191 -18.01  0.001265432    2.863    0.651
        64  -9.0493    182.6679    220.3163   8.2654653611e+01   1.6726088313e+00    0.2105787    0.1907263  26.85 0.0007797293    1.206    0.171
        65  -9.9919    161.3261     98.3147   6.0810591437e+01   3.0365069708e+01    0.5673148    0.2979098  33.39  0.002031655    2.665    0.625
        66  -8.8108    135.8806     99.1726   6.7097423115e+01   3.5901661274e+01    0.2967469    0.2136423  60.91 0.0007118107    1.589    0.371
        67  -8.4049    169.6523     97.7098   5.8874865784e+01   2.8599054384e+01    0.1513403      0.11894  14.05 0.0007026566    1.663    0.399
        68  -9.4731    144.1193     93.7995   6.3549798400e+01   3.5142548924e+01    0.3359947    0.2835975 -60.73  0.000735669    1.281    0.219
        69 -10.2132     89.1903     94.5535   7.9458280278e+01   4.6369855456e+01    0.2648198    0.2359953 -26.98 0.0002717255    1.081    0.075
        70  -8.9314    118.7123     91.5325   6.9550161080e+01   4.1192402001e+01    0.4145073    0.1299791 -48.00  0.001220338    3.562    0.719
        71 -12.4796    233.5620     67.5459   4.1501144803e+01   1.9836846769e+01    0.9601604    0.6749217 -41.75  0.001931306    1.288    0.223
        72 -10.5136    160.0952     89.4763   5.8711217765e+01   3.2324200724e+01    0.3418047    0.2749907 -25.29 0.0005737775    1.361    0.265
        73  -9.0279    126.0858     87.4870   6.6341719618e+01   4.0409723285e+01    0.3216366    0.2130495 -44.31 0.0009582307    1.532    0.347
        74  -8.6656    196.8574     78.1698   4.8942770874e+01   2.5935416465e+01    0.2722212    0.2500902  22.09  0.001136114    1.315    0.240
        75  -9.3421    200.6169     76.8017   4.8022499155e+01   2.5327991414e+01    0.3535962    0.2507049 -58.82 0.0009360866    1.412    0.292
        76  -9.9732    196.7814     83.0557   5.0148505972e+01   2.5138584618e+01    0.3178639    0.2686318  38.74 0.0006442973    1.374    0.272
        77 -10.2267    202.5312     80.9484   4.8723982079e+01   2.4228931629e+01    0.4325256    0.3354378  57.41   0.00117214    1.362    0.266
        78 -11.4345    241.8991     64.7901   3.9989192329e+01   1.8604780484e+01    0.6595745    0.4755565 -67.64  0.001208617    1.307    0.235
        79  -9.9305    162.2137     79.3101   5.5499009529e+01   3.3668320958e+01    0.4606031    0.2303511  32.10  0.001513749    3.586    0.721
        80  -9.4841    147.8098     76.1515   5.7696057048e+01   3.7580145641e+01    0.2482224    0.2446834  88.30 0.0006800528    1.014    0.014
        81  -7.9360    137.7188     73.0634   5.9125511979e+01   4.0461879480e+01    0.2051958    0.1841449 -34.52 0.0003999343    1.146    0.127
        82 -10.1275    149.2274    214.2280   8.8911472845e+01   8.1333699401e+00    0.2511302    0.2282741 -38.75  0.000383021    1.188    0.158
        83  -9.9024    144.0747     53.8666   5.1960618560e+01   4.2064826599e+01    0.3464682    0.1868516  62.20  0.001503099    1.869    0.465
        84  -8.1341    190.3263     51.6464   4.3370260497e+01   3.1476993643e+01    0.2473204    0.1113611 -45.74  0.001064117    2.142    0.533
        85  -9.5326    188.3365     44.1741   4.1781530006e+01   3.2960913603e+01    0.6782613    0.2232211 -40.37  0.002448417    2.792    0.642
        86  -8.3172    191.5507     41.2429   4.0626394758e+01   3.2609877616e+01    0.2478954    0.1279912 -33.58  0.001041364    2.016    0.504
        87  -9.1121    184.7415     40.7673   4.1415713211e+01   3.4241465403e+01    0.2388459    0.1913656  64.25  0.001403895    1.217    0.178
        88  -9.8391    186.4118     36.1842   4.0039967785e+01   3.4440048288e+01    0.3213422    0.2339491  52.54  0.001585436    1.465    0.317
        89  -9.1561    179.0507     51.4428   4.4988744583e+01   3.4119449719e+01    0.3651394    0.2469809  37.64 0.0007218657    1.873    0.466
        90  -8.0449    193.9770     49.0044   4.2210906314e+01   3.1011780306e+01    0.2144075     0.142165 -66.54 0.0006524164    1.588    0.370
        91 -10.3750    121.7150     38.1988   5.1917614680e+01   4.9478421833e+01    0.3364389    0.2807861 -56.62  0.001916079    1.389    0.280
        92  -9.3736    204.4328     38.5282   3.8399640686e+01   3.0056171350e+01     0.237507    0.1931027 -57.89 0.0005561716    1.128    0.114
        93  -9.5804    203.8377     34.4393   3.7517941507e+01   3.0705796414e+01    0.2339416    0.1723186 -41.45  0.000619765    1.357    0.263
        94 -11.0737     30.8319    209.5534   1.1583676294e+02   2.5961766961e+01    0.6336408    0.5315635  79.73  0.002215673    1.028    0.027
        95  -8.8638    229.2094     27.5616   3.3503654395e+01   2.6119815229e+01    0.2107973    0.1883612 -67.39  0.000675867    1.173    0.148
        96  -8.1125    207.0251     25.9857   3.5244496773e+01   3.1024712084e+01    0.1715141    0.1435673  42.00 0.0004840155    1.566    0.361
        97  -9.3538    248.3722    210.3865   6.8331854604e+01  -6.0474248834e+00    0.2913846    0.1928033  45.86  0.001396873    2.259    0.557
        98 -10.7122    127.2857     22.4310   4.5534132985e+01   5.0017081354e+01    0.5872489    0.1928494  58.82  0.002299726    2.513    0.602
        99  -9.7678    130.6157     18.8029   4.3733760756e+01   4.9606519770e+01    0.2888553    0.1993728 -38.98  0.001400769    1.617    0.381
       100  -7.6325    115.4976     23.4481   4.8327831019e+01   5.2645948138e+01    0.1323765    0.1173805  55.11 7.341438e-05    1.042    0.041
       101  -8.2666    101.1212    209.2315   9.9381327010e+01   1.6878029331e+01    0.1886565    0.1778702   5.10 0.0005035668    1.172    0.147
       102  -9.7415    247.4700    203.0809   6.7159099387e+01  -4.8304150468e+00     0.268355    0.2071595   3.73  0.001753466    1.182    0.154
       103  -8.7071    172.0066    199.9468   8.1320290832e+01   7.1585263197e+00    0.2055091    0.1842403   0.32  0.001185128    1.022    0.022
       104 -10.2142    234.3746    196.1593   6.8153575616e+01  -1.9568338410e+00    0.6370896    0.2747541  48.18  0.002538508    3.840    0.740
       105  -9.2694    192.1110    193.2601   7.5754022090e+01   5.0742584207e+00    0.6387637    0.3306653 -62.00  0.002004187    5.042    0.802
       106  -9.2701     33.4365    196.6088   1.1413244643e+02   2.8677134617e+01     0.217063    0.1914296 -69.22 0.0008380537    1.204    0.169
       107  -9.4156     47.8372    192.1391   1.1022222325e+02   2.8145268279e+01    0.1783632    0.1545768 -47.41 0.0005343691    1.332    0.249
       108  -8.7896    221.0113    186.4486   6.8726905666e+01   1.6563097201e+00    0.1941611    0.1272053  33.56 0.0006868968    1.602    0.376
       109  -8.7596     35.7850    181.0226   1.1203558285e+02   3.2173922194e+01    0.1917163    0.1761406  67.75  0.000276214    1.107    0.097
       110  -8.6911    155.8283    179.2661   8.1044679699e+01   1.4232409479e+01    0.3351921    0.2488104 -87.64  0.001478802    2.194    0.544
       111  -9.4186    237.1791    175.2351   6.3628894380e+01   1.1019537758e+00    0.3239191    0.2262139  69.03  0.001525043    3.079    0.675
       112 -10.4190      2.1610    169.1503   1.1934719010e+02   3.8007913163e+01    0.6412755    0.2219842 -78.07  0.002761457    2.433    0.589
       113 -10.2179    230.7324    168.2337   6.3351274469e+01   3.3020423660e+00    0.4947765      0.22782 -47.10  0.002138402    2.276    0.561
       114 -10.7534    240.7256    163.2072   6.0642222520e+01   2.5992547878e+00    0.3692794     0.307025 -72.43  0.002167015    1.796    0.443
       115  -7.8636    203.5006    160.9707   6.6893352224e+01   9.2428269475e+00    0.2123802    0.1310121 -39.65 0.0004530658    1.496    0.332
       116 -12.4896     34.1155    153.8078   1.0931704665e+02   3.9143665017e+01     1.229146     0.820879  -1.25  0.003407972    2.085    0.520
       117 -11.4803     45.5879    148.7440   1.0529523868e+02   3.9240018743e+01    0.8456474    0.6010947 -82.94  0.002258745    1.415    0.293
       118 -10.4307    214.5030     85.4681   4.7980625321e+01   2.0924651392e+01    0.4338962    0.2714879 -45.41  0.001035179    1.438    0.304
