#   1 NUMBER                 Running object number                                     
#   2 MAG_AUTO               Kron-like elliptical aperture magnitude                    [mag]
#   3 X_IMAGE                Object position along x                                    [pixel]
#   4 Y_IMAGE                Object position along y                                    [pixel]
#   5 X_WORLD                Barycenter position along world x axis                     [deg]
#   6 Y_WORLD                Barycenter position along world y axis                     [deg]
#   7 A_WORLD                Profile RMS along major axis (world units)                 [deg]
#   8 B_WORLD                Profile RMS along minor axis (world units)                 [deg]
#   9 THETA_WORLD            Position angle (CCW/world-x)                               [deg]
#  10 FWHM_WORLD             FWHM assuming a gaussian core                              [deg]
#  11 ELONGATION             A_IMAGE/B_IMAGE                                           
#  12 ELLIPTICITY            1 - B_IMAGE/A_IMAGE                                       
         1 -14.5858    176.9564     35.6368   6.8534350602e+01   3.5998565550e+01     1.469548     1.151354  19.29  0.004285644    1.631    0.387
         2 -13.1530    181.0724     28.9396   6.5922857713e+01   3.5755191764e+01    0.5932168    0.5341215  51.95  0.001344856    1.215    0.177
         3 -12.3961    189.9566     14.8817   6.0739969300e+01   3.5039669799e+01    0.3348957    0.2978293 -63.14  0.001026642    1.030    0.029
         4 -13.7441    196.0436      4.4581   5.7235307535e+01   3.4539710044e+01    0.9559391    0.6058591  78.40  0.004089525    1.505    0.335
         5 -11.0306     65.5210      2.0000   7.9545824224e+01   6.9552301992e+01    0.3122558   0.07298727  57.72 0.0009397545    3.975    0.748
         6  -9.4184      6.7166    213.1903   1.4844935898e+02   2.8533673662e+01    0.2019891   0.08241432  20.26  0.000926458    2.813    0.644
         7 -18.9057     58.3780    246.1075   1.3900149490e+02   1.7408436823e+01     6.476942     4.795006  29.31   0.04232296    1.313    0.238
         8 -19.1088     41.0378     99.4003   1.3004933085e+02   5.2443782182e+01     20.13812     1.503414 -69.35   0.03126294   14.234    0.930
         9  -9.6935    180.1882    192.4136   1.0665355436e+02   9.1301657698e+00    0.1798165    0.1081152  41.78 0.0005374253    1.657    0.396
        10 -11.1136    167.8006    189.3125   1.0872723419e+02   1.1607331041e+01    0.3017526    0.2517061  -4.28  0.001098319    1.185    0.156
        11 -11.0919     25.4861    206.4463   1.4411011560e+02   2.8173746370e+01     0.199246     0.143456  44.88   8.7033e-05    1.122    0.109
        12 -11.5237     22.5504    205.1930   1.4472433083e+02   2.8704524446e+01     0.191796    0.1445073  34.52 0.0003451143    1.281    0.219
        13 -12.1737    152.0081    183.6450   1.1126369352e+02   1.5186982106e+01    0.3808412    0.2942553  80.97  0.001955067    2.166    0.538
        14 -13.0002    193.9241    193.6053   1.0410942425e+02   6.8191056607e+00    0.9512014    0.5364207 -50.50  0.003117346    2.822    0.646
        15 -11.5079    205.7657    180.5731   9.9530535069e+01   6.8619877646e+00    0.4226173    0.2251625  37.14  0.001561438    1.761    0.432
        16 -11.2951    208.6981    178.6595   9.8631302445e+01   6.6786725889e+00    0.3560861    0.2457996  12.39  0.002076891    1.327    0.246
        17 -12.1783    135.7792    179.3679   1.1435251577e+02   1.8718171649e+01    0.4185116    0.1856255  36.50  0.001354077    1.943    0.485
        18 -10.7323      1.3611    177.3652   1.4880022497e+02   3.6342287573e+01    0.1323487   0.09214398  75.29  0.000518856    1.193    0.162
        19 -10.5841    196.2722    174.6275   1.0024653042e+02   9.2569756467e+00    0.2110522    0.1895275  62.49 0.0007138744    1.673    0.402
        20 -11.5505    196.0096    170.3918   9.9494554043e+01   9.9497811096e+00    0.3918195    0.3754196 -12.37  0.001913812    1.323    0.244
        21 -10.6868    193.8163    164.9638   9.8873919797e+01   1.1169901857e+01    0.2994262     0.280178 -61.32  0.001410714    1.522    0.343
        22 -10.7976    163.0912    210.5353   1.1306684634e+02   9.0040778966e+00    0.2453364    0.1835307 -41.62  0.001069154    1.644    0.392
        23 -10.3245    163.2981    204.2713   1.1208502841e+02   9.9350778743e+00    0.2548495    0.1838441  25.38 0.0005276338    1.129    0.114
        24 -10.2748    158.7003    204.8209   1.1314605051e+02   1.0557210004e+01    0.3340349    0.1681691  50.00   0.00147809    2.609    0.617
        25  -9.4058     18.1645    167.6645   1.4415284455e+02   3.7221809285e+01    0.1576267    0.1136178  14.82 0.0009296912    1.654    0.395
        26 -12.6535     16.2116    206.3907   1.4619215635e+02   2.9045250831e+01    0.2214031    0.1681248  68.70 0.0007964153    1.138    0.121
        27  -9.2926    141.3234    164.2734   1.1038072757e+02   2.0683236391e+01    0.1446284    0.1077076   6.74 0.0002858342    1.577    0.366
        28  -9.6116    223.4673    163.4765   9.3092913373e+01   6.5108814276e+00    0.1273052    0.1059277  -2.02 1.226999e-05    1.055    0.052
        29 -10.1373     13.6381    160.2337   1.4502054830e+02   3.9318368224e+01    0.2095868    0.1503432  62.71 0.0004224748    1.151    0.131
        30 -10.7234    120.8469    164.2248   1.1555116966e+02   2.4341526504e+01     0.277032    0.2220414  59.81 0.0007303669    1.356    0.262
        31 -12.9405    134.0674    145.7250   1.0860649520e+02   2.5846273899e+01     1.266316    0.3564996 -55.14  0.003170557    5.836    0.829
        32 -10.5554     11.3671    153.0719   1.4532027277e+02   4.1187054251e+01    0.2331023    0.1829397  20.79  0.001015156    1.448    0.309
        33 -10.7310    174.5638    148.7994   9.9570241612e+01   1.7389952568e+01     0.315134     0.253737 -57.48  0.001383801    1.608    0.378
        34 -12.0776    139.9326    200.3364   1.1661052383e+02   1.4223716138e+01    0.3025753    0.2819948   7.94  0.001985176    1.169    0.145
        35 -12.3238    145.5165    146.3271   1.0581394638e+02   2.3497714957e+01    0.4862518    0.3461098  56.86  0.001123351    1.643    0.392
        36 -10.4873      2.0199    147.0416   1.4772667629e+02   4.3257303091e+01    0.1791432    0.1516619  71.34 0.0003566455    1.053    0.051
        37 -10.6413      7.2615    144.0287   1.4609256972e+02   4.3652242082e+01    0.1790495    0.1409009  76.78 0.0003663056    1.062    0.059
        38  -9.3568     20.3592    142.2678   1.4207192303e+02   4.3138100831e+01    0.1247519   0.09499996 -39.30 0.0006992393    1.641    0.391
        39 -12.3516    101.9217    139.1550   1.1626116726e+02   3.3329142617e+01    0.3112655    0.2898611   6.66 0.0003768591    1.175    0.149
        40 -11.0385      3.5195    135.5211   1.4684453813e+02   4.5965018396e+01    0.2167739    0.1445108  81.09 6.302564e-05    1.272    0.214
        41  -9.3866    167.4973    133.5630   9.7774634118e+01   2.1598358239e+01    0.1488408    0.1385202  16.02 6.310749e-05    1.017    0.016
        42 -12.0098    106.0909    130.7461   1.1332656942e+02   3.4571845664e+01    0.4122292    0.3712683  88.31    0.0011746    1.198    0.165
        43 -11.2520    106.5312    125.7841   1.1212813516e+02   3.5672046334e+01    0.3081949     0.273827 -28.55  0.000760263    1.251    0.200
        44 -10.9051      8.5279    132.0333   1.4512802497e+02   4.6529943197e+01    0.2234444    0.1834736 -20.63  0.001182469    1.556    0.357
        45 -12.3406    118.5672    129.6655   1.0942421367e+02   3.2430587333e+01    0.4307013     0.393678  33.25  0.001165614    1.056    0.053
        46 -11.3756      3.9663    130.5136   1.4648842671e+02   4.7178786745e+01    0.2464442     0.212401  60.65    0.0015593    1.104    0.094
        47 -11.5123      2.3315    126.1166   1.4681038624e+02   4.8364121884e+01     0.371603    0.1430281 -80.76  0.001641342    2.229    0.551
        48 -12.3927    135.3880    122.2874   1.0302589699e+02   3.0633598538e+01    0.7652703     0.261718 -51.53  0.002285382    3.528    0.717
        49 -11.2166    160.4957    127.4322   9.7953727664e+01   2.4235062487e+01    0.4232977    0.2721675 -52.94  0.001371019    1.839    0.456
        50 -11.5880    125.0375    127.0184   1.0698842862e+02   3.1737152847e+01    0.4769578    0.2770968  67.66  0.001586984    3.209    0.688
        51 -10.5988    141.4540    126.8436   1.0251296466e+02   2.8375106517e+01    0.2480609    0.2043199  51.76 0.0003419768    1.242    0.195
        52 -10.5285      7.8430    124.8825   1.4496034358e+02   4.8369445700e+01    0.1862615      0.12861  61.74 0.0005746998    1.301    0.232
        53 -11.1707    208.7072    197.1940   1.0191847783e+02   4.1258402610e+00    0.2032401    0.1464043  31.74 0.0006996908    1.348    0.258
        54 -10.8836    112.4663    118.7979   1.0873138237e+02   3.6171150405e+01    0.3131839    0.2632445  54.64 0.0005593981    1.199    0.166
        55 -10.8814    168.4599    113.2328   9.2643035900e+01   2.5251124362e+01    0.3805819    0.2885241 -73.71  0.001144654    1.904    0.475
        56 -10.7854    135.0000    106.9799   9.9235693342e+01   3.4038943515e+01    0.3811984    0.1915372 -54.36  0.001345696    2.428    0.588
        57 -10.8975      2.4533    112.6503   1.4612045624e+02   5.1759016615e+01    0.2405879    0.2006131 -70.48 0.0007157831    1.172    0.147
        58 -10.6217    205.2954    110.4415   8.4704566021e+01   1.7850350771e+01    0.3435774    0.2299112  26.11  0.001010838    1.749    0.428
        59 -10.1309    130.2167    109.7692   1.0129380067e+02   3.4493737957e+01    0.2222745    0.1895218  -1.93 0.0006658242    1.363    0.266
        60 -11.9124     66.9573    104.2567   1.2084585983e+02   4.7892974000e+01    0.3513403     0.282281   4.79  0.001727747    1.496    0.332
        61  -9.1036    154.2778    104.2961   9.3575234417e+01   3.0194849875e+01    0.1546421    0.1226812   6.19 0.0001837142    1.532    0.347
        62  -9.4561    124.6735     92.2790   9.8017066820e+01   3.9586950120e+01    0.1614462    0.1286926  83.12 0.0003520652    1.594    0.373
        63  -9.6526     85.6699     77.2853   1.0647292908e+02   5.1461893946e+01     0.158512    0.1241681  74.35 0.0002841319    1.614    0.380
        64  -9.8668    104.9373     73.5156   9.8271966446e+01   4.8224668295e+01    0.2491943    0.1561568  43.82  0.001022266    1.567    0.362
        65 -13.7570    163.6696     52.8967   7.6154012347e+01   3.7075852384e+01     1.195317    0.9189103 -42.17  0.002267287    1.284    0.221
        66  -9.8487     13.6317     59.9469   1.3602115386e+02   6.4916653880e+01    0.1887603    0.1477555 -73.27 0.0004255411    1.147    0.128
        67 -10.4096      2.2654    245.7547   1.4995492392e+02   2.3046703309e+01    0.1158667   0.09491596  47.02 0.0009671752    1.273    0.215
        68 -10.6637    198.5635    222.7761   1.0788300732e+02   2.2481869278e+00    0.2086403    0.1280026  27.59 0.0003805295    1.289    0.224
        69 -10.9981    154.5309    196.6913   1.1280710645e+02   1.2530687356e+01    0.2400264    0.2099535  46.74  0.001172434    1.312    0.238
        70 -13.4296     11.6574    206.0504   1.4719220973e+02   2.9513409609e+01    0.4052673    0.2922265  25.46  0.002301591    1.492    0.330
