#   1 NUMBER                 Running object number                                     
#   2 MAG_AUTO               Kron-like elliptical aperture magnitude                    [mag]
#   3 X_IMAGE                Object position along x                                    [pixel]
#   4 Y_IMAGE                Object position along y                                    [pixel]
#   5 X_WORLD                Barycenter position along world x axis                     [deg]
#   6 Y_WORLD                Barycenter position along world y axis                     [deg]
#   7 A_WORLD                Profile RMS along major axis (world units)                 [deg]
#   8 B_WORLD                Profile RMS along minor axis (world units)                 [deg]
#   9 THETA_WORLD            Position angle (CCW/world-x)                               [deg]
#  10 FWHM_WORLD             FWHM assuming a gaussian core                              [deg]
#  11 ELONGATION             A_IMAGE/B_IMAGE                                           
#  12 ELLIPTICITY            1 - B_IMAGE/A_IMAGE                                       
         1 -15.6154    241.9584     15.7382   3.5402435482e+02   2.3673762589e+01     3.136445     1.121837 -39.70   0.01588811    1.979    0.495
         2 -13.0702      8.4174     26.3563   6.5060886269e+01   7.4400397628e+01    0.6570371       0.2292 -55.61  0.002825964    2.286    0.563
         3 -12.7957     11.1228     14.8940   5.7565398935e+01   7.6711217449e+01    0.4957925    0.2302828 -39.83  0.002369156    1.969    0.492
         4 -12.7694      4.4403     16.4198   6.4838941659e+01   7.6836400737e+01    0.5997363    0.2931861 -33.53  0.002978685    1.881    0.468
         5 -11.7296      2.1665      4.0048   6.1176382956e+01   7.9577904143e+01    0.4643179    0.2449804 -63.16  0.002450234    1.972    0.493
         6 -11.9954      9.2990      2.1744   5.1570552424e+01   7.9375665760e+01    0.6080113    0.2788828  16.35  0.002903438    2.267    0.559
         7 -11.7650      3.5332     10.5191   6.3097043971e+01   7.8152354408e+01    0.4095088    0.2562501 -28.14  0.001715385    1.433    0.302
         8 -12.0179      9.2403      7.8739   5.5481242532e+01   7.8290143015e+01    0.3698113    0.2520856 -30.69  0.001972972    1.312    0.238
         9 -11.2382     31.1606      9.2992   3.6333862248e+01   7.5256104911e+01    0.2207349    0.1529065  15.32  0.001193286    1.494    0.331
        10 -12.3924     16.0057      8.1898   4.8739800310e+01   7.7559348916e+01    0.3520905    0.2192046   1.05  0.001859747    1.762    0.432
        11 -12.1127     18.6123      3.2985   4.2589024104e+01   7.8105289205e+01    0.4275621     0.267272  -4.77  0.002219184    1.905    0.475
        12 -12.2023     26.5301      4.4847   3.6395641707e+01   7.6759249528e+01    0.4842657    0.2764921 -10.97  0.002184565    2.547    0.607
        13 -11.1414     16.9978     53.7696   6.6948890324e+01   6.7287271548e+01    0.6107423    0.1783177 -71.01  0.002039132    3.484    0.713
        14 -11.9982    242.2642    237.2834   3.7049938485e+01  -4.2235155357e+00    0.4228056    0.1944238  -9.75  0.002039868    2.391    0.582
        15 -12.2591    243.2791    245.2271   3.8023590822e+01  -5.1293995139e+00    0.5249795    0.2136853 -16.74  0.002919058    2.713    0.631
        16 -12.0408    247.3392    226.4079   3.4667702460e+01  -3.5966442479e+00    0.4490275    0.1955236 -21.10  0.002324903    2.121    0.528
        17 -10.9983    248.1801    233.5904   3.5604220288e+01  -4.4308956608e+00    0.2193012     0.133495  -7.29 0.0009109427    1.253    0.202
        18 -11.6292    248.9847    249.4113   3.7734369855e+01  -6.0796194609e+00    0.3224312    0.1752074  -6.87   0.00204797    1.491    0.329
        19 -12.0970    249.1306    240.2976   3.6430208881e+01  -5.2022523917e+00    0.4261398    0.1862472 -28.27  0.002515053    2.056    0.514
        20 -11.2987    233.4884    250.5124   4.0293394492e+01  -4.7018241799e+00    0.2295498    0.0777019  30.25  0.001285039    2.485    0.598
        21 -12.3737    234.1922    244.4349   3.9338737294e+01  -4.1523210854e+00    0.4112221    0.2136317  -7.46   0.00203047    1.810    0.447
        22 -11.1670    212.9050    250.4948   4.3682704410e+01  -2.5861300390e+00    0.2758403   0.08104766  29.94  0.001364714    2.736    0.635
        23 -11.3917    201.5171    249.1584   4.5476513129e+01  -1.1976461515e+00    0.3984779    0.1778602  12.69   0.00206485    2.498    0.600
        24 -11.3412    184.3945    250.2234   4.8707119935e+01   6.2572555280e-01    0.3324511    0.1127736  26.76  0.001610879    2.428    0.588
        25 -11.6984    151.9448    249.8944   5.4902984942e+01   4.5738944228e+00    0.3746023    0.1233597  27.29  0.001673426    2.542    0.607
        26 -11.4465     65.1975    249.2435   7.3138074144e+01   1.5324569248e+01     0.382771    0.1231491  38.52  0.001847048    2.050    0.512
        27 -10.7976     51.3177    249.9948   7.6164858291e+01   1.6741919877e+01    0.2871175    0.1042303  36.22  0.001478137    1.831    0.454
        28 -10.4786     27.4953    250.2527   8.1212520421e+01   1.9156108230e+01    0.2197735    0.1151005  34.02   0.00136051    1.401    0.286
        29 -11.6138     21.0694    248.7327   8.2499873995e+01   2.0040334888e+01    0.4448771    0.1418571  39.66  0.002347939    1.920    0.479
        30 -12.4355      3.9716    242.7024   8.5890425018e+01   2.2657953557e+01    0.4921508    0.2129659  58.52  0.002826104    1.756    0.431
        31 -11.5897    193.0581    244.3326   4.6345082217e+01   3.2774212330e-01     0.329953    0.1569864  14.19  0.001780213    2.133    0.531
        32 -12.3422    177.6226    243.2749   4.9074572710e+01   2.2924517569e+00    0.3782674    0.1959403   9.01  0.002019486    2.181    0.541
        33 -10.8241     45.4338    244.6814   7.7155417792e+01   1.8303490695e+01    0.3131882   0.09714756  37.15  0.001512237    2.061    0.515
        34 -12.1046    148.9950    243.1453   5.4696358497e+01   5.8794407327e+00    0.3072414    0.1343832  30.24  0.001608111    1.744    0.427
        35 -11.0662     72.6280    240.8746   7.0934303668e+01   1.5901236378e+01    0.3349708    0.1343364  64.16   0.00128594    4.381    0.772
        36 -11.3333     53.7736    240.0876   7.5073509147e+01   1.8215542801e+01    0.3436339    0.1469288  64.49   0.00163739    2.781    0.640
        37 -10.9058     38.3195    241.4516   7.8546183227e+01   1.9631303402e+01    0.2786658    0.1094191  50.15  0.001452328    1.952    0.488
        38 -11.2658     29.1245    241.7501   8.0552466955e+01   2.0508936980e+01    0.4154412    0.1007779  34.42  0.001887257    2.453    0.592
        39 -12.1736     16.7884    239.3825   8.3118962821e+01   2.2122265146e+01    0.6541818     0.140171  39.36  0.003025696    2.451    0.592
        40 -10.4167    202.2112    240.5997   4.4190425427e+01  -2.8411553692e-01    0.2362038     0.101932 -17.63  0.001093022    3.426    0.708
        41 -11.2725    170.6887    240.3397   5.0023680760e+01   3.5275213178e+00    0.3088045    0.1570812   5.25  0.001477137    2.749    0.636
        42 -12.1252    123.6134    239.5709   5.9596946547e+01   9.6914294201e+00     0.451697   0.08076892  33.46  0.001536284    3.822    0.738
        43 -11.2387     82.3778    238.7620   6.8594549421e+01   1.5089708797e+01    0.4598463    0.1004452  33.56  0.001763698    2.963    0.662
        44 -11.9969    231.5462    234.8234   3.8390785366e+01  -2.8623384332e+00    0.3372111    0.1998515  -7.25  0.002343664    1.423    0.297
        45 -12.2923    236.9649    227.7835   3.6485728248e+01  -2.6672336150e+00    0.4497572    0.1698058 -23.85  0.002353018    2.731    0.634
        46 -10.9154    214.6995    240.2315   4.1964240535e+01  -1.6448900517e+00    0.2605354    0.1256546  -4.28  0.001358393    2.672    0.626
        47 -10.4220    195.9898    236.5289   4.4741388128e+01   9.3223924221e-01    0.2392818    0.1131536  16.77  0.001277864    2.061    0.515
        48 -11.4721      6.7120    235.2788   8.5162209675e+01   2.3784304012e+01    0.2622849    0.1109906  51.49  0.001242222    1.666    0.400
        49 -10.4105    130.3409    235.3135   5.7670580245e+01   9.4738341582e+00    0.1245464   0.08334984   3.64 0.0005814375    1.701    0.412
        50 -10.7694     45.1120    236.8943   7.6821112940e+01   1.9746338424e+01    0.3054692     0.128992  52.48  0.001577784    1.979    0.495
        51 -10.3139      1.4070    234.2540   8.6268009669e+01   2.4426558970e+01    0.1838909   0.09672865 -85.44  0.001130267    2.041    0.510
        52 -10.9310    162.1695    234.6082   5.0955646762e+01   5.3938418409e+00    0.1826027   0.09078968  21.72 0.0009538402    1.785    0.440
        53 -10.7640    139.4603    234.5115   5.5630168074e+01   8.3887640758e+00    0.2357716   0.09870133  22.56  0.001039878    2.426    0.588
        54 -11.8771     32.5166    232.2297   7.9411199107e+01   2.1935803799e+01    0.3977877    0.1876411  58.44  0.002183356    1.843    0.457
        55 -10.6183     11.6736    231.9524   8.4011647433e+01   2.3974312627e+01    0.2368283    0.1505272  54.18  0.001128974    1.185    0.156
        56 -11.5415     21.5772    228.9068   8.1729079899e+01   2.3645152966e+01     0.437146    0.1572287  44.04  0.002241436    1.879    0.468
        57 -10.9680    147.7339    236.5735   5.4152073349e+01   6.9902091149e+00     0.249263   0.09599755  27.77   0.00115041    2.165    0.538
        58 -10.7817     62.0884    241.2934   7.3304311913e+01   1.7059777188e+01    0.3510703    0.1069394  46.13  0.001556776    2.527    0.604
        59 -11.9236      5.8898    227.3914   8.5161093843e+01   2.5351992637e+01     0.431162    0.1934945  66.47  0.002427354    1.908    0.476
        60 -11.5608      2.2349    220.5504   8.5819270865e+01   2.6996131197e+01    0.3860483    0.1702577  76.42  0.001988005    2.104    0.525
        61 -10.2127     47.9804    229.4835   7.5756171639e+01   2.0823046050e+01    0.1896116   0.05498595  45.09 0.0008093287    2.455    0.593
        62 -10.2841     40.2373    229.3771   7.7525369313e+01   2.1679900599e+01    0.1866018   0.07667752  38.29 0.0008902713    1.715    0.417
        63 -10.6023    229.9868    227.2368   3.7524685824e+01  -1.8560306027e+00    0.2001269    0.1091626 -15.87  0.001279062    1.666    0.400
        64 -10.9073     11.7037    226.1723   8.3845696824e+01   2.5082139540e+01    0.2843875    0.1236966  56.41  0.001365767    1.782    0.439
        65 -10.5050    223.8549    225.2527   3.8236500957e+01  -9.4868946898e-01    0.2156553    0.1105583  -9.80  0.001223672    2.106    0.525
        66  -9.8501    206.2392    223.7698   4.1046015459e+01   1.2881095283e+00    0.1742925    0.0767398 -25.58 0.0008913514    2.471    0.595
        67 -11.5195     19.0775    221.5035   8.2029543368e+01   2.5330344056e+01    0.4913437     0.096729  40.78  0.002074162    2.699    0.629
        68 -10.3093    216.4985    221.4568   3.8904682520e+01   3.4941362183e-01     0.201848   0.08662715 -24.39  0.001040022    2.481    0.597
        69 -10.5463     54.7664    221.9991   7.3695183113e+01   2.1506810426e+01    0.2575371    0.1154184  41.05   0.00129744    1.662    0.398
        70 -11.9583    239.8449    219.4259   3.4763782835e+01  -2.0494828052e+00    0.3201631    0.1777503 -11.20  0.002079482    1.603    0.376
        71 -10.7825    227.1012    218.5493   3.6675904386e+01  -5.3240612622e-01    0.2772422    0.1406655 -11.52  0.001556862    2.126    0.530
        72 -10.8456     43.8867    221.0542   7.6215108542e+01   2.2912390048e+01    0.2945571    0.1147411  53.28  0.001366054    2.247    0.555
        73 -12.1051    248.4093    213.9924   3.2602670242e+01  -2.3620376029e+00    0.4454139    0.2226477 -24.35  0.002861448    1.692    0.409
        74 -10.4733     33.4458    215.5717   7.8400135546e+01   2.5122465563e+01    0.3244425    0.1228218  75.04  0.001348714    3.296    0.697
        75 -11.4031     11.7261    216.3728   8.3553816722e+01   2.7027098190e+01    0.3745362    0.1555939  38.98  0.001994638    1.712    0.416
        76 -10.6334    232.3952    213.2107   3.4979158950e+01  -5.0767920860e-01    0.2405381    0.1150009 -29.32  0.001429464    1.902    0.474
        77 -11.4229      3.2796    212.3598   8.5400368759e+01   2.8561338339e+01    0.3875886    0.1570968  47.03  0.002069757    1.739    0.425
        78 -10.2826     45.9806    212.4850   7.5180408571e+01   2.4417744627e+01    0.2051982   0.05672876  44.95 0.0008104752    2.637    0.621
        79 -11.1371     25.9775    209.9614   7.9928635377e+01   2.7030347084e+01    0.2202942    0.1046513  53.68  0.001142923    1.709    0.415
        80 -10.6284    214.9898    207.7081   3.7009751229e+01   2.2523902294e+00    0.3476949    0.1586567 -10.76  0.001407133    3.904    0.744
        81 -11.2138    236.5898    206.3460   3.3213687774e+01  -1.7580387215e-01    0.3135116     0.170513 -27.46  0.001987031    1.620    0.383
        82 -10.9848    247.0840    205.9645   3.1529692123e+01  -1.3146190664e+00    0.2563303    0.1298026 -25.38   0.00150609    1.670    0.401
        83 -11.2399    250.2931    200.5443   3.0171023985e+01  -1.0470277305e+00    0.3183711    0.1210416 -29.38  0.001722472    2.267    0.559
        84 -10.7564      2.5309    206.3064   8.5432966428e+01   2.9877061592e+01    0.2520172    0.1496018  58.23  0.001539245    1.314    0.239
        85 -12.0409     12.9097    204.3836   8.2883492689e+01   2.9416466535e+01    0.5331964    0.1850156  47.49  0.002534055    2.071    0.517
        86 -10.8650    228.4217    201.4420   3.3726983196e+01   1.3896735509e+00    0.3761933    0.1487399 -20.69  0.001628597    3.372    0.703
        87  -9.8750     37.3394    200.6712   7.6593766379e+01   2.7861995190e+01    0.1452763   0.07190993  53.69 0.0007051725    1.736    0.424
        88 -12.1038      5.5032    195.6741   8.4430333637e+01   3.1918330397e+01    0.5063586    0.2354252  54.03  0.002681479    1.678    0.404
        89 -10.8646    237.1733    197.0243   3.1592472609e+01   8.8151168849e-01    0.2646831    0.1339082 -30.63  0.001578479    1.756    0.430
        90 -11.6081     18.2198    193.1700   8.1111928380e+01   3.1392559516e+01    0.4113887    0.1926454  65.84  0.002025455    1.959    0.490
        91 -11.6164    246.2224    192.3213   2.9416470227e+01   3.8373951951e-01    0.3293977     0.147964 -28.73   0.00188247    1.902    0.474
        92 -10.8070     30.1282    201.2479   7.8463357406e+01   2.8479132716e+01    0.2640211    0.1178819  61.50  0.001243937    2.105    0.525
        93 -10.1890     40.3138    193.6392   7.5358886733e+01   2.9096193602e+01    0.1476151   0.07601811  56.12 0.0007042208    1.753    0.430
        94 -11.4157     11.0190    188.8732   8.2801356601e+01   3.2980140542e+01    0.3535847    0.1746375  59.12  0.001833336    1.692    0.409
        95 -11.4704      3.7360    188.2107   8.4660038557e+01   3.3711531317e+01    0.3230489    0.1857602  74.55  0.001622412    1.533    0.348
        96 -10.3073    243.0000    187.9371   2.9159267300e+01   1.2994462612e+00    0.1771993   0.05347287 -34.18 0.0007972618    2.907    0.656
        97 -10.0377    237.6108    187.1670   2.9854009182e+01   2.0541701632e+00    0.1682899   0.08682406 -21.98 0.0009526836    1.759    0.431
        98 -10.9657     26.8777    186.7761   7.8507773951e+01   3.2033040925e+01    0.4269877    0.0540658  37.58  0.001442102    3.550    0.718
        99 -11.2122    249.8652    184.3536   2.7524141677e+01   9.1696656088e-01     0.302485    0.1462491 -26.51  0.001776348    1.735    0.423
       100 -11.1141    243.8159    199.4724   3.0970012480e+01  -1.9084990237e-01     0.316312    0.1243216 -27.69  0.001673657    2.285    0.562
       101 -10.4254     39.6593    183.3274   7.4793105372e+01   3.1522263430e+01    0.1512241   0.07872198  54.92 0.0007051457    1.736    0.424
       102 -10.7939     16.4966    181.9935   8.1061214189e+01   3.4089702075e+01    0.3525327    0.1551833  61.40  0.001641868    2.039    0.509
       103 -10.5219    241.4019    179.7413   2.7981237812e+01   2.5211782528e+00    0.2162055   0.09221552 -36.10  0.001138143    2.140    0.533
       104 -11.5334     31.3685    173.8988   7.6442752647e+01   3.4618448982e+01    0.4092044    0.1522614  89.69  0.001529775    3.199    0.687
       105 -11.9997     19.5708    172.0336   7.9701912806e+01   3.6174925358e+01    0.4736401    0.2148428  72.51  0.002112425    2.208    0.547
       106 -12.8366      7.0538    174.4248   8.3323077002e+01   3.6630241431e+01    0.7418761    0.2783795 -87.99  0.003221801    2.571    0.611
       107 -10.6028    249.5134    176.9374   2.6289021708e+01   1.8682757435e+00    0.1715281    0.0903172 -30.20  0.001030613    1.588    0.370
       108 -10.3860    246.4013    162.1914   2.4091472683e+01   4.1332167368e+00    0.1618714   0.09095619 -37.70 0.0008765088    1.691    0.409
       109 -10.5165    250.5808    157.2013   2.2584620517e+01   4.2295868723e+00    0.2836737   0.09234151 -31.88  0.001288993    2.590    0.614
       110 -11.8732     15.0982    154.7221   8.0049092403e+01   4.0810259200e+01    0.3335864    0.1602826  74.19  0.001496701    2.038    0.509
       111 -10.8253    249.3382    149.0013   2.1224665953e+01   5.4625191563e+00    0.2715459   0.08924682 -33.73  0.001232474    2.502    0.600
       112 -11.4507    243.5769    149.1980   2.2061494920e+01   6.2322053982e+00    0.2907776    0.0970268 -32.30  0.001285322    2.567    0.610
       113 -12.0566      7.7701    146.9878   8.1925418870e+01   4.3305838213e+01    0.3919029    0.1950932  76.35  0.001829588    1.885    0.470
       114 -10.7906     34.1943    145.7895   7.3237732335e+01   4.1382919202e+01     0.271186    0.1048015  57.04 0.0009618592    2.875    0.652
       115 -10.3723    247.6473    143.4883   2.0405555317e+01   6.4252203045e+00    0.2093386   0.09138618 -32.63  0.001074767    1.880    0.468
       116 -11.7808    243.8855    140.3587   2.0314236239e+01   7.3814973271e+00    0.3406614    0.1466993 -23.94  0.001568583    2.458    0.593
       117 -11.4241     20.8781    141.2074   7.7275504114e+01   4.3804515015e+01    0.3665684    0.1456672  76.97  0.001336681    2.948    0.661
       118 -10.2767    250.4060    140.2395   1.9412019656e+01   6.4697622994e+00     0.165656   0.09023985 -38.06 0.0009454801    1.621    0.383
       119 -11.4866     10.3005    137.2591   8.0560604867e+01   4.5631500250e+01    0.5684761    0.2259645 -79.61  0.002367195    2.304    0.566
       120 -11.2451    248.8932    134.8947   1.8576448448e+01   7.3953243577e+00    0.2871532    0.1257535 -34.03  0.001344635    1.853    0.460
       121 -11.2495    247.4815    129.9861   1.7796886727e+01   8.2604745668e+00    0.2022335    0.1442897 -49.64  0.001093424    1.659    0.397
       122 -11.5023      6.0401    125.5303   8.1333157149e+01   4.8965713000e+01    0.5451138    0.2416603  73.22  0.002305508    2.243    0.554
       123 -12.5531    248.2121    119.4520   1.5601565076e+01   9.5743457380e+00    0.3748356    0.1677223 -27.42   0.00184983    2.033    0.508
       124 -13.5838    249.3091    106.3457   1.2804914298e+01   1.1170942210e+01    0.7106679    0.2051959 -38.61  0.002987015    2.717    0.632
       125 -11.3897     10.3602    113.3323   7.8864236598e+01   5.1945682309e+01    0.6968898    0.2515329  83.82  0.002461985    3.112    0.679
       126 -11.1853      2.6997     95.0615   8.0566785882e+01   5.7215251981e+01    0.5079002    0.1945512  80.91  0.001920293    2.803    0.643
       127 -12.7149    250.0246     86.6613   8.6416601125e+00   1.3673037467e+01    0.3759522    0.1744665 -26.55  0.001860687    2.057    0.514
       128 -11.5034      4.6390     76.0622   7.7851905780e+01   6.2174591465e+01    0.6325225    0.2239602 -86.84   0.00232756    2.927    0.658
       129 -12.4479    248.9851     74.9195   6.2681149208e+00   1.5377996001e+01    0.3159043    0.1345387 -39.02  0.001599045    1.810    0.448
       130 -11.7024      3.0364     63.3458   7.7150465446e+01   6.5550524811e+01    0.5653821    0.2263731 -79.45   0.00234813    2.315    0.568
       131 -12.2169    168.1729    248.2384   5.1518906115e+01   2.8021156219e+00    0.3985548    0.1721646  20.80  0.002020513    2.165    0.538
       132 -11.9638     12.0930     41.3506   6.6963972184e+01   7.0664459957e+01    0.6554205    0.2021321 -47.82  0.002522669    2.676    0.626
       133 -11.9538      1.4905     38.5338   7.4008718606e+01   7.1828577388e+01    0.4973953     0.101204 -72.28  0.001622107    4.003    0.750
       134 -11.9901      3.0609     51.9863   7.5441724065e+01   6.8449266093e+01    0.5493119    0.1987127 -58.55   0.00233275    2.180    0.541
       135 -12.1866     19.3974     29.4495   5.7275217139e+01   7.2865528275e+01    0.5517308    0.2110727 -43.76  0.002267435    2.418    0.586
       136 -12.3641    142.9850    248.3431   5.6527777079e+01   5.9054580355e+00    0.4275557    0.1663402  25.70   0.00204457    2.188    0.543
       137 -11.8663     23.9067     21.0353   4.9564453000e+01   7.4159913931e+01    0.4094692    0.1934207 -35.46  0.001792947    2.258    0.557
       138 -11.5335    128.0665    248.8505   5.9655007026e+01   7.7115025496e+00    0.2654867    0.1190367  32.96  0.001418393    1.642    0.391
       139 -12.0578     99.7164    246.2650   6.5426803563e+01   1.1679704743e+01    0.5641868    0.2765506  68.41  0.002197189    5.047    0.802
       140 -11.0244     76.5626    248.0297   7.0594545767e+01   1.4208171480e+01    0.3104742     0.140425  38.93  0.001690913    1.581    0.368
       141 -11.3559     34.7229    248.0524   7.9608255380e+01   1.8822248947e+01    0.3698991    0.1323456  43.45  0.001702458    1.849    0.459
       142 -10.8917     90.3459    247.6770   6.7577709888e+01   1.2607724794e+01    0.1952138    0.1077128  50.45  0.001111649    1.734    0.423
       143 -11.4766    219.1397    245.5741   4.1958682253e+01  -2.7158059963e+00     0.274379    0.1493149 -16.25  0.001729582    1.736    0.424
       144 -11.9873     15.5955     19.3970   5.5748803430e+01   7.5382683913e+01     0.375302    0.2042028 -31.54  0.001841669    1.852    0.460
       145 -10.5998     34.7019     16.3220   3.8491555716e+01   7.3509815319e+01    0.2794776    0.1525255  17.65  0.001179175    2.498    0.600
       146 -11.9835     22.1734     14.1537   4.6968198230e+01   7.5710651109e+01    0.4003926    0.1885949  19.09  0.001740285    2.445    0.591
       147 -10.5883     83.5531    246.8794   6.8987979388e+01   1.3564771928e+01    0.2656591       0.1028  41.39  0.001321927    1.921    0.480
       148 -12.2630    224.2065    241.6976   4.0574450323e+01  -2.8326573544e+00    0.4801704    0.2119503 -34.41   0.00292398    2.370    0.578
       149 -11.9499    210.9618    244.5422   4.3205165967e+01  -1.7192796902e+00    0.2970753    0.1516632 -24.13  0.001874529    1.953    0.488
       150 -12.1068    158.0636    245.1903   5.3121428824e+01   4.4514305413e+00    0.3618236    0.1568086  22.93  0.001821954    2.054    0.513
