#   1 NUMBER                 Running object number                                     
#   2 MAG_AUTO               Kron-like elliptical aperture magnitude                    [mag]
#   3 X_IMAGE                Object position along x                                    [pixel]
#   4 Y_IMAGE                Object position along y                                    [pixel]
#   5 X_WORLD                Barycenter position along world x axis                     [deg]
#   6 Y_WORLD                Barycenter position along world y axis                     [deg]
#   7 A_WORLD                Profile RMS along major axis (world units)                 [deg]
#   8 B_WORLD                Profile RMS along minor axis (world units)                 [deg]
#   9 THETA_WORLD            Position angle (CCW/world-x)                               [deg]
#  10 FWHM_WORLD             FWHM assuming a gaussian core                              [deg]
#  11 ELONGATION             A_IMAGE/B_IMAGE                                           
#  12 ELLIPTICITY            1 - B_IMAGE/A_IMAGE                                       
         1 -12.9763    249.2969     54.9790   8.2440005726e+00   1.7582622213e+01     1.271104    0.1676402 -32.67  0.003598748    5.818    0.828
         2 -13.8397    175.5724      4.2388   2.5093691853e+00   3.9786937779e+01     1.013331    0.5126231  85.39   0.00188952    1.917    0.478
         3  -9.9098     45.6687     12.0294   3.5603195134e+01   6.9908701180e+01    0.1811106    0.1498349  -6.40 0.0005298362    1.119    0.107
         4 -11.3893    162.1689     11.8331   6.1398993206e+00   4.2403515733e+01     0.217544     0.170443 -71.76 0.0009634866    1.215    0.177
         5 -11.6616     27.4594     10.9128   4.5168164341e+01   7.2927978872e+01    0.2712094    0.2155747 -32.30 0.0009483091    1.275    0.216
         6 -11.4482    200.7842     10.4465   1.9990265060e+00   3.3144175050e+01    0.2887509    0.2052597  19.50  0.001559515    2.171    0.539
         7 -11.2575      6.1127     14.3624   6.1875639753e+01   7.4619782867e+01    0.2261497    0.1619109 -72.64  0.001288392    2.001    0.500
         8 -11.0667     56.4100      8.9769   2.8948749766e+01   6.8289714829e+01    0.3350474    0.2347877  23.73  0.001153995    1.385    0.278
         9 -12.6498     16.8691      7.1101   5.0013029533e+01   7.4863672490e+01    0.4340908    0.3215698 -35.85  0.001067848    1.303    0.233
        10 -11.4959      3.1600      8.1975   6.1093916047e+01   7.5979207307e+01     0.244242    0.1872613 -20.05 0.0008810377    1.069    0.065
        11 -12.0311      8.1210      5.3092   5.5533676761e+01   7.6071042625e+01    0.2715826    0.1778886  -4.81   0.00122998    1.461    0.316
        12 -11.4929      4.2297      3.7141   5.7748328826e+01   7.6686290791e+01     0.406451    0.1925912 -36.24  0.001947766    1.813    0.449
        13 -11.6811    236.9200      7.4046   3.5881632255e+02   2.5575758017e+01    0.2936863    0.1403498 -64.14  0.001552149    1.933    0.483
        14  -9.3465    119.2314      8.6499   1.1266112976e+01   5.3698393533e+01    0.1345001   0.09650617 -56.80 0.0002164163    1.561    0.359
        15  -9.6074    115.0296      8.7829   1.2091375574e+01   5.4752612864e+01    0.1847935    0.1025033  67.27 0.0007995195    1.631    0.387
        16 -11.0670    123.9466      6.5706   9.6624505798e+00   5.2684668633e+01    0.2996591    0.2203947 -86.66  0.001034329    1.414    0.293
        17 -11.4214     87.7046      6.1712   1.7034021979e+01   6.1720084611e+01    0.4615003    0.1926632  50.38  0.001223499    2.027    0.507
        18 -10.8875    130.7052      4.9724   8.0140492200e+00   5.1094336231e+01    0.3341778    0.2237246  10.56  0.001351452    1.964    0.491
        19 -11.3638     23.3251      5.4151   4.4495745313e+01   7.4320669324e+01    0.2632651    0.1918372  45.75  0.001023466    1.822    0.451
        20 -12.1719    159.3592      3.1581   3.7968117730e+00   4.3931458817e+01    0.3434971    0.2433406 -68.58  0.001901172    1.369    0.270
        21 -11.2212    203.2775      4.3335   2.7441777995e-01   3.3179723128e+01    0.2393065    0.1339952  60.31 0.0009554775    1.890    0.471
        22 -11.1085    114.2506      1.7834   9.4488303831e+00   5.5561411608e+01    0.3516701    0.1764532  72.25  0.001009098    1.847    0.459
        23  -9.9636     38.3034      2.3260   3.3528319557e+01   7.2431957638e+01    0.1303704   0.08400376  12.15 0.0007032666    1.643    0.391
        24 -14.3012     28.6961    188.8288   8.3742288126e+01   3.1389576125e+01     1.033354    0.5387298  77.52  0.005246719    1.936    0.483
        25 -13.7431     19.7994    199.0768   8.6492023705e+01   3.0005954315e+01    0.6031207    0.5596247  62.22  0.004402637    1.216    0.177
        26 -12.5124     32.4729    203.6783   8.3871215650e+01   2.7753388614e+01     0.303566     0.182364 -79.48  0.001392444    1.651    0.394
        27 -11.1375     97.0022    202.6034   6.8588860518e+01   1.9786609079e+01    0.3067633     0.153959  68.34  0.001090881    3.954    0.747
        28 -12.6997    245.3897    198.3933   3.7808295055e+01  -1.7700482762e+00    0.3498948    0.1576001 -26.00  0.001852393    2.052    0.513
        29 -12.5036      8.4805    189.1139   8.8578473976e+01   3.3196469628e+01    0.6638176    0.2268332 -62.24  0.002976214    3.014    0.668
        30 -11.6306     44.8469    190.8427   7.9956178099e+01   2.9203712720e+01    0.1820857    0.1782229  48.71 0.0008169468    1.231    0.187
        31 -11.7041    237.5673    186.2606   3.6912924962e+01   8.5566982441e-01    0.2297846     0.101519 -37.14  0.001156183    2.139    0.533
        32 -11.5159     88.1381    201.0981   7.0505577278e+01   2.1376998617e+01    0.1918406    0.1794272   1.60 0.0004563524    1.259    0.206
        33 -11.5518     17.3910    205.8043   8.7398584947e+01   2.8801874568e+01    0.2548406    0.1823672 -66.78  0.001098032    1.566    0.361
        34 -12.3753    244.3794    180.3826   3.4757417880e+01   7.2294805476e-01    0.3454568     0.216977 -48.58  0.001915627    2.326    0.570
        35 -10.9045     53.3928    185.1839   7.7300328577e+01   2.9473762481e+01    0.1876877    0.1160139  89.50 0.0009577807    1.722    0.419
        36 -12.1988      9.8464    178.7949   8.7707121093e+01   3.5396184596e+01    0.3789144    0.1756391  52.85  0.001954386    1.856    0.461
        37 -10.4641     62.6872    177.0120   7.4021966027e+01   3.0184161198e+01    0.2189741    0.0992652  83.93 0.0007041054    4.205    0.762
        38 -11.4671     38.0626    176.7321   8.0426395231e+01   3.3182927221e+01    0.3195707    0.1283528  56.68  0.001309951    2.618    0.618
        39 -10.8235     68.7552    174.7469   7.2148587270e+01   2.9903973762e+01    0.2146323    0.1120787 -82.90 0.0008946898    2.433    0.589
        40 -10.1186    224.0000    173.0311   3.6708223662e+01   4.6906988814e+00    0.2043937   0.06434701 -36.84 0.0008015114    2.936    0.659
        41 -10.5338      6.5855    169.8090   8.8015821264e+01   3.7727732901e+01    0.1745794   0.09691636  81.37 0.0006978205    1.603    0.376
        42 -11.3783     33.0169    161.9389   8.0410867650e+01   3.7235254828e+01    0.4002423    0.2036235 -70.80  0.001933871    1.829    0.453
        43 -11.5729     11.2186    166.4457   8.6621904061e+01   3.8146320197e+01    0.2557805    0.1604012  49.49  0.001476788    1.433    0.302
        44 -12.3788     20.2717    160.5705   8.3787957688e+01   3.8779305094e+01    0.4029586    0.2204526  49.78  0.002094615    1.681    0.405
        45  -9.9420     75.0878    144.1077   6.5876553289e+01   3.6385516515e+01    0.2027976    0.1919177 -36.79            0    1.166    0.142
        46 -13.6341    241.5071    140.4925   2.7475205428e+01   6.7988153439e+00    0.5407038    0.4467136  -2.81  0.003531127    1.164    0.141
        47  -9.3532     56.3083    138.6726   7.0703112727e+01   4.0358274742e+01    0.1509217    0.1010937  67.09 0.0007038591    1.657    0.396
        48  -9.4908     28.5999    138.4549   7.9275777829e+01   4.3489426287e+01      0.13326    0.1173031 -84.52 -4.817908e-05    1.038    0.037
        49 -10.5596     17.8032    132.1227   8.1965260394e+01   4.6023414588e+01    0.2008447    0.1579146  73.50 0.0004862888    1.187    0.158
        50 -10.6092     58.0673    130.0306   6.8748948173e+01   4.2320442488e+01    0.2106975    0.1965236 -80.73            0    1.020    0.020
        51 -13.6583    246.4547    121.4687   2.2849912144e+01   8.7913744497e+00    0.5966209    0.4499207 -13.68  0.003678032    1.315    0.239
        52  -9.2720     17.2739    122.9989   8.1174279766e+01   4.8374460628e+01    0.1607924    0.1036741 -76.47 0.0003054421    1.364    0.267
        53 -10.1168    103.0320    119.7804   5.2519614779e+01   3.7581480996e+01    0.2145975    0.1941261  37.93 0.0003295453    1.108    0.097
        54  -9.8021     13.1955    117.7640   8.1967013343e+01   5.0002632945e+01    0.1754978    0.1349532 -52.78 0.0003688993    1.298    0.230
        55  -9.3187     96.3082    111.3523   5.2526372326e+01   4.0846901443e+01    0.1593886    0.1211397 -16.83 0.0007043283    1.716    0.417
        56  -9.5384     18.8109    108.1246   7.8834254918e+01   5.2045589635e+01    0.1796553    0.1435698 -40.05  0.001043225    1.332    0.249
        57 -10.0699      1.7115    104.4665   8.4583570849e+01   5.4057179238e+01    0.2384659    0.1162053 -56.98  0.001161582    1.793    0.442
        58 -14.0684    248.1430     99.8691   1.8065475809e+01   1.1637381475e+01     1.070662    0.4242137 -35.21  0.004884812    2.067    0.516
        59 -10.3032     77.6151    102.4257   5.6422268048e+01   4.6325853064e+01    0.3915798     0.126662 -50.17   0.00118546    2.923    0.658
        60 -10.5760     64.5430     96.0593   5.9484736351e+01   4.9967678031e+01    0.2746524    0.2216642  34.19  0.000775771    1.286    0.223
        61 -10.0077    132.5379     92.8821   3.7116747373e+01   3.7356727764e+01    0.2316028    0.2030748  50.10 0.0003015154    1.141    0.123
        62 -11.2404     37.2894     91.1547   6.8863152468e+01   5.4691695200e+01    0.4081557    0.1245006 -66.74  0.001116158    3.339    0.700
        63 -10.5118    103.0806     95.6920   4.6268891506e+01   4.3151100004e+01    0.2609691     0.212556 -51.62  0.001274936    1.237    0.191
        64 -11.2737     54.5977     86.8004   6.0932783019e+01   5.3665155455e+01    0.3739582     0.142742 -60.00  0.001339249    2.617    0.618
        65 -11.9359     54.8076     79.2755   5.8828826910e+01   5.5443690130e+01    0.2825827    0.2283219 -49.74   0.00025499    1.164    0.141
        66 -10.2733     12.0127     85.9309   7.8249141055e+01   5.8125540913e+01    0.1940248    0.1647735 -60.52 0.0002821996    1.037    0.036
        67  -9.2351      5.4785     80.4300   8.0157544393e+01   5.9863866492e+01    0.1288125      0.10925 -62.36 9.286012e-05    1.019    0.019
        68  -9.3880     78.0344     77.9593   4.9428019661e+01   5.1987433057e+01    0.1742073    0.1663568 -35.75            0    1.024    0.024
        69 -11.6964     38.1533     70.8540   6.3621881002e+01   5.9558507189e+01    0.2054701    0.1792974 -52.50  0.001018593    1.068    0.063
        70 -12.0813     64.0606     69.5866   5.2137756779e+01   5.6264922182e+01    0.2612447    0.2308768 -41.21 0.0003735057    1.088    0.081
        71  -9.9454      7.5211     68.8978   7.7331348064e+01   6.2576579933e+01    0.1961367    0.1100379 -68.03 0.0004831594    1.527    0.345
        72  -9.4365    165.0419     71.7378   2.3707189342e+01   3.3590922484e+01    0.1702596    0.1285975  61.82 0.0002303372    1.349    0.259
        73 -10.0529     70.0763     66.1818   4.8608509818e+01   5.5987977865e+01     0.220334    0.1893072 -10.78 0.0005115063    1.227    0.185
        74  -9.3409    192.2737     65.7338   1.7465870894e+01   2.8097168875e+01    0.1385563    0.1010043 -65.24 0.0002189281    1.474    0.322
        75 -10.6774      4.7783     63.8467   7.7698021121e+01   6.3932809720e+01    0.2149343    0.1724538 -54.18 0.0006076311    1.050    0.048
        76 -10.9439     43.5555     62.2803   5.8637337715e+01   6.0891979103e+01    0.2538438    0.2131717 -23.13 0.0006304628    1.168    0.144
        77 -10.0823     29.0141    243.0540   8.6821441780e+01   2.0348572075e+01     0.159824    0.1204313  56.33            0    1.025    0.025
        78  -9.6821     98.9694     61.3314   3.6640972300e+01   5.1196711250e+01    0.3462544     0.209066 -74.93  0.001086107    4.131    0.758
        79 -10.3408    232.1345     60.1443   1.1073800814e+01   2.0247951344e+01     0.250898    0.1282868  44.10  0.001151573    2.708    0.631
        80 -11.2323      3.5406     58.1304   7.7201662030e+01   6.5348885688e+01    0.3472422     0.173106 -53.21  0.001789965    1.605    0.377
        81 -11.6309     23.7948     57.0259   6.6608994119e+01   6.4233926143e+01    0.4077116    0.2076059 -30.17   0.00183071    2.238    0.553
        82 -10.1279     32.4250     57.3704   6.2397765017e+01   6.3308879978e+01    0.3159122    0.1106438  31.67  0.001239618    2.896    0.655
        83  -9.2534     94.2444     56.7314   3.6496884751e+01   5.3090955049e+01    0.1356428    0.1164935 -78.77 0.0002019811    1.434    0.303
        84  -8.9750     77.6219     55.3016   4.1791708538e+01   5.6804969195e+01    0.1465016    0.1176265  82.64 0.0007025894    1.766    0.434
        85 -10.1018     15.2437     50.3069   6.9179479778e+01   6.6459740594e+01    0.2004112      0.10466 -75.49 0.0006250518    2.346    0.574
        86 -11.5072     94.0120     48.5925   3.3501225933e+01   5.4591574395e+01    0.2471842    0.2080966 -30.72 0.0001979353    1.218    0.179
        87 -10.9611     52.3021     46.2959   4.8853045438e+01   6.3042118849e+01    0.3737903    0.2331945  24.57  0.001292239    1.726    0.421
        88 -10.2740     38.7518     43.7826   5.4465872497e+01   6.5489620950e+01    0.2607383    0.2168865  56.28  0.001501445    1.578    0.366
        89 -10.0866     32.8160     43.8295   5.7578599728e+01   6.6211175653e+01    0.1664224    0.1569967  49.06 0.0007494924    1.303    0.233
        90 -10.1615    118.9850     42.8606   2.4288759605e+01   4.9612604934e+01    0.2411851    0.2062036 -32.87 0.0004201876    1.223    0.183
        91  -9.9703    185.9231     41.3546   1.1760330312e+01   3.3064422324e+01    0.1853891    0.1660986  86.48 0.0004964919    1.085    0.078
        92 -10.2142    158.9409     39.1299   1.5023478042e+01   4.0042661897e+01    0.2087939    0.1966278  82.87  0.000371507    1.033    0.032
        93 -10.8064     39.5415     35.9517   5.0836234076e+01   6.6930601742e+01    0.4490005    0.2037407  36.27  0.002008843    2.265    0.558
        94 -10.4086    153.0388     32.6631   1.3941820552e+01   4.2382528569e+01    0.2951253    0.2031195 -13.10  0.001144285    1.814    0.449
        95  -9.5656    119.1641     34.8927   2.1302068409e+01   5.0707677219e+01    0.1901522     0.163488  21.53 0.0004325546    1.279    0.218
        96  -9.6896     25.6576     33.6643   5.7559248474e+01   6.9087423806e+01    0.1404578   0.08547772 -22.30 0.0007050358    1.763    0.433
        97 -11.8460      4.8495     31.8184   6.9674120803e+01   7.1199049158e+01    0.4278204    0.2066477  36.02  0.001505526    2.554    0.609
        98 -10.5009     17.7272     31.4287   6.1410976617e+01   7.0323342053e+01    0.2202341    0.1506395 -48.67 0.0004398267    1.318    0.241
        99  -9.7313     92.4721     31.0854   2.6875809153e+01   5.7678469473e+01    0.1895056     0.140351 -28.50 0.0002873217    1.419    0.295
       100  -9.8500    104.4530     29.7843   2.2949903391e+01   5.5019234353e+01    0.2815899    0.1271132 -37.46   0.00113523    2.301    0.565
       101  -9.2146     59.3055     29.3509   3.8250578686e+01   6.4889144482e+01    0.1428885   0.09981745   3.74 0.0007041799    1.706    0.414
       102 -10.6858    153.3142     27.6282   1.2285839506e+01   4.2930655270e+01    0.2297443    0.2041434 -53.68 0.0002503071    1.129    0.114
       103 -10.5853    161.4473     26.6300   1.0777039269e+01   4.0978020408e+01    0.2984542    0.2188172 -77.28 0.0009904796    1.403    0.287
       104  -9.8020    119.9727     26.4101   1.7930173883e+01   5.1601692426e+01    0.3920746    0.1648488  42.89 0.0007840985    2.665    0.625
       105 -10.1941    239.4483     24.4719   2.3800553865e+00   2.3217748598e+01    0.1224142   0.09734725 -56.12 6.129213e-05    1.008    0.008
       106  -9.7937     46.9822     26.6866   4.2723619525e+01   6.7467091225e+01    0.1773679    0.1527853  15.46 0.0002909086    1.083    0.076
       107 -10.8064     97.6591     22.4835   2.1718302233e+01   5.7586668575e+01    0.3643984    0.2194017  72.35  0.001638352    1.969    0.492
       108 -10.8054     38.3723     22.8439   4.5296807480e+01   6.9449184927e+01    0.2315208    0.1904295  20.05 0.0003123686    1.162    0.140
       109  -9.2965     72.7342     22.3511   2.9494611403e+01   6.3256015628e+01    0.1295356    0.1070387 -63.49 0.0004305636    1.620    0.383
       110  -9.3650    159.2807     20.3143   9.1179484568e+00   4.2247564799e+01    0.1350249     0.101848  36.82 0.0003719788    1.572    0.364
       111  -9.4190     66.5287     20.5944   3.0980189937e+01   6.4783168271e+01    0.1346806    0.1199939  24.19 6.528221e-05    1.020    0.020
       112 -11.8757     14.4597     18.0271   5.7648535451e+01   7.3224234561e+01    0.3683876    0.2033499  21.79 0.0008110648    1.840    0.457
       113 -10.9804      8.3196     19.6732   6.2701414381e+01   7.3438155102e+01    0.2056207    0.1421621  15.91  0.001278042    1.493    0.330
       114 -11.7446      4.5710     19.3043   6.5215326863e+01   7.3778690342e+01    0.2602857    0.1842372 -28.05 0.0009705603    1.195    0.163
       115  -9.5186     48.2567     19.4440   3.8399949192e+01   6.8398808143e+01    0.1700459    0.1218944  48.35 0.0009354244    1.572    0.364
       116 -10.7854     23.9831     16.5067   5.0516526038e+01   7.2464882797e+01    0.1764115    0.1139922  25.88 0.0003976602    1.532    0.347
       117 -11.7488    183.2096     14.8248   4.7354690221e+00   3.6868447127e+01    0.2366481     0.165404 -87.07 0.0005875574    1.353    0.261
       118 -10.9611      1.5479    240.8095   9.2011365642e+01   2.3389488727e+01    0.2335952    0.1195688 -80.82  0.000678883    1.979    0.495
       119 -10.0934    127.4032     14.2617   1.1938192797e+01   5.1065352303e+01    0.3634623    0.1198079  55.23  0.001347705    2.558    0.609
       120 -10.7200     49.6520     14.0796   3.4822872834e+01   6.8920023331e+01    0.2523841    0.1772353  33.80 0.0008246222    1.313    0.238
       121 -11.5875      3.5478    235.0663   9.1456789914e+01   2.4269078484e+01    0.3293409    0.2077685  70.09  0.001003929    1.275    0.216
       122  -9.9753     34.9915     13.6899   4.2258414121e+01   7.1416728742e+01    0.1773484    0.1475672  13.44 0.0004322903    1.087    0.080
       123  -9.9731     81.8317    238.6029   7.5753146887e+01   1.5005774651e+01    0.3293049    0.1489329  21.99  0.001442204    2.929    0.659
       124  -9.8048     28.9788    238.4813   8.6607833192e+01   2.1189675363e+01    0.1647758   0.08899936  36.83 -7.540326e-05    1.516    0.340
       125  -9.2827     27.3341    232.3214   8.6634400561e+01   2.2513318603e+01   0.09882556   0.08701698 -28.96 0.0007049962    1.704    0.413
       126 -10.6805     95.5026    228.4961   7.1874416546e+01   1.5011056060e+01    0.2016735    0.1068933 -47.67  0.001035184    2.397    0.583
       127 -10.7843     23.2074    228.6797   8.7298162848e+01   2.3626989787e+01    0.3256485    0.1056866  24.47  0.001359902    3.689    0.729
       128 -11.4638      6.6651    226.6929   9.0562630645e+01   2.5577985312e+01    0.1619316    0.1402529  61.93 0.0003539421    1.208    0.172
       129 -12.7365      3.3247    217.6881   9.0916519430e+01   2.7637516204e+01     1.117085    0.3036757 -83.57  0.004877969    3.555    0.719
       130 -10.0728     10.9801    217.0009   8.9302610726e+01   2.7095276220e+01    0.1985693    0.1367247 -43.42  0.001040837    2.201    0.546
       131 -12.9783      7.1950    203.7356   8.9547319888e+01   3.0157203865e+01    0.7107136    0.4949962  55.77  0.004792586    1.143    0.125
       132 -12.7032      4.6535    197.9868   8.9861920472e+01   3.1591223085e+01    0.6054369    0.3678022  65.63  0.003561547    1.339    0.253
       133 -11.8799    243.8587    223.1130   4.2171244254e+01  -4.5966356813e+00    0.1630365    0.1334378  -0.39  0.001206886    1.258    0.205
       134 -10.1986     53.4825    223.4772   8.0579043760e+01   2.1347040817e+01     0.122471   0.09733784  53.57 0.0008099848    1.005    0.005
       135  -9.7121     31.6227    220.7386   8.5117327787e+01   2.4323880813e+01    0.1560005   0.09523834  80.83 0.0007421743    1.571    0.363
       136 -11.6366     22.2577    218.5190   8.6994076378e+01   2.5720104014e+01    0.3515365     0.295245  26.60  0.001886095    1.410    0.291
       137 -10.5316     19.5222    215.5176   8.7426451128e+01   2.6592791797e+01    0.2174639    0.2098237  53.52 0.0008692379    1.330    0.248
       138 -10.1463     37.3109    217.1555   8.3668418384e+01   2.4437747991e+01    0.1959917    0.1553325  31.11  0.001018813    1.336    0.251
       139  -9.8625     77.3427    212.6723   7.4299462036e+01   2.0499921689e+01    0.1391893   0.08096073  58.51 -9.126514e-06    1.742    0.426
       140 -12.0596    248.4355    210.2168   3.9337432116e+01  -3.6096426092e+00     0.403607    0.1886497  -6.19  0.001816119    3.335    0.700
       141 -11.2707     41.0246    206.4153   8.2101199031e+01   2.6250384027e+01    0.2869156    0.1715015 -73.79  0.001340157    1.720    0.419
