#   1 NUMBER                 Running object number                                     
#   2 MAG_AUTO               Kron-like elliptical aperture magnitude                    [mag]
#   3 X_IMAGE                Object position along x                                    [pixel]
#   4 Y_IMAGE                Object position along y                                    [pixel]
#   5 X_WORLD                Barycenter position along world x axis                     [deg]
#   6 Y_WORLD                Barycenter position along world y axis                     [deg]
#   7 A_WORLD                Profile RMS along major axis (world units)                 [deg]
#   8 B_WORLD                Profile RMS along minor axis (world units)                 [deg]
#   9 THETA_WORLD            Position angle (CCW/world-x)                               [deg]
#  10 FWHM_WORLD             FWHM assuming a gaussian core                              [deg]
#  11 ELONGATION             A_IMAGE/B_IMAGE                                           
#  12 ELLIPTICITY            1 - B_IMAGE/A_IMAGE                                       
         1 -14.6157     68.3998    144.6514   9.8314299230e+01   3.7418793566e+01     4.923849     2.568364  83.11  0.002669276    4.590    0.782
         2 -13.7191    230.4014     22.1529   3.2923071254e+01   2.6479114699e+01    0.8943412    0.8421274  46.51  0.002617045    1.507    0.337
         3 -13.8345    204.1889     43.7705   4.0326063075e+01   2.9394522538e+01     1.344651     1.171776 -10.97  0.004567176    1.538    0.350
         4 -13.6445    212.5771     38.4897   3.8146079603e+01   2.8237838146e+01     1.127627    0.8098871 -51.75  0.004153659    1.248    0.199
         5 -11.7451    249.1892      3.4067   2.7956279805e+01   2.4852888916e+01     0.376665    0.2214092 -55.97  0.002010085    1.323    0.244
         6 -14.8098     32.0527    249.3604   1.1878424816e+02   1.7302382349e+01     2.727912    0.8782181  25.87  0.009867342    5.190    0.807
         7 -13.5147     44.6565    217.6059   1.1386204342e+02   2.2522588997e+01     1.242691    0.8148466  10.82   0.00011104    2.402    0.584
         8 -15.3734     99.8883    225.6338   1.0241596742e+02   1.3264302799e+01     6.305024     1.052703  38.18  0.009525565    4.459    0.776
         9 -14.7541      6.1577    247.1965   1.2345889864e+02   2.0442355147e+01     1.994909     1.138401  23.76   0.01201677    2.358    0.576
        10 -13.2873     28.9102    202.2728   1.1604991536e+02   2.7789868699e+01     0.493272    0.4805279 -18.40 0.0009402407    1.379    0.275
        11 -10.8557    111.5292    204.8109   9.6852437481e+01   1.5952629929e+01     0.393193    0.2375138 -76.55  0.001122782    2.246    0.555
        12 -11.3691    192.8587    195.1504   7.6810807322e+01   4.1459504058e+00    0.8877791    0.4240709 -58.96  0.002913081    4.438    0.775
        13  -8.7929     74.6448    182.7256   1.0274020870e+02   2.6854741274e+01    0.1384741    0.1112016 -22.54 0.0003064392    1.646    0.392
        14  -9.5843     99.3964    181.0506   9.6090876213e+01   2.3465318248e+01    0.2356256    0.2057372  20.00 0.0005203389    1.272    0.214
        15 -10.6313     56.2344    193.0771   1.0870713825e+02   2.6809155272e+01    0.2687645    0.1991995  88.37 0.0006348016    1.289    0.224
        16 -12.1045     58.1635    175.8816   1.0608127709e+02   3.0801393971e+01     0.461271    0.3268217 -27.89   0.00226218    1.979    0.495
        17 -11.9857     63.5327    170.7024   1.0393539254e+02   3.1404037353e+01    0.3496194     0.289311 -34.22 0.0009814942    1.443    0.307
        18 -11.0731    111.9093    173.5515   9.1543819960e+01   2.3170874404e+01     0.529567    0.1012247  42.40  0.001315813    5.031    0.801
        19 -13.4553     60.7722    157.3045   1.0267643407e+02   3.5192216675e+01    0.5706346    0.3548639 -40.08  0.001506704    1.889    0.471
        20 -11.9248     73.7307    161.5523   9.9723218346e+01   3.2313538696e+01    0.4291792    0.3617496 -60.55 0.0003056705    1.138    0.121
        21 -12.7588     81.0689    155.4480   9.6601361082e+01   3.2779513119e+01     1.073588    0.7374907 -51.16   0.00124435    1.421    0.296
        22 -16.2831     34.6329    186.8055   1.1330521166e+02   3.0863990688e+01     11.12922     4.399481  77.48   0.03504917    4.678    0.786
        23 -12.2722     32.7573    157.1216   1.1050560032e+02   3.8473135282e+01    0.7140986    0.3913875  60.57  0.003300223    2.078    0.519
        24  -8.8567    149.5729    148.5200   7.6793086971e+01   2.1959774706e+01    0.1549932    0.1489276 -70.52 0.0001542687    1.088    0.081
        25 -10.3385    133.7042    144.5297   7.9868919732e+01   2.6072183402e+01    0.8668806    0.1834247 -53.63  0.001718549    7.382    0.865
        26 -10.5810     47.9744    169.6977   1.0796500352e+02   3.3616185232e+01    0.2983407    0.2265993 -77.97 0.0008307041    1.193    0.162
        27 -15.3252      9.7510    207.9136   1.2063954878e+02   2.8384693912e+01     2.349586     1.357351  82.68  0.006022658    1.486    0.327
        28 -10.3504     28.2704    143.1516   1.0998994064e+02   4.2471492400e+01    0.2430369     0.201406 -66.99  0.000860777    1.067    0.063
        29  -8.7581    200.2445    143.3379   6.4551939801e+01   1.2892222118e+01    0.1453549     0.108451 -15.89 0.0002983529    1.556    0.357
        30 -10.7626     97.3735    140.5652   8.8964004209e+01   3.3887862285e+01    0.6241774    0.4017174 -16.72  0.002362473    2.618    0.618
        31 -12.3568     84.3097    139.9500   9.2666356235e+01   3.6229701043e+01    0.3243796    0.2769125 -50.89 0.0005218814    1.128    0.113
        32  -9.1141    145.2531    141.6431   7.6275730077e+01   2.4408268822e+01    0.1566504    0.1235901 -79.58 0.0004408352    1.608    0.378
        33 -12.1969     69.4645    131.0408   9.5357457179e+01   4.0762850232e+01     0.958733    0.6303332  83.90  0.004059532    2.181    0.542
        34 -10.8686    107.0829    130.8222   8.3958370617e+01   3.4548575703e+01    0.4694562    0.3551385  29.83  0.001492036    1.428    0.300
        35  -9.9114    136.0000    129.4496   7.5705717118e+01   2.9125599362e+01    0.3588324   0.08862865 -47.16 0.0009368658    3.952    0.747
        36  -9.0644     82.2235    129.1786   9.1002649989e+01   3.9294033863e+01    0.2068204    0.1756232  81.45 0.0005446255    1.336    0.251
        37  -9.9051     44.9313    130.0000   1.0288992099e+02   4.4158963076e+01    0.2141178   0.08235908  26.28  0.000800749    2.931    0.659
        38  -9.6105     95.3899    126.3787   8.6353007689e+01   3.7770988814e+01    0.3015396    0.2324706   2.86   0.00123917    1.670    0.401
        39  -9.3874    115.2121    124.8063   8.0184952967e+01   3.4438714245e+01    0.2219352    0.1863027 -14.38  0.000586244    1.384    0.277
        40  -9.5369    174.8601    149.2823   7.1118789382e+01   1.6689919684e+01    0.2359209    0.1954066  67.19 0.0008461092    1.463    0.316
        41 -10.0975    240.6714    122.6708   5.3175361377e+01   9.1770527399e+00    0.1327389    0.1004575  -8.37 0.0004452021    1.710    0.415
        42  -9.7666    105.7989    119.1903   8.1497862588e+01   3.7604042804e+01    0.2141326    0.2052162 -76.37 0.0002715205    1.082    0.075
        43 -10.0300    205.2276    110.5901   5.6118983443e+01   1.8207328409e+01    0.3028643    0.2468205  33.81  0.001122211    1.452    0.311
        44  -8.5600     76.2784    111.7035   8.8829898584e+01   4.4577472469e+01    0.1440485    0.1173262  81.81 0.0002480605    1.534    0.348
        45  -9.2779     35.1785    111.4141   1.0271224281e+02   4.9882149179e+01    0.1901648    0.1216399  40.35 0.0009533498    1.780    0.438
        46  -9.5844    134.7659    106.0006   6.9966393412e+01   3.4640790780e+01    0.2162417    0.1291049 -44.18 0.0006218945    1.646    0.392
        47 -10.7810    241.3944     99.1738   4.8080824902e+01   1.3053487446e+01    0.1960183    0.1026438 -47.91 0.0004747865    1.650    0.394
        48 -11.1211     53.3205     91.8238   9.1794887519e+01   5.2599052779e+01    0.4864583    0.2073521 -55.49  0.001777864    2.165    0.538
        49 -10.1231     41.6435     92.0826   9.6213940228e+01   5.3918068157e+01    0.1987253    0.1574413 -46.80 0.0005890828    1.101    0.092
        50  -8.5541    110.5587    167.5273   9.0772707868e+01   2.4869916480e+01    0.1510776    0.1451533  84.91 0.0001378346    1.034    0.033
        51  -9.3342    161.5156     83.4774   5.7510822460e+01   3.3034869421e+01    0.1486721    0.1435841 -75.45  0.000111245    1.005    0.005
        52  -9.6870    243.3353     77.7057   4.3288051433e+01   1.6155350225e+01    0.1340559   0.08529001 -66.14 0.0003511018    1.644    0.392
        53 -10.3935     31.1197     61.1187   9.2037624273e+01   6.1853299619e+01     0.422824    0.2158673  44.45  0.001911597    2.857    0.650
        54 -11.1445     13.5162     60.1519   9.9635541099e+01   6.3538143453e+01    0.2493917    0.1974105 -52.45 0.0004215637    1.177    0.151
        55 -13.2827     56.8142    239.0108   1.1312311455e+02   1.6439003913e+01    0.5643098     0.424415  64.92 0.0004801009    1.131    0.116
        56  -9.9202    173.1273    242.4152   8.8990477419e+01  -1.0939913634e+00    0.2162447    0.1711331 -66.27 0.0007015825    1.881    0.468
        57 -14.5958     10.4006    232.7159   1.2195126158e+02   2.2953981653e+01     1.402448    0.6975641  58.88  0.008151222    1.649    0.393
        58 -12.5899    220.5220     31.2330   3.5722604112e+01   2.7447920390e+01    0.5110917    0.3857693  55.66  0.001160923    1.584    0.369
        59 -11.1320     10.8856     52.5304   9.8723377084e+01   6.5291721189e+01    0.2649931    0.1834582  42.83  0.001576626    2.007    0.502
        60 -10.2816    131.1285     38.4469   5.0495876510e+01   4.7377094926e+01    0.2765733     0.218773 -81.58 0.0004047874    1.483    0.326
        61  -9.1277    131.3270     30.9037   4.8024217053e+01   4.8267722056e+01    0.1700722    0.1696316  76.61 0.0003388835    1.101    0.092
        62 -10.4550     33.6486     55.2315   8.9029508686e+01   6.2772582008e+01    0.2206108    0.2018009  27.06 0.0008246843    1.331    0.248
        63  -9.5770    189.5686     15.2951   3.5140886213e+01   3.6199478860e+01    0.1480204    0.1241453 -19.48 0.0006660087    1.534    0.348
