#   1 NUMBER                 Running object number                                     
#   2 MAG_AUTO               Kron-like elliptical aperture magnitude                    [mag]
#   3 X_IMAGE                Object position along x                                    [pixel]
#   4 Y_IMAGE                Object position along y                                    [pixel]
#   5 X_WORLD                Barycenter position along world x axis                     [deg]
#   6 Y_WORLD                Barycenter position along world y axis                     [deg]
#   7 A_WORLD                Profile RMS along major axis (world units)                 [deg]
#   8 B_WORLD                Profile RMS along minor axis (world units)                 [deg]
#   9 THETA_WORLD            Position angle (CCW/world-x)                               [deg]
#  10 FWHM_WORLD             FWHM assuming a gaussian core                              [deg]
#  11 ELONGATION             A_IMAGE/B_IMAGE                                           
#  12 ELLIPTICITY            1 - B_IMAGE/A_IMAGE                                       
         1 -11.8312    104.4470     11.8506   3.5773760520e+02   5.7096022003e+01    0.5108458    0.2890233 -23.42  0.001726764    2.025    0.506
         2 -12.7953    105.6194     19.9231   7.3161754218e-01   5.5946731143e+01     0.417998    0.2958756 -72.38 0.0007103773    1.519    0.342
         3 -11.8620     57.7820     29.6758   1.9480372756e+01   6.5890487133e+01    0.6010121    0.4499174  18.95  0.002141041    1.565    0.361
         4 -11.3847     20.5277     21.7174   3.6698549266e+01   7.3820253711e+01    0.5367814    0.3205531 -25.48  0.001649526    1.936    0.484
         5 -11.1666    186.4825     14.9905   3.4938982325e+02   3.7389811480e+01    0.2398943    0.1763924 -70.88 0.0007436334    1.141    0.124
         6 -11.0857    135.0845     22.3287   3.5672342960e+02   4.8401931699e+01    0.4253491    0.2709139 -31.55  0.002230694    1.647    0.393
         7 -11.7784    127.2288     15.4900   3.5551356256e+02   5.1075052686e+01    0.4752832     0.319009 -17.91  0.001694953    1.831    0.454
         8 -11.7441    134.6637     14.8871   3.5432682088e+02   4.9317294297e+01    0.6072711     0.268836  66.04  0.002766449    2.036    0.509
         9 -11.7610     35.5187     17.2527   2.3917882970e+01   7.2166354343e+01    0.4692338     0.333021 -12.61  0.001420984    1.647    0.393
        10 -11.6861     23.2845     10.6597   2.7728832551e+01   7.5270604597e+01     0.655154    0.3935441  30.17  0.003511871    1.585    0.369
        11 -11.5288     16.2707     14.4167   3.5695362582e+01   7.5698816738e+01    0.4920031    0.2768459 -17.12  0.002263878    2.499    0.600
        12 -11.8020     16.7393      9.9109   3.2324466539e+01   7.6388509815e+01    0.6899472    0.2911001  44.95   0.00198237    2.782    0.641
        13 -12.0140    164.4601     18.0489   3.5203400191e+02   4.1926670640e+01    0.4034687    0.2710878  42.13  0.002198314    2.056    0.514
        14 -11.5919    236.3250     15.6995   3.4658960543e+02   2.7640847500e+01    0.2133333    0.1670875 -41.85  0.001050031    1.252    0.201
        15 -11.0906     85.8823     14.5193   2.7557690179e+00   6.1407152888e+01     0.398115    0.2728019 -19.02  0.001618735    1.718    0.418
        16 -11.7293    227.5195     14.6783   3.4681694698e+02   2.9318528910e+01    0.4112834    0.1475722 -60.81  0.002051002    2.501    0.600
        17 -11.4056    243.5096     14.3914   3.4599475036e+02   2.6542844133e+01    0.2112433    0.1906904  36.64  0.001701175    1.777    0.437
        18 -12.2413     48.7483     12.7936   1.4282377737e+01   7.0169555648e+01     0.739956    0.2396524  51.57  0.002856976    2.689    0.628
        19 -11.2784    190.6846     12.0070   3.4835783064e+02   3.6815477783e+01    0.3182434   0.09541997 -37.19  0.001188165    2.506    0.601
        20 -10.8403    121.2578     11.3498   3.5488973970e+02   5.2969170766e+01    0.3350754    0.1817137 -89.42  0.001569886    1.923    0.480
        21 -11.4294    211.6322      9.9005   3.4661569086e+02   3.2802994720e+01    0.3165362    0.2395577 -15.73  0.001315076    1.786    0.440
        22 -11.2892     63.7733      9.9413   6.7726592400e+00   6.7163704164e+01    0.3549716    0.1923596  54.57  0.001173605    1.601    0.375
        23 -10.1063     62.0073      6.4871   5.4445607199e+00   6.7927723810e+01    0.2723766    0.2229228  66.57  0.001623183    1.153    0.133
        24 -12.1601    168.2515      9.4019   3.4931234065e+02   4.1970079916e+01    0.5081754    0.2012272  65.85  0.002128856    2.428    0.588
        25 -10.5533     88.9029      7.9184   3.5907252513e+02   6.1329120407e+01    0.2467669    0.2262835  -1.95 0.0009058939    1.272    0.214
        26 -10.0924      5.6908      8.9814   4.1790262993e+01   7.7937141442e+01    0.1737995    0.1470755 -20.56  0.001151843    1.085    0.078
        27 -10.1835      1.2794      7.6050   4.5468900789e+01   7.8624791807e+01     0.285059   0.08626761 -50.70  0.001195635    2.952    0.661
        28 -11.8558    185.6700      6.5948   3.4734535943e+02   3.8426891933e+01      0.21492    0.1889044  80.89 0.0008458865    1.294    0.227
        29 -11.3096    154.3524      6.5976   3.4967074674e+02   4.5436597887e+01    0.2640026     0.159316  89.59 0.0008460581    1.510    0.338
        30  -9.6084     78.1589      7.3627   1.2756040067e+00   6.4009184238e+01    0.1880624    0.1156822  78.56 0.0007817898    1.664    0.399
        31 -11.3352    237.0016      4.6492   3.4434408159e+02   2.8661996568e+01     0.287654    0.1233326 -30.34  0.001638582    2.155    0.536
        32 -10.6994    148.7505      5.4116   3.4981400475e+02   4.6865186784e+01    0.1764352    0.1036417  67.83  0.000848549    1.621    0.383
        33 -10.1946    128.8934      4.8512   3.5164609697e+02   5.1700174583e+01    0.1872273    0.1750545 -19.07 0.0002434295    1.298    0.230
        34 -12.1060    134.4045      2.6160   3.5030472527e+02   5.0555538008e+01    0.6558213    0.2608607  86.44   0.00274267    2.556    0.609
        35 -10.0469     22.1382      3.4460   2.3326806756e+01   7.6494852914e+01    0.2603396    0.1579883 -25.99  0.001425918    1.783    0.439
        36 -10.6889    218.9224      2.9036   3.4473565745e+02   3.2114689973e+01    0.2095586    0.1448317 -34.04  0.001452505    1.429    0.300
        37 -10.2959    223.5535      2.2256   3.4439400888e+02   3.1317904413e+01    0.2042678    0.1545879  85.79 0.0009343299    1.418    0.295
        38 -11.8148    206.6814      1.9703   3.4509100917e+02   3.4565673344e+01    0.5337738    0.1651761  85.40  0.002375334    3.376    0.704
        39 -11.4321    113.8135      2.1928   3.5253215580e+02   5.5649230923e+01    0.3943418    0.2196168  84.43 0.0009307431    1.668    0.400
        40 -10.9810     40.7942      4.2156   1.2580573860e+01   7.2844137011e+01    0.3490949     0.223069  31.15  0.001418521    1.597    0.374
        41 -10.4347    105.4120      1.8822   3.5357931344e+02   5.7761911908e+01     0.244712    0.1601058 -81.18 0.0007793986    1.514    0.339
        42 -10.3467    247.7947      4.8008   3.4396469326e+02   2.6805198575e+01    0.1457222    0.1051333  29.46 0.0009557446    2.841    0.648
        43  -9.8910     11.8916      2.1125   3.0764126499e+01   7.8296158326e+01    0.2305865    0.1471186  26.09  0.001333993    1.440    0.306
        44 -10.2549      1.9278      1.8218   4.0733555744e+01   7.9587768186e+01    0.1925396    0.1393352 -11.04 0.0009259796    1.291    0.225
        45  -9.5594    122.2347      5.0085   3.5249058860e+02   5.3322444626e+01    0.1557725    0.1080024 -28.34 0.0006266715    1.583    0.368
        46 -10.3020    152.5591      1.4539   3.4830494892e+02   4.6330953292e+01    0.2404455    0.1091051  80.76 0.0006645573    2.005    0.501
        47  -9.9758    105.6849    107.6597   3.0088506913e+01   4.0022199012e+01    0.1583888    0.1234898 -12.69 0.0007047832    1.703    0.413
        48 -10.7271     50.6363    100.5786   4.7861124314e+01   5.1424870812e+01    0.4154388    0.2947118 -48.16  0.001574208    1.397    0.284
        49  -9.3543     86.2627    103.3366   3.5096487693e+01   4.4813421000e+01    0.1558602    0.1207481 -23.62 0.0002443786    1.584    0.369
        50 -10.9855     35.4213    102.8184   5.4799319426e+01   5.2732255539e+01    0.3309433    0.2333824 -12.20 0.0005470979    1.738    0.425
        51 -13.2824    247.5567     95.8832   1.7626615866e+00   1.5731384156e+01     0.622669    0.3314013 -27.54  0.003514727    1.898    0.473
        52 -10.6020     10.4826    101.4696   6.5620439146e+01   5.5294606081e+01    0.2283233     0.114611 -61.64 0.0009810401    1.757    0.431
        53  -9.5125    210.4497     98.0021   6.4428162700e+00   2.1304349416e+01    0.1842675    0.1042793 -39.46 9.715189e-05    1.448    0.309
        54 -11.9628     68.3093     95.1984   3.9411348689e+01   5.0062133969e+01    0.4387634    0.3601459   9.08 0.0007119159    1.421    0.296
        55 -11.6052     78.1561     93.7909   3.5339230164e+01   4.8651422668e+01    0.8489481    0.3837148 -48.92  0.003134045    2.180    0.541
        56 -10.1381     30.4256     95.7657   5.5640808348e+01   5.5193186088e+01    0.2173121    0.1254277 -55.66 0.0006158568    1.604    0.376
        57 -11.1619      8.1168     95.4567   6.5928320387e+01   5.7097637989e+01    0.2955832    0.2326582 -67.42  0.001599733    1.155    0.135
        58 -10.2684     43.1077     94.5174   4.9681113232e+01   5.4050003019e+01    0.2860752    0.2704253  20.80   0.00112044    1.096    0.087
        59 -11.8658     26.4724    106.2039   5.9270025638e+01   5.2717439026e+01    0.7155142    0.4516728 -35.27  0.002580169    1.770    0.435
        60 -10.9690     36.3841     92.0511   5.2139293500e+01   5.5536019389e+01    0.3847979    0.2742112 -36.51  0.001835873    1.491    0.329
        61 -12.1067     15.9455    108.5566   6.4143452459e+01   5.2949083943e+01    0.8546625    0.3644326 -87.24  0.003098271    2.670    0.626
        62 -10.8542     98.3023     90.6537   2.7641596546e+01   4.5413675773e+01    0.2580049    0.2526267  12.94 0.0003550722    1.089    0.082
        63 -10.1305     50.7873     91.4052   4.5572003361e+01   5.3813778524e+01    0.2767585    0.2270011  -4.07  0.001126012    1.404    0.288
        64 -10.3008     52.1932     87.4162   4.3915678647e+01   5.4631842139e+01    0.2621996    0.2090603 -73.58 0.0006097594    1.341    0.254
        65 -12.0224      6.0017     88.0192   6.5947630352e+01   5.9249109610e+01    0.6519949    0.3684547  16.51   0.00284621    1.888    0.470
        66 -10.8943      2.2401     80.4620   6.6808454080e+01   6.1477589848e+01    0.5740641    0.2564792  74.45  0.002146195    2.979    0.664
        67  -9.8045     66.8580     88.2228   3.8041286970e+01   5.2045644155e+01    0.2165411    0.1789571 -25.45 0.0007079278    1.365    0.268
        68 -11.4409     28.1223     85.3890   5.4568939647e+01   5.8221253370e+01    0.5473654    0.4946122  30.46   0.00149705    1.154    0.134
        69 -14.0640    247.3591     78.6784   3.5843223848e+02   1.8121024832e+01     1.127958    0.4176072 -36.26  0.005703249    2.068    0.516
        70 -11.6217     44.7920     84.0078   4.6311545074e+01   5.6571242787e+01    0.4858274    0.4270797  88.20  0.002050034    1.242    0.195
        71 -10.6993     18.4663     86.1307   5.9474529399e+01   5.8911923785e+01    0.3858597    0.1916541   0.52  0.001515007    2.584    0.613
        72  -9.9498     36.9805     85.5422   5.0346418387e+01   5.7187787091e+01    0.2240719    0.1457844  25.47  0.001027606    1.585    0.369
        73  -9.4353    143.4858     84.4047   1.4185899358e+01   3.6896223209e+01    0.1437273     0.135548 -67.89 0.0001357165    1.021    0.020
        74 -10.1717     72.3461     83.9633   3.4643706146e+01   5.2087079803e+01    0.2109587    0.1879547 -52.93   0.00036297    1.117    0.104
        75 -12.4300     60.9274     83.4086   3.9055640406e+01   5.4242174959e+01    0.3030677    0.2885484  50.93 0.0003801164    1.068    0.063
        76  -9.9669    113.1781     82.8383   2.0974730499e+01   4.3906218916e+01    0.2379454    0.2067515 -81.75  0.001151908    1.224    0.183
        77 -10.3645     67.5307     81.0948   3.5656917141e+01   5.3648092749e+01    0.3048566    0.2443089  -8.51  0.001223975    1.555    0.357
        78 -11.4879     74.5685     78.7302   3.2170211180e+01   5.2886933377e+01    0.6525829    0.3691715  53.79  0.001833115    2.045    0.511
        79 -10.3428     76.0213     75.2818   3.0506620927e+01   5.3384251494e+01    0.3432593    0.2636578  75.45  0.001602592    1.646    0.392
        80 -10.1556     58.4582     77.9922   3.8471757793e+01   5.5971807592e+01    0.2322109     0.146595 -54.59  0.001001796    1.576    0.365
        81 -11.1875     53.1860     76.1398   4.0224530734e+01   5.7283450277e+01     0.386115    0.3400122 -50.29  0.001747711    1.120    0.107
        82 -10.5526     89.1015     77.0912   2.6451959149e+01   5.0322112069e+01     0.459459    0.2090417  46.52  0.001458626    2.195    0.544
        83 -10.2068     94.2801     75.6790   2.4302853590e+01   4.9521685987e+01    0.3001137    0.2660056  31.50 0.0007868418    1.215    0.177
        84  -9.3249     46.3313     76.3125   4.3434683690e+01   5.8291074699e+01    0.1557765    0.1118622 -22.43 0.0005179785    1.676    0.403
        85 -11.3514     14.0285     74.4289   5.9500037587e+01   6.2368699841e+01    0.3828816    0.2889206 -76.43  0.001709054    1.318    0.241
        86 -11.6409    238.1425     73.7842   3.5829123390e+02   2.0228782957e+01     0.379422     0.174568 -60.31  0.001850634    2.678    0.627
        87  -9.3886    103.5144     74.4982   2.1104685856e+01   4.7743921041e+01    0.1503741     0.145241 -87.36 -3.453789e-05    1.001    0.001
        88 -11.6969     27.7238     73.2480   5.1879073112e+01   6.1431256424e+01    0.3638366    0.2759055  -8.86 0.0002758971    1.460    0.315
        89 -10.4943     34.1417     71.1936   4.7964602402e+01   6.1210304701e+01     0.404672    0.2249532  31.69  0.001659966    1.799    0.444
        90 -10.8642     40.8207     72.9518   4.5097962356e+01   5.9903198378e+01    0.3259849    0.2556414  11.09 0.0005867674    1.381    0.276
        91 -10.4535     40.2094     68.7684   4.4132414862e+01   6.1012146649e+01    0.2760998    0.2472704  40.67 0.0009205067    1.160    0.138
        92 -11.0879      2.1632     71.2291   6.5475008856e+01   6.3927307257e+01    0.4304566    0.2073488 -62.18  0.001769997    1.769    0.435
        93 -11.7264    123.0730     68.3884   1.4013461657e+01   4.4465454717e+01    0.3458694    0.2515813  47.01 0.0006717879    1.451    0.311
        94  -9.8478     11.4856     67.8239   5.9538463447e+01   6.4269284918e+01    0.2552152    0.1564534 -21.52  0.001123814    1.795    0.443
        95  -9.6466     15.8153     67.1136   5.6897018662e+01   6.4123858606e+01    0.2289856    0.1846167  14.41 0.0007489055    1.290    0.225
        96 -10.1467    220.5612     67.2383   3.5859821105e+02   2.4105444203e+01    0.3576014    0.1052835  65.08  0.001441551    4.259    0.765
        97 -10.6378    101.9770     66.8773   1.9045881225e+01   4.9592272667e+01    0.2322301    0.2112554 -51.32 0.0003400692    1.103    0.093
        98 -13.3297      5.5925     61.4278   6.1668625142e+01   6.6280632121e+01    0.7745857    0.4628741 -11.30  0.001422756    1.829    0.453
        99 -10.5720      9.4695     55.5117   5.7879564072e+01   6.7517037948e+01    0.2455139    0.2060573  23.90 0.0007707524    1.263    0.208
       100 -11.7134     39.6021     56.5787   4.0337877619e+01   6.3958684739e+01    0.3558554    0.2394784  34.63 0.0005849855    1.478    0.324
       101 -11.6335     43.4051     60.6966   3.9827029480e+01   6.2452408227e+01    0.4738218    0.2531416 -56.10 0.0009369811    1.916    0.478
       102 -11.5914     46.4452     59.5034   3.7863374784e+01   6.2248907591e+01    0.6566865    0.2586573  45.62  0.002199627    2.917    0.657
       103  -9.5703    201.6512     63.7022   3.5979774113e+02   2.8112088767e+01    0.1153909   0.09869006  12.95  0.000703538    1.683    0.406
       104 -10.3022    105.6672     63.4384   1.6840243212e+01   4.9398949030e+01    0.1972041     0.139626  45.27    0.0007454    1.456    0.313
       105 -10.5558     92.5695     62.6407   2.0429409880e+01   5.2524373915e+01    0.3340196    0.2424985  74.66 0.0009301435    1.679    0.404
       106  -9.4999    150.7322     60.6644   6.0866700211e+00   3.9387590570e+01     0.131059    0.1120142   8.22 0.0004512067    1.591    0.371
       107 -10.8428     26.2264     59.3883   4.8765212533e+01   6.5039995839e+01    0.5661927    0.2314554  29.35  0.002258199    2.380    0.580
       108 -11.3280     24.3468     56.2752   4.8883584999e+01   6.5994355001e+01    0.5518214    0.3358822   4.14  0.002419732    1.943    0.485
       109 -10.6305    106.3816     58.2383   1.4862818288e+01   5.0175145474e+01    0.2721656    0.2211807  79.05 0.0004477187    1.303    0.232
       110 -11.7056     75.6834     55.1045   2.3427061388e+01   5.7660586469e+01    0.5985628    0.2290487 -46.12  0.001900032    2.726    0.633
       111 -11.4481     72.8348     47.1585   2.1317034831e+01   5.9749161806e+01    0.8105311    0.4445786 -62.08  0.003027122    2.990    0.666
       112 -10.3244    124.6042     56.8573   9.9878118579e+00   4.6111162218e+01    0.2336963    0.1935103  51.50 0.0003701462    1.263    0.208
       113 -10.3056     87.9707     55.6706   1.9367626322e+01   5.4867496672e+01    0.4239894    0.1827638 -31.37  0.001424335    3.251    0.692
       114 -10.0445    118.3394     56.1867   1.1178906948e+01   4.7709234135e+01    0.3198588    0.1696085  81.20  0.001083945    3.376    0.704
       115 -11.8167    243.9759     51.2466   3.5327632908e+02   2.2220850794e+01    0.2314156     0.146348 -64.20 0.0009699682    1.475    0.322
       116  -9.9628      2.4300     54.8857   6.2266863664e+01   6.8096569895e+01    0.2223926     0.157229 -33.76 0.0004279537    1.332    0.249
       117  -9.7952    156.5101     53.4958   3.0924272327e+00   3.9174702832e+01    0.1403928     0.121058 -67.08 0.0008102757    1.039    0.038
       118 -10.2435    126.1992     52.3826   8.1902436408e+00   4.6457784439e+01    0.3042509    0.1971387 -17.77 0.0007966304    2.199    0.545
       119 -10.7460     60.8128     51.4137   2.7968079762e+01   6.1409767407e+01    0.4618126    0.2125982 -47.37  0.001839716    2.259    0.557
       120 -11.5786     56.0402     49.9223   2.9502758072e+01   6.2616674776e+01    0.3808329    0.2574247  22.23 0.0003934607    1.766    0.434
       121 -10.8706     31.9654     52.6476   4.3150422106e+01   6.5916955815e+01    0.4291415    0.2358864  12.63  0.001794162    2.325    0.570
       122 -10.1619    112.5566     50.2450   1.0512441822e+01   5.0066406735e+01     0.451062     0.285163 -13.80   0.00186976    2.544    0.607
       123 -12.1126    119.6198     37.2885   4.4189607763e+00   5.0299477049e+01    0.7434427    0.3515691 -48.92  0.002542173    2.217    0.549
       124 -11.1388    117.1972     47.2099   8.3877914173e+00   4.9431234084e+01    0.5016872     0.318862  25.31  0.002071715    2.661    0.624
       125 -11.1134    116.5018     43.4909   7.2451051164e+00   5.0165371979e+01     0.342968    0.3038014  23.35 0.0009954906    1.377    0.274
       126 -10.1066    155.3095     48.2205   1.7630941741e+00   4.0224483386e+01    0.2573859    0.1273893 -25.40 0.0008740497    2.573    0.611
       127 -10.5255     82.6207     47.6315   1.8025812344e+01   5.7510278216e+01    0.4282614    0.2600702 -10.65  0.001563256    3.301    0.697
       128  -9.1502     52.2746     48.3160   3.0610237780e+01   6.3632699932e+01    0.1414445    0.1097851  -7.86 0.0002666327    1.564    0.361
       129 -12.3873     41.4233     44.3853   3.4503940014e+01   6.6300173215e+01    0.9007224    0.3874197  35.17  0.002259476    2.295    0.564
       130 -10.4381     13.1902     46.5177   5.2835911067e+01   6.9392627925e+01     0.413532    0.1866283 -35.36  0.001710688    2.398    0.583
       131  -9.9032      2.3768     48.2483   6.0769789008e+01   6.9731444360e+01    0.1829422    0.1220501 -82.51  0.000948554    1.652    0.395
       132 -10.2962     20.5352     45.8059   4.7683158637e+01   6.8844517556e+01    0.2360945    0.1868329  14.47 0.0006335794    1.255    0.203
       133 -11.5196     26.4907     42.6433   4.2603906599e+01   6.8844311329e+01    0.3533451    0.2609961  45.59  0.001024741    1.534    0.348
       134 -10.5148     23.0991     37.2741   4.2566471035e+01   7.0415884169e+01     0.496019     0.178196  39.71  0.001878748    3.002    0.667
       135  -9.8269    155.8918     42.1149   3.5991371118e+02   4.0947844996e+01     0.211444    0.1652093 -61.74 0.0009107327    1.159    0.137
       136 -10.8566    109.9752     39.5364   7.2784593721e+00   5.2334606535e+01     0.471615    0.2758828 -16.75  0.001436493    2.555    0.609
       137 -11.0208     56.8353     41.9469   2.5707879618e+01   6.3992793244e+01    0.2615257    0.1919854  46.55 0.0004233055    1.327    0.247
       138 -11.1223     18.2352     40.4618   4.7213061449e+01   7.0287355994e+01     0.308109    0.2155459 -28.93  0.001650013    1.427    0.299
       139 -10.2793      3.8138     39.5928   5.7353876657e+01   7.1704863190e+01    0.3920394    0.1966997  39.17  0.001814978    2.307    0.567
       140 -10.5632      2.9946     35.1977   5.6587760323e+01   7.2766122975e+01    0.3839934    0.2994184  21.92  0.001493705    1.344    0.256
       141 -11.1872    249.6362     38.6813   3.5042368383e+02   2.2819457827e+01    0.2266541    0.1331733 -54.78 0.0005931049    1.310    0.237
       142 -11.2856     79.0444     34.9200   1.3895674202e+01   6.0396003696e+01    0.5677661    0.4190782 -25.39   0.00220428    1.540    0.351
       143 -10.1346     60.5122     36.9380   2.1795967702e+01   6.4137382805e+01    0.2584262    0.2104801 -45.62 0.0005663768    1.316    0.240
       144 -10.6725     63.5182     33.3376   1.8851647806e+01   6.4098350057e+01    0.5415756    0.1832935  45.34  0.001189567    2.819    0.645
       145 -10.8389    153.1888     35.5955   3.5837661885e+02   4.2447057284e+01    0.2403216    0.2109492 -69.82   0.00031794    1.020    0.020
       146 -10.3836    175.9075     34.7792   3.5543514870e+02   3.7386098828e+01    0.2662917    0.1220471 -55.56  0.001215695    2.095    0.523
       147 -10.8380    240.4117     32.1903   3.4969269140e+02   2.5104896014e+01    0.1843109    0.1747348 -17.20  0.001484458    1.507    0.336
       148 -10.1973    131.5228    240.5140   4.7158891579e+01   7.6319710412e+00    0.1219103   0.09905624  11.07 0.0008100523    1.013    0.012
       149 -11.5288    107.2354     31.1993   4.7712209865e+00   5.4163000554e+01    0.5764696    0.3273256  30.67  0.001984068    2.839    0.648
       150 -11.1997    248.6026    224.1897   2.3823482921e+01  -2.0134876156e+00    0.1591069   0.07813303 -33.00  0.001057352    1.612    0.380
       151 -10.9754      9.7472     30.0342   4.9265639290e+01   7.3387862985e+01     0.443147    0.2829148  15.87  0.002186355    1.540    0.351
       152 -12.5996    164.7032     27.5100   3.5465819691e+02   4.0790104919e+01    0.4424972     0.287142  66.84  0.001474352    1.556    0.357
       153 -10.6490     46.4516     23.8865   2.1761953370e+01   6.9086059403e+01    0.3658485    0.2547092   8.56   0.00183262    1.885    0.469
       154 -10.0215     46.6800     20.3049   1.9650587999e+01   6.9578547600e+01    0.2010064     0.189356  67.85 0.0009310951    1.209    0.173
       155 -10.1132    229.4950    199.0105   2.2767595433e+01   3.0783579990e+00    0.1654919   0.07259152 -22.64 0.0008103149    2.527    0.604
       156 -11.2097     47.3264     30.6667   2.4901405394e+01   6.7819472731e+01    0.6261617    0.2758353  37.77  0.002353938    2.308    0.567
       157 -10.7004    177.3963     28.9691   3.5375100888e+02   3.7773553572e+01     0.281278    0.1109442 -32.23  0.001244237    2.384    0.581
       158 -11.6941    157.0051     29.0006   3.5595882049e+02   4.2384806054e+01    0.3039043    0.2455282 -47.86  0.001082039    1.171    0.146
       159 -12.1785    127.0853     28.4065   3.5998024306e+02   4.9634649792e+01    0.6513239     0.365453  78.21  0.002034035    1.813    0.448
       160 -11.7540     26.4858     27.7301   3.5695828265e+01   7.1865622529e+01    0.4655589    0.3348003 -56.59  0.002081268    1.644    0.392
       161 -10.4333    189.3135     27.1399   3.5219853562e+02   3.5426750486e+01    0.2901245    0.2206367  28.86  0.001709089    2.085    0.520
       162 -11.1948    183.3687     26.1537   3.5246617942e+02   3.6808897763e+01    0.3767188    0.1490366 -44.93  0.001771659    2.044    0.511
       163 -12.1439    149.2961     22.5419   3.5495917241e+02   4.4959100382e+01    0.5121695    0.2744639  70.69  0.002046105    1.760    0.432
       164 -10.8927    147.9552     28.0000   3.5678743619e+02   4.4635369146e+01    0.2875878    0.1554761  72.87  0.001145703    1.779    0.438
       165 -10.2783    229.9077     26.8008   3.4921729834e+02   2.7554478507e+01    0.1545216    0.1410831 -52.05 0.0008486796    1.309    0.236
       166  -9.7733    200.5110     27.4877   3.5137483211e+02   3.3074197578e+01    0.1226359   0.09688666 -59.18 0.0001896598    1.009    0.009
       167 -12.1404    243.6078     22.4494   3.4757544605e+02   2.5660242018e+01    0.3519199    0.2400703  -2.33  0.002100315    2.884    0.653
       168 -10.0799    206.1521     25.2676   3.5043744353e+02   3.2203531833e+01    0.1627751    0.1390207 -63.65  0.000450021    1.128    0.114
       169 -11.8091    110.9690     25.5198   1.8425645755e+00   5.3963751591e+01    0.3878215    0.2835522  63.23  0.001165692    1.272    0.214
       170  -9.6624    232.5173    190.5321   2.0926580733e+01   3.9475712487e+00    0.1136052   0.08453618 -19.37 0.0004395614    1.005    0.005
       171 -10.7492    169.4240     23.1553   3.5296899673e+02   4.0229109068e+01    0.2348606    0.1926773 -76.90  0.000480437    1.067    0.062
       172 -10.4528    243.4906    186.0359   1.8595149912e+01   3.4120621872e+00    0.1695006   0.08387605 -35.23 0.0009353022    1.569    0.363
       173 -10.6916    177.1242     22.1056   3.5197132369e+02   3.8634477500e+01    0.2359008    0.2191071  26.30 0.0007671448    1.478    0.323
       174 -11.0009    181.7791     19.1090   3.5079668876e+02   3.7953513314e+01    0.3726154    0.2033244  57.39  0.001174917    2.129    0.530
       175 -11.3498      6.4786    185.8539   7.3550991617e+01   3.2832216385e+01     0.290992    0.1678705  52.14  0.001496632    1.511    0.338
       176 -11.3038    249.0354    174.9491   1.5987565157e+01   4.3490952508e+00    0.3246331    0.1260728 -36.38  0.001763823    1.958    0.489
       177  -9.3726     50.7366    170.3508   5.9270646388e+01   3.2597449492e+01    0.1520526    0.1002954  63.68 0.0003208494    1.614    0.381
       178 -10.6275     68.8614     20.5182   1.0580345639e+01   6.4752283719e+01    0.3483151    0.2523874 -45.38  0.001715166    1.532    0.347
       179  -9.6706     53.1462     21.8370   1.7449856347e+01   6.8033841897e+01    0.1904695    0.1504765  23.37 0.0008715002    1.330    0.248
       180 -10.1105     38.9871     21.2846   2.4295732383e+01   7.0910193413e+01    0.2324655    0.1893563  41.81 0.0009643526    1.179    0.152
       181 -11.0061      9.0412    166.6967   7.1805338735e+01   3.7520100037e+01    0.1956257     0.170363  39.54  0.001139659    1.138    0.121
       182  -9.7638    157.2338    165.9803   3.0060520054e+01   1.7973043594e+01    0.1800187    0.1078605 -44.96 0.0008699516    1.596    0.374
       183 -11.9598      9.0733     19.5248   4.4835604992e+01   7.5605362092e+01    0.3943875    0.2362792 -10.13 0.0003517133    1.923    0.480
       184 -10.1441     18.3108    165.3181   6.8843572775e+01   3.7157777741e+01    0.1408129    0.1000147 -41.85 0.0007034347    1.642    0.391
       185 -10.3156    205.0324    163.1655   2.0459048039e+01   1.1461625465e+01    0.2213003     0.154206 -35.04 0.0008490965    1.211    0.174
       186  -9.6997    216.6045     19.7634   3.4851222012e+02   3.0796040020e+01    0.1668132   0.07790013 -44.22 0.0005402194    1.599    0.375
       187 -11.8242     13.3497    160.0269   7.0030769407e+01   3.8957239917e+01    0.4232621     0.270675 -22.19  0.002009322    2.054    0.513
       188 -10.1416    104.2200    154.4474   4.0918783790e+01   2.9068046944e+01    0.2857834    0.2145323 -54.46  0.001403045    1.344    0.256
       189 -12.2972    241.0898    152.2776   1.3101856009e+01   8.4710385731e+00    0.4420077    0.2294865 -52.40  0.002296468    2.592    0.614
       190 -12.0810     22.2877    149.4311   6.6231438411e+01   4.1088338586e+01    0.6081786    0.3202278 -30.01  0.001918774    2.661    0.624
       191  -9.9756     45.1493    149.8615   5.8543756088e+01   3.8672628342e+01    0.2954252    0.2034053  15.62  0.001387174    1.600    0.375
       192  -9.9072     16.5275    147.4889   6.8019082333e+01   4.2094028167e+01    0.1419542    0.1303394  81.50 7.253959e-05    1.019    0.018
       193 -11.8967      4.1285    142.2793   7.1891095062e+01   4.4389826147e+01    0.6578799    0.3111682  39.71  0.002815696    1.986    0.496
       194 -10.4864     47.5265    145.0411   5.7084814350e+01   3.9704433448e+01    0.3019605    0.1894105  44.37  0.001144625    1.562    0.360
       195 -10.8054     32.9728    143.7944   6.1957539649e+01   4.1638751877e+01    0.2849224     0.250246 -83.40 0.0006530804    1.088    0.081
       196 -11.1366    115.5150     24.5050   6.0551128507e-01   5.2961334492e+01    0.2889831    0.2214362  70.62 0.0007267965    1.201    0.168
       197 -11.0494     40.3530    138.1384   5.8627185013e+01   4.2418898498e+01    0.4587624    0.2353024 -75.39  0.001556154    1.984    0.496
       198 -11.5537     29.9988    132.9221   6.1697650449e+01   4.4939646415e+01    0.4073307    0.3084602 -76.29  0.001690554    1.259    0.206
       199 -11.0090     20.6276    133.9070   6.5273146225e+01   4.5508341164e+01    0.2370641    0.2055136 -13.49 0.0007842169    1.316    0.240
       200 -11.4612     11.7789    135.8285   6.8692797730e+01   4.5655463842e+01    0.4887613    0.2096663 -46.37  0.001509481    2.580    0.612
       201 -13.7096    246.7775    122.0670   6.8383230469e+00   1.2124606430e+01    0.9917589    0.3514442 -46.35  0.004630664    2.584    0.613
       202 -12.3154    249.0916    112.0840   4.7004204326e+00   1.3235152004e+01    0.5026621    0.1467565 -34.91  0.002154719    2.848    0.649
       203  -9.1706     26.6878    127.2876   6.2225938435e+01   4.6822203982e+01    0.1546153    0.1019017  58.07 0.0002069981    1.581    0.368
       204 -10.8929     11.5556    125.1621   6.7801850659e+01   4.8631949704e+01    0.5389069    0.2027333 -52.36  0.002007522    2.580    0.612
       205 -10.8172    104.3663    122.5112   3.4154138061e+01   3.6759468871e+01    0.3098193    0.2895568  36.90  0.001638691    1.091    0.084
       206  -9.9660     49.0169    122.4717   5.2960107760e+01   4.5706449584e+01    0.2288888    0.1495806  28.10 0.0003821327    1.560    0.359
       207 -10.4974     43.5512    116.7197   5.4035953712e+01   4.7967219410e+01    0.3866376    0.1531751 -71.60  0.001300312    2.736    0.634
       208  -9.5536    218.4541    116.4675   9.2632147985e+00   1.7076639200e+01    0.1254545     0.100217 -41.04 4.431845e-05    1.046    0.044
       209 -10.1588     78.9647    114.5650   4.0392879236e+01   4.3309446751e+01    0.2966598    0.2126733 -38.72 0.0008168987    1.521    0.342
       210 -12.3884     22.4015     95.1608   5.9220559174e+01   5.6127819924e+01    0.7769501    0.4098857 -68.57  0.003346394    1.760    0.432
       211 -12.4825     17.9067    101.7886   6.2342049353e+01   5.4677572910e+01    0.5253818    0.4260627  68.93  0.001306101    1.282    0.220
       212 -11.5260     22.9720    114.0366   6.1931795224e+01   5.0854882769e+01    0.5027021    0.3073984  -7.09  0.002081685    2.076    0.518
       213 -11.6294     27.4410    112.5053   5.9856950659e+01   5.0876329714e+01    0.4571354     0.317431  41.56  0.001718341    1.467    0.318
       214 -10.7820      7.9623    114.0225   6.8129279251e+01   5.1967513441e+01    0.3327628    0.2603246 -52.08 0.0009243612    1.261    0.207
       215 -11.9797      2.7503    111.5666   7.0049228036e+01   5.2944486376e+01    0.4514552    0.3230441  83.61  0.001188875    1.335    0.251
       216 -11.7602      3.7654    104.8012   6.8968556159e+01   5.4764262099e+01     0.532606    0.3910096  63.39  0.002024189    1.394    0.283
       217  -9.3572     67.3067    114.6137   4.4548756021e+01   4.5216523737e+01    0.1672231    0.1176116  72.86 0.0007017992    1.804    0.446
       218 -10.1175     48.9695    111.6950   5.0932022095e+01   4.8658427671e+01    0.2153414    0.1939829  38.72 0.0004890075    1.129    0.114
       219 -11.4216     79.8692    107.9567   3.8478909799e+01   4.4831206432e+01    0.4967972    0.3773346   8.33  0.001444052    1.681    0.405
       220 -10.0852     58.4766    109.6487   4.6767164726e+01   4.7880960877e+01    0.2488188    0.2043422  84.23 0.0003114214    1.342    0.255
