#   1 NUMBER                 Running object number                                     
#   2 MAG_AUTO               Kron-like elliptical aperture magnitude                    [mag]
#   3 X_IMAGE                Object position along x                                    [pixel]
#   4 Y_IMAGE                Object position along y                                    [pixel]
#   5 X_WORLD                Barycenter position along world x axis                     [deg]
#   6 Y_WORLD                Barycenter position along world y axis                     [deg]
#   7 A_WORLD                Profile RMS along major axis (world units)                 [deg]
#   8 B_WORLD                Profile RMS along minor axis (world units)                 [deg]
#   9 THETA_WORLD            Position angle (CCW/world-x)                               [deg]
#  10 FWHM_WORLD             FWHM assuming a gaussian core                              [deg]
#  11 ELONGATION             A_IMAGE/B_IMAGE                                           
#  12 ELLIPTICITY            1 - B_IMAGE/A_IMAGE                                       
         1 -15.2538      2.5685     43.8433   1.3363659594e+02   6.5327141004e+01       9.2715    0.5936144 -69.12   0.02295429    8.384    0.881
         2 -13.6223      2.3333    132.1141   1.4345336205e+02   4.6390564312e+01     2.276379      0.30259 -79.28  0.007149474    6.675    0.850
         3 -14.0151    187.8858     22.4852   7.0255329274e+01   3.5217874062e+01     2.172649      1.28246  -0.60  0.007295283    1.982    0.496
         4 -14.2838    195.1363     17.1228   6.7486774862e+01   3.3853675282e+01     1.903775     1.505021  37.18  0.008253822    1.277    0.217
         5 -13.9137    200.6676      9.4491   6.4321182219e+01   3.3128353708e+01     1.647212    0.7642359  45.13  0.001382316    2.225    0.550
         6  -9.8517    146.7323    151.9812   1.1403579406e+02   2.4042288813e+01    0.3927966    0.1472431  53.03  0.001103356    3.281    0.695
         7 -10.5522    205.1622    249.5406   1.1802694175e+02   2.1985709036e+00     0.171602    0.1088744  39.10  0.001307095    1.166    0.143
         8 -10.4208    152.8592    243.6936   1.2538024127e+02   1.0129423460e+01    0.1956878    0.1585569  72.49  0.001245738    1.542    0.352
         9 -11.2876    143.7778    249.4242   1.2734208415e+02   1.0737178779e+01    0.2814946    0.1565904  38.47  0.002012234    1.394    0.283
        10 -11.5557    150.4352    247.9132   1.2617479951e+02   9.9962274316e+00    0.4090358    0.1439805  43.04   0.00233767    2.017    0.504
        11 -10.9147    133.0137    249.2982   1.2898076674e+02   1.2199297563e+01     0.214045    0.1343111  45.99 0.0007660766    1.132    0.117
        12 -10.6255    123.1751    250.1516   1.3055835792e+02   1.3397502640e+01    0.3388112    0.1536579  36.42  0.002140341    1.973    0.493
        13 -10.7615    121.7933    244.8244   1.3032066973e+02   1.4218446914e+01    0.2566898    0.1229956  52.70  0.001225794    1.708    0.415
        14 -12.6995    126.3556    240.7820   1.2925333218e+02   1.4106169026e+01    0.4546833     0.327922 -64.13  0.003398434    1.838    0.456
        15 -11.5396     96.4642    239.2117   1.3381190026e+02   1.8186569626e+01    0.3198081    0.2366604  68.95  0.001839982    1.245    0.197
        16 -10.4527    101.4723    241.5444   1.3320943336e+02   1.7253141569e+01    0.2978933    0.1192565 -71.22  0.001675304    3.874    0.742
        17 -10.4483    108.0208    240.4400   1.3210116419e+02   1.6561894046e+01    0.2055759    0.1376231 -75.42 0.0008518698    1.886    0.470
        18 -10.4439    104.2389    238.0019   1.3249853832e+02   1.7363691286e+01    0.1631754    0.1315446  46.21 0.0006737573    1.210    0.173
        19 -11.9933    109.4873    248.2919   1.3249679546e+02   1.5385401320e+01    0.8812048    0.1721954  44.95  0.004075778    3.375    0.704
        20  -9.8669    101.1251    250.1824   1.3390799002e+02   1.6199547866e+01    0.2366145    0.1273438  41.88  0.001110183    1.439    0.305
        21 -10.7983     97.9993    246.4836   1.3411347994e+02   1.7051776860e+01    0.2656789    0.2326268  83.62  0.002500644    1.358    0.264
        22 -11.2773     88.0948    249.2856   1.3580686761e+02   1.7896940601e+01    0.3960403    0.2292307  57.55  0.001904135    1.326    0.246
        23 -10.1037     84.0482    242.1430   1.3594212187e+02   1.9312010439e+01    0.2013755    0.1557124  29.52  0.001582293    1.708    0.415
        24 -11.0716     81.3916    246.8764   1.3665664801e+02   1.9001672620e+01    0.3136762     0.178059  85.34  0.002276884    2.063    0.515
        25 -12.1701     85.7319    237.4200   1.3535613876e+02   1.9744972989e+01    0.6085094    0.2686931  31.46  0.003351063    3.102    0.678
        26 -10.0672     74.6812    250.2587   1.3786588038e+02   1.9337150175e+01    0.2072915    0.1005589  53.74  0.001537862    1.475    0.322
        27 -13.2160     62.6586    245.4698   1.3937265092e+02   2.1317611629e+01     1.021597    0.3760953  39.09  0.006454112    2.283    0.562
        28 -16.0158      8.7392    245.8195   1.4710420143e+02   2.6581776819e+01     1.247355     1.126866 -82.00   0.01342917    1.754    0.430
        29  -9.1893    114.9718    244.4952   1.3135005507e+02   1.5151136342e+01    0.1477626   0.05692151  54.93 0.0008097201    2.511    0.602
        30 -15.3059      9.1327    209.5956   1.4588298553e+02   3.1888896885e+01      2.50029     1.256965 -81.78   0.01924715    1.794    0.443
        31 -12.0073    246.3901    240.4019   1.1077671358e+02  -2.7603173464e+00    0.3741412    0.1469702  25.60  0.002061397    2.452    0.592
        32 -10.3657    173.3624    240.0352   1.2178705735e+02   7.6255303151e+00    0.2047899    0.1680158 -75.83 0.0008151545    1.953    0.488
        33 -11.5956    136.1596    228.3171   1.2647976247e+02   1.4313387621e+01    0.2859561    0.2081868 -49.30  0.001646573    1.825    0.452
        34 -12.1749    134.9153    236.3116   1.2747896779e+02   1.3488578712e+01     0.268936    0.2141392  79.08  0.001512338    1.509    0.337
        35 -10.9603     73.5442    237.9628   1.3728180706e+02   2.1112088575e+01    0.2455285     0.105573  65.94  0.001482894    2.529    0.605
        36  -9.4740    119.1551    236.8888   1.3004384855e+02   1.5557906278e+01     0.188526    0.1221687  71.71  0.001129558    1.790    0.441
        37  -9.0615    158.1335    241.7946   1.2436104425e+02   9.6014671812e+00    0.1353704   0.09662762  30.18 0.0004439129    1.316    0.240
        38 -10.3900    115.8211    240.1630   1.3085504606e+02   1.5583220794e+01    0.1780749    0.1266709  58.21  0.000850027    1.187    0.157
        39 -10.9030    117.5603    224.3649   1.2915218316e+02   1.7423764531e+01    0.2422647    0.1597408  45.43  0.001202893    1.173    0.148
        40 -12.4057    110.6379    229.9715   1.3080077064e+02   1.7597122616e+01    0.6184551    0.2935777  41.55  0.002398571    1.655    0.396
        41 -11.4946     98.7604    231.3587   1.3283566856e+02   1.8953455905e+01     0.320078    0.2502481  69.47  0.002697913    1.196    0.164
        42 -11.6500    247.0526    232.6092   1.0959268989e+02  -2.2545096564e+00    0.4118207    0.1109899  37.39  0.002029331    2.671    0.626
        43 -10.8264    121.4418    232.6950   1.2929855253e+02   1.5789515175e+01    0.2318886    0.1558943  45.12 0.0009633969    1.132    0.117
        44  -9.2312    161.6613    232.3464   1.2277597749e+02   1.0162227473e+01    0.1049209   0.07036254  61.75 0.0007047534    1.782    0.439
        45 -10.3311    156.3817    231.7989   1.2356457032e+02   1.0991202912e+01    0.1933583    0.1345928  32.24  0.000965013    1.295    0.228
        46  -9.4890     92.5203    231.6844   1.3386134256e+02   1.9696285488e+01     0.169329   0.09426903 -66.00  0.001207937    2.170    0.539
        47 -11.1715    142.4198    228.8457   1.2551130478e+02   1.3356836081e+01     0.268415    0.2026705 -58.09  0.001649531    1.758    0.431
        48 -10.3160     71.6694    229.8392   1.3704737119e+02   2.2469881258e+01    0.2689084    0.1289667  89.17  0.001064368    2.681    0.627
        49 -10.2662     83.8288    230.1407   1.3513462132e+02   2.0982496779e+01     0.160105    0.1025731  56.65  0.001237592    1.176    0.149
        50  -9.2373    180.5513    229.4786   1.1940806990e+02   7.7058531055e+00    0.1085397   0.08038491  36.74 3.876566e-05    1.005    0.005
        51  -9.2568    150.7043    229.7377   1.2425737036e+02   1.2057146477e+01     0.176659   0.06510369  49.36 0.0009004743    2.367    0.577
        52 -10.1124     79.6303    229.1915   1.3573703714e+02   2.1623435334e+01    0.1385512   0.09378847  73.19 0.0004272026    1.354    0.262
        53 -10.4457    240.3844    228.2030   1.0994883860e+02  -9.6291855570e-01    0.1203919   0.09365601 -23.57 0.0003233641    1.696    0.410
        54 -10.4709    190.8458    228.0475   1.1758517340e+02   6.3258038032e+00    0.1756876    0.1164829  37.91 0.0002760612    1.118    0.105
        55  -9.6469    184.9943    228.4900   1.1857474785e+02   7.1515844512e+00    0.1600502   0.07140732  28.59 0.0006196072    2.566    0.610
        56  -8.7017    175.3336    228.3263   1.2010530054e+02   8.6068847459e+00    0.1085984   0.06990878  21.53 4.556624e-05    1.715    0.417
        57 -10.5759    164.7865    226.5395   1.2160117096e+02   1.0375870638e+01    0.1670641    0.1572472  88.99 0.0009046734    1.419    0.295
        58 -12.1104     97.9758    222.3209   1.3221405554e+02   2.0318082213e+01    0.5211576    0.3324636  68.17 0.0005576711    1.531    0.347
        59 -10.8453     89.9064    219.0299   1.3328035924e+02   2.1828173155e+01    0.5095829    0.2575403 -89.27  0.002916171    2.952    0.661
        60 -10.6136    105.0022    222.9631   1.3110503601e+02   1.9307597180e+01    0.2370642    0.1687059  22.42 0.0007371178    2.006    0.501
        61 -11.2386    105.0477    218.9701   1.3073724637e+02   1.9868553752e+01    0.1789042    0.1459701  63.31 0.0003090421    1.108    0.098
        62 -13.3982     45.7531    246.0962   1.4188531171e+02   2.3030856655e+01    0.4586624    0.3915203  62.13  0.004575628    1.389    0.280
        63 -10.0431    110.7575    222.3779   1.3009539753e+02   1.8621159653e+01    0.2344778    0.1593015  45.24   0.00138955    1.173    0.147
        64 -10.3308    132.1850    224.8470   1.2677732351e+02   1.5323386812e+01    0.1608181    0.1194015  56.15 0.0008583285    1.186    0.157
        65  -9.6802     93.0547    244.6652   1.3473796851e+02   1.7893112538e+01    0.1365722   0.09066872  51.70 0.0005992518    1.071    0.066
        66  -9.0116    220.0357    223.5053   1.1237664094e+02   2.4149610545e+00    0.1551755   0.08208859  39.55 0.0009796596    1.440    0.306
        67 -10.7767    149.9862    222.3334   1.2355023305e+02   1.3073404902e+01    0.1599028    0.1567606 -46.90 0.0002039878    1.337    0.252
        68  -9.1621    149.5467    218.5326   1.2318611265e+02   1.3620277140e+01    0.1100601   0.08498164  43.72 8.932458e-05    1.003    0.003
        69 -12.3649    141.7451    213.0388   1.2387159854e+02   1.5503336807e+01    0.6615286    0.5424303 -49.50  0.005059678    1.554    0.357
        70 -11.8239    142.2574    221.6894   1.2476565158e+02   1.4287350175e+01    0.2336641    0.1638211  51.17 0.0001848647    1.190    0.160
        71 -11.6370    142.3192    218.6934   1.2442133050e+02   1.4667599228e+01    0.2506779    0.1469925  57.63 0.0003503074    1.746    0.427
        72  -9.6295    164.1090    221.0078   1.2104969039e+02   1.1132630587e+01    0.2005277    0.1427379 -12.98  0.001350446    2.082    0.520
        73 -10.8198    246.2531    218.8401   1.0768843960e+02  -1.0272168556e+00     0.228675   0.09896208  25.51  0.001249565    2.153    0.536
        74 -10.2943    177.2712    218.4059   1.1854451749e+02   9.4403628330e+00    0.2452023    0.2080051  75.66  0.001264215    1.658    0.397
        75  -9.4113    133.9438    217.8331   1.2574101091e+02   1.6002664833e+01    0.1814612   0.09605145  57.02 0.0007940281    1.927    0.481
        76  -9.4762    233.0181    216.5234   1.0934929152e+02   1.1214979365e+00    0.1621358   0.08388866  39.04 -5.579829e-05    1.502    0.334
        77 -10.0721    183.4876    214.2852   1.1696900698e+02   8.9568129866e+00    0.2560599    0.1523218  52.77 0.0008696739    1.759    0.432
        78  -9.2031     85.7313    215.3346   1.3367752091e+02   2.2903424165e+01     0.148548    0.0853268  64.09 0.0004897241    1.607    0.378
        79 -10.0273     88.5243    213.3213   1.3303614125e+02   2.2854568053e+01    0.2140636    0.1564869  53.81 0.0004484351    1.066    0.062
        80 -11.1722    101.4497    212.2447   1.3072714722e+02   2.1331359021e+01    0.3866458    0.2040022  44.05  0.002483141    1.515    0.340
        81 -10.2532    131.1889    211.7001   1.2553671666e+02   1.7244366331e+01    0.2108808    0.1572137  73.01  0.001184332    1.525    0.344
        82  -9.8560    134.6308    208.3308   1.2455525307e+02   1.7209674308e+01    0.2150698    0.1665753   2.52  0.001030825    1.966    0.491
        83  -9.4836    152.1404    211.8904   1.2195153641e+02   1.4090552309e+01    0.1656691    0.1287476  56.17 0.0005644377    1.257    0.204
        84 -12.9541     42.9512    237.4906   1.4189437885e+02   2.4511064420e+01    0.3276963    0.2788995  32.63 0.0004341726    1.734    0.423
        85  -8.7551     33.2940    211.3322   1.4210993587e+02   2.9395993776e+01   0.07861049   0.07076294 -67.90 0.0003620752    1.636    0.389
        86 -10.1524    109.3211    209.6855   1.2911732649e+02   2.0643441771e+01    0.1781841      0.10428 -69.13   0.00114408    2.105    0.525
        87 -10.8868    108.5492    203.3195   1.2860277193e+02   2.1709916117e+01    0.2546572    0.2025752 -37.68 0.0004820196    1.814    0.449
        88  -9.2090    197.7046    208.0784   1.1373772233e+02   7.4271665560e+00     0.147502    0.1203752  21.92 0.0003162478    1.111    0.100
        89 -10.2975     97.0219    207.2182   1.3102347472e+02   2.2680726274e+01    0.2082415    0.1472554  67.90 0.0007814245    1.304    0.233
        90 -11.5394     91.8778    204.8808   1.3170816109e+02   2.3720136824e+01    0.4459904    0.2062728  39.42  0.001528157    1.913    0.477
        91 -11.6891    247.2926    205.6581   1.0546705624e+02  -4.2331788817e-02    0.4376479    0.1932811  27.71  0.002386903    2.003    0.501
        92 -10.7228    174.4381    205.8158   1.1733406780e+02   1.1394150532e+01    0.3080448    0.2067363  33.69  0.001058782    1.250    0.200
        93  -8.8789    183.4483    206.4392   1.1588775902e+02   9.8839366664e+00    0.1154216   0.08999178  35.31 8.992622e-05    1.013    0.013
        94 -10.7583    166.2348    204.6795   1.1859065086e+02   1.2839767423e+01    0.2883854    0.2662892   4.52  0.001508536    1.252    0.201
        95  -9.5494    148.9096    205.2451   1.2168316312e+02   1.5475078826e+01    0.1935756    0.1422578  -0.02  0.001217776    2.086    0.521
        96  -9.9587    125.8480    205.4254   1.2576412113e+02   1.8921130140e+01    0.1716647    0.1413523  76.12 0.0005858448    1.300    0.231
        97  -8.8765    114.2520    206.4195   1.2791837315e+02   2.0441549393e+01   0.09619991   0.08303506  -7.31 0.0003742825    1.745    0.427
        98  -9.8030     41.2882    204.4856   1.4041632774e+02   2.9690899882e+01    0.2772744    0.1125415 -89.70  0.001590136    2.726    0.633
        99 -10.7473     45.1620    204.9483   1.3979142743e+02   2.9214238413e+01    0.4616507    0.1934956  55.47  0.002919479    1.890    0.471
       100 -11.1839    133.1918    202.7590   1.2415181151e+02   1.8219822589e+01    0.1933609    0.1702515  46.61 0.0002485025    1.107    0.097
       101 -10.6548    134.2514    197.3597   1.2330163458e+02   1.8850030690e+01    0.2672288    0.2030822 -42.11  0.001034599    1.668    0.400
       102 -10.1464    103.5182    203.2222   1.2948777324e+02   2.2420215802e+01    0.2003136    0.1827125   0.41  0.001102245    1.589    0.371
       103 -14.9055     27.2147    248.2398   1.4461887333e+02   2.4570534573e+01    0.8328471    0.3546385  37.83  0.006075597    2.157    0.536
       104  -9.6321    224.7999    202.2653   1.0843307963e+02   3.7478904563e+00     0.160308    0.1241361  29.81 0.0004862898    1.118    0.106
       105 -11.0155    197.2014    200.5313   1.1269604779e+02   8.3659074290e+00    0.3589625    0.2189582  43.13  0.001574212    1.376    0.273
       106  -9.5496    169.5718    200.2766   1.1740124830e+02   1.2877319087e+01    0.1715752    0.1509286  44.40 0.0006058679    1.147    0.128
       107  -9.8926    122.8841    200.8937   1.2577433177e+02   2.0025848346e+01    0.2084149    0.1254184  48.19  0.000738709    1.354    0.261
       108  -9.0834    115.4780    201.0025   1.2711578628e+02   2.1084028011e+01    0.1415735   0.08732925  82.60 0.0008057986    2.324    0.570
       109 -10.3224    141.3897    198.4810   1.2215638565e+02   1.7587952933e+01     0.280165    0.1925491  18.28 0.0009036449    1.990    0.497
       110 -10.5148    100.5294    198.3265   1.2952514005e+02   2.3596261862e+01    0.1933985    0.1788012  65.11 0.0001540237    1.203    0.169
       111  -9.4256     86.1530    199.0407   1.3218601038e+02   2.5391081953e+01     0.140388    0.1293103  59.31 0.0003305912    1.262    0.207
       112  -9.9633     58.0113    199.0144   1.3718304563e+02   2.8791301781e+01    0.1435519    0.1191836  71.49 0.0003553776    1.139    0.122
       113 -10.5007     57.0000    194.4691   1.3702673317e+02   2.9663987368e+01     0.320618    0.1472578 -74.53  0.001964897    2.203    0.546
       114  -9.3593    156.5447    204.4447   1.2024453768e+02   1.4396689783e+01     0.114828   0.09132721  43.45 0.0001667653    1.030    0.029
       115  -8.5711    149.6935    198.7230   1.2070059912e+02   1.6256765979e+01    0.1096273   0.08132894  21.41 0.0001708462    1.550    0.355
       116 -12.1038     73.0232    194.6252   1.3415815813e+02   2.7762746321e+01    0.3652989     0.322431  -5.79  0.001278646    1.866    0.464
       117 -10.2043     70.7020    190.0767   1.3418691162e+02   2.8811691506e+01     0.166276     0.124882  55.93 0.0002328741    1.111    0.100
       118 -11.9503     77.6404    187.7635   1.3269091770e+02   2.8350705059e+01    0.2294543    0.2061774 -51.69 0.0008969329    1.509    0.337
       119 -10.2038     52.7266    198.0871   1.3804312585e+02   2.9531336653e+01    0.1720256    0.1295665  46.66 0.0006311196    1.308    0.235
       120  -9.6176     95.5172    196.8895   1.3028784877e+02   2.4505813722e+01    0.1616972    0.1401198  39.88 0.0005537284    1.300    0.231
       121  -9.7149    113.5959    195.9971   1.2689729287e+02   2.2127945114e+01    0.2306216    0.1215086  51.86  0.001343214    1.648    0.393
       122  -9.4362    107.8025    195.9467   1.2795026613e+02   2.2962608735e+01    0.1749506    0.1122388  79.16 0.0009579443    1.919    0.479
       123 -12.8310     19.0199    250.0195   1.4581853219e+02   2.5092633726e+01    0.1799232    0.1167467  58.68 0.0007538093    1.075    0.069
       124 -13.2482     49.8177    228.4144   1.4038908211e+02   2.5103179997e+01    0.5303708    0.3523295  27.91  0.002185424    2.132    0.531
       125  -9.9426    177.4042    194.3498   1.1516692832e+02   1.2369792334e+01    0.3067354    0.1682047  23.21  0.001547292    2.356    0.576
       126 -10.4699    172.9836    193.0213   1.1574840987e+02   1.3273897264e+01    0.3084014    0.2125728 -24.95  0.001600027    1.835    0.455
       127 -10.5894    159.6901    194.1992   1.1829108744e+02   1.5290970205e+01    0.2678853    0.1672228  51.68 0.0004321511    1.502    0.334
       128  -9.0807     81.9943    194.2647   1.3249587380e+02   2.6705201104e+01    0.1511406   0.09376663  44.91 0.0002078296    1.387    0.279
       129  -9.4501     84.7059    192.3651   1.3181977285e+02   2.6673064974e+01    0.1123505   0.09268308  61.07 0.0004756167    1.058    0.055
       130  -9.6867     37.8087    193.3570   1.4034532998e+02   3.1893103422e+01    0.1821043    0.1522798 -73.32  0.001544023    1.458    0.314
       131 -10.5581    191.4612    191.4140   1.1226091277e+02   1.0404093232e+01    0.2281026     0.187246  30.68 0.0005723417    1.032    0.031
       132  -9.7633    113.0353    192.0134   1.2654400202e+02   2.2838480219e+01    0.1686065    0.1416806  56.86 0.0003172799    1.025    0.024
       133  -8.8971    158.5552    199.4762   1.1922676246e+02   1.4749040962e+01    0.1162101   0.09426802  41.34 7.694052e-05    1.009    0.009
       134  -8.9566     47.4642    192.5037   1.3858531034e+02   3.1039320730e+01    0.1013759   0.07940509  69.89 9.791359e-05    1.057    0.054
       135 -10.3792    135.4600    190.2683   1.2217068008e+02   1.9728157978e+01    0.2023247     0.168653  48.27 0.0003410489    1.003    0.003
       136  -9.0843    197.9794    189.9536   1.1090215098e+02   9.4899016784e+00    0.1460915    0.1124958  31.92 0.0002947948    1.042    0.040
       137 -11.2159    250.1050    187.6066   1.0198958880e+02   1.1849594022e+00    0.3263929    0.1537777 -17.20  0.001755864    2.271    0.560
       138  -9.8886    120.2881    194.5807   1.2550783739e+02   2.1371685828e+01    0.3498258    0.1299069  49.39  0.001668231    2.401    0.583
       139  -9.7956     54.9686    188.9494   1.3697607162e+02   3.0832243768e+01    0.1554907    0.1225846  63.05 0.0003255736    1.080    0.074
       140 -10.3787     44.0847    188.7354   1.3893167848e+02   3.2042202005e+01    0.2277066    0.1722098  27.27  0.001721428    1.800    0.444
       141  -9.0807     59.7380    188.2950   1.3605260352e+02   3.0407487726e+01    0.1061282   0.06304529  68.00 0.0002330101    1.504    0.335
       142  -9.9127    175.6974    186.9662   1.1434059920e+02   1.3630362423e+01    0.1570787    0.1436889  24.93 0.0004152304    1.126    0.112
       143  -9.3306    123.9445    185.9417   1.2376002827e+02   2.2183197306e+01    0.1747043    0.1207298  66.38 0.0003181642    1.559    0.359
       144  -9.4361     67.8367    186.5355   1.3440712566e+02   2.9764756507e+01    0.1502771   0.09157781  43.00 0.0007644042    1.489    0.328
       145 -10.4538    143.1329    184.8274   1.1999861248e+02   1.9338405012e+01    0.1735354    0.1345551  43.98 0.0004737203    1.089    0.081
       146 -10.2039     87.3711    183.5272   1.3043327311e+02   2.7821499047e+01    0.3797429    0.1582973  41.81   0.00201688    2.075    0.518
       147  -9.9276     38.5030    184.0465   1.3962609948e+02   3.3432589289e+01      0.16445    0.1237566  59.11 0.0006385757    1.142    0.124
       148 -10.0926     37.1443    180.0202   1.3960527173e+02   3.4282376166e+01    0.1839478    0.1192555  85.95 0.0004085785    1.307    0.235
       149  -9.1112    217.4488    183.4633   1.0650798861e+02   6.9651204176e+00    0.1219416   0.09737185  24.27 7.804305e-05    1.027    0.026
       150 -11.0097    248.7063    178.0900   1.0049545147e+02   2.3348197502e+00     0.222684    0.1657299 -34.05  0.001441836    1.779    0.438
       151  -8.9311    116.3279    181.6906   1.2466678386e+02   2.4029559436e+01    0.1206863   0.07992013  67.38 0.0005292649    1.661    0.398
       152  -9.6953    104.2560    180.9130   1.2689721244e+02   2.5935838103e+01    0.1642362    0.1305886  66.15 0.0003486297    1.138    0.121
       153 -11.2079    135.5748    179.6671   1.2069844820e+02   2.1361210566e+01    0.3286374    0.2216505 -58.11  0.001998896    1.755    0.430
       154 -10.2666    128.9906    179.2876   1.2191003921e+02   2.2471385954e+01    0.1762716    0.1691213 -84.60 0.0004101929    1.175    0.149
       155  -9.8578     48.2073    179.8413   1.3752944503e+02   3.3170804711e+01    0.1564397    0.1084201  65.94 0.0004538815    1.162    0.140
       156 -14.7997     58.4761    216.5521   1.3830506275e+02   2.5942921601e+01     1.608877     1.372129  61.68   0.01432333    1.258    0.205
       157 -10.8330    181.5528    176.5726   1.1159422141e+02   1.4038294116e+01    0.3758602    0.2622488  52.68  0.002217023    1.490    0.329
       158 -11.1197     80.0327    163.9738   1.2973093626e+02   3.2304991142e+01    0.3199833    0.2596774  23.93  0.002159702    1.612    0.380
       159 -11.3956     96.4594    159.2223   1.2571159240e+02   3.0931178446e+01    0.3549104     0.198043 -59.04  0.001842648    1.861    0.463
       160 -10.8564     85.0534    165.9474   1.2893151649e+02   3.1271139162e+01    0.3314869    0.2035874 -68.81 0.0009244728    1.667    0.400
       161 -12.6855     91.7563    167.2310   1.2771776877e+02   3.0118355745e+01    0.6662524    0.4789064 -55.12  0.002228049    1.561    0.360
       162 -11.5585     89.0483    176.0337   1.2929479337e+02   2.8906123345e+01    0.2086036    0.1803056  77.92 0.0003580218    1.080    0.074
       163 -11.6940     85.5496    175.9783   1.2997614160e+02   2.9385070099e+01    0.2617625    0.2221495 -69.52 0.0005225295    1.295    0.228
       164  -9.4494    109.1145    176.1759   1.2536529248e+02   2.6036323911e+01    0.1612523    0.1204188  67.94 0.0002792307    1.317    0.240
       165  -9.6390     95.4684    175.8429   1.2800958695e+02   2.8057578836e+01    0.1746012    0.1512269  34.87 0.0007194303    1.327    0.247
       166 -11.8283     73.5010    174.2172   1.3215942833e+02   3.1254574773e+01    0.3679811    0.3418126  53.31  0.002321284    1.279    0.218
       167  -9.3164     67.5453    174.9220   1.3339705552e+02   3.1857810480e+01    0.1517826   0.09819591 -76.90 0.0002917432    1.509    0.337
       168 -11.4416     19.1448    173.0372   1.4250603579e+02   3.7224782794e+01    0.3508621    0.1473596  68.08  0.001783884    2.160    0.537
       169 -12.1589    249.1838    171.8362   9.9257369383e+01   2.8862836992e+00    0.4286133    0.2889041  41.45  0.002666223    1.467    0.318
       170  -9.7571    154.3120    173.0656   1.1610866273e+02   1.9283941114e+01    0.2995438    0.1822262  20.89  0.001053443    2.335    0.572
       171  -9.2810     41.8917    173.9217   1.3827690812e+02   3.4903596912e+01     0.148722   0.09592407  72.50 0.0005439993    1.299    0.230
       172 -11.0650     31.5161    171.5241   1.4008619033e+02   3.6370759942e+01    0.5674931    0.1428861 -64.70  0.002710025    3.500    0.714
       173 -10.9502     28.4912    170.4713   1.4059209713e+02   3.6849785992e+01    0.2394183    0.1602154 -76.60  0.001072795    1.389    0.280
       174 -10.3966    100.5456    170.3333   1.2632562150e+02   2.8312475132e+01    0.2452466    0.1701568  46.86 0.0006256446    1.285    0.222
       175 -10.6305     68.9567    168.5703   1.3248774534e+02   3.2851009454e+01    0.2942943    0.1425264 -62.82  0.001671562    2.065    0.516
       176 -10.1693     48.3683    169.7927   1.3669459551e+02   3.4984578395e+01    0.1866953    0.1372647 -66.23  0.001357145    1.463    0.317
       177 -10.7245     43.6375    169.3446   1.3758511776e+02   3.5566698389e+01    0.2743092    0.2367752  -0.50  0.001375793    1.893    0.472
       178  -9.2020    113.2044    169.4129   1.2365647365e+02   2.6593342841e+01     0.179197   0.09595843  51.84 0.0009443341    1.741    0.426
       179 -10.6604    107.3811    168.4172   1.2469627692e+02   2.7649150945e+01    0.2361788    0.1985888  34.30  0.001324216    1.298    0.230
       180  -9.4820     58.7584    167.7352   1.3445180234e+02   3.4215017636e+01    0.1529627    0.1034153  69.76 0.0003713883    1.304    0.233
       181 -11.3595    249.3978    150.1070   9.4929259365e+01   5.1503097491e+00    0.4972806    0.3169115 -22.14  0.002486181    1.513    0.339
       182 -11.6092    240.6842    150.7665   9.6445446544e+01   6.6326782641e+00    0.3308229    0.2405432  30.42  0.001574386    1.202    0.168
       183 -12.5071    246.4559    161.6799   9.7726856204e+01   4.4079240918e+00    0.5941074    0.3508892  21.98  0.003310792    1.559    0.358
       184 -11.9450    245.2053    156.2519   9.6842786635e+01   5.2140096446e+00    0.9095246     0.520119  63.60  0.003831784    3.847    0.740
       185  -9.4480    175.8636    166.2032   1.1085174600e+02   1.6520758681e+01     0.180283      0.15779  51.33 0.0002952286    1.208    0.172
       186  -9.0781    124.4372    165.4892   1.2082484565e+02   2.5513062957e+01    0.1221724    0.1082063  56.90  2.99345e-05    1.015    0.014
       187 -10.2533     47.3611    163.2970   1.3634076511e+02   3.6311287220e+01    0.1882278    0.1184825  88.37 0.0007735911    1.434    0.303
       188 -11.2917     36.6749    162.3317   1.3840930476e+02   3.7588273376e+01    0.4213748     0.114431  39.62  0.002064136    3.031    0.670
       189 -11.6269     36.4398    158.3807   1.3814321600e+02   3.8366604169e+01    0.4452664    0.1781839  35.57  0.002461782    2.498    0.600
       190 -10.7455     23.5522    149.4880   1.4011126397e+02   4.1288649229e+01    0.1766625    0.1134961 -77.46 0.0007434798    1.336    0.251
       191 -12.5605     24.0806    155.1922   1.4041600497e+02   4.0132225727e+01    0.5301903    0.2262368  40.92 0.0008151216    2.153    0.536
       192 -11.2465     33.2132    153.9919   1.3845202698e+02   3.9527584265e+01    0.2199452    0.1889815  79.63 0.0002554512    1.153    0.133
       193 -10.2464     12.0747    161.3049   1.4318138055e+02   3.9985016969e+01    0.1450614    0.1065966  67.87  0.001159023    1.108    0.098
       194 -10.7890     59.1790    159.5792   1.3356972421e+02   3.5711612414e+01    0.1922596    0.1540465  87.08 0.0002947874    1.084    0.077
       195  -9.0226    171.4283    159.4581   1.1047939197e+02   1.8336035113e+01    0.1290177    0.1140568  32.74  0.000113641    1.010    0.010
       196  -9.7536    119.9153    159.0361   1.2077346574e+02   2.7378500048e+01    0.1818326    0.1622192  61.89  0.000300714    1.028    0.027
       197  -9.4666     82.4637    159.4526   1.2868512557e+02   3.2834955077e+01    0.1174107   0.09979732  72.05 3.979469e-05    1.011    0.011
       198 -10.4433     46.8597    158.2285   1.3599215584e+02   3.7334722271e+01    0.2593584    0.1735589 -54.21  0.001719232    1.788    0.441
       199  -9.6649     52.5947    158.2054   1.3480187018e+02   3.6719427485e+01    0.1557452    0.1276103  45.98 0.0005549974    1.310    0.237
       200  -9.9884     88.9950    157.0055   1.2699430342e+02   3.2408109676e+01    0.1766671    0.1572994  71.15            0    1.043    0.041
       201 -11.2015     73.2561    156.6978   1.3029890980e+02   3.4561844993e+01    0.4058331    0.2127662  36.49  0.001846462    1.972    0.493
       202  -9.9266    134.4929    155.5841   1.1719024164e+02   2.5567045708e+01    0.2186258    0.2040925  54.21 0.0005823476    1.032    0.031
       203 -10.5467     62.1560    152.8388   1.3222841033e+02   3.6673009504e+01    0.3001971    0.1503108 -77.43  0.001454266    2.040    0.510
       204 -10.0231    113.9415    152.5639   1.2102656409e+02   2.9515598976e+01     0.223514    0.1775086 -71.72 0.0005356299    1.341    0.254
       205 -10.2265     95.1303    153.0996   1.2514968443e+02   3.2280251712e+01    0.1681153     0.163538  29.33  0.000364266    1.252    0.202
       206 -11.5539    247.6583    248.0011   1.1161722697e+02  -3.4896858831e+00    0.2487117    0.1691324  20.09  0.002046204    1.104    0.094
       207 -10.9043    103.2924    151.0733   1.2308990655e+02   3.1454131852e+01    0.2781989    0.2487286 -62.33 0.0009926195    1.197    0.164
       208 -10.0073    106.0172    146.0209   1.2171267154e+02   3.2000036916e+01    0.2550736    0.2270689 -10.38  0.001625531    1.477    0.323
       209  -8.9052    119.7220    151.3408   1.1959488740e+02   2.8806869032e+01    0.1268799    0.0938382  79.26  0.000328318    1.622    0.383
       210 -11.4667     55.9171    149.7576   1.3323882118e+02   3.8002421478e+01    0.4352753    0.2853405  74.14  0.002769937    1.446    0.309
       211 -11.2555    221.7501    245.6855   1.1508621293e+02   2.1693726837e-01    0.3641089    0.1248478  27.31  0.001568326    4.106    0.756
       212 -10.3851     61.0053    137.4631   1.3067393071e+02   3.9898756174e+01    0.2651002    0.1613437  37.80 0.0006525271    1.732    0.423
       213 -11.7713     58.9625    133.6412   1.3066451788e+02   4.0927115752e+01    0.3165749    0.2817993  71.58  0.001427229    1.114    0.103
       214 -13.4607     67.2688    143.6413   1.3002411405e+02   3.7886344732e+01     0.783765    0.4907442  80.72  0.004518045    1.726    0.421
       215 -12.5890     74.1941    139.1047   1.2785530763e+02   3.7929406016e+01    0.7282876    0.4533301  81.33  0.002809216    1.868    0.465
       216 -11.0428     65.0466    134.2640   1.2931928581e+02   4.0074226807e+01     0.311766     0.192477  49.26 0.0008454302    1.581    0.367
       217  -9.6157     47.0790    150.6877   1.3523767508e+02   3.8785042716e+01     0.214227    0.0779768  42.02  0.001086281    2.469    0.595
       218 -11.6614    133.5489    142.9296   1.1516309334e+02   2.7991373582e+01    0.7821428    0.2907455 -52.80  0.003052446    3.107    0.678
       219 -12.4392     33.2575    140.9453   1.3732435134e+02   4.2115084952e+01    0.4186943    0.2583676 -72.55  0.002021145    1.411    0.291
       220  -9.2940     86.0083    147.7543   1.2639243385e+02   3.4611173093e+01    0.1642776    0.1420924  60.89  0.001105153    1.084    0.078
       221 -11.2131     35.3185    149.0376   1.3759609262e+02   4.0299214993e+01    0.3192126    0.1211326  49.85  0.001546333    2.394    0.582
       222 -10.1832    236.0168    146.1671   9.6243178268e+01   8.0201313462e+00    0.3300205    0.1144978  40.28  0.001339972    2.618    0.618
       223 -10.2578     40.0289    146.5266   1.3635871689e+02   4.0337161479e+01    0.1530497    0.1029385  39.73 0.0006865645    1.572    0.364
       224 -10.0456     22.2740    143.7440   1.3994792554e+02   4.2534846117e+01    0.1609961    0.1049521 -47.28  0.001054308    2.075    0.518
       225 -11.8252    248.1861    141.2693   9.3259182541e+01   6.3530291928e+00    0.8571165    0.2531964  40.28  0.003277969    3.128    0.680
       226 -11.5058    248.2705    136.0123   9.2109110280e+01   6.9365573934e+00    0.7964578    0.5836226  85.70  0.003741547    3.280    0.695
       227 -11.9733    248.7086    131.8714   9.1129785682e+01   7.3317306243e+00    0.4836212    0.3939192 -41.87  0.002701558    1.632    0.387
       228 -11.0301     48.1487    143.4146   1.3426906033e+02   4.0125846867e+01    0.2668809   0.09690115  36.84   0.00102643    2.696    0.629
       229 -11.2145     26.9498    140.6535   1.3868628086e+02   4.2748443156e+01    0.3079664    0.1652764  79.49  0.001810384    1.744    0.427
       230 -11.8739     51.0611    138.0000   1.3302068295e+02   4.0915463447e+01    0.4915331    0.1944346  56.55  0.002247789    2.895    0.655
       231 -11.8579     46.9727    139.0281   1.3406482652e+02   4.1142344311e+01    0.3307651    0.2494794 -11.15  0.002056059    2.318    0.569
       232 -10.5415    119.1523    138.2219   1.1746824298e+02   3.1363444192e+01    0.2655553    0.2374098 -25.99  0.001260303    1.320    0.242
       233 -11.2476    113.1365    136.3000   1.1847936952e+02   3.2739144730e+01    0.3697162    0.2827728  42.23  0.001583346    1.286    0.222
       234 -10.2322     13.4123    137.2590   1.4137992935e+02   4.4553492064e+01    0.1530832   0.07997867  88.82 0.0009487583    1.596    0.374
       235 -10.2225    136.9483    134.0577   1.1272404636e+02   2.9006034951e+01    0.1974852    0.1864439  37.95 0.0003200662    1.041    0.039
       236 -12.5533     45.0972    130.5423   1.3355110379e+02   4.3093013377e+01     0.507046    0.3244418 -79.51    0.0019378    1.367    0.268
       237  -9.1660     87.8000    133.1973   1.2381399371e+02   3.7275266919e+01     0.150884    0.1432664 -39.76 0.0002577689    1.259    0.206
       238 -10.2588     51.9888    133.2366   1.3224859125e+02   4.1798209138e+01    0.1633931    0.1377201  86.08 0.0005276673    1.017    0.017
       239  -8.9359    129.9721    132.0418   1.1387458456e+02   3.0651118234e+01    0.1542322    0.1507013  82.92 0.0009633534    1.038    0.037
       240  -9.4725    107.0674    130.1467   1.1876766893e+02   3.4946122100e+01    0.3254276    0.1495477  58.77  0.001239245    3.218    0.689
       241 -11.6790     66.2057    127.7357   1.2813654722e+02   4.1293807922e+01    0.4315741    0.2478707 -81.60  0.002273064    1.888    0.470
       242  -9.1208     93.0910    127.5170   1.2161135185e+02   3.7662326139e+01      0.17545    0.1218622  43.98 0.0003307286    1.442    0.306
       243 -10.0243     85.8860    126.7604   1.2321803701e+02   3.8874786344e+01    0.2213627     0.189069  -0.18   0.00109467    1.617    0.382
       244 -11.4071     37.8896    126.2541   1.3477971694e+02   4.4711118214e+01    0.3549986    0.1516215  63.07  0.001644828    2.914    0.657
       245 -11.2854    244.8336    121.1845   8.9310205590e+01   9.3314451404e+00    0.5001685    0.3605683  61.02  0.002605851    1.873    0.466
       246 -12.1317    248.1493    113.0312   8.6895075446e+01   9.6574472491e+00    0.5412633    0.3953786   9.24  0.003024125    1.269    0.212
       247 -10.3374    209.8390    125.7463   9.6217297416e+01   1.5786917430e+01    0.2365739    0.2064472  -7.27 0.0004800487    1.100    0.091
       248  -9.6245    159.6791    126.3267   1.0617408495e+02   2.6019684907e+01    0.1380876    0.1122469  89.87 0.0004536741    1.684    0.406
       249 -10.2434    118.2298    128.7773   1.1591145506e+02   3.3349420915e+01     0.178621     0.156804 -19.91 0.0007052259    1.365    0.267
       250 -10.2493     27.6825    126.4138   1.3722566528e+02   4.5611339146e+01    0.1950705   0.09428121  38.77 0.0007875836    2.120    0.528
       251 -12.1288     17.8740    124.6168   1.3937070295e+02   4.6795721320e+01    0.3634997    0.1801346  59.49  0.001602003    1.977    0.494
       252 -11.4743     32.9082    126.8925   1.3603636066e+02   4.5044555781e+01    0.3023964     0.169596  82.21  0.001758716    1.754    0.430
       253  -9.6415    114.7287    122.9669   1.1558637725e+02   3.5101077201e+01    0.1792135    0.1639449 -68.27 0.0002080355    1.088    0.081
       254  -9.6107     50.3720    122.7346   1.3131736322e+02   4.4184764492e+01    0.1929199    0.1183359  74.60   0.00108509    1.754    0.430
       255 -10.6974    249.5202    117.9115   8.7833187500e+01   8.8089221209e+00    0.2685634     0.209168  -1.09 0.0007610036    1.106    0.096
       256  -8.6528     79.7019    122.2946   1.2398374445e+02   4.0678010854e+01    0.1273495   0.09036808  76.43 0.0002994279    1.567    0.362
       257  -9.6187    143.1207    120.4461   1.0847772253e+02   3.0359268386e+01    0.3245936    0.1595919 -57.42  0.001233849    2.890    0.654
       258 -11.3504     21.3013    119.8923   1.3812033394e+02   4.7515444498e+01    0.3768893    0.1095654 -58.87   0.00172597    2.973    0.664
       259  -9.7577    124.9700    125.5326   1.1370686892e+02   3.2796517684e+01    0.1967817    0.1289957  42.99 0.0003294533    1.493    0.330
       260  -9.6103     86.0449    118.2624   1.2169951182e+02   4.0630727423e+01    0.3059299    0.1338338  51.86 0.0008884582    2.647    0.622
       261  -9.6966    130.6381    119.1908   1.1105329184e+02   3.2985454401e+01     0.181245    0.1276394 -37.08  0.000164977    1.531    0.347
       262 -10.0770     72.6060    115.1192   1.2455917928e+02   4.3160863290e+01    0.1838537    0.1723377 -20.23  0.000339032    1.331    0.249
       263  -9.0281     82.1747    114.3561   1.2196868381e+02   4.2015211902e+01    0.1697753    0.1125104  51.35 0.0001181679    1.567    0.362
       264 -11.2500     59.9102    111.8247   1.2730687258e+02   4.5457153646e+01    0.3529361    0.2177595  85.46  0.001858364    1.919    0.479
       265 -10.8052    168.3587    113.5150   1.0136162653e+02   2.6439101279e+01    0.3578112    0.2938564  82.55  0.001195095    1.641    0.390
       266 -10.5258     70.2202    110.9542   1.2445824479e+02   4.4370034756e+01    0.2163141    0.1899325 -37.16 0.0003438944    1.345    0.256
       267 -11.7448     32.0729    116.6880   1.3512643849e+02   4.7284121059e+01    0.3529731    0.1886193 -58.13  0.002053196    1.745    0.427
       268  -8.8004     79.7198    109.2834   1.2165889999e+02   4.3448451657e+01     0.126497   0.09422401  80.55 0.0001860318    1.514    0.339
       269 -10.8281     62.6603    106.9068   1.2576141985e+02   4.6199161018e+01    0.2636679   0.09058332 -55.83  0.001105285    2.514    0.602
       270 -11.5418    248.5947     99.5349   8.3568843328e+01   1.1188945003e+01    0.5723191    0.3800249  16.19  0.002930053    1.550    0.355
       271 -10.3359    134.4935    104.5562   1.0674678286e+02   3.5071569940e+01    0.2958778    0.1391695 -43.24  0.001199204    2.126    0.530
       272  -9.4867    112.4650    104.4883   1.1215350606e+02   3.9238947279e+01    0.1367106     0.131438 -72.40 0.0008094498    1.019    0.019
       273  -9.4963     63.4866     98.4319   1.2400391466e+02   4.7957451681e+01    0.1268631    0.1111546 -76.33 3.978205e-05    1.025    0.024
       274  -9.1690    136.7043     94.2943   1.0358494731e+02   3.6596410365e+01    0.1414816    0.1163915 -83.13 0.0002784784    1.562    0.360
       275  -9.4557    102.0157     88.0195   1.1087348935e+02   4.4488697701e+01    0.1993241    0.1624703 -85.50            0    1.476    0.323
       276  -9.1621     52.9727     82.7742   1.2398166462e+02   5.2666513812e+01    0.1438559    0.1069986  32.27 0.0003703916    1.586    0.369
       277 -11.0917    141.4870    244.4965   1.2723043036e+02   1.1609604841e+01    0.1703521    0.1228174  45.41  0.001371396    1.005    0.005
       278 -11.6967    146.1452    240.4895   1.2610987200e+02   1.1430425201e+01    0.2605338    0.2075108  40.98 0.0004288089    1.117    0.105
       279  -9.3517    150.5267    239.4344   1.2531205704e+02   1.0939153749e+01    0.1384124    0.1180289  36.16 0.0005239638    1.200    0.167
