#   1 NUMBER                 Running object number                                     
#   2 MAG_AUTO               Kron-like elliptical aperture magnitude                    [mag]
#   3 X_IMAGE                Object position along x                                    [pixel]
#   4 Y_IMAGE                Object position along y                                    [pixel]
#   5 X_WORLD                Barycenter position along world x axis                     [deg]
#   6 Y_WORLD                Barycenter position along world y axis                     [deg]
#   7 A_WORLD                Profile RMS along major axis (world units)                 [deg]
#   8 B_WORLD                Profile RMS along minor axis (world units)                 [deg]
#   9 THETA_WORLD            Position angle (CCW/world-x)                               [deg]
#  10 FWHM_WORLD             FWHM assuming a gaussian core                              [deg]
#  11 ELONGATION             A_IMAGE/B_IMAGE                                           
#  12 ELLIPTICITY            1 - B_IMAGE/A_IMAGE                                       
         1 -14.9834    213.1635    121.5130   5.4369351689e+01   1.5251250713e+01     6.924637      4.17236 -68.31   0.02863075    2.718    0.632
         2 -14.8470    208.0909    109.8042   5.2581648759e+01   1.8373425835e+01      9.46567      2.14624  51.47   0.02829492    4.828    0.793
         3 -14.7726    247.3238    127.1167   5.0316986979e+01   8.1886029392e+00     12.27973     3.028854 -48.85    0.0345045    5.547    0.820
         4 -15.5524    247.8952     59.7886   3.6694315520e+01   1.8649061446e+01     5.293108     2.106187 -61.73   0.01355199    3.435    0.709
         5  -9.9495    187.6655     24.2266   3.5244340201e+01   3.5687543559e+01    0.4515307    0.2859029   5.34  0.002102411    3.280    0.695
         6  -8.4175    233.2119      6.7580   2.7595049188e+01   2.7987725530e+01    0.2222813    0.1477282 -45.27  0.001150625    1.402    0.287
         7 -15.6910    247.2077     81.2044   4.1031709898e+01   1.5638030460e+01       2.9241     1.518255  60.47  0.007652407    2.221    0.550
         8 -10.1448    229.6218    167.7466   6.1330284941e+01   3.9667411922e+00    0.5602229    0.2877449 -50.62  0.001487976    2.232    0.552
         9  -9.7811    243.9603    228.9690   7.0232742938e+01  -7.9147065945e+00     0.241291    0.2156497  36.56  0.001051022    1.746    0.427
        10 -11.7039    248.3144    246.1937   7.2370599842e+01  -1.0794326820e+01     1.202936    0.5373346 -35.46  0.006710673    2.019    0.505
        11  -8.3386    229.4871    204.5303   6.8447267352e+01  -2.3123090274e+00     0.238248    0.1003411 -30.56 0.0008302851    2.342    0.573
        12  -9.0238    250.3808    200.5566   6.4093952482e+01  -4.4264936438e+00     0.308199   0.09405243 -35.75  0.001252415    2.818    0.645
        13  -9.0294    238.7617    200.1709   6.5995716032e+01  -2.8566317336e+00    0.2596251    0.1544921 -44.13  0.001152102    1.742    0.426
        14  -7.7944    229.8469    199.3941   6.7428117250e+01  -1.5146543747e+00    0.1708831    0.1107488  16.00 0.0005445947    1.642    0.391
        15  -9.2396    192.4780    192.8657   7.3405958337e+01   5.2910485453e+00    0.6114895    0.3590355 -67.79  0.002012692    4.837    0.793
        16  -7.3341    138.7612    198.7190   8.6562455413e+01   1.3100642591e+01      0.13786    0.1080351 -15.12  0.000679281    1.447    0.309
        17  -8.3296    231.4421    193.4604   6.6025938407e+01  -7.4746097487e-01    0.2258619    0.1105234 -47.39  0.001030049    2.272    0.560
        18  -9.8702    244.0644    191.4660   6.3465696822e+01  -2.1584000895e+00    0.3949514    0.1634815 -38.16  0.001842597    2.039    0.509
        19  -9.5170    237.7099    187.4967   6.3795976446e+01  -6.3171745984e-01    0.2542711    0.1830139 -41.78  0.001497017    1.384    0.278
        20  -8.9435    249.0247    184.3233   6.1300238186e+01  -1.6667846721e+00    0.2530865    0.1590752 -40.67  0.001257415    1.440    0.306
        21  -7.8105    202.6515    185.1480   6.9830881715e+01   5.0954368651e+00    0.1840451    0.1724137  13.63 0.0007014884    1.181    0.153
        22  -8.3523     28.8503    183.8901   1.1238048156e+02   3.2207445397e+01    0.1884025    0.1615992 -63.93 0.0002716341    1.183    0.155
        23 -11.0957    249.4390    230.6710   6.9580438101e+01  -8.7911017282e+00     0.949807    0.2586269 -41.54  0.003823473    3.682    0.728
        24  -7.8789    204.5761    156.7536   6.3615591561e+01   1.0179670247e+01    0.2032895    0.1257321 -49.47 0.0009064652    1.655    0.396
        25  -8.5626    134.7287    155.3725   7.9022628782e+01   2.3690239665e+01     0.273874       0.1889 -58.66 0.0007800365    1.585    0.369
        26  -9.4435    173.1850    153.9715   6.9481423670e+01   1.6573000786e+01    0.4123082    0.2377858 -51.03  0.001739352    1.813    0.448
        27 -12.2183      8.0156    143.2200   1.1379114985e+02   4.4149122187e+01     1.968991    0.5823225 -74.45  0.007277366    2.947    0.661
        28  -8.0885    224.5506    152.6340   5.9121543758e+01   7.4990721569e+00    0.1926793    0.1651022  79.45 0.0006263486    1.639    0.390
        29  -9.8443    133.3725    148.9677   7.7953389450e+01   2.5449380149e+01    0.6442597    0.3528454 -53.58  0.002064299    1.904    0.475
        30  -9.3414    131.9395    141.3117   7.6574515373e+01   2.7519049851e+01     0.459312    0.3160637 -58.55  0.002009703    1.591    0.372
        31  -9.2166    185.1790    242.0913   8.3595189534e+01  -2.3280062768e+00     0.271266    0.2333931  55.29  0.001484693    1.696    0.410
        32  -8.3499    143.3212    148.2029   7.5233451138e+01   2.3685744187e+01    0.2933224    0.2109853 -64.47  0.001043801    1.675    0.403
        33  -7.9723    116.4955    149.0876   8.2509746464e+01   2.8614209442e+01    0.2271081    0.1514116 -49.46 0.0004007346    1.467    0.318
        34  -9.5149    178.7103    142.9568   6.5801745897e+01   1.7802904900e+01    0.3923287    0.2512841   2.06  0.001477266    2.817    0.645
        35  -9.1437    182.3951    146.7988   6.5890644552e+01   1.6289315115e+01    0.3231113    0.1414727 -41.92  0.001219712    2.145    0.534
        36  -8.9445    177.9068    147.0198   6.6895552411e+01   1.7116721865e+01     0.225803    0.2053236 -28.29 0.0003152548    1.032    0.031
        37 -11.2086     68.8824    143.5666   9.5331103846e+01   3.7830130757e+01      1.15095    0.5376382 -70.13  0.004131701    2.642    0.622
        38 -11.7423     47.2596    135.2455   1.0058336530e+02   4.2710985723e+01    0.6467403    0.5030275  14.35  0.001003211    1.468    0.319
        39 -13.3869     59.5664    132.4541   9.6109501880e+01   4.1938307955e+01     2.363086       1.3103  17.31  0.008106008    2.252    0.556
        40 -12.3077     23.1619    143.2203   1.0930642238e+02   4.3013540940e+01    0.9688445    0.4628966 -59.65  0.003596487    1.742    0.426
        41 -11.2583    160.4431    129.8802   6.6778371462e+01   2.4271396273e+01    0.8481231    0.4719922 -35.65  0.003382167    1.883    0.469
        42 -10.4577    181.9474    126.5803   6.1319704397e+01   2.0495146789e+01    0.5898129    0.2119131 -42.17  0.002029658    2.607    0.616
        43  -8.5404    175.0794    226.6747   8.3183673426e+01   1.7548435966e+00    0.1942327    0.1806512 -33.07 0.0003390104    1.262    0.208
        44  -8.5437    138.9228    144.1810   7.5426500691e+01   2.5475973700e+01     0.244951     0.219341  89.72  0.001225728    1.312    0.238
        45 -12.2208     17.3927    141.8831   1.1086684890e+02   4.3816760339e+01    0.9913511    0.4272481 -58.04  0.003712366    1.906    0.475
        46 -10.5794    124.0010    205.9981   9.1349396711e+01   1.3948124754e+01    0.2014268    0.1900498  26.28            0    1.001    0.001
        47  -7.9357    174.5177    139.9049   6.6003010160e+01   1.9271720534e+01    0.2278925    0.1427174 -41.55 0.0006247285    1.511    0.338
        48  -9.3731    143.2601    138.0217   7.2881598149e+01   2.6014734173e+01    0.3388467    0.2054292 -52.61 0.0008079676    1.714    0.417
        49  -8.4094    194.4728    174.5100   6.9335538217e+01   8.4970823422e+00    0.3265482    0.2319069  65.75  0.001189094    2.323    0.570
        50 -10.1008    162.1800    118.4381   6.3568622667e+01   2.6310796485e+01    0.2909247    0.2409641 -58.27 0.0006070996    1.266    0.210
        51  -8.8746     95.8886    121.8779   8.2184025466e+01   3.8979338331e+01    0.2766043    0.2134078  41.45   0.00102572    1.348    0.258
        52 -10.0495    157.0508    120.3795   6.5223512865e+01   2.7002622832e+01    0.3891917    0.2447127 -52.96  0.001094454    1.684    0.406
        53  -9.7230    176.7095    171.5228   7.2478905843e+01   1.2236802880e+01    0.4339941    0.2519357 -34.07  0.001826262    1.752    0.429
        54 -10.0561    194.1020    167.8706   6.8035390565e+01   9.8657667003e+00    0.5139695    0.2474467  33.19  0.002091269    2.354    0.575
        55  -9.0691    196.4816    164.4871   6.6843370062e+01   1.0111273849e+01    0.2083422    0.1807997 -74.38  0.001123454    1.520    0.342
        56  -7.8400    197.5214    160.4600   6.5782301297e+01   1.0717170019e+01    0.1444686    0.1304018 -24.89 1.425099e-05    1.015    0.015
        57  -9.6794    133.1675     97.3930   6.4979441843e+01   3.6955853211e+01    0.3933481    0.2965235 -52.01  0.001460266    1.390    0.281
        58  -9.6768    130.2193     92.1547   6.4264526194e+01   3.8649350256e+01     0.411266    0.2899381 -66.80  0.001802701    1.895    0.472
        59  -9.6847     84.5627     98.9098   7.9792787148e+01   4.6335595908e+01    0.2523141    0.2305477  19.39 0.0002446657    1.102    0.093
        60  -8.3870    204.8574    161.1169   6.4485640436e+01   9.2909349522e+00     0.347118     0.186474  51.91 0.0008770123    2.449    0.592
        61  -9.6514    112.5344     96.1374   7.0262735605e+01   4.1607600014e+01    0.3154032    0.2462221 -41.41  0.001035555    1.273    0.214
        62  -9.8293    157.7212     90.6864   5.7353443323e+01   3.2765679629e+01    0.3855468    0.2712172 -30.68 0.0009268292    1.532    0.347
        63  -9.6996    156.8240     84.1503   5.5778310245e+01   3.4162137410e+01    0.4182136     0.328529 -15.10  0.001304269    1.558    0.358
        64  -7.8521    115.5170     90.4711   6.7765082001e+01   4.2152313593e+01    0.1503635    0.1461221   5.50 0.0003245081    1.005    0.005
        65  -7.4797     55.4125     88.4343   8.7264522891e+01   5.3183550671e+01    0.1412206    0.1266455 -28.60 0.0001191726    1.017    0.017
        66  -7.8336    223.8611    175.1267   6.3820881559e+01   3.5535705197e+00    0.1954584    0.1404417 -18.83  0.001069262    1.343    0.255
        67  -7.9772    151.3083     80.6258   5.5988854596e+01   3.6052977103e+01    0.1557423    0.1132945 -73.19 0.0002025204    1.774    0.436
        68  -7.2884    137.5194     80.5645   5.9113097159e+01   3.9213914697e+01    0.1461762    0.1429354  52.16 0.0002180648    1.009    0.009
        69 -10.0966    188.6323    148.0573   6.4878135252e+01   1.4833784358e+01    0.4555584    0.3486036 -76.76   0.00216377    1.892    0.471
        70  -7.7250    133.6237     78.2833   5.9390330762e+01   4.0507333669e+01    0.1963204    0.1415925 -28.29 0.0007376893    1.515    0.340
        71  -8.4354    157.5027     74.9695   5.3127002583e+01   3.5602973981e+01    0.2190276    0.1415551 -38.34 0.0004989791    1.563    0.360
        72  -7.6201    113.3855     76.7931   6.4250829418e+01   4.5249095175e+01    0.2008637    0.1389125 -25.88 0.0001920912    1.615    0.381
        73 -10.3395    170.3631     71.4481   4.9719427301e+01   3.3218246895e+01    0.3864653    0.2256371 -25.57  0.001681726    2.149    0.535
        74 -10.7348    171.3092     64.4716   4.7714005879e+01   3.4103233658e+01    0.4263227    0.3038179 -47.90  0.002223498    1.387    0.279
        75  -7.6145    188.2926    159.6766   6.7490384491e+01   1.2548583245e+01    0.1405265    0.1172318 -76.34 0.0002925653    1.614    0.381
        76  -7.4089    128.2878     68.6982   5.7831883362e+01   4.3382728541e+01    0.1419817    0.1145567 -78.87 0.0002429589    1.561    0.360
        77  -8.7115    183.5537     65.2045   4.5882029633e+01   3.1190560199e+01    0.2926815    0.1389205 -26.50   0.00113404    2.863    0.651
        78  -9.2343    191.7005    157.3291   6.6283218172e+01   1.2394267917e+01    0.2203482     0.198838 -54.20 0.0004224747    1.217    0.179
        79  -9.8357    188.0376    155.7225   6.6686920250e+01   1.3395468124e+01    0.3924034    0.3036991  53.51  0.001794476    1.529    0.346
        80  -7.6225    105.9625     65.4669   6.2770268889e+01   4.8846130382e+01    0.2031305    0.1373973  48.48 0.0002290293    1.445    0.308
        81  -7.8956    136.0282     63.2458   5.4354706493e+01   4.2501617687e+01    0.2010359    0.1799803  53.88 0.0003896498    1.068    0.064
        82  -9.6925    146.8118     59.1912   5.0843466817e+01   4.0620920741e+01    0.4526796    0.2439631 -18.11  0.001688795    2.957    0.662
        83  -7.9406    128.4811     57.4616   5.4326841099e+01   4.5140360092e+01    0.1413808    0.1329944  47.70 7.080785e-05    1.006    0.006
        84  -7.3583    118.0129     55.9615   5.6404784270e+01   4.7746640738e+01    0.1626985    0.1554904 -13.94  0.000329816    1.095    0.087
        85  -9.3852    158.1267     52.9205   4.6904323233e+01   3.8888132964e+01    0.2875555    0.1609854  39.27  0.001251223    2.225    0.551
        86  -9.7007    186.9139     47.2105   4.0908637082e+01   3.3021532532e+01    0.2366406    0.1783506  10.74  0.001241037    2.104    0.525
        87  -7.7528    158.4648     61.4873   4.9218378217e+01   3.7545800046e+01    0.1399608    0.1316676  87.92 0.0003767424    1.018    0.017
        88 -10.6313    180.0959     42.0722   4.0564879661e+01   3.5252761860e+01    0.4330541    0.2886553 -65.08  0.001324709    1.574    0.365
        89  -9.2811    191.6185    153.1745   6.5397377692e+01   1.3241502716e+01    0.3047272    0.2335891 -27.79 0.0006395882    1.267    0.211
        90 -11.0885    194.1802     35.8919   3.7262247302e+01   3.2855627651e+01    0.5641721    0.2829335 -36.90  0.002822245    1.974    0.493
        91 -10.4450    189.7598     36.9725   3.8050077183e+01   3.3708597150e+01    0.5470933    0.2327463 -52.55  0.002380691    2.486    0.598
        92  -8.3374    118.0485     43.3084   5.2264015209e+01   4.9548540599e+01    0.1898187    0.1651201  51.53 0.0004555644    1.059    0.055
        93  -8.2653    133.3465     40.6689   4.8043747098e+01   4.6363503519e+01    0.1416395    0.1025003 -75.56 0.0007049705    1.761    0.432
        94  -7.9257    183.1794     30.8629   3.7373912548e+01   3.5936431224e+01    0.1591502    0.1469264  43.53 0.0004169905    1.317    0.241
        95  -7.3995     93.6569    214.7107   9.9968691968e+01   1.6706871443e+01    0.1360091    0.1072313 -12.62 0.0004757429    1.650    0.394
        96  -8.2409    163.2570     12.9480   3.5279226559e+01   4.2429685385e+01    0.1595126    0.1459962 -84.95            0    1.102    0.093
        97  -7.5511    178.6710    211.3204   7.9761191674e+01   4.0127401337e+00    0.1288941    0.1114845  69.36 0.0004939687    1.689    0.408
        98 -13.5288    232.7790     85.0633   4.3538939293e+01   1.7721633245e+01    0.5027129    0.3874512 -53.67 0.0009088573    1.112    0.101
        99  -8.2681    165.0118    206.0508   8.1800667332e+01   7.2139960618e+00    0.2072403    0.1862308  -4.37   0.00034439    1.030    0.030
       100 -10.2240    101.0109    175.9972   9.2092957331e+01   2.4698989182e+01    0.2084941    0.2061254  74.61  0.001162828    1.005    0.005
       101  -9.3997    231.4000    174.2175   6.2309633524e+01   2.5564967101e+00    0.3626879    0.2970415   4.80  0.002220302    1.246    0.197
