#   1 NUMBER                 Running object number                                     
#   2 MAG_AUTO               Kron-like elliptical aperture magnitude                    [mag]
#   3 X_IMAGE                Object position along x                                    [pixel]
#   4 Y_IMAGE                Object position along y                                    [pixel]
#   5 X_WORLD                Barycenter position along world x axis                     [deg]
#   6 Y_WORLD                Barycenter position along world y axis                     [deg]
#   7 A_WORLD                Profile RMS along major axis (world units)                 [deg]
#   8 B_WORLD                Profile RMS along minor axis (world units)                 [deg]
#   9 THETA_WORLD            Position angle (CCW/world-x)                               [deg]
#  10 FWHM_WORLD             FWHM assuming a gaussian core                              [deg]
#  11 ELONGATION             A_IMAGE/B_IMAGE                                           
#  12 ELLIPTICITY            1 - B_IMAGE/A_IMAGE                                       
         1 -13.6359     54.1246    146.4694   1.0622500416e+02   3.8447108415e+01     5.784804     1.173957 -62.21   0.01720819    4.051    0.753
         2 -14.9338     68.5095    144.2241   1.0179132044e+02   3.7168983573e+01     4.889177     2.217754  60.96  0.008774118    4.636    0.784
         3 -14.5729    201.0219     40.2612   4.2872307176e+01   3.0108149949e+01     1.875901     1.378413  31.97  0.005887461    1.824    0.452
         4 -14.5119    212.2882     29.0783   3.8835204198e+01   2.8930618573e+01     1.241419    0.9767762  -2.32   0.00279208    1.793    0.442
         5 -12.0996      2.5190     21.2042   9.5550867071e+01   7.0848718703e+01     0.495311    0.1469982 -53.75  0.002153473    3.248    0.692
         6 -12.2190      2.5528      2.5473   8.7121559518e+01   7.3786392924e+01    0.4349743    0.3473012  11.27  0.003354781    1.431    0.301
         7 -13.3906    237.4551      4.5800   3.1269974355e+01   2.6229343699e+01    0.7999747    0.4776208  81.93  0.004905243    1.546    0.353
         8 -16.0525      9.3792    207.9384   1.2320106083e+02   2.8644241464e+01     3.145617     1.264928 -71.32   0.01296127    2.141    0.533
         9 -12.2085    139.5783    248.6693   1.0069087256e+02   3.8060414334e+00     0.432316    0.3972911 -14.59   0.00301872    1.250    0.200
        10 -15.9512     83.1449    219.9910   1.0893044005e+02   1.7511189641e+01     9.771222      1.72849  37.14  0.005321933    4.414    0.773
        11 -16.0396     21.9831    250.1288   1.2329934739e+02   1.9021322098e+01     5.180141     1.098892  28.76  0.009204602   12.203    0.918
        12 -11.9650    108.1760    203.3758   1.0121048332e+02   1.7269418729e+01    0.6858415    0.3890587 -35.22 0.0005942391    2.548    0.608
        13 -16.0527      6.1614    175.4424   1.2166480076e+02   3.6111506597e+01     7.836148     1.166984 -71.30   0.02638855    4.371    0.771
        14 -12.0587    194.2155    197.3946   8.1173162042e+01   3.8441483102e+00     1.223465    0.6580797 -59.76  0.004438241    3.983    0.749
        15 -12.0627    203.5462    199.8983   7.9770213491e+01   1.8609739263e+00    0.5108465    0.3442316 -39.60  0.002736326    1.533    0.348
        16 -14.3728     20.3220    238.7679   1.2296429296e+02   2.1334245537e+01    0.7156298    0.4974287  71.46  0.002192382    1.121    0.108
        17  -9.7757    120.0151    194.0136   9.7013630544e+01   1.7354834964e+01    0.2221495      0.16644  74.14 0.0006566246    1.666    0.400
        18 -14.9846     22.4649    224.0742   1.2167896884e+02   2.4027171713e+01     2.526021    0.9873568  76.41   0.01125866    3.085    0.676
        19 -10.3851    149.5287    187.8385   8.9063053412e+01   1.3527976195e+01    0.2798615    0.2282647  66.24 0.0009690208    1.508    0.337
        20  -9.2348     72.2132    188.2495   1.0754946013e+02   2.5996840604e+01    0.1801733    0.1394287  75.62 0.0003574481    1.291    0.225
        21  -9.4525    120.2995    186.3164   9.5658882140e+01   1.8989470556e+01    0.1424598    0.1125496 -13.42 0.0002370355    1.614    0.380
        22  -9.0942     77.2666    185.6590   1.0598537053e+02   2.5895670604e+01    0.1375211    0.1288347 -89.50 0.0004853214    1.053    0.050
        23  -9.6974     80.1112    183.8032   1.0503342994e+02   2.5922886038e+01    0.2537178    0.1732467  60.85  0.001228581    1.542    0.352
        24  -9.4709     69.1028    183.1057   1.0762229550e+02   2.7618455308e+01    0.2204292    0.1470069  71.93 0.0008338533    1.660    0.398
        25 -10.2051     99.3164    180.8985   9.9866671323e+01   2.3685657663e+01    0.2517913    0.2058445  30.21 0.0006570512    1.283    0.220
        26  -9.2526     90.2193    181.2061   1.0216385776e+02   2.5032352617e+01    0.1880519    0.1527565  73.92  0.000311496    1.285    0.222
        27 -10.5757    189.0079    177.3071   7.8279221242e+01   8.4304030313e+00    0.4739665    0.2850635 -51.91  0.002053044    1.996    0.499
        28  -9.0633     92.8644    178.8490   1.0113905672e+02   2.5176720058e+01    0.1963341    0.1582442  72.30 0.0003612881    1.315    0.240
        29  -9.4374    148.9997    175.9973   8.6917159359e+01   1.6109601696e+01    0.2232397    0.1827283  80.75 0.0004574065    1.625    0.385
        30 -10.8048    146.4195    172.1312   8.6756490909e+01   1.7419915165e+01    0.3481767    0.2645119 -73.12  0.001049743    1.734    0.423
        31 -16.0458      3.3441    247.4212   1.2634080021e+02   2.1365869746e+01     1.238325    0.7939076 -72.78   0.00646593    1.624    0.384
        32 -13.3989     80.5322    160.1166   1.0124573127e+02   3.1535624819e+01     1.866341    0.7166006  55.05 0.0004257625    4.797    0.792
        33 -13.7884     69.1133    155.4435   1.0353948438e+02   3.4303426086e+01    0.6789646    0.5575491 -41.47  0.001676703    1.312    0.238
        34  -9.7395     34.7513    171.8101   1.1463926947e+02   3.4384452191e+01    0.2218506    0.1648539  63.01 0.0007728709    1.307    0.235
        35 -12.3285     67.6579    173.8680   1.0671784244e+02   3.0006383583e+01    0.4631945    0.2886427 -38.20  0.002180019    2.076    0.518
        36  -9.6557    229.7025    166.3133   6.8057995172e+01   3.2300047280e+00     0.125692    0.1074022 -61.11 0.0002616823    1.603    0.376
        37  -9.8209    135.4358    165.4858   8.8070006439e+01   2.0938894757e+01    0.3940632    0.2157609  54.59  0.001521999    2.315    0.568
        38  -9.2236    132.4923    162.0051   8.8087908026e+01   2.2274866537e+01    0.2595316    0.1954802  64.34 0.0008183981    1.628    0.386
        39 -15.0875     56.0686    239.9331   1.1637372216e+02   1.7084768548e+01     1.176546    0.9924721  25.62  0.004262134    1.494    0.331
        40 -10.1600    102.0188    250.0898   1.0833663687e+02   9.0736916818e+00    0.2009146    0.1250074  62.50  0.001132208    1.743    0.426
        41 -12.4483     87.9175    153.6337   9.8106678488e+01   3.2002838895e+01    0.6424121    0.4722126 -19.39  0.003035064    1.840    0.457
        42 -11.4029    133.7448    144.7904   8.4050818294e+01   2.5965261698e+01      1.24369    0.3397336 -54.40  0.002945962    5.507    0.818
        43  -9.0705    111.2348    149.2397   9.0928917678e+01   2.9157075185e+01    0.3609919    0.1637411  57.65  0.001037909    4.228    0.763
        44 -10.7751    174.3180    148.7525   7.5257339683e+01   1.6927448176e+01    0.3511615    0.2846111 -68.75  0.001155957    1.574    0.364
        45  -9.8394    198.6433    140.7352   6.8289717004e+01   1.3615800572e+01    0.2768647    0.2082322 -62.07  0.001057536    1.695    0.410
        46 -11.0593    101.9212    139.2518   9.1346064497e+01   3.3202510999e+01    0.5598124     0.361032 -22.12  0.002255025    2.290    0.563
        47 -12.3663     89.2286    138.9412   9.4864789550e+01   3.5402713399e+01     0.299908    0.2609001 -35.67 0.0004454966    1.187    0.158
        48 -11.3350     25.8027    137.4240   1.1287159244e+02   4.3602121694e+01    0.3348072    0.2181008  40.75  0.001134505    1.702    0.413
        49 -10.5547     46.8446    136.4929   1.0670247910e+02   4.1769859215e+01    0.2340271    0.1735045 -49.90   0.00127741    1.283    0.220
        50 -10.6228    105.9711    130.8395   8.8318479383e+01   3.4507939216e+01    0.3671613    0.3240116 -67.23  0.001298976    1.184    0.155
        51 -10.3985    111.3647    129.7319   8.6542582127e+01   3.3780336560e+01    0.3493305    0.2618418  10.12 0.0006977637    1.697    0.411
        52 -11.1534    135.6989    128.5798   7.9705602427e+01   2.9259208333e+01    0.5293714    0.1752697 -48.12  0.001618804    3.041    0.671
        53 -11.7745     43.7039    129.6705   1.0650201086e+02   4.3808344220e+01    0.3692417    0.2555394  73.25  0.001744595    1.750    0.429
        54 -10.1059    160.7083    127.4864   7.3277457704e+01   2.4224686881e+01    0.3230487    0.2416636 -67.77  0.001436181    1.728    0.421
        55 -10.9250     98.4852    125.7368   8.9274102383e+01   3.7062143709e+01    0.3052748    0.2434498 -20.71 0.0006584135    1.438    0.305
        56 -10.9627    118.4305    123.0661   8.2954025855e+01   3.3989246015e+01    0.5801579    0.3581191  -0.10   0.00189453    3.509    0.715
        57  -9.8011     88.0620    121.5469   9.1378657767e+01   3.9837390369e+01     0.441909    0.2384838  62.54  0.001457018    3.609    0.723
        58 -12.5154     33.3105    118.2954   1.0776065303e+02   4.7652135000e+01    0.6532493    0.2544655 -51.71  0.002768172    2.146    0.534
        59 -10.1269    107.7133    118.9341   8.4943350473e+01   3.7003389491e+01    0.2329429    0.2155771  20.06 0.0003931035    1.121    0.108
        60 -11.0554     45.2159    118.0752   1.0396921825e+02   4.6519971652e+01    0.2576513    0.1798796 -81.20  0.000779763    1.566    0.362
        61 -10.4702    134.7208    112.5254   7.5834108036e+01   3.3025521476e+01    0.4475743    0.1276333 -44.22  0.001277097    3.428    0.708
        62  -9.8202    134.5120    105.5422   7.3996251128e+01   3.4573956625e+01    0.5423166     0.149217 -45.43  0.001515726    3.645    0.726
        63 -10.2339    205.3207    110.2561   5.9764740034e+01   1.7967458862e+01    0.3278835    0.2508399  36.36  0.001274079    1.458    0.314
        64 -12.0509     34.4402    109.4509   1.0581808722e+02   4.9712110174e+01    0.4601563    0.3125871  83.82  0.002343384    1.882    0.469
        65 -10.8022    116.6739    109.0946   7.9818280300e+01   3.7518346336e+01    0.4661944    0.3536675  52.45   0.00219075    1.454    0.312
        66  -9.3869    139.1490    105.9331   7.2906886054e+01   3.3484086143e+01    0.2347514    0.2114567 -76.73 0.0005998487    1.274    0.215
        67 -12.1595     72.0841    169.1259   1.0490044094e+02   3.0548074433e+01    0.3540778    0.2670039 -50.03   0.00085493    1.368    0.269
        68 -11.6185     39.3729    103.0538   1.0290831879e+02   5.0785664746e+01    0.4203484    0.2438234  41.82   0.00138016    2.044    0.511
        69 -12.2683    242.1973    100.7207   5.1683137234e+01   1.2121348529e+01    0.3432609    0.2536623 -25.57  0.001904082    1.362    0.266
        70 -11.0313    132.4977    172.4837   9.0178245095e+01   1.9914627487e+01    0.3208532    0.1436705  38.31  0.001218263    2.192    0.544
        71 -10.1424    125.9567     93.2228   7.2781748431e+01   3.8998957640e+01    0.3631208    0.2399008 -79.09  0.001299033    3.025    0.669
        72 -10.6483     32.9541     99.8422   1.0444252495e+02   5.2165927199e+01     0.268364    0.2312193  53.60 0.0008810249    1.393    0.282
        73 -10.3885     52.9722     91.0020   9.5382604398e+01   5.2129543621e+01    0.2234481    0.1896754 -41.46 0.0005742961    1.029    0.028
        74  -9.8490    156.3548     88.4025   6.3852025796e+01   3.3094723252e+01    0.3422143    0.2311225 -76.66  0.001349249    2.411    0.585
        75  -8.7943     14.3155     89.2806   1.0891921539e+02   5.6103339398e+01     0.131769   0.07672529 -39.57 0.0002480973    1.574    0.365
        76 -10.1964    234.4848     86.4658   4.9529231870e+01   1.5946703335e+01    0.1368872    0.1188406 -49.18 0.0001241896    1.023    0.022
        77  -9.5190     74.9053     85.0789   8.6058151423e+01   5.0398942383e+01    0.2002648    0.1932869 -81.33 0.0002912463    1.236    0.191
        78  -9.7718    113.2207     82.6962   7.3184518951e+01   4.3829335807e+01     0.310379    0.2291386  85.19  0.001322944    2.238    0.553
        79  -9.9030    159.0812     82.1629   6.1472592610e+01   3.3607199877e+01    0.2351319    0.2073649  15.95 0.0006828804    1.249    0.200
        80  -9.5735     69.9459     81.7847   8.6808356060e+01   5.1878508389e+01    0.1954372    0.1864809  72.76 0.0005468535    1.296    0.229
        81 -10.0147     54.2035     65.3626   8.7535807551e+01   5.7548371269e+01    0.2243312     0.206149 -53.18 0.0003804622    1.292    0.226
        82 -10.6637     13.4156     59.7919   1.0268497462e+02   6.2735938938e+01     0.233061    0.1928887 -54.79 0.0004517842    1.196    0.164
        83 -13.2332    191.1474     47.3216   4.6022593114e+01   3.1478424396e+01    0.8289536    0.5830594  48.61 0.0008773818    1.524    0.344
        84 -10.7915    112.1815    205.8281   1.0065390944e+02   1.6113754806e+01    0.2596005    0.2105501  56.86 0.0008241981    1.213    0.175
        85 -11.4612    140.2840     45.8027   5.4509873791e+01   4.3951625847e+01    0.3698753    0.2826256 -70.03  0.000782753    1.646    0.392
        86 -14.7671     42.3711    198.8795   1.1561179851e+02   2.7288004414e+01     2.801383     1.332984  72.34  0.009294104    2.603    0.616
        87 -10.8665      2.1375     29.3692   9.8790163991e+01   6.9426930418e+01    0.1990435    0.1651836 -44.60 0.0008554921    1.285    0.222
        88 -10.6072    198.0570     23.7456   3.9098732171e+01   3.2814535242e+01    0.2538511    0.1958928 -14.19 0.0009496884    1.641    0.391
        89 -10.6124     59.3683    220.6391   1.1402986641e+02   2.0542761128e+01    0.3245969    0.2606088 -54.25  0.001543841    1.489    0.328
        90  -9.6942    189.6908     14.9863   3.7831969051e+01   3.5724663058e+01    0.1756267    0.1585915 -65.99 0.0006205778    1.098    0.089
        91 -14.2463     53.0267    188.7508   1.1214893431e+02   2.8351845475e+01     2.158746     1.126925  78.55  0.009486129    2.486    0.598
