#   1 NUMBER                 Running object number                                     
#   2 MAG_AUTO               Kron-like elliptical aperture magnitude                    [mag]
#   3 X_IMAGE                Object position along x                                    [pixel]
#   4 Y_IMAGE                Object position along y                                    [pixel]
#   5 X_WORLD                Barycenter position along world x axis                     [deg]
#   6 Y_WORLD                Barycenter position along world y axis                     [deg]
#   7 A_WORLD                Profile RMS along major axis (world units)                 [deg]
#   8 B_WORLD                Profile RMS along minor axis (world units)                 [deg]
#   9 THETA_WORLD            Position angle (CCW/world-x)                               [deg]
#  10 FWHM_WORLD             FWHM assuming a gaussian core                              [deg]
#  11 ELONGATION             A_IMAGE/B_IMAGE                                           
#  12 ELLIPTICITY            1 - B_IMAGE/A_IMAGE                                       
         1  -8.4972     55.6546     10.1325   7.9649996482e+01   6.9484639442e+01    0.1975449    0.1923478  61.14 0.0005862836    1.267    0.211
         2  -8.0507     47.4138     10.1581   8.3993236406e+01   7.0885117617e+01    0.1877018    0.1172401 -49.09 0.0009391877    1.735    0.424
         3  -8.1624     90.9363      9.0144   6.5025505458e+01   6.2155212634e+01    0.2293864    0.1702002 -58.92 0.0007151006    1.703    0.413
         4  -7.9762     12.6372      8.8209   1.0643962828e+02   7.5240121823e+01    0.1664903    0.1044296 -69.47 0.0004150462    1.658    0.397
         5  -7.8013      5.3599      7.6606   1.1162970570e+02   7.5933751885e+01    0.1167756   0.08616625  66.93 0.0007036434    1.824    0.452
         6  -8.5894     33.4951      5.0681   8.9285656275e+01   7.3842578190e+01    0.3111344    0.1952175 -64.30  0.001472485    2.598    0.615
         7  -8.5406     79.1963      4.0908   6.6115174329e+01   6.5515514857e+01    0.3037046    0.1678905 -34.06 0.0009369947    1.800    0.445
         8  -7.4228    115.3029      2.6547   5.5581385444e+01   5.6640640546e+01    0.1542805    0.1073009 -56.83 0.0007039847    1.686    0.407
         9  -8.4328     62.6048      1.7037   7.1121271198e+01   6.9403881934e+01    0.2212916    0.1762685 -87.21  0.001167674    1.933    0.483
        10  -8.0387    101.4171      8.3010   6.1648567278e+01   5.9656254551e+01     0.192732    0.1338204 -34.53 0.0003098362    1.473    0.321
        11  -7.5334     39.4607      1.4980   8.3110608788e+01   7.3597744336e+01    0.1289432     0.112591 -18.53 4.282534e-05    1.048    0.046
        12  -8.8951    232.7822    247.1447   9.3791630846e+01  -1.7387461863e+00     0.157251    0.1156005 -10.77 0.0007750343    1.514    0.340
        13  -8.4598    240.1509    250.1044   9.3073612096e+01  -2.8550517467e+00    0.1493927    0.1020566  20.05 0.0004795716    1.096    0.087
        14  -9.2183    242.6061    247.2514   9.2345783698e+01  -2.9290330495e+00    0.2868713    0.1464545 -13.93  0.001840099    2.121    0.528
        15  -8.4930     93.8811    249.5151   1.1715590634e+02   1.5954142438e+01    0.1856176     0.108516  68.12  0.001184234    1.974    0.493
        16  -8.7565    132.2204    247.7859   1.1033002090e+02   1.1296191942e+01    0.1895094    0.1215106  53.78 0.0008335797    1.543    0.352
        17 -10.1879    224.0376    243.9348   9.4710616467e+01  -3.9359101134e-01    0.3687768     0.225904 -28.15  0.002809246    2.046    0.511
        18  -9.2356    147.0958    246.2345   1.0760877317e+02   9.5091433750e+00    0.2279986    0.1411419  58.63  0.001109132    2.084    0.520
        19  -9.0596    120.2719    245.4845   1.1221581761e+02   1.3143772181e+01    0.2938339    0.1488781  59.03   0.00172857    2.447    0.591
        20  -8.6643     67.8556    245.5832   1.2146678464e+02   1.9572302233e+01    0.2385106      0.10992  67.91   0.00146263    2.431    0.589
        21  -8.3751     50.0114    244.0214   1.2450613787e+02   2.1767673924e+01    0.2450238   0.08044054  79.16  0.001028878    5.804    0.828
        22  -8.9221    202.1167    242.8514   9.8024923654e+01   2.5186659848e+00    0.2382405    0.1383854 -29.57   0.00118885    2.178    0.541
        23  -8.5294    169.2567    243.6006   1.0354427003e+02   6.8264407827e+00    0.2009058    0.1379722  51.85 0.0007116079    1.698    0.411
        24  -8.0247    139.4822    244.5322   1.0876294574e+02   1.0726212873e+01    0.1088215   0.07546033  40.30 0.0008086852    1.065    0.061
        25  -7.8245     58.3685    244.6807   1.2308000340e+02   2.0765071995e+01    0.1126688   0.04782867  54.53 0.0007036676    1.789    0.441
        26  -7.5427     34.4971    243.9952   1.2718390518e+02   2.3375221282e+01    0.1372922   0.04993295  64.64 0.0006070184    2.445    0.591
        27  -8.3861      9.5619    243.5625   1.3137698169e+02   2.5788445715e+01    0.1620803   0.05890171  74.42  0.001032224    2.453    0.592
        28  -9.3119    183.4080    240.5098   1.0081154745e+02   5.2417884741e+00    0.3596038    0.2041769  56.07  0.002003151    3.093    0.677
        29  -9.5504    160.1596    240.4240   1.0475251985e+02   8.4121752644e+00    0.2491108    0.1929191  88.54  0.001604521    2.395    0.582
        30  -8.6928     77.5067    242.3382   1.1957134671e+02   1.8910922393e+01    0.1937203   0.09818117 -68.82  0.001302809    2.540    0.606
        31  -9.2928    194.4431    239.2899   9.8836767803e+01   3.8797099699e+00     0.287339    0.1673077 -24.12  0.001721463    2.180    0.541
        32  -7.9437    153.4114    242.2262   1.0611090293e+02   9.1232810352e+00    0.1150414    0.1025295  87.82 0.0008170019    1.685    0.407
        33  -8.0554     88.1701    242.1548   1.1765738499e+02   1.7652898581e+01    0.1413907   0.09103625  58.53 0.0005744322    1.369    0.270
        34  -8.8774    240.5598    240.2744   9.1731125380e+01  -2.1388276757e+00    0.1819279   0.08704162 -24.50  0.001238665    2.342    0.573
        35  -9.4880    246.4345    229.0600   8.9317142462e+01  -1.9570630308e+00    0.2748122    0.1557502 -23.14   0.00136405    1.920    0.479
        36  -8.3287    214.4985    241.0032   9.5821969897e+01   1.0763075438e+00    0.1313099   0.09230932 -14.23  0.001033674    1.596    0.373
        37  -8.5346    146.4640    239.9708   1.0708931855e+02   1.0331946575e+01     0.176262    0.1171322  55.10  0.001034321    1.667    0.400
        38  -9.0646    135.5540    238.7869   1.0889855283e+02   1.1957979768e+01    0.2027058    0.1149251  47.38 0.0008547921    1.465    0.317
        39  -9.7104    133.3525    234.7760   1.0889890940e+02   1.2766063047e+01    0.2213533    0.1751247  64.91 0.0004459372    1.508    0.337
        40  -8.2227    129.1481    238.5281   1.1001596448e+02   1.2854997804e+01    0.1692051    0.1216612  56.77  0.001068157    1.439    0.305
        41  -8.0248     41.2994    239.6695   1.2584137924e+02   2.3325837044e+01    0.1074795   0.04802158  56.32 0.0003420408    1.644    0.392
        42  -9.0748    230.8662    237.1479   9.2776910405e+01  -6.7921328589e-01    0.1820846    0.1654144  51.93   0.00101687    2.139    0.533
        43  -8.3823    209.0208    238.3055   9.6348671340e+01   2.0369108214e+00    0.1493275    0.1016094  28.06 0.0006798846    1.072    0.067
        44  -8.4335     25.7366    237.0439   1.2846232258e+02   2.5275607724e+01    0.2705073   0.07114716  66.37  0.001287346    3.886    0.743
        45  -8.6610     13.5998    238.2090   1.3058035477e+02   2.6230045691e+01    0.1822743   0.04740314  35.98   0.00102687    2.506    0.601
        46  -9.1975    203.3559    235.0657   9.6849827672e+01   3.0979281126e+00    0.2261278    0.1840145 -54.59  0.001390005    2.333    0.571
        47  -7.8116    189.6776    237.3413   9.9386634340e+01   4.7182655293e+00   0.09843849   0.07255993  50.04  0.000437619    1.724    0.420
        48  -9.7152    175.7571    233.5083   1.0127721835e+02   7.0379825330e+00    0.3314674    0.2116236 -56.06  0.002158277    2.782    0.641
        49 -10.0325    214.7620    233.2238   9.4771207864e+01   1.7518438241e+00    0.3616073    0.2989753  86.56  0.002326537    3.556    0.719
        50  -8.1620    170.1551    235.5828   1.0248518997e+02   7.5843393484e+00    0.1430631    0.1200231 -13.34 0.0005451484    1.477    0.323
        51  -9.3566    109.0350    234.5870   1.1330036020e+02   1.6055853207e+01    0.4268382    0.1606273  49.06  0.001162688    2.237    0.553
        52  -7.9059     57.9839    237.0000   1.2275746648e+02   2.1933972589e+01    0.1711005   0.04335472  34.94 0.0008032875    2.948    0.661
        53  -8.4645     99.6736    234.4915   1.1500665607e+02   1.7285424809e+01    0.2124851     0.121443  59.87 0.0009639778    1.754    0.430
        54  -9.0082     78.7808    234.5559   1.1884063904e+02   1.9882224192e+01    0.2366266     0.132851  66.09  0.001132346    1.821    0.451
        55  -8.3315    122.8726    234.1247   1.1073429065e+02   1.4275240018e+01     0.168654     0.114298  52.73 0.0009134539    1.346    0.257
        56  -9.1393     68.6830    232.6904   1.2057239194e+02   2.1359800332e+01    0.3842711    0.1223975  55.63  0.001878639    2.985    0.665
        57  -8.7250    194.9348    232.2326   9.7875067720e+01   4.5230391833e+00    0.2575647     0.146802 -23.18  0.001419486    2.220    0.550
        58  -8.3333     92.5593    231.9331   1.1611704166e+02   1.8559951760e+01    0.2567149    0.1162647  65.35  0.001084426    3.170    0.685
        59  -9.2141    186.5368    230.7855   9.9103559110e+01   5.8344771881e+00    0.2267649    0.1984637  84.22  0.001148217    2.091    0.522
        60  -9.0057    236.0759    230.9225   9.1135611592e+01  -8.1088772205e-01    0.1707762    0.1312697  16.94 0.0007131441    1.222    0.182
        61  -9.2697    151.3493    229.0224   1.0505021751e+02   1.0991217788e+01     0.242107    0.1712131  73.34  0.001206885    2.382    0.580
        62  -9.5522    148.6485    224.4837   1.0502817527e+02   1.1948852927e+01    0.3768339    0.2289265  65.92  0.001766794    2.901    0.655
        63  -8.9020      1.7171    230.8340   1.3245507509e+02   2.8402941716e+01    0.1834106   0.08069658  64.36  0.001058835    1.635    0.389
        64  -9.1818    229.9837    229.0930   9.1817880056e+01   1.2983149322e-01    0.1716688     0.137488 -22.84  0.001003865    1.682    0.406
        65  -8.7457    140.1709    230.1238   1.0719023272e+02   1.2422391401e+01    0.2054161    0.1205237  46.71  0.000901162    1.423    0.297
        66  -8.6171    162.3785    228.1298   1.0297640578e+02   9.5375242585e+00    0.2558553    0.1157024  49.30  0.001035461    2.357    0.576
        67  -8.7918    128.0267    227.2563   1.0912135878e+02   1.4493466903e+01    0.2380657    0.1638218  67.34  0.001067732    1.848    0.459
        68  -8.2753    119.9357    227.6244   1.1065917270e+02   1.5558339599e+01    0.1919452    0.1326926  74.76  0.001288784    1.936    0.483
        69  -8.5294      8.3078    228.6223   1.3127185953e+02   2.8184181582e+01    0.1103214   0.04116086  57.06 0.0007027797    1.782    0.439
        70  -8.0786    223.5100    226.6929   9.2497560478e+01   1.1959031260e+00    0.1743693   0.09380542 -20.08 0.0009925567    2.093    0.522
        71  -9.2564    216.1394    224.5362   9.3374271684e+01   2.3888727084e+00    0.3095919    0.1861433 -14.96  0.002117858    1.857    0.462
        72  -9.0711    206.0850    225.6870   9.5169711886e+01   3.6522217640e+00    0.2503618      0.14656 -35.81  0.001324663    2.222    0.550
        73  -9.1231    180.5247    224.4471   9.9334125283e+01   7.3791281591e+00    0.2326428    0.2158267  -2.24 0.0006975239    1.381    0.276
        74  -8.8606    179.4092    218.1663   9.8714633180e+01   8.2634547182e+00     0.261922    0.1819099 -70.96  0.001454714    3.544    0.718
        75  -8.2034     49.2013    226.7039   1.2383250615e+02   2.4482191746e+01    0.2280469     0.093545  57.19  0.001072591    1.959    0.490
        76  -8.1077    200.3468    226.2458   9.6194759837e+01   4.3896189820e+00    0.1737486   0.09634952 -41.75  0.000868957    2.590    0.614
        77  -8.7039    202.6667    220.6496   9.5049828756e+01   4.6443249150e+00    0.2203124    0.1508249  -3.00  0.001513632    1.556    0.357
        78  -9.0382     94.3649    224.3672   1.1517951670e+02   1.9445651752e+01    0.4095137    0.1523729  54.25  0.001985572    2.767    0.639
        79  -8.8549    104.7631    223.7637   1.1315367919e+02   1.8165138379e+01    0.2730377    0.1676876  72.42  0.001702454    2.106    0.525
        80  -7.4335     78.3001    225.6915   1.1832351880e+02   2.1272781724e+01    0.1125136   0.06009908  56.63 0.0006668729    1.598    0.374
        81  -8.0204     38.4245    224.8961   1.2573976847e+02   2.5910429258e+01     0.147838    0.0561706  67.44 0.0006713226    2.586    0.613
        82  -8.8282    173.0217    223.4021   1.0051646732e+02   8.5757795167e+00    0.1666954    0.1548272  81.09 0.0006012201    1.641    0.391
        83  -8.0244    114.0039    224.0028   1.1142598177e+02   1.6880870647e+01    0.1761031    0.1058431  57.72 0.0006771166    1.681    0.405
        84  -7.9764     59.9768    224.0055   1.2167315008e+02   2.3708754754e+01    0.1845544   0.08459212  55.95  0.001122994    1.763    0.433
        85  -9.3092    239.5135    221.9421   8.9340420559e+01  -4.7819393276e-01    0.2215858      0.20276  44.11  0.001209874    1.989    0.497
        86  -9.3462    192.3659    221.4897   9.6905872020e+01   6.0163882447e+00    0.2265862    0.2032813  58.52  0.001072051    1.698    0.411
        87  -9.1875    160.1927    221.1543   1.0253473754e+02   1.0705113446e+01    0.4362403    0.1819927  51.91  0.001956674    3.295    0.697
        88  -8.1099    140.4770    222.9720   1.0636210300e+02   1.3315460095e+01     0.128806    0.1149501 -63.01 0.0007358863    1.532    0.347
        89  -9.0234    225.5880    221.9097   9.1497102030e+01   1.3615217438e+00     0.208181    0.1410825  38.39  0.001000115    1.491    0.329
        90  -8.9773      5.5723    221.7710   1.3160561560e+02   2.9517058985e+01    0.1296533   0.06572139  69.91 0.0005306692    1.538    0.350
        91  -9.2327    120.4840    219.4768   1.0975190949e+02   1.6635465392e+01    0.3614418    0.1860163  60.31  0.001639757    2.548    0.608
        92  -8.6810     82.9484    220.7710   1.1707719559e+02   2.1456832437e+01    0.2462241    0.1113815  59.47  0.001338912    2.287    0.563
        93  -8.2660     73.3623    221.1518   1.1894577394e+02   2.2582905502e+01    0.1425115   0.08748276  80.52 0.0009435595    1.825    0.452
        94  -8.0470     27.5228    221.4990   1.2761520197e+02   2.7552957951e+01    0.1044323   0.07107528  55.56 0.0001722957    1.009    0.009
        95  -8.5508    210.2622    219.2796   9.3597871577e+01   3.7183641847e+00    0.1791351    0.1465078  36.20 0.0005665433    1.421    0.296
        96  -9.4703    248.3674    218.1354   8.7447196136e+01  -1.2890625004e+00    0.2929542    0.1979798  51.99  0.001865009    2.820    0.645
        97  -8.3888    219.6907    219.4837   9.2091533730e+01   2.3921546093e+00    0.2881986   0.08435245  40.61  0.001356272    2.804    0.643
        98  -9.4398    132.9536    216.2385   1.0702895854e+02   1.5320862446e+01    0.4151062    0.2457935  71.03  0.002131155    3.115    0.679
        99  -8.5576     62.1439    217.4712   1.2086258463e+02   2.4508988737e+01    0.2488812    0.1092702  59.05   0.00141457    2.056    0.514
       100  -8.8118     51.7098    217.4583   1.2287320641e+02   2.5697353557e+01    0.2242927    0.1209752  78.78  0.001081623    1.922    0.480
       101  -8.6885    142.9951    216.7035   1.0518105797e+02   1.3795812980e+01    0.2240508      0.15331  66.27  0.001390273    2.031    0.508
       102  -8.5421    232.4562    214.9938   8.9411409914e+01   1.0813017272e+00    0.1760037    0.1727422 -17.01  0.001054943    1.887    0.470
       103  -8.4486    154.4829    215.4487   1.0288394094e+02   1.2273744685e+01    0.1503715    0.1142456 -67.54 0.0007628168    2.042    0.510
       104  -8.5627    196.0646    214.9693   9.5379415349e+01   6.1993251683e+00    0.3191865    0.1095856  26.79  0.001161374    4.502    0.778
       105  -8.5183    185.5939    214.5919   9.7144915478e+01   7.7733165912e+00    0.1786411    0.1736558  69.63 0.0009793171    1.562    0.360
       106  -8.9880     93.3324    214.2104   1.1452056002e+02   2.1146025237e+01    0.3305696    0.1350104  54.00  0.001206595    2.379    0.580
       107  -7.6895     41.2948    214.9799   1.2474547145e+02   2.7234608366e+01    0.1630757   0.05458424  73.04 0.0007010737    4.046    0.753
       108  -9.5186    214.1632    212.4406   9.1972044875e+01   3.8665967572e+00    0.3095774    0.2156833  50.43  0.001800016    1.987    0.497
       109  -9.3993     73.0361    211.8357   1.1834272518e+02   2.4128818947e+01    0.5492326     0.178468  56.68  0.002360713    3.454    0.710
       110  -8.3094    224.8893    212.7071   9.0269122544e+01   2.3343371402e+00    0.1528854    0.1364193 -14.30  0.000919893    1.556    0.357
       111  -8.5788    161.7685    212.3816   1.0114726446e+02   1.1589358258e+01    0.1654915    0.1501441  57.82 0.0007105442    1.393    0.282
       112  -8.1914    106.3941    213.0981   1.1184777985e+02   1.9551743221e+01    0.1398201    0.1005379  83.61 0.0006956202    1.736    0.424
       113  -9.0679    204.3396    210.9377   9.3393401629e+01   5.4375864580e+00    0.2030162    0.1837243 -70.77 0.0008343908    2.038    0.509
       114  -9.4775    175.5957    210.2318   9.8331381623e+01   9.7841821422e+00    0.3213972    0.2208819  62.33  0.001401007    2.329    0.571
       115  -9.3089      6.6818    209.5801   1.3112593684e+02   3.1449392915e+01    0.4270316   0.07565495  63.64  0.001747914    4.564    0.781
       116  -8.2640    192.2180    210.8653   9.5465947862e+01   7.2251380750e+00    0.1607415    0.1336202  37.99 0.0007305411    1.319    0.242
       117  -8.8347    147.8078    210.3145   1.0350358260e+02   1.3959475071e+01    0.2495361    0.1761656  65.30   0.00113277    1.924    0.480
       118  -9.0093    116.3113    210.4655   1.0962883957e+02   1.8562881434e+01    0.2875839    0.1618254  60.47   0.00113084    2.071    0.517
       119  -8.5388     86.0346    209.9143   1.1559924479e+02   2.2796082689e+01    0.2562998    0.1189443  59.50  0.001343544    2.284    0.562
       120  -8.8023    169.3424    216.2951   1.0026851528e+02   9.9676561179e+00    0.2088513    0.1860626  77.62 0.0009268453    1.679    0.404
       121  -8.5067     32.0680    210.0556   1.2630033966e+02   2.9016294907e+01    0.1823291   0.08160346  58.84  0.001049822    1.729    0.422
       122  -9.5504    246.4444    207.4695   8.6116518294e+01  -1.0405494173e-01    0.2195208    0.1610372 -11.26 0.0007040093    1.364    0.267
       123  -9.0890    236.4873    208.3479   8.7779007654e+01   1.1563433604e+00    0.2085824    0.2002161  -6.42  0.001031427    1.773    0.436
       124  -8.2501    112.0189    217.5131   1.1118131938e+02   1.8103585703e+01    0.2128687     0.106939  65.71 0.0008933807    3.221    0.690
       125  -8.0479    156.6431    208.3400   1.0158057497e+02   1.2896229961e+01    0.1674601    0.1196275  56.82 0.0009402178    1.646    0.392
       126  -8.3071    139.0945    208.0630   1.0490010865e+02   1.5582501429e+01     0.176483    0.1230171  59.97  0.001046633    1.651    0.394
       127  -9.1213     99.4108    206.3188   1.1258243559e+02   2.1588270381e+01    0.2969071    0.1754592  66.52   0.00139974    1.959    0.490
       128  -8.4168     56.6463    205.6696   1.2119648761e+02   2.7127809682e+01     0.277805    0.1062183  57.88  0.001391568    2.401    0.584
       129  -9.2479    194.8373    203.8565   9.3990502543e+01   7.6444499867e+00    0.2979448    0.2578848  28.50  0.001261875    1.246    0.198
       130  -9.3420    192.4825    197.5077   9.3450574700e+01   8.7620896053e+00    0.3760254    0.2759537  61.85  0.001315949    2.199    0.545
       131  -9.0380    183.6453    203.8600   9.5980851974e+01   9.3478810399e+00    0.2404426    0.1881811  58.22 0.0009075145    1.763    0.433
       132  -8.6323    131.2427    203.9248   1.0594013569e+02   1.7368621237e+01    0.2674581    0.1655615  67.74  0.001009632    2.385    0.581
       133  -8.2223    109.0371    205.0581   1.1051172998e+02   2.0443053872e+01    0.1827159    0.1161535  61.76 0.0006184514    1.662    0.398
       134  -9.7458    163.8142    202.9202   9.9504005567e+01   1.2526653749e+01     0.394159    0.2538398  51.28  0.001140643    1.650    0.394
       135  -9.4170    250.1062    202.0511   8.4713520796e+01  -1.0254702723e-01     0.274623    0.1390487 -22.05  0.001263374    1.961    0.490
       136  -8.4957    211.0861    202.1774   9.0942787207e+01   5.4001098262e+00    0.1686241    0.1524888 -67.04 0.0007678805    2.036    0.509
       137  -8.0673     41.3160    202.9779   1.2413083195e+02   2.9293474127e+01    0.1752114   0.05871477  74.25 0.0007048061    4.291    0.767
       138  -7.8706     17.3334    203.6524   1.2891984686e+02   3.1536386153e+01    0.1186132   0.04872461  57.33 5.870254e-05    1.771    0.435
       139  -9.2764    242.9109    200.6758   8.5584753426e+01   9.9974435675e-01    0.2425989    0.1634012 -17.48 0.0008748196    1.485    0.327
       140  -8.9647    140.4363    201.0989   1.0377284981e+02   1.6395449364e+01    0.2868454     0.188811  69.33  0.001081998    2.308    0.567
       141  -8.3960     79.9003    201.2301   1.1610728970e+02   2.5049734762e+01    0.2789809    0.1417122  69.00  0.001462277    2.399    0.583
       142  -8.1971     10.8040    202.5925   1.3015617451e+02   3.2303650255e+01    0.1512039   0.06399598  43.77 0.0004904452    1.655    0.396
       143  -8.2102    221.8947    201.2151   8.8999604804e+01   3.9173887976e+00    0.1574591    0.1314036  24.79 0.0005802729    1.283    0.221
       144  -9.1374    236.9064    198.5708   8.6177869952e+01   2.0371051666e+00    0.2343163     0.171685 -33.69  0.001231572    1.856    0.461
       145  -8.7781    177.1724    199.2920   9.6496353642e+01   1.0925201730e+01    0.2083654    0.1568763  55.75 0.0007090923    1.672    0.402
       146  -9.5107    149.5797    198.6823   1.0165990788e+02   1.5333546603e+01    0.3446118    0.2339851  69.92  0.001174086    2.339    0.572
       147  -9.0366    124.0303    199.3269   1.0683639056e+02   1.9158795737e+01    0.2710083     0.189076  70.06  0.001464251    1.802    0.445
       148  -9.3241    112.7474    198.5188   1.0904742778e+02   2.0961635997e+01    0.3728567    0.1992214  60.83  0.001531805    2.283    0.562
       149  -9.1705     88.5832    198.5219   1.1405980889e+02   2.4366964983e+01    0.3157451    0.1767054  67.30  0.001416648    2.052    0.513
       150  -8.2752    202.4113    198.0223   9.1783456650e+01   7.1721261469e+00    0.1906795    0.1472489  48.21 0.0008395296    1.589    0.371
       151  -9.1922     61.5572    197.1172   1.1959934078e+02   2.8056214132e+01    0.3502055    0.1502028  63.26  0.001320618    2.478    0.596
       152  -8.8590     12.9759    197.8475   1.2958712037e+02   3.2955641650e+01    0.2688343   0.07860321  58.32   0.00138958    2.507    0.601
       153  -8.0448     35.7217    196.6708   1.2494002638e+02   3.1004100483e+01    0.2184503   0.08943518  70.95  0.001090215    2.460    0.593
       154  -8.7595    215.9680    195.5803   8.9087704421e+01   5.3943204332e+00    0.1825641    0.1573796 -36.25  0.000783253    1.673    0.402
       155  -7.9856    209.4573    195.9406   9.0244952488e+01   6.3371433623e+00    0.1296009    0.1034485 -59.80 0.0008068373    2.398    0.583
       156  -8.1750    133.1593    196.1638   1.0459709626e+02   1.8263354807e+01    0.1621074    0.1262647  59.81  0.000571835    1.364    0.267
       157  -7.8700     53.3689    196.6936   1.2128210554e+02   2.9088111243e+01    0.1261079   0.06013893  56.94 0.0007035023    1.755    0.430
       158  -9.1901    245.7092    193.5931   8.4007894684e+01   1.2862081951e+00    0.2797055    0.2319186 -48.62  0.001313953    2.341    0.573
       159  -9.3768    241.9247    190.0170   8.3995251072e+01   2.1683806556e+00    0.3279282    0.1459302 -19.39  0.001764157    2.402    0.584
       160  -8.7451    224.3937    193.8625   8.7417283799e+01   4.3239749556e+00    0.2321417    0.1529865 -36.77  0.001172723    1.978    0.494
       161  -8.8564    185.2127    194.8461   9.4354899322e+01   1.0231236956e+01     0.212365    0.1797499  46.31 0.0006875957    1.375    0.273
       162  -8.9725    160.9682    194.4339   9.8852717294e+01   1.4143287209e+01    0.2724484    0.1763489  56.26 0.0008792154    1.872    0.466
       163  -9.0198     43.6111    193.0748   1.2309942790e+02   3.0830338183e+01    0.3730224    0.1470402  67.57  0.001827889    2.708    0.631
       164  -7.8452    230.9587    194.4959   8.6459436725e+01   3.2957250885e+00    0.1661629   0.09092608  35.29 0.0004966095    1.517    0.341
       165  -8.7689     77.0950    193.9624   1.1606395025e+02   2.6685886340e+01    0.2190655    0.1454081  58.76 0.0007191016    1.293    0.227
       166  -8.2262    205.2190    191.9697   9.0339894664e+01   7.4451738172e+00    0.1366981    0.0922207 -26.89 0.0007119976    1.648    0.393
       167  -8.2392    199.0997    191.8916   9.1398562352e+01   8.4097443545e+00    0.1692967    0.1416929  36.81 0.0005362456    1.288    0.224
       168  -8.3471    179.1515    191.6449   9.4982019559e+01   1.1611792554e+01     0.174357    0.1656237 -30.77 0.0005929808    1.376    0.274
       169  -8.6460    172.3428    191.7804   9.6282809221e+01   1.2688269741e+01    0.1994319    0.1755594  68.49 0.0008276567    1.560    0.359
       170  -9.2603    139.5713    190.6705   1.0257146134e+02   1.8113570503e+01    0.3058542    0.2101554  68.13  0.001017183    2.000    0.500
       171 -10.4792     91.9440    188.5291   1.1235249740e+02   2.5654145331e+01    0.8460096    0.2931784  49.32  0.003608268    2.593    0.614
       172  -8.9539    216.6046    188.0729   8.7756533904e+01   6.1329726588e+00    0.2272644    0.1917314 -28.95 0.0007412356    1.522    0.343
       173  -7.2830    210.3026    189.6723   8.9090438733e+01   6.9237727340e+00    0.1019221   0.09232825  54.61 0.0004522785    1.645    0.392
       174  -8.8927    191.5561    187.7485   9.2084946442e+01   1.0122528050e+01    0.2673281    0.2099975  69.46   0.00132705    2.171    0.539
       175  -9.4566    155.9594    187.5469   9.8829698439e+01   1.5948957936e+01    0.2980926    0.2424456 -84.33 0.0009479522    1.854    0.461
       176  -8.2979    148.5813    189.3358   1.0056361382e+02   1.6877053290e+01    0.1767292    0.1341853  63.83 0.0006863904    1.620    0.383
       177  -9.8548    120.9375    186.8671   1.0593860410e+02   2.1655980466e+01    0.4369705    0.2619404 -83.53  0.002120903    2.965    0.663
       178  -8.7737     34.2779    188.2233   1.2479960976e+02   3.2708732137e+01    0.3031025    0.1274692  69.63  0.001232576    2.315    0.568
       179  -8.0915    237.0444    188.3207   8.4471705028e+01   3.0426103756e+00    0.1570574    0.1200148  17.84 0.0006034201    1.078    0.073
       180  -8.8951    165.1291    187.2306   9.6978227029e+01   1.4495827227e+01    0.2552541    0.1937787  72.73 0.0008649409    2.064    0.515
       181  -9.0763     54.9117    187.1688   1.2028953103e+02   3.0661602747e+01    0.3659925    0.1426876  58.35  0.001522832    2.462    0.594
       182  -8.8769    229.7007    185.7340   8.5204875676e+01   4.3987654775e+00     0.267947    0.1858928 -45.67   0.00163123    2.373    0.579
       183  -9.2564    109.5362    186.1887   1.0828935180e+02   2.3511959619e+01    0.3202278    0.1992156  63.99  0.001069761    1.833    0.454
       184  -8.7098    249.3275    185.6857   8.2133697689e+01   1.5419621850e+00    0.1860815    0.1705789 -14.10  0.000771626    1.616    0.381
       185  -8.8355    182.9588    185.1464   9.3248737810e+01   1.1859138355e+01    0.2250578    0.1726898 -23.99 0.0008327457    1.468    0.319
       186  -8.7937    210.2196    184.3286   8.8217431987e+01   7.5610839330e+00     0.200948    0.1672531   6.32 0.0005213521    1.130    0.115
       187  -8.5839    202.7923    184.8815   8.9604487618e+01   8.6760419755e+00    0.1749999    0.1679058 -42.81  0.000639357    1.534    0.348
       188  -9.1109     66.4677    184.4266   1.1753821844e+02   2.9785789131e+01    0.3090916    0.1640249  65.68 0.0009697511    1.915    0.478
       189  -8.4599    224.2796    183.8032   8.5760010618e+01   5.4310036522e+00    0.1824259    0.1303555 -22.08 0.0006397073    1.465    0.318
       190  -8.7913    174.3243    183.5598   9.4628283256e+01   1.3500138984e+01    0.2225598    0.1982028  68.59 0.0009277791    1.522    0.343
       191  -8.5355     20.0279    183.7138   1.2761883694e+02   3.4933561398e+01    0.2365968   0.08131007  66.15  0.001158012    2.644    0.622
       192  -8.9905    241.2747    181.8752   8.2710900060e+01   3.0832881040e+00    0.2415018    0.2011111 -57.87  0.001563875    2.475    0.596
       193  -8.9686     44.3809    182.3476   1.2225992729e+02   3.2761818922e+01    0.3205806    0.1447247  63.44  0.001101517    2.072    0.517
       194  -8.1558      2.1194    183.6970   1.3137753699e+02   3.6456693735e+01    0.2034476   0.05546565  36.51  0.001069048    2.518    0.603
       195  -8.0723    235.5236    181.3096   8.3514830148e+01   3.9956944181e+00     0.192208    0.1028061 -30.15  0.001118109    1.980    0.495
       196  -9.2788    147.6331    180.6760   9.9488119356e+01   1.8371940499e+01    0.3055781    0.2242442  73.97  0.001043405    1.993    0.498
       197  -8.9393    129.5833    188.9506   1.0439512373e+02   1.9963833680e+01    0.3166619    0.1873564  61.74  0.001028608    2.169    0.539
       198  -9.7593     25.5808    178.9183   1.2619923670e+02   3.5338499752e+01    0.6295173    0.1815195  69.16  0.002435864    4.280    0.766
       199  -9.7085    230.6445    178.2176   8.3755663546e+01   5.0687143871e+00    0.4071395    0.1787771 -22.49  0.002052695    2.474    0.596
       200  -8.7620    137.7459    179.6442   1.0139407039e+02   2.0171923590e+01    0.2988442    0.1748021  63.57  0.001159058    2.533    0.605
       201  -9.4499    191.5039    178.3664   9.0542273505e+01   1.1348193637e+01    0.2444251    0.2136829  47.84 0.0005745895    1.383    0.277
       202  -8.2766    169.4306    178.7510   9.4802833461e+01   1.5006038180e+01    0.2007661    0.1243375 -48.67 0.0009183094    2.079    0.519
       203  -9.1951     35.9114    176.8740   1.2379568754e+02   3.4719327127e+01    0.4122825    0.1533405  73.10   0.00182923    3.157    0.683
       204  -9.5098    248.4395    176.6502   8.0698693980e+01   2.5654198025e+00    0.3434195    0.1991516 -35.58  0.002062702    2.124    0.529
       205  -8.6310    250.5157    172.8726   7.9713096351e+01   2.6437862843e+00    0.1642857    0.1331278   6.42 0.0004629853    1.148    0.129
       206  -8.5804    217.3620    177.0202   8.5740775868e+01   7.2865165890e+00    0.2183221    0.1353475 -34.25 0.0009631431    1.842    0.457
       207  -8.7954    205.0323    177.8056   8.8008188926e+01   9.1854199217e+00    0.1995977    0.1644198  -8.96 0.0005776774    1.229    0.186
       208  -8.7998    129.2654    177.4408   1.0288211938e+02   2.1928461491e+01    0.2663144    0.1733233  63.83  0.001174702    1.897    0.473
       209  -8.9692     89.1055    176.9198   1.1172264756e+02   2.8183980691e+01     0.299899    0.1884352  79.99 0.0009802737    1.936    0.484
       210  -9.1947    183.0874    176.4536   9.1789022701e+01   1.3021047957e+01    0.2164939    0.2038067  10.63 0.0006228322    1.215    0.177
       211 -10.8802    101.7886    175.7032   1.0871175654e+02   2.6556059355e+01    0.4319836    0.2664746  34.05  0.002390559    1.517    0.341
       212  -9.9683     57.3449    173.2641   1.1864809167e+02   3.3056250471e+01    0.7396235    0.2809172  70.11   0.00270438    4.397    0.773
       213  -9.1305     13.0696    176.7467   1.2883713311e+02   3.6885595258e+01    0.2572622    0.1020475  62.36  0.001220535    2.021    0.505
       214  -8.0700    211.5334    176.0603   8.6568886394e+01   8.3399576857e+00     0.167905    0.1131879 -25.61  0.001022735    1.568    0.362
       215  -9.3643    158.8199    175.1567   9.6337732716e+01   1.7349374922e+01     0.325203    0.2239356  66.62  0.001387574    2.160    0.537
       216 -10.6907     75.9497    170.5730   1.1405998678e+02   3.1227815824e+01     0.982876    0.3976644 -83.60   0.00359013    4.551    0.780
       217  -8.6995     78.8465    158.6592   1.1202024394e+02   3.3228759373e+01    0.3867669    0.2134715  18.21   0.00167963    2.984    0.665
       218  -9.0157     83.8756    157.8407   1.1068330149e+02   3.2683026310e+01    0.2244668    0.1937155  84.64 0.0005948455    1.149    0.130
       219  -9.2273     81.3221    154.6510   1.1091061602e+02   3.3706768756e+01    0.3175523    0.2147651  83.72  0.001306696    1.640    0.390
       220  -8.4601    224.5154    174.2908   8.4061548763e+01   6.4647290559e+00    0.1966304    0.1087139 -32.74 0.0007481627    1.968    0.492
       221  -8.0359    240.6758    174.6671   8.1536982212e+01   3.9229396994e+00    0.1251987   0.07275219  11.78 0.0007050736    1.708    0.414
       222 -10.2754    198.1106    171.7398   8.8183415002e+01   1.1111953765e+01    0.3313607    0.2227319  30.52 0.0003446802    1.262    0.207
       223  -9.4467    175.7687    172.0261   9.2440365733e+01   1.4902136824e+01    0.3058293    0.2190788 -36.11  0.001014173    1.601    0.375
       224  -9.2308    143.0008    172.6832   9.9230402849e+01   2.0443262873e+01    0.2484467    0.1880266  80.77  0.001037008    1.904    0.475
       225  -8.4680    134.8820    171.8309   1.0084003043e+02   2.1958093284e+01    0.2242519      0.16265  81.12  0.000903714    2.003    0.501
       226  -9.5936    121.3358    170.3490   1.0359964567e+02   2.4463716286e+01    0.3427266    0.2473315 -81.79 0.0009826022    1.843    0.457
       227  -9.1906     44.9758    170.5634   1.2130239519e+02   3.5012060434e+01    0.3916976    0.1899812  87.16  0.001759257    2.196    0.545
       228  -8.7680    230.6365    170.2485   8.2332916709e+01   5.9554564525e+00    0.2243309    0.1665582  15.62 0.0007724642    1.091    0.083
       229  -8.4830    205.9290    170.3073   8.6525691507e+01   9.9794757124e+00    0.1884024    0.1783612 -61.51 0.0008263892    1.592    0.372
       230  -8.2940    237.1904    169.8703   8.1217898868e+01   4.9715702700e+00     0.164725    0.1433567   2.35 0.0005005865    1.249    0.200
       231  -9.2911    167.3365    168.8534   9.3564607837e+01   1.6843928840e+01    0.3205725    0.2269725  64.13 0.0009496345    1.986    0.496
       232  -8.5908    149.7164    169.5342   9.7306565735e+01   1.9810632087e+01    0.2319486    0.1856145  78.24 0.0006805516    1.706    0.414
       233  -7.8902    244.4016    169.2368   7.9981553531e+01   3.9332085674e+00    0.1427992   0.09949252 -26.42 0.0002534375    1.519    0.342
       234  -8.7888    111.8838    167.7125   1.0535936037e+02   2.6473873145e+01    0.3516095    0.2065096  71.28  0.001190971    2.569    0.611
       235  -8.4700     88.5170    168.5419   1.1088674314e+02   2.9874851604e+01    0.2835232    0.1500029  64.49 0.0009273089    2.283    0.562
       236  -8.5535    218.8406    168.1927   8.3907506794e+01   8.0960161915e+00    0.1717117    0.1535964  14.68 0.0005283713    1.227    0.185
       237  -7.8987    211.4075    168.1789   8.5178938884e+01   9.3298813598e+00    0.1577497    0.1122613 -40.54 0.0005706196    1.782    0.439
       238  -8.8963    191.9257    166.6877   8.8415196199e+01   1.2852945896e+01    0.2161453     0.180585 -33.96  0.000606133    1.405    0.288
       239  -9.2167    184.9500    166.6653   8.9727017255e+01   1.4074584889e+01     0.216905     0.188482 -39.62 0.0007989718    1.410    0.291
       240  -9.9805     95.0692    162.9560   1.0863651645e+02   3.0002876903e+01    0.7952963    0.3973807  71.21  0.002930068    3.720    0.731
       241  -9.2008     20.1853    166.1453   1.2678230493e+02   3.8368537930e+01    0.2856697    0.1113355  57.75   0.00109719    2.097    0.523
       242  -8.6075     12.8427    167.2825   1.2851478630e+02   3.8772444583e+01    0.2075313   0.05972641  57.51 0.0008853889    2.757    0.637
       243 -10.0115    136.6906    164.3662   9.9271209154e+01   2.2942338307e+01    0.5955747     0.270228  54.00   0.00212363    2.692    0.629
       244  -7.8470    250.6597    165.2149   7.8296198680e+01   3.4091156221e+00    0.1576128   0.09163053 -12.75 0.0004532471    1.599    0.375
       245  -8.3735    233.9441    164.9837   8.0832970378e+01   6.0246747835e+00    0.1801728     0.147043   7.72 0.0004916231    1.071    0.066
       246  -8.8821    159.5650    164.1749   9.4342544756e+01   1.8950094272e+01    0.2620769    0.2140227  84.90  0.000990782    1.777    0.437
       247  -9.3857     33.8560    163.6205   1.2343159968e+02   3.7592052057e+01    0.5532927     0.114136  49.56   0.00213445    3.614    0.723
       248  -8.3363    240.1756    164.1611   7.9697900666e+01   5.1318931049e+00    0.1858329    0.1327523   8.45 0.0005714685    1.183    0.154
       249  -8.5859    212.9263    163.6829   8.4084929367e+01   9.6373814197e+00    0.2123606    0.1689455 -28.12 0.0006057551    1.400    0.286
       250  -9.4479    246.0663    163.0730   7.8589331872e+01   4.3347534317e+00    0.1978969    0.1478196 -10.32 0.0005699043    1.196    0.164
       251  -8.3503    204.8449    162.8970   8.5358972256e+01   1.1121145213e+01    0.2054561    0.1634524 -27.74 0.0005729368    1.378    0.274
       252  -9.5492      3.3392    162.4195   1.3049942431e+02   4.0504501413e+01    0.3642148    0.1139577  52.01  0.001877705    2.294    0.564
       253  -9.0968    177.7052    160.9152   9.0086911496e+01   1.6203060482e+01    0.2830155    0.2317975  74.09  0.001061864    1.790    0.441
       254  -8.8044    151.6449    161.1152   9.5477806562e+01   2.0866044448e+01    0.2663232    0.2136824  88.05 0.0009961174    1.780    0.438
       255  -8.6405     60.7070    160.3371   1.1666210037e+02   3.5270848075e+01    0.3302252    0.1635358  65.83   0.00158992    2.207    0.547
       256  -9.7682    250.1665    157.8386   7.6985851287e+01   4.2618381675e+00    0.2978508     0.146547 -24.23 0.0007866364    1.893    0.472
       257  -8.6357    227.4956    159.3633   8.0815378722e+01   7.7229063332e+00    0.2220051    0.1832674 -51.65 0.0009076734    1.907    0.476
       258  -8.4211    237.1397    159.1492   7.9227919078e+01   6.1728277434e+00    0.1529831     0.135969 -15.16   0.00056947    1.344    0.256
       259  -8.4959    128.2216    159.0881   1.0031152065e+02   2.5352885571e+01    0.2542484     0.154551  60.65 0.0009447859    1.993    0.498
       260  -9.7284    105.8387    157.7776   1.0534217614e+02   2.9342837538e+01    0.4552529    0.3141512  75.37  0.001658269    1.763    0.433
       261  -8.5091    196.7316    157.8681   8.5882336842e+01   1.3224827469e+01    0.2054346    0.1746996 -49.41 0.0006822582    1.577    0.366
       262  -8.5720    188.0950    157.7326   8.7477421453e+01   1.4796131365e+01    0.2091284    0.1760522 -39.95 0.0006660525    1.421    0.296
       263  -9.2412    167.5984    157.2634   9.1444689569e+01   1.8603640472e+01      0.28751     0.232484  76.58  0.001080353    1.776    0.437
       264  -8.5680    217.8807    156.5703   8.1882119794e+01   9.6858514758e+00    0.2296213    0.1543858 -43.37 0.0009693409    1.954    0.488
       265  -8.9911    157.8783    155.8109   9.3203936564e+01   2.0622257633e+01     0.367909    0.1903409 -45.21  0.001400853    2.211    0.548
       266  -9.3762    119.5366    155.1023   1.0167612930e+02   2.7590739906e+01    0.3951469    0.2550854 -80.87  0.001730978    2.325    0.570
       267  -8.3778    204.6431    155.1575   8.3920156380e+01   1.2184611102e+01    0.2506682    0.1461418 -42.19  0.001282704    2.083    0.520
       268  -8.7485    144.5283    154.9892   9.5947061207e+01   2.3200023160e+01    0.2750371    0.2083594  69.88 0.0009194881    1.685    0.407
       269  -9.0699     49.3824    155.1953   1.1898211998e+02   3.7696392364e+01    0.3462183    0.1691324  64.23  0.001716976    2.066    0.516
       270  -9.7706    242.4529    149.6977   7.6570926673e+01   6.3832020621e+00    0.3689222    0.1946292  44.70   0.00171402    1.937    0.484
       271  -9.5330    241.5712    154.0589   7.7559540179e+01   6.0334834259e+00    0.3225195    0.2405668  76.53  0.001662971    3.258    0.693
       272  -9.8021    132.9650    153.1137   9.8221454430e+01   2.5619141484e+01    0.4611091    0.3019727  68.48  0.001428141    2.133    0.531
       273  -9.2742    133.5060    148.4856   9.7278696157e+01   2.6380309148e+01    0.2857958     0.225464 -32.35  0.001054185    1.500    0.334
       274  -9.5003     67.9452    153.7137   1.1415701717e+02   3.5737028646e+01    0.4529316    0.2276995  66.48  0.001405927    2.353    0.575
       275  -8.0916    232.9826    153.9530   7.8884639542e+01   7.4515279627e+00    0.1683663    0.1526805 -53.15 0.0006285602    1.711    0.416
       276  -8.2775    151.6062    152.7907   9.3996679925e+01   2.2287805634e+01    0.1715706    0.1312627 -59.18 0.0006460861    1.631    0.387
       277  -8.5819      8.7607    153.5010   1.2889948357e+02   4.1923688922e+01    0.1889662    0.1091975  20.36  0.001140289    2.102    0.524
       278  -8.2538    182.5009    151.4705   8.7353188605e+01   1.6748171742e+01    0.2052507    0.1258801 -48.72 0.0006843112    2.099    0.524
       279  -8.8953     98.3226    150.9366   1.0615990990e+02   3.1911522276e+01    0.3125529    0.1998225  83.64 0.0009160175    2.112    0.526
       280  -9.6798     29.4265    150.7707   1.2364923422e+02   4.0726548110e+01    0.4398549    0.1542439  61.24  0.001902324    2.872    0.652
       281  -8.5564     20.0001    152.5374   1.2611112294e+02   4.1205831373e+01    0.1632607   0.09767245  38.35 0.0005346689    1.538    0.350
       282  -9.5833    248.8478    149.5701   7.5583203817e+01   5.3653242757e+00     0.325681    0.1546779 -25.98 0.0007813951    1.951    0.488
       283  -9.5858    247.0875    143.8575   7.4709915099e+01   6.2859036838e+00    0.2688048    0.1570028 -18.74 0.0006932769    1.567    0.362
       284  -9.0349    189.4131    150.2088   8.5768057974e+01   1.5651056263e+01    0.2782468    0.2306704 -56.21   0.00087103    1.650    0.394
       285  -8.5652    162.7679    150.7321   9.1220717619e+01   2.0558260223e+01    0.2307628    0.1787973 -79.05 0.0008860744    2.013    0.503
       286  -8.2421    212.8527    150.0412   8.1463593132e+01   1.1402722375e+01    0.1771594    0.1659431  12.43 0.0004529708    1.232    0.189
       287  -8.8916      2.8678    150.0366   1.3018904592e+02   4.3086764541e+01    0.2121268   0.08061089  63.51  0.001093031    2.152    0.535
       288  -8.2710    198.8097    149.0504   8.3775805581e+01   1.4080576522e+01    0.1784726    0.1734185 -14.46 0.0004449664    1.277    0.217
       289 -10.0683     89.3344    146.3446   1.0774908849e+02   3.4261931507e+01    0.6130539    0.3307312  82.21  0.002418591    3.240    0.691
       290  -9.8981     39.7082    147.4553   1.2076732340e+02   4.0418067578e+01    0.5638934    0.2485033  68.40  0.002280645    2.466    0.594
       291  -9.6457    233.6240    147.3763   7.7482651394e+01   8.1219632374e+00    0.2648931    0.1813058  -9.96 0.0008842814    1.363    0.266
       292  -8.9336     78.2652    147.0380   1.1069579302e+02   3.5746797920e+01    0.3438036     0.189368  78.15  0.001232592    2.512    0.602
       293 -10.4946     54.4556    143.6962   1.1653818593e+02   3.9592143970e+01    0.8756592    0.3901438  75.06  0.003103324    3.211    0.689
       294  -8.3290    223.3274    146.9812   7.9072226366e+01   9.9448973384e+00    0.1757921    0.1437936  -8.59 0.0004212948    1.134    0.118
       295  -8.1425    206.7907    146.5767   8.1832511798e+01   1.2959626190e+01    0.1879517    0.1534073 -28.62 0.0007191002    1.318    0.241
       296 -10.2303    149.0115    145.0034   9.3100976233e+01   2.4137060965e+01    0.4865542    0.3492477  84.37  0.001688366    2.305    0.566
       297 -10.0220    139.1453    145.0459   9.5343473693e+01   2.5982450514e+01    0.4241873    0.2993879 -86.08  0.001181243    2.283    0.562
       298  -9.3152    139.8016    137.3968   9.3711880263e+01   2.7285073254e+01    0.3906931     0.252999  10.31  0.001635022    2.624    0.619
       299 -10.3803    106.6426    143.9125   1.0297464954e+02   3.1991725887e+01    0.7134327    0.5002623  87.65  0.002279147    1.833    0.454
       300  -9.2476     13.3999    146.3612   1.2742706780e+02   4.3072241527e+01    0.3114714     0.125158  55.20  0.001184414    2.052    0.513
       301  -9.1743    240.3769    145.2312   7.5999153444e+01   7.2381807757e+00    0.2351739    0.1707182 -21.10 0.0005428046    1.301    0.231
       302  -9.1144    242.6948    143.3310   7.5262781589e+01   7.0712810162e+00     0.178919    0.1539387   0.01 0.0005059505    1.138    0.121
       303  -8.2639    175.4952    146.1953   8.7704687167e+01   1.8885022794e+01    0.2050251    0.1788078  57.95  0.000593524    1.329    0.248
       304  -9.8902    125.2184    142.8666   9.8218938169e+01   2.8955503195e+01    0.5199533    0.3446096  85.14  0.001616945    2.493    0.599
       305  -8.8154    165.4227    143.9846   8.9341621255e+01   2.1175255999e+01    0.2490645    0.2094658  51.81 0.0006434791    1.239    0.193
       306  -9.6785     73.2010    129.7779   1.0962063726e+02   4.0262035661e+01     0.342478    0.2299276  78.79  0.001024565    1.642    0.391
       307 -10.7747     69.5784    141.3062   1.1222495347e+02   3.8194596189e+01    0.5799117    0.3854998  83.86  0.002268608    1.602    0.376
       308  -9.4427     69.3922    134.5558   1.1137041835e+02   3.9716890748e+01    0.5719212    0.3169554  12.53  0.002250662    3.570    0.720
       309  -9.3172      2.8638    141.9288   1.2988765973e+02   4.4806330466e+01    0.4005126    0.1457514  60.37  0.001667373    2.265    0.559
       310  -8.4037    182.1453    141.9354   8.5508960189e+01   1.8277532394e+01    0.1912892    0.1845353  70.06 0.0005194298    1.284    0.221
       311 -10.0041     23.4158    138.2737   1.2434310969e+02   4.4002593178e+01    0.4989426    0.1825456  60.99  0.002178727    2.681    0.627
       312  -7.8582    218.6052    138.7555   7.8170545595e+01   1.1844954086e+01    0.1693196    0.1155248 -35.14 0.0005537718    1.571    0.363
       313  -8.7850    172.3021    138.5837   8.6802144090e+01   2.0730142466e+01     0.261904    0.2201665 -88.67 0.0007361222    1.702    0.412
       314  -8.1419    240.8330    137.8518   7.4425584797e+01   8.0236331504e+00    0.1587714    0.1384165 -23.04 0.0007758451    1.304    0.233
       315  -8.3780    207.6519    138.1151   7.9928393734e+01   1.3963104104e+01    0.1939803    0.1596286 -44.35 0.0006769479    1.506    0.336
       316  -8.5696    197.5525    137.5632   8.1641652731e+01   1.5963776236e+01     0.236746    0.1944553 -46.75 0.0007671768    1.503    0.335
       317 -10.5546     83.1667    133.0247   1.0735896789e+02   3.8076492979e+01    0.6389828    0.3644622 -66.20  0.001761256    1.830    0.454
       318  -9.0861    162.5293    136.5022   8.8426829511e+01   2.3007295695e+01    0.2382596    0.2025477 -52.51  0.000784343    1.371    0.271
       319  -9.1814    151.2848    136.0620   9.0808921031e+01   2.5302226944e+01    0.4369402    0.2036389  32.23  0.001666713    2.582    0.613
       320  -9.2984     39.1740    136.3811   1.1992079304e+02   4.2924615272e+01    0.3028857    0.1583449  66.04  0.001030268    1.886    0.470
       321  -9.5398    248.3857    135.3811   7.2791544436e+01   7.0325173089e+00    0.2669807     0.179596 -25.94 0.0008138762    1.398    0.284
       322  -9.0357    250.7312    130.1955   7.1373753164e+01   7.2301996641e+00     0.411058    0.1088553 -26.05   0.00148339    3.676    0.728
       323  -8.6734    179.5087    134.0513   8.4373313140e+01   2.0038227827e+01    0.2573369    0.2183805 -61.86 0.0007736112    1.541    0.351
       324  -8.6405     57.6191    135.3094   1.1472109420e+02   4.1076104905e+01    0.2488416    0.1575922  32.74  0.001344141    1.621    0.383
       325  -7.7232    237.5621    133.8189   7.4083558257e+01   9.0701578485e+00    0.1677182     0.107698 -35.29 0.0008515076    1.656    0.396
       326  -7.7310    231.4371    134.1947   7.5115611614e+01   1.0107518344e+01    0.1678199     0.111119 -35.26 0.0005259592    1.610    0.379
       327 -10.3018    132.5413    131.3152   9.4214589662e+01   2.9847080893e+01    0.6232287    0.4492328 -79.08  0.001969667    1.963    0.491
       328  -9.2175    112.8181    133.3081   9.9533893495e+01   3.3109183263e+01    0.3372644    0.2277969  70.89 0.0009093905    1.893    0.472
       329  -9.3745    143.1496    131.9300   9.1815654551e+01   2.7663033038e+01    0.3188823    0.2400741 -71.98 0.0008456538    1.779    0.438
       330 -10.4326     98.2048    130.2921   1.0281927273e+02   3.6277456548e+01    0.6351296    0.3191836 -61.27  0.001788272    2.164    0.538
       331  -8.7755     98.9746    120.8025   1.0083424794e+02   3.8218284588e+01    0.2739269    0.1972702  14.25  0.001168397    1.964    0.491
       332  -7.7987    204.5856    130.4708   7.8830404700e+01   1.5625542473e+01    0.1329928    0.1210292   7.18   0.00015099    1.068    0.064
       333  -8.2002    192.8374    130.1694   8.0926902672e+01   1.7985058259e+01    0.1920112    0.1886611 -38.88 0.0004823483    1.236    0.191
       334  -9.4296    168.4136    129.5710   8.5685565922e+01   2.3011772571e+01    0.2728529    0.2341438 -82.07 0.0009488162    1.564    0.361
       335  -8.9747    161.8427    130.3783   8.7270346867e+01   2.4205944660e+01     0.213196    0.1225735  35.57 0.0009496146    1.734    0.423
       336  -9.6903    152.7369    128.8674   8.8960598516e+01   2.6317181771e+01    0.4312908    0.2685056 -55.77 0.0007336824    2.018    0.504
       337  -8.0937      1.5001    130.4416   1.2977991561e+02   4.7396385823e+01    0.1179181   0.08767319  70.49 7.595039e-05    1.060    0.057
       338  -7.2758    220.6456    129.7397   7.5905154806e+01   1.2653833229e+01    0.1370206   0.08957922  18.38 0.0004828639    1.616    0.381
       339  -8.0181    211.4509    129.2327   7.7350522415e+01   1.4469912113e+01    0.1807531    0.1203662 -40.17 0.0009381631    1.675    0.403
       340 -10.7601     44.9469    123.6050   1.1693580638e+02   4.5234418792e+01     1.110886    0.4433078  69.98   0.00383354    4.103    0.756
       341 -10.1055    118.0956    125.1311   9.6570819102e+01   3.3841636638e+01    0.5908055    0.4142624 -85.09  0.001698691    2.005    0.501
       342 -10.4912     59.7555    124.9505   1.1276971847e+02   4.3171927241e+01    0.6884758    0.3461072  76.82  0.002459085    2.820    0.645
       343  -8.9598     58.5156    115.9750   1.1184283741e+02   4.5421783112e+01    0.3225407     0.223912 -27.09   0.00161007    2.187    0.543
       344  -8.8918    179.3286    124.9229   8.2393300866e+01   2.1548465066e+01    0.2529709    0.2242735  62.35 0.0006796963    1.310    0.236
       345 -10.2799     28.5401    122.5729   1.2165448590e+02   4.7109958648e+01    0.7321922    0.2803474  68.79  0.002900512    3.225    0.690
       346  -8.5112    246.8877    130.3361   7.1957234951e+01   7.8672426560e+00    0.2225828    0.1509061 -34.02 0.0006039817    1.554    0.357
       347  -7.8603    187.6624    135.8478   8.3150387453e+01   1.8143393330e+01    0.1810828    0.1234591 -43.07  0.000334951    1.667    0.400
       348  -8.0639    188.4589    124.2146   8.0431436360e+01   1.9784383031e+01    0.1865215    0.1304784 -45.61 0.0007778908    1.647    0.393
       349 -10.0673    130.9862    118.8618   9.1936641779e+01   3.2623633543e+01    0.5657152     0.388027 -89.50  0.002124016    2.408    0.585
       350 -10.4582    133.6647    109.6564   8.9123134627e+01   3.3924418460e+01    0.6743504    0.3453974 -46.58  0.002775364    2.047    0.511
       351  -9.3939    158.7284    121.1712   8.5898878129e+01   2.6477239264e+01     0.442525    0.2915981 -43.48  0.001464839    1.622    0.383
       352  -8.7616     85.3580    122.4447   1.0497550068e+02   4.0101384674e+01    0.4265251    0.2156884  22.08  0.001585898    3.244    0.692
       353  -8.0022    203.2312    122.3040   7.7248822969e+01   1.7071087417e+01    0.2067255    0.1005591 -42.15 0.0006203028    2.310    0.567
       354  -7.9485    195.0431    122.0669   7.8691677701e+01   1.8766942095e+01     0.208887    0.1708697 -65.24 0.0007250577    1.718    0.418
       355  -8.5028    172.0613    121.6455   8.3135295668e+01   2.3602276651e+01    0.2267556    0.1930375 -45.66 0.0003633452    1.304    0.233
       356 -10.1685    141.6185    118.1915   8.9171346042e+01   3.0592762149e+01    0.5592584    0.3210167 -58.68  0.001194759    2.301    0.565
       357  -9.6902     71.1710    119.7782   1.0863849439e+02   4.2834764543e+01    0.4170188    0.2328994 -81.73  0.001171222    2.153    0.535
       358  -9.6472      3.0985    117.3852   1.2872925725e+02   5.0223041582e+01    0.5298936    0.1660687  64.37   0.00222899    3.094    0.677
       359 -10.1660     12.8388    129.0754   1.2662104160e+02   4.6914833563e+01    0.5288073    0.2141774  72.84  0.002504167    2.373    0.579
       360 -10.0520    109.2560    114.2852   9.6641994705e+01   3.7795147976e+01    0.5231681    0.3567099 -83.44  0.001584151    2.049    0.512
       361  -8.8460    109.3031    107.6971   9.5154499930e+01   3.9215819058e+01    0.4967131    0.2680457  21.51  0.001652901    3.664    0.727
       362  -8.0910    185.5388    115.9930   7.9088821452e+01   2.1689967897e+01    0.2066423      0.13725 -35.69 0.0004659675    1.539    0.350
       363  -8.8719    250.1473    115.1350   6.8221479994e+01   9.0737076151e+00    0.1981591     0.149969   7.14  0.001012619    1.216    0.178
       364  -8.3384    192.9308    115.2179   7.7490429437e+01   2.0251459616e+01    0.1984489    0.1916011 -58.82 0.0004519839    1.240    0.194
       365  -7.9453    153.2688    115.6569   8.5844484683e+01   2.8631777742e+01     0.142437    0.1167003 -82.17  0.000545025    1.609    0.378
       366 -10.3115     92.6377    112.2671   1.0092941951e+02   4.1208991211e+01     0.660614    0.3657785 -74.79  0.001368253    2.527    0.604
       367  -8.8767     93.6343    104.6700   9.9014187818e+01   4.2757623872e+01    0.2865495    0.2047908   5.12  0.001269243    2.250    0.556
       368 -10.0090     78.7004    112.3176   1.0508039803e+02   4.3452461859e+01    0.5729616    0.3478808  89.16  0.001735113    2.250    0.556
       369  -8.8886     78.9257    105.1804   1.0362088946e+02   4.5078044312e+01    0.3195641    0.2049734  13.72  0.001154877    2.457    0.593
       370  -8.4527    167.1284    114.3224   8.2454923427e+01   2.5905845036e+01    0.2024527    0.1839952  42.54 0.0006732048    1.080    0.074
       371 -10.0838    121.7973    112.4644   9.2851066422e+01   3.5766917780e+01    0.3972173    0.3342054  88.57  0.001384948    1.369    0.270
       372  -9.8468    119.0145    106.0425   9.2084981809e+01   3.7670670648e+01    0.4284097    0.3422031  89.55  0.001771848    1.528    0.346
       373 -10.7663    108.9432     98.9285   9.3157231881e+01   4.1196200343e+01      0.94741    0.4968228  63.96  0.001738629    3.209    0.688
       374  -9.1063    107.9222     92.6084   9.1839188022e+01   4.2776378860e+01     0.628086    0.3185292  27.12  0.002124846    3.259    0.693
       375  -9.7964     14.0804    111.1885   1.2504848665e+02   5.0929756371e+01    0.4316437    0.1789151  63.41  0.001901221    2.400    0.583
       376  -8.5364    174.8020    112.0741   8.0299177065e+01   2.4633318003e+01    0.2142588    0.1993721 -68.80 0.0006302187    1.273    0.214
       377  -8.5853    159.1937    111.7288   8.3561347956e+01   2.8078866713e+01    0.2420043    0.1985559 -50.79 0.0006635625    1.345    0.257
       378 -10.3912     66.3222    110.0635   1.0847422238e+02   4.5783482146e+01    0.5926997    0.3657467 -77.92  0.002077393    1.708    0.415
       379  -8.0052    182.8117    109.7898   7.8127037692e+01   2.3272840457e+01    0.1878395    0.1680115 -56.46 0.0005010121    1.314    0.239
       380  -8.0115    149.6587    110.2935   8.5388869786e+01   3.0403871562e+01    0.1480737    0.1181465  84.20 0.0003145941    1.655    0.396
       381 -10.0754    249.0212    107.9806   6.6785464041e+01   1.0118800512e+01     0.325849    0.2655358 -41.85  0.002026624    1.442    0.307
       382  -9.5801    249.5953    101.8044   6.5309260396e+01   1.0745745646e+01    0.4266905   0.09033047 -31.19   0.00133662    3.742    0.733
       383  -8.7467     43.3193    109.4732   1.1565812181e+02   4.8744068320e+01    0.3364676     0.141538  18.71    0.0013091    3.514    0.715
       384  -8.3451    189.1418    107.9200   7.6442129172e+01   2.2197598677e+01     0.211404    0.1899149 -47.06 0.0004786602    1.254    0.203
       385  -7.7407    161.8461    106.1919   8.1600645000e+01   2.8492972450e+01    0.2033989    0.1682464  10.20 0.0004144289    1.346    0.257
       386  -9.6490    150.6853    103.2189   8.3376104045e+01   3.1508773637e+01    0.5000782    0.3264379 -67.00  0.001355232    2.351    0.575
       387  -9.4096    139.8733    104.6929   8.6348446077e+01   3.3590861556e+01    0.3620774    0.2777768 -77.76 0.0008562088    1.746    0.427
       388 -10.5672     45.8647    102.6477   1.1385545016e+02   5.0105681454e+01    0.8316157    0.3652248  62.66  0.003181879    3.161    0.684
       389  -9.3942     45.5062     92.9977   1.1243220082e+02   5.2484789196e+01    0.4247038    0.2379402   3.29  0.001757266    3.255    0.693
       390 -10.7256     22.8474    102.7330   1.2149787869e+02   5.2272558140e+01    0.7559025    0.3092243  67.21  0.002887626    2.902    0.655
       391  -8.4901    166.7580    104.2543   8.0042284554e+01   2.7743945137e+01    0.2459384    0.1946122 -49.68 0.0006453458    1.396    0.283
       392  -9.0164      6.6999    103.0193   1.2677636083e+02   5.3329455622e+01    0.2831983    0.1380405  74.46  0.001145969    1.880    0.468
       393 -10.4835    128.3017    101.9636   8.8600264460e+01   3.6608174681e+01    0.4139073    0.3730429 -23.55  0.001204551    1.213    0.176
       394  -7.7937    175.5483    102.4859   7.7752607289e+01   2.6080677248e+01    0.1448816    0.1407454  14.15 0.0001408987    1.047    0.045
       395  -8.4739    159.7787    100.8879   8.0699252224e+01   2.9905989125e+01    0.2698165    0.2000956 -57.98  0.000657754    1.625    0.385
       396  -9.3289     82.0929     99.9838   1.0153415110e+02   4.5785477503e+01    0.3769577    0.2384927 -80.27  0.001143684    1.994    0.499
       397 -10.3407     64.0037     96.4331   1.0669599119e+02   4.9348955417e+01    0.6731797    0.3925257  86.71  0.001934984    2.386    0.581
       398  -8.2657    218.0150    100.4831   6.9584137610e+01   1.7130287395e+01     0.195492    0.1330901  48.09 0.0004053529    1.512    0.339
       399  -9.6271     95.0925     96.5125   9.6681500938e+01   4.4347940340e+01    0.6026131    0.3000566 -50.38 0.0008221432    2.003    0.501
       400  -7.5098    183.7501     97.0056   7.4707711000e+01   2.5132531817e+01    0.1867216    0.1233197 -32.04 0.0004023695    1.509    0.337
       401  -9.0428    151.2179     95.8539   8.1317170593e+01   3.2765841734e+01    0.3624266    0.2426747   2.79  0.001437905    2.443    0.591
       402 -10.5100    124.0503     91.4297   8.6960733360e+01   3.9680712014e+01    0.5818894     0.472028  32.00  0.001237573    1.311    0.237
       403  -9.1852    139.0256     92.3646   8.3312473892e+01   3.6190896623e+01    0.3639569    0.2755876 -80.76 0.0008302178    1.819    0.450
       404  -8.2761    176.3826     93.2204   7.5155528507e+01   2.7437903621e+01     0.212182    0.1337587 -44.49 0.0005027512    1.688    0.407
       405  -9.5696      5.3605     92.1178   1.2643457391e+02   5.5984644927e+01    0.3823432    0.1584292  54.90  0.001564299    2.373    0.579
       406  -7.9787    157.6424     91.7647   7.8735084669e+01   3.2039076202e+01    0.2082322    0.1388205 -46.25 0.0003201106    1.588    0.370
       407  -9.7539     34.8176     90.0947   1.1577236699e+02   5.4292626902e+01    0.5199892    0.2502468  87.82  0.001636712    2.515    0.602
       408  -9.2099     22.8415     90.3298   1.2010903419e+02   5.5265764503e+01    0.2933845    0.2265132 -32.09  0.001025942    1.609    0.378
       409  -8.2166    151.0041     89.2807   7.9562701803e+01   3.4034641677e+01    0.2987992    0.1776793 -60.79 0.0006664149    2.475    0.596
       410 -10.0710     86.1896     86.0162   9.6886562999e+01   4.8333190592e+01    0.5778011    0.3559264 -65.85  0.001413326    1.807    0.446
       411  -8.7621     65.0494     87.6301   1.0448885996e+02   5.1313448571e+01    0.4296118     0.239457  11.31  0.001601918    3.456    0.711
       412  -7.8396    164.2092     87.0403   7.5982096939e+01   3.1336239079e+01    0.2014982    0.1217366 -34.20 0.0005817208    1.678    0.404
       413 -10.0620     48.4777     83.9846   1.0970693771e+02   5.4343596714e+01    0.5753638    0.3402706  84.79  0.002184507    2.132    0.531
       414  -8.4106    164.8367     94.1163   7.7795667292e+01   2.9954934532e+01    0.2285097    0.2022889 -65.50 0.0004866707    1.299    0.230
       415  -9.8232    104.8629     83.1936   9.0185787791e+01   4.5441059843e+01    0.4772856    0.3355761 -75.90  0.001016611    1.903    0.474
       416  -8.2585    105.3102     77.3347   8.8340809433e+01   4.6615727870e+01    0.2436928    0.1534874  40.38  0.000400461    1.637    0.389
       417  -8.4459    157.8459     84.1278   7.6542850205e+01   3.3358277138e+01    0.2225963    0.2082959 -62.50 0.0003736393    1.151    0.131
       418  -9.4772    141.0958     82.6837   8.0047292838e+01   3.7582184239e+01    0.4876294    0.2721245 -37.18  0.001311098    1.844    0.458
       419  -9.4566      9.9099     81.1731   1.2383166645e+02   5.8357266084e+01    0.3798718    0.1604167  59.32  0.001413144    2.579    0.612
       420  -9.6687     24.5557     80.5040   1.1816980736e+02   5.7528711165e+01    0.4406426    0.2172112  80.06   0.00132446    2.395    0.583
       421  -8.4706    150.1853     80.6804   7.7279380733e+01   3.5806129090e+01    0.2786871    0.1990962 -48.15 0.0009729469    1.480    0.324
       422  -8.9766    119.4186     80.3327   8.5078555029e+01   4.2976683023e+01    0.3476476    0.2380479 -74.69 0.0008414098    2.152    0.535
       423  -8.9268     74.5345     80.4117   9.9411584117e+01   5.1592581949e+01    0.3319487    0.2176987 -76.25 0.0009516713    1.829    0.453
       424  -8.2919    166.8325     79.7174   7.3336794723e+01   3.1963344746e+01    0.2486687    0.2002871 -19.95 0.0003498434    1.303    0.232
       425 -10.0481     63.5214     74.3044   1.0185305468e+02   5.4717077214e+01    0.6418779    0.3219786 -73.31  0.002451147    2.712    0.631
       426  -9.3934    128.1709     75.4890   8.1200746664e+01   4.1978376549e+01    0.4003206    0.2634448 -57.13 0.0007688815    1.781    0.439
       427  -7.8228    157.2747     76.6551   7.4477446555e+01   3.4812378135e+01    0.1559659    0.1196698 -66.89 0.0004084221    1.624    0.384
       428  -8.7759    140.3716     75.2891   7.8003273469e+01   3.9147156277e+01    0.2653476    0.1899843 -48.35 0.0005155916    1.462    0.316
       429  -8.3463    163.1907     73.0773   7.2130234682e+01   3.3973496176e+01    0.3283094    0.1790145 -47.91  0.001022114    2.049    0.512
       430  -8.8128    115.6346     73.0781   8.3943683878e+01   4.5298641615e+01    0.2930453    0.2257178 -59.94  0.000759758    1.426    0.299
       431  -9.8400     82.1947     72.5541   9.4537178093e+01   5.2118195929e+01    0.4352864     0.313323 -82.41 0.0009776813    1.807    0.447
       432  -8.2558    151.4734     73.5258   7.4827719049e+01   3.6780007175e+01    0.1524004    0.1510387 -87.24  0.000809199    1.040    0.038
       433  -9.4158     95.2147     71.1632   8.9672511755e+01   4.9989928131e+01    0.4131134     0.242133 -61.69  0.001094937    2.069    0.517
       434  -8.3499     42.4789     72.7729   1.0971536752e+02   5.7753413941e+01    0.2549633    0.1247457 -72.31 0.0006124504    2.031    0.508
       435  -7.7538    175.4651     72.5616   6.9515301997e+01   3.1027048458e+01    0.1504942    0.1451056  12.11 0.0001169546    1.023    0.023
       436  -9.1896    105.8877     71.7321   8.6440796393e+01   4.7686488436e+01    0.2871759    0.2190852 -56.42 0.0006594509    1.368    0.269
       437  -9.5384     51.5270     69.8909   1.0541086769e+02   5.7394571834e+01    0.4622426    0.2557896 -83.23  0.001293525    2.502    0.600
       438  -9.3312     29.6493     70.3054   1.1446650075e+02   5.9607206804e+01    0.5281313     0.269358 -19.32  0.002112437    3.608    0.723
       439  -8.8543     16.6869     70.2140   1.1982800394e+02   6.0609436248e+01    0.2770762    0.1682918  75.21 0.0008465884    1.712    0.416
       440  -8.5554    129.3076     69.7075   7.9072404427e+01   4.2833958864e+01    0.3250684    0.1750101  32.57  0.001160598    2.536    0.606
       441  -7.6785    156.7171     69.6879   7.2473946925e+01   3.6153045819e+01    0.1556054    0.1200134  15.34 0.0002256692    1.572    0.364
       442  -8.9418    147.0131     68.4525   7.4269025775e+01   3.8775796853e+01    0.2953263    0.2084021 -51.72 0.0006226702    1.552    0.356
       443  -9.2395    138.4466     66.4150   7.5666166767e+01   4.1249334372e+01    0.4104824    0.2389243 -47.11  0.001393907    1.821    0.451
       444  -9.3747    121.0071     65.0161   7.9791386143e+01   4.5685196886e+01    0.5296528    0.3072767 -57.01  0.002059773    2.186    0.543
       445  -8.4627     82.5276     65.9911   9.2417450389e+01   5.3536225581e+01    0.2102944    0.1206943 -30.04 0.0006133832    2.464    0.594
       446  -8.8092     64.4284     63.9532   9.8633521046e+01   5.7017942267e+01      0.54339    0.3110489 -22.32  0.001976696    3.423    0.708
       447  -9.2204    110.2263     63.8277   8.2528128866e+01   4.8374752638e+01    0.3250683    0.2546871 -67.53 0.0007239727    1.505    0.336
       448  -8.9618     37.2271     64.3154   1.1003498158e+02   6.0360476839e+01    0.3342991    0.2109568  84.60  0.001483267    1.923    0.480
       449  -7.6477    187.4851     63.5005   6.4663768018e+01   2.9431253455e+01    0.1501336    0.1419331 -48.91 0.0008090668    1.086    0.079
       450  -8.2644    158.2165     61.9579   6.9708712857e+01   3.7069333864e+01    0.2145226    0.1965656 -32.35 0.0003796551    1.090    0.083
       451  -9.5577     97.8238     60.1697   8.5193454162e+01   5.1798919832e+01    0.4874074     0.336986 -35.07   0.00171662    1.511    0.338
       452  -9.7110     73.3776     58.4358   9.3379282095e+01   5.6833802142e+01    0.8171119    0.2840541 -49.48  0.002877664    2.691    0.628
       453  -8.9120    131.0305     58.7624   7.4965990144e+01   4.4455492665e+01    0.4019185    0.1975442 -46.34 0.0009257242    2.177    0.541
       454  -8.7177     88.9740     59.7103   8.8049697247e+01   5.3689362410e+01    0.2735479    0.1835554 -58.81 0.0007770081    1.634    0.388
       455  -7.7663    147.2653     59.6158   7.1331474482e+01   4.0244308554e+01    0.1629403    0.1175399 -62.19 0.0006984184    1.692    0.409
       456  -9.9123     23.4876     56.5668   1.1449229510e+02   6.3457610574e+01    0.4865095    0.2516723  77.33  0.001934146    2.706    0.630
       457  -9.5324      7.4757     57.2243   1.2199610798e+02   6.4286793191e+01    0.2998996    0.1800759  78.00 0.0009898593    1.690    0.408
       458  -9.5767    119.2506     55.6655   7.7041983171e+01   4.7875901290e+01     0.490749    0.2642744 -45.01   0.00170867    1.902    0.474
       459  -9.4744     54.3467     55.6881   1.0030299477e+02   6.0391162733e+01    0.3685938      0.23436 -73.29  0.001155456    1.843    0.457
       460  -8.6277    139.7946     55.7530   7.1754646724e+01   4.2795766396e+01    0.3218383    0.2010722 -45.37 0.0006360221    1.664    0.399
       461  -8.9089     43.9878     55.2869   1.0476137055e+02   6.1795994091e+01    0.3225679    0.1826211 -72.88  0.001131122    1.944    0.486
       462  -8.6033    105.6982     53.2531   8.0177049983e+01   5.1475662083e+01    0.2832185     0.221171 -66.65 0.0007535588    1.535    0.348
       463  -9.5707     92.3495     50.6492   8.3595164616e+01   5.4883862292e+01    0.4409748    0.2515802 -53.04  0.001159477    1.935    0.483
       464  -8.6136    144.6042     49.2265   6.8362134924e+01   4.2642647892e+01    0.2915207     0.143076 -36.24 0.0006145726    1.996    0.499
       465  -8.4931    129.9825     49.2832   7.1855851187e+01   4.6379931076e+01    0.2200066    0.2071435  65.94 0.0004631224    1.082    0.076
       466  -7.4904    149.7240     48.7032   6.7063376751e+01   4.1390476901e+01    0.1548661    0.1191207  21.23 0.0002034741    1.530    0.347
       467  -8.6871    120.9670     47.7056   7.3633805621e+01   4.8896737095e+01    0.2511113    0.2209247 -33.27 0.0004017013    1.138    0.121
       468  -8.5586    112.1654     46.8343   7.5788036872e+01   5.1179366385e+01    0.2686243    0.1986657 -49.18 0.0006438075    1.420    0.296
       469  -8.9515     82.0575     46.4356   8.5693864158e+01   5.7812199835e+01    0.2767025    0.2049422 -53.43 0.0006227836    1.392    0.282
       470  -7.5904    150.6555     45.3104   6.5676499888e+01   4.1669056140e+01    0.1635467    0.1189437 -68.38 0.0006254623    1.702    0.413
       471  -8.9247     44.9298     44.7068   1.0105465920e+02   6.4147651803e+01    0.2548752    0.1845802 -64.92 0.0005604466    1.354    0.261
       472  -8.7074     16.5527     44.6951   1.1535202915e+02   6.6802572221e+01    0.2385729     0.179806 -89.30 0.0006034591    1.330    0.248
       473  -8.8806    132.7143     43.5002   6.9031200056e+01   4.6641923696e+01    0.3255994    0.2483027 -60.97 0.0007692345    1.522    0.343
       474  -9.0172     58.1664     42.5221   9.4071381274e+01   6.2806313925e+01    0.4088873    0.2284987 -68.23  0.001647925    2.621    0.618
       475  -9.4349      5.3113     42.4883   1.2077949317e+02   6.7925265860e+01    0.3195942    0.1724504  80.94 0.0009878301    2.032    0.508
       476  -8.5000     92.9161     42.8591   8.0337609969e+01   5.6285497098e+01    0.2526353     0.171387  18.34  0.001075511    2.058    0.514
       477  -9.2603     69.5620     41.6769   8.8767941792e+01   6.1110612870e+01    0.3506415    0.2464246 -65.06 0.0009026803    1.747    0.428
       478  -8.8509    105.9855     41.4315   7.5500171244e+01   5.3603549153e+01    0.2907573    0.2021733 -51.78 0.0006560992    1.587    0.370
       479  -7.5974    140.2910     41.6595   6.6584687779e+01   4.4958771303e+01      0.16176    0.1178365 -63.04 0.0004214281    1.648    0.393
       480  -8.6275     36.8627     40.9608   1.0380690968e+02   6.5941400389e+01    0.2337654    0.1752026 -83.36  0.000662984    1.551    0.355
       481  -7.7995    155.7118     39.6466   6.2663519519e+01   4.1157712932e+01     0.161622    0.1170573  22.30 0.0007024711    1.671    0.402
       482  -8.5822     95.4359     38.1937   7.7539528882e+01   5.6596729737e+01    0.2750591    0.2138087 -63.68 0.0007306616    1.565    0.361
       483  -8.1310     80.6197     36.8086   8.2274174862e+01   5.9995927836e+01    0.2082013    0.1311189 -50.36 0.0005606706    1.681    0.405
       484  -9.3341     26.2080     35.4516   1.0769678096e+02   6.8252806991e+01     0.344398    0.2193525 -81.26  0.001086846    1.822    0.451
       485  -8.2316    133.4145     36.2008   6.6072550626e+01   4.7595563806e+01    0.2204209     0.138849 -41.82 0.0005227314    1.620    0.383
       486  -8.3272    125.8747     35.6771   6.7669293911e+01   4.9639288903e+01    0.2557088    0.2071566 -12.84  0.000551755    1.333    0.250
       487  -8.5902    112.0619     35.0685   7.1079929627e+01   5.3223154544e+01    0.2758124    0.2209703 -48.44 0.0008585197    1.318    0.242
       488  -7.8582    104.5054     34.5050   7.3060423509e+01   5.5145860918e+01    0.1486491    0.1468533 -29.38 1.456862e-06    1.043    0.041
       489  -7.8322     88.5116     34.5307   7.8350838065e+01   5.8775515969e+01    0.1458415    0.1410791 -50.10 0.0001725413    1.092    0.085
       490  -9.0363     48.5066     33.2810   9.5002057719e+01   6.6208798345e+01    0.3035153    0.2204621 -60.16 0.0008845367    1.422    0.297
       491  -8.6300     60.4286     32.5890   8.8940879709e+01   6.4532399204e+01    0.2739969    0.2228637 -66.80 0.0006802686    1.457    0.314
       492  -8.8050     72.0236     31.1050   8.3169818985e+01   6.2757718843e+01    0.3602733    0.1854565 -46.15  0.001104672    1.929    0.482
       493  -7.6400    139.2931     31.6440   6.3001097244e+01   4.6695690334e+01    0.1635116    0.1146426 -60.27  0.000703054    1.689    0.408
       494  -8.9874     12.9900     30.5241   1.1385647928e+02   7.0363937292e+01    0.2830068    0.1811485 -88.41  0.001222767    1.730    0.422
       495  -8.5256    101.4705     29.4860   7.1790249633e+01   5.6690505456e+01    0.2518365    0.1312562 -43.55 0.0006803625    2.014    0.503
       496  -8.9007    119.0814     32.7297   6.8194468348e+01   5.1834528080e+01    0.3557886     0.179883 -38.36 0.0009955713    1.964    0.491
       497  -8.7221     81.5141     27.4848   7.7691816253e+01   6.1511845811e+01    0.2976851    0.2095966 -71.30 0.0009250967    2.244    0.554
       498  -8.9668      3.7492     27.5527   1.1873086364e+02   7.1510146947e+01    0.2856289    0.1478558 -86.11  0.001303473    1.975    0.494
       499  -7.7261    136.5459     27.5087   6.1956158596e+01   4.8002115762e+01    0.1520217    0.1484023 -73.47  9.03952e-05    1.051    0.048
       500  -8.7632     91.7642     26.1428   7.3385202264e+01   5.9490357652e+01      0.37968    0.1853483 -44.87  0.001212126    2.221    0.550
       501  -8.1615    104.4171     23.1599   6.8026449282e+01   5.6947441831e+01    0.2072858    0.1340082 -41.75 0.0004175373    1.605    0.377
       502  -8.2010     34.6764     23.3571   9.8258201190e+01   7.0085172367e+01    0.1896236    0.1532563  74.88 0.0007775783    1.723    0.420
       503  -8.8944     63.6619     21.1996   8.1984853076e+01   6.6139840206e+01    0.2962265    0.2141602 -59.14 0.0008637837    1.761    0.432
       504  -8.8732     48.3853     21.7716   8.9817028288e+01   6.8585461940e+01    0.2442917    0.2101028 -79.95 0.0006193812    1.540    0.351
       505  -8.2576     19.8017     21.8123   1.0680352260e+02   7.1876288561e+01    0.1628284    0.1418317  86.58 0.0004353903    1.363    0.266
       506  -7.9954    120.4796     21.2129   6.2927689000e+01   5.3122111057e+01      0.21848    0.1342875 -40.83 0.0008479645    1.682    0.405
       507  -8.9710     74.1888     19.7007   7.6681509912e+01   6.4349642316e+01    0.3100663    0.2012959 -52.48 0.0007331349    1.875    0.467
       508  -7.9083     11.6787     20.3568   1.1162552366e+02   7.2770539066e+01    0.1215895    0.0886517  71.88 0.0007045366    1.762    0.433
       509  -8.1612     87.6469     17.7711   7.0675516987e+01   6.1728157476e+01    0.2041076     0.127098 -39.16 0.0004716914    1.626    0.385
       510  -8.0786     38.5657     18.1123   9.3474524155e+01   7.0687245832e+01    0.2056152    0.1164437 -49.20  0.001025434    1.602    0.376
       511  -7.9504    112.8084     16.8176   6.2826569518e+01   5.5696121052e+01    0.2021804    0.1706849 -55.63 0.0003712352    1.311    0.237
       512  -8.3597     29.8980     16.1107   9.7807443393e+01   7.2139505989e+01    0.1888395    0.1678782 -72.66 0.0007741128    1.340    0.254
       513  -8.1152      7.4878     15.5337   1.1290498827e+02   7.4088099886e+01    0.1205393    0.1011554 -58.59 0.0001056911    1.062    0.059
       514  -8.2513     17.1231     14.1436   1.0550657477e+02   7.3765390074e+01    0.1600501    0.1410996 -83.52 0.0006555044    1.339    0.253
       515  -7.2721    119.6983     11.3043   5.8680527224e+01   5.4549846554e+01    0.1520193    0.1121334 -61.20 0.0004742031    1.593    0.372
       516 -10.1517    248.6944    243.5070   9.0964028137e+01  -3.3661166144e+00    0.4548332    0.1642277 -30.22  0.002480324    3.282    0.695
       517  -9.4522    247.9677    235.0218   8.9922244710e+01  -2.6240662571e+00    0.2046752    0.1514776  -1.71  0.001208599    1.327    0.246
       518  -8.7735    218.9097    248.1476   9.6030615060e+01  -1.0741600809e-01    0.1916058    0.1309126 -21.22  0.001020162    1.763    0.433
       519  -9.5394    211.2435    246.6171   9.7035612103e+01   9.9432602020e-01    0.2464757    0.1713593 -41.67  0.001484905    2.375    0.579
       520  -8.5702    190.6996    245.9316   1.0024373201e+02   3.7252273074e+00    0.1607734    0.1258114   3.52 0.0004145423    1.355    0.262
       521  -9.1704    175.7523    247.7160   1.0290827785e+02   5.5241087741e+00    0.2481441    0.1664688  52.53  0.001194933    1.864    0.463
       522  -8.5851    156.2785    248.2073   1.0623477824e+02   8.0617051677e+00    0.1862903    0.1321832  59.83 0.0004584355    1.876    0.467
       523  -8.2674    113.0458    248.7538   1.1375278913e+02   1.3659457579e+01    0.1607554    0.1156192  73.05 0.0009865937    1.728    0.421
       524  -9.2898    103.8785    246.9109   1.1521605963e+02   1.5058675414e+01    0.3150803    0.1886929  80.25  0.001981754    2.481    0.597
       525  -7.7673     80.6562    249.3405   1.1944945111e+02   1.7565345003e+01    0.1108394   0.05223949  55.19 0.0007048142    1.780    0.438
