#   1 NUMBER                 Running object number                                     
#   2 MAG_AUTO               Kron-like elliptical aperture magnitude                    [mag]
#   3 X_IMAGE                Object position along x                                    [pixel]
#   4 Y_IMAGE                Object position along y                                    [pixel]
#   5 X_WORLD                Barycenter position along world x axis                     [deg]
#   6 Y_WORLD                Barycenter position along world y axis                     [deg]
#   7 A_WORLD                Profile RMS along major axis (world units)                 [deg]
#   8 B_WORLD                Profile RMS along minor axis (world units)                 [deg]
#   9 THETA_WORLD            Position angle (CCW/world-x)                               [deg]
#  10 FWHM_WORLD             FWHM assuming a gaussian core                              [deg]
#  11 ELONGATION             A_IMAGE/B_IMAGE                                           
#  12 ELLIPTICITY            1 - B_IMAGE/A_IMAGE                                       
         1 -12.4352     68.5857    145.0942   7.7225519058e+01   3.7180429684e+01     1.777405      1.02125 -84.15  0.006204625    2.962    0.662
         2 -11.7309    236.3041     35.5929   2.0367091146e+01   2.5793866582e+01    0.6055799    0.4154645 -60.81  0.002899728    1.085    0.078
         3 -12.3430    217.3068     48.6905   2.4069395260e+01   2.7349569926e+01    0.7782713    0.6769822 -66.51  0.004925136    1.240    0.194
         4 -10.6075      2.0853     20.4130   7.4767079608e+01   7.2746198210e+01    0.5778977    0.1512537 -53.29  0.002154686    4.893    0.796
         5  -9.7669      2.4841      7.0054   6.8226454934e+01   7.4704363676e+01    0.2658417    0.1088638 -42.96  0.001368281    2.747    0.636
         6  -7.7826     48.8091    234.8317   9.5503244715e+01   1.6592744375e+01    0.1826055    0.1444866  54.77  0.000354085    1.275    0.216
         7 -10.5936     28.6536    247.5956   1.0169346926e+02   1.5723941133e+01     0.443758    0.2491035 -78.89  0.001282645    1.997    0.499
         8 -10.3776     33.5241    247.2175   1.0045136913e+02   1.5338782713e+01    0.4666559    0.3078912 -85.21   0.00254827    1.720    0.419
         9 -11.7798     21.3335    190.2439   9.9212329579e+01   3.0436992761e+01    0.7189594    0.5087336 -18.58  0.001052293    1.643    0.392
        10 -14.1677     31.2664    181.5811   9.5257610591e+01   3.1839239356e+01     7.319223     3.391787  70.30    0.0244388    3.427    0.708
        11  -8.6915    127.3341    231.3238   7.4643918390e+01   7.9779775764e+00    0.1486086   0.09533794 -14.66 0.0007050791    1.710    0.415
        12  -8.4676    104.1729    207.5658   7.7070479345e+01   1.6242725000e+01    0.2166503    0.1347997  10.64 0.0009479676    1.727    0.421
        13  -8.3277     74.8561    200.0487   8.4237048495e+01   2.1996126947e+01    0.2305847    0.2014877  51.65  0.001211636    1.215    0.177
        14  -8.9293    104.1610    197.1257   7.5439180241e+01   1.8712217899e+01    0.1969134    0.1775232  63.22 0.0004284956    1.314    0.239
        15  -8.8300     99.1062    181.2952   7.4227351918e+01   2.3305691531e+01    0.2770154    0.2316339 -64.39 0.0007034229    1.326    0.246
        16  -8.5091     79.0037    179.6186   7.9930972622e+01   2.6653679004e+01    0.2851104    0.2187328 -88.40 0.0009985031    1.637    0.389
        17 -11.9469     40.3876    222.9796   9.6696048311e+01   2.0284644040e+01    0.8684064    0.6803507 -16.99  0.001423374    1.457    0.314
        18  -9.5112     40.0051    210.9868   9.5675280332e+01   2.3288776695e+01    0.3017681    0.2368394  65.87  0.001601809    1.345    0.256
        19 -10.3810     52.6223    167.4403   8.6463462060e+01   3.3345590694e+01    0.5081256    0.3074768 -24.38  0.001839519    2.068    0.516
        20 -10.4792     58.5381    162.7312   8.3758018742e+01   3.3875082800e+01    0.5117538    0.3335575 -36.14 0.0008267786    1.662    0.398
        21  -7.8067    110.4540    167.4781   6.8477023751e+01   2.4924213799e+01    0.1519835    0.1465987   5.75 2.980446e-05    1.039    0.037
        22 -11.5296     58.8248    134.6043   7.8630264612e+01   4.1318730076e+01     1.503756    0.5631453 -71.87  0.003784866    5.380    0.814
        23 -11.2662     53.0462    120.9360   7.7993968934e+01   4.5645127325e+01    0.7986645    0.5653674  84.11  0.002102836    2.042    0.510
        24 -11.1940     77.9271    149.1415   7.4864668169e+01   3.4725147206e+01    0.8798494    0.5541252 -21.14  0.002414834    2.113    0.527
        25 -10.8095     69.9015    154.7556   7.8586125035e+01   3.4452479419e+01    0.5281415    0.4845387  49.46 0.0005185505    1.151    0.131
        26  -8.4772     48.4081    246.0209   9.6589906438e+01   1.4099108951e+01    0.1774505    0.1690241  83.66  0.001130553    1.170    0.146
        27 -13.0323     12.1152    240.0905   1.0533720158e+02   1.8906366089e+01     1.193364    0.8174939 -83.80  0.004072927    1.533    0.347
        28 -13.6052      8.0193    208.3928   1.0448484877e+02   2.6843155284e+01     2.145555     1.372069 -73.45  0.009730377    1.551    0.355
        29 -11.6366     55.7636    150.2412   8.2621426260e+01   3.7585509467e+01    0.5538159    0.3838036 -21.17  0.001067788    1.666    0.400
        30  -8.2645    174.3452    149.6925   4.9639341242e+01   1.8211489001e+01    0.1328144    0.1069249 -87.64 0.0007043433    1.697    0.411
        31  -9.1063     95.3075    136.4030   6.6636069628e+01   3.5065269292e+01    0.6170698    0.3669856  -6.64  0.002043472    3.297    0.697
        32 -10.7093     81.4378    135.3096   7.0872336064e+01   3.7690081036e+01    0.3498223    0.3296938 -13.28 0.0005550174    1.050    0.047
        33 -10.2588      2.0114    159.1989   1.0259642616e+02   4.0199455900e+01    0.5708463    0.1685343 -80.59  0.001804537    3.623    0.724
        34  -9.1637    106.1681    129.3447   6.1773296007e+01   3.4788929108e+01     0.433633    0.2558377 -37.45  0.001497142    1.893    0.472
        35  -8.1788     39.0687    125.2594   8.4323692468e+01   4.6273321796e+01    0.2053332    0.1901828  13.18 0.0003512501    1.069    0.065
        36  -8.2402     94.5912    123.2285   6.3886602207e+01   3.8341532154e+01    0.2093449     0.142644 -39.04 0.0002754276    1.558    0.358
        37  -8.2263    104.3890    117.3980   5.9510224012e+01   3.7847506411e+01    0.2167673    0.1746948  -2.37 0.0005733419    1.505    0.336
        38  -8.2443    205.2106    110.8221   3.6926279968e+01   2.0231537211e+01      0.18598    0.1471213 -64.96  0.001015689    1.202    0.168
        39  -8.2046     91.6613    210.6714   8.0954129885e+01   1.7193942455e+01    0.1584974    0.1066834 -19.20 0.0006524866    1.734    0.423
        40 -10.4817      1.6170     97.1107   9.5419478204e+01   5.6643335395e+01    0.5325056    0.1402727 -73.19   0.00163346    4.245    0.764
        41  -8.0193    120.1819     96.2804   4.9923832521e+01   3.9109117820e+01    0.1960382    0.1637595  84.56 0.0006736763    1.364    0.267
        42 -14.2945      9.5885    229.0231   1.0534112254e+02   2.1684390389e+01     5.575923     2.096051   5.84   0.01184184    4.116    0.757
        43  -8.2248     20.5114     90.5109   8.5299522474e+01   5.6936438268e+01    0.1407727    0.1292526 -10.59 0.0008098339    1.057    0.054
        44 -10.5728      2.2816     75.3296   9.1137310427e+01   6.1851531378e+01    0.4912933    0.1696311 -67.93  0.001868068    3.074    0.675
        45  -8.6689     68.3582     66.8112   5.7623644018e+01   5.5171195122e+01    0.2789671    0.2189046  69.73 0.0009735372    1.701    0.412
        46  -9.9234    205.5424     64.7556   2.8164699808e+01   2.7268648292e+01    0.2235292    0.1238783  53.51  0.001287703    2.168    0.539
        47  -9.6851     13.1212     60.3151   8.1585269336e+01   6.4377004090e+01    0.2267242    0.1901959 -48.62 0.0004135454    1.302    0.232
        48  -8.5819     56.1324    244.8747   9.4508477112e+01   1.3531721667e+01    0.1758074    0.1496936 -30.02 0.0004698584    1.313    0.238
        49 -10.8617    227.4296     42.1333   2.2097639232e+01   2.6456413340e+01    0.3504844    0.3111095  67.23  0.001223938    1.566    0.361
        50 -11.6937    209.3796     54.3143   2.5821145538e+01   2.8005508454e+01    0.4538709    0.3459056  73.75  0.002193135    1.363    0.266
        51  -8.5610     77.4429    229.9928   8.7342781272e+01   1.4463232699e+01    0.2000133    0.1412512 -60.88 0.0008888964    1.574    0.365
        52  -8.7409      2.2078     52.2032   8.5640475965e+01   6.6902453284e+01    0.1808225    0.1062682 -75.09 0.0007695101    2.497    0.600
        53  -8.5628     67.5033     48.1938   5.1773672491e+01   5.8454772776e+01    0.2078853    0.1701296  57.44 0.0004950458    1.297    0.229
        54  -9.1903      2.0000     44.9742   8.3674448231e+01   6.8365247591e+01    0.1918005   0.06825694 -58.71 0.0006427494    2.934    0.659
        55  -8.6481     52.9682     38.0382   5.3759730738e+01   6.2749529969e+01    0.3805249    0.2013741  62.78  0.001374633    4.066    0.754
        56  -9.7586     30.8275     23.8940   5.8376654309e+01   6.8551835147e+01    0.4090439    0.2189144  49.33  0.001544759    2.271    0.560
        57 -10.0607     39.6073    239.4522   9.8310756009e+01   1.6483390118e+01    0.5090271    0.2272806  82.93  0.001889467    3.599    0.722
        58  -9.1413     23.4238     20.2491   6.0836005344e+01   7.0182176740e+01    0.2108189    0.1335424  45.71  0.001180723    1.827    0.453
        59  -8.7831     12.3388     11.6619   6.3614430060e+01   7.2883873022e+01    0.1099055   0.08797835  45.91 0.0007050877    1.759    0.432
