#   1 NUMBER                 Running object number                                     
#   2 MAG_AUTO               Kron-like elliptical aperture magnitude                    [mag]
#   3 X_IMAGE                Object position along x                                    [pixel]
#   4 Y_IMAGE                Object position along y                                    [pixel]
#   5 X_WORLD                Barycenter position along world x axis                     [deg]
#   6 Y_WORLD                Barycenter position along world y axis                     [deg]
#   7 A_WORLD                Profile RMS along major axis (world units)                 [deg]
#   8 B_WORLD                Profile RMS along minor axis (world units)                 [deg]
#   9 THETA_WORLD            Position angle (CCW/world-x)                               [deg]
#  10 FWHM_WORLD             FWHM assuming a gaussian core                              [deg]
#  11 ELONGATION             A_IMAGE/B_IMAGE                                           
#  12 ELLIPTICITY            1 - B_IMAGE/A_IMAGE                                       
         1 -15.0968     66.0699     51.6043   9.7160887113e+01   5.8472996282e+01     3.177255     1.024195 -39.29   0.01061422    3.671    0.728
         2 -14.5984     87.5249     65.6795   9.4703863726e+01   5.2165508363e+01     1.507072    0.7770339 -31.95  0.004282912    2.539    0.606
         3 -15.6119      7.0580     69.8046   1.2259585673e+02   6.0401161414e+01     1.429993    0.6844212 -72.06  0.004593262    1.588    0.370
         4 -14.1365      8.5939     44.6491   1.1726960117e+02   6.5801967321e+01     1.413153    0.7349599 -75.86  0.007914139    1.816    0.449
         5 -14.5554     26.6585     32.0403   1.0593176972e+02   6.7093651126e+01     1.153213    0.7483757 -61.87   0.00699397    1.446    0.309
         6 -13.3539     55.8665     27.4368   9.1761261005e+01   6.4580503898e+01    0.4859008    0.3513401  42.10  0.001379169    1.646    0.393
         7 -15.0081     41.9721      6.9210   8.7818054707e+01   6.9921770918e+01     1.663028    0.9804285 -15.19  0.008474564    1.946    0.486
         8 -13.2233      8.8895      3.0279   1.0300571626e+02   7.4052457631e+01    0.5888703    0.4146542  38.29  0.002447507    1.987    0.497
         9 -14.9993      8.5805     29.4227   1.1328808006e+02   6.8996149580e+01      0.92236    0.6985239  50.72  0.006443535    1.790    0.441
        10 -14.8955     14.1506     19.9388   1.0742652691e+02   7.0514214281e+01    0.8470775    0.5204729 -31.87  0.003005377    1.548    0.354
        11 -14.7192     21.7966     13.4111   1.0087550719e+02   7.1108462192e+01    0.9509499    0.5229847  37.57  0.004547813    2.360    0.576
        12 -15.3130    119.5915     54.7002   8.1826075521e+01   4.7982576524e+01     1.644969      1.00082  30.84  0.001910945    2.114    0.527
        13 -15.1712    122.2390     37.0053   7.4603036700e+01   5.0349761717e+01     1.661619    0.7452106  39.03  0.005501848    2.701    0.630
        14 -14.4900    111.7873     40.6002   7.8720465352e+01   5.2128281902e+01     2.331439     1.208844  -8.06   0.00653543    5.254    0.810
        15 -14.7159    166.6085     30.2206   6.2850619519e+01   4.0160759449e+01     1.161132    0.9867224  45.44  0.003249263    1.182    0.154
        16 -14.8316    147.2053     30.5791   6.6562865115e+01   4.5165758717e+01     1.573337     0.833391  61.80  0.004721084    1.928    0.481
        17 -15.4399    218.1805     17.0250   5.1705806815e+01   2.8083489108e+01     2.362011     1.929004 -41.73   0.01297927    1.154    0.133
        18 -12.9135    231.6011      2.6946   4.6437724364e+01   2.6139718187e+01     0.690273     0.341917  63.87   0.00262211    2.012    0.503
        19 -14.8220    212.6757     41.1376   5.9440728397e+01   2.6671646216e+01     2.286792      0.89706  74.55  0.007446694    3.504    0.715
        20 -13.3345    194.9625     23.1573   5.6260093097e+01   3.3474587316e+01     1.066187    0.4453915 -30.43  0.003315931    2.201    0.546
        21 -14.2232    190.2323     27.3359   5.8232885373e+01   3.4241741058e+01     2.611637    0.6595855 -41.40  0.007556906    3.881    0.742
        22 -13.9229     46.7749     27.9311   9.5673687072e+01   6.5713206095e+01     1.675344    0.3666472 -44.63  0.005712021    3.732    0.732
        23 -13.8928    241.9579     35.9483   5.4536740005e+01   2.0064357528e+01     1.197807    0.7228546 -56.11  0.004431496    1.790    0.441
        24 -15.7352     99.5912     12.7575   7.0219748973e+01   5.8843635602e+01     1.497314    0.8442309  51.88  0.002923835    1.780    0.438
        25 -11.5049    203.0803     11.3985   5.1614893819e+01   3.2595257295e+01    0.4506232    0.2765939 -57.45   0.00205901    1.744    0.427
        26 -11.5416    153.5545      8.2086   5.7004966971e+01   4.6127366298e+01    0.2641467    0.2447589  48.98 0.0003691316    1.044    0.042
        27 -12.1427     61.1319     17.6315   8.5209460526e+01   6.5446911671e+01    0.3651333    0.2360731 -51.00            0    1.854    0.461
        28 -11.7892    120.2644      3.9301   6.1276173922e+01   5.5035010739e+01    0.3073369    0.2157437  79.39   0.00137621    1.704    0.413
        29 -10.5712    117.6985      1.2891   6.0634824177e+01   5.5911176433e+01    0.2068599    0.1404573  65.76 0.0002009892    1.530    0.346
        30 -11.4286     67.6698      3.7316   7.5616212506e+01   6.6323061099e+01    0.2729485    0.2144031  12.22  0.001522495    1.211    0.174
        31 -11.5361     26.6098      3.8547   9.3659118882e+01   7.2274788857e+01    0.2168007    0.1700489 -12.37 0.0006715989    1.188    0.158
        32 -10.7454    192.9329      2.7607   4.9995882952e+01   3.6120125874e+01    0.1949799    0.1816968 -79.72 0.0004040798    1.041    0.039
        33 -12.2760     80.5916      1.8790   7.0337205252e+01   6.4092539824e+01    0.5714498    0.1775771  49.90  0.002223732    3.011    0.668
        34 -11.0921    250.1524      2.1524   4.4926210924e+01   2.1723458791e+01    0.1953308    0.1344479 -53.00 0.0008093992    1.322    0.244
        35 -10.8132     62.4823      1.5130   7.6287193241e+01   6.7515243002e+01    0.2136985    0.1565292  -9.94  0.001279032    1.224    0.183
        36 -11.3789     59.4831      1.4927   7.7412664457e+01   6.8030335637e+01    0.2396571    0.1765195  28.71  0.000790216    1.367    0.268
        37 -12.4340    195.1678    177.0595   9.5707070126e+01   1.0237655621e+01    0.3306736    0.2302064 -56.32  0.001829693    2.029    0.507
        38 -14.5968     95.7753    237.1154   1.2073032006e+02   1.7464414031e+01     1.180444    0.6266416  62.60  0.004685625    1.684    0.406
        39 -11.2012     40.4385    245.7759   1.2985790096e+02   2.2917058528e+01     0.170575   0.07972093 -79.43  0.001223928    2.164    0.538
        40 -13.7927     27.8676    245.6263   1.3169859504e+02   2.4266916884e+01    0.6992719    0.3333972  73.04  0.005225787    1.659    0.397
        41 -14.2830     23.8659    224.1952   1.3139616121e+02   2.7980390161e+01    0.9683251    0.4878082 -89.37  0.007065601    1.730    0.422
        42 -13.4114      9.0503    210.8425   1.3318229617e+02   3.1609071148e+01    0.6295337    0.4106916  42.83  0.005121874    1.603    0.376
        43 -12.8608     16.5987    196.0209   1.3127228433e+02   3.3469781937e+01    0.6148852    0.2156489 -66.53  0.003486593    2.851    0.649
        44 -13.8449     30.0021    169.3463   1.2718786931e+02   3.7149675960e+01    0.5745042    0.3963158 -47.53 0.0008053791    2.206    0.547
        45 -15.5584      9.1754    180.3762   1.3180924648e+02   3.7000657182e+01     1.861935    0.9081699 -82.07    0.0124338    1.681    0.405
        46 -13.3589     22.3779    181.0325   1.2942217484e+02   3.5659000910e+01    0.4369321    0.3020701  80.71  0.001986398    1.084    0.077
        47 -12.0014      2.6418    249.6986   1.3541283626e+02   2.6118636160e+01    0.2777959    0.1116944  53.26  0.002138285    1.569    0.363
        48 -14.0915      9.0404    245.5802   1.3439950996e+02   2.6127355925e+01     0.651942    0.2724535  58.09  0.003209947    1.534    0.348
        49 -13.6646    124.0079    166.4771   1.0758568567e+02   2.4850139769e+01    0.6671034    0.4213796 -66.40  0.003589401    1.803    0.445
        50 -10.6318    100.9246    176.0764   1.1362090679e+02   2.6804448067e+01     0.173888    0.1337829  69.26 -0.001320134    1.153    0.133
        51 -11.1228    177.3242    167.4929   9.7253405352e+01   1.4972138387e+01    0.2126714    0.1223138 -40.79 0.0008883688    1.946    0.486
        52 -12.0375    116.5515    162.6100   1.0853350147e+02   2.6837005386e+01    0.3620939    0.2787152  18.75  0.002034198    1.875    0.467
        53 -12.9303    122.3565    155.3951   1.0615969378e+02   2.7223295563e+01    0.5993629    0.3779564 -45.82  0.003137908    1.815    0.449
        54 -12.4581     25.7886    157.1932   1.2713000176e+02   3.9985634492e+01    0.4591771    0.2845591  59.31  0.003109851    1.389    0.280
        55 -11.5193    155.0147    157.5197   9.9771312215e+01   2.0856223339e+01    0.3417508    0.2211987  68.60   0.00164231    2.031    0.508
        56 -12.5903     77.5645    157.1965   1.1608487656e+02   3.3915562963e+01    0.3920933    0.2833845  48.26   0.00134691    1.340    0.254
        57 -13.4133     73.8423    153.3682   1.1640942836e+02   3.5212504158e+01    0.6019344    0.5547701  48.39  0.002974372    1.318    0.241
        58 -12.6885    208.9884    154.8851   8.9064596545e+01   1.0771609062e+01    0.6623128    0.3567155  49.06  0.003199471    1.801    0.445
        59 -11.5682    112.8695    157.2707   1.0848371399e+02   2.8480628682e+01    0.2539875    0.1879234  66.32  0.001399314    1.312    0.238
        60 -11.4245    109.4917    153.4823   1.0861300841e+02   2.9787241132e+01    0.2912072    0.1929341 -83.93  0.001518178    1.802    0.445
        61 -12.0370     55.7097    155.6925   1.2064072412e+02   3.7061493173e+01     0.343553    0.2362089 -43.30  0.002032266    2.152    0.535
        62 -11.3951     41.2890    154.0849   1.2358710919e+02   3.9040988187e+01     0.310715    0.1302575  68.16  0.001433405    2.809    0.644
        63 -12.3339     85.6942    153.3117   1.1379350256e+02   3.3546492134e+01    0.5517449    0.4795888  82.86  0.003671555    1.045    0.043
        64 -12.2541    103.3470    150.1908   1.0943640551e+02   3.1454187808e+01    0.3677673    0.3060091 -30.61  0.001802046    1.669    0.401
        65 -12.3081      6.4681    147.9606   1.3051593413e+02   4.3551200342e+01    0.3835223    0.2189035  68.06  0.002590026    1.440    0.305
        66 -12.1298    244.3696    147.5544   8.1673234327e+01   5.0211951661e+00    0.3358878    0.2081701 -30.37   0.00182847    1.599    0.375
        67 -12.8178     63.2535    146.5265   1.1790740835e+02   3.8036757663e+01    0.2469182    0.1999359  86.51  0.001162515    1.029    0.028
        68 -11.5375     38.2792    145.9464   1.2345763237e+02   4.1055315102e+01    0.1648109    0.1257784 -85.69 0.0005659573    1.094    0.086
        69 -11.5005     44.8296    145.2549   1.2192001762e+02   4.0496088881e+01    0.1701668    0.1633811 -23.96 0.0006130579    1.534    0.348
        70 -11.0696    162.5979    141.7375   9.5175660567e+01   2.2156745348e+01    0.2674845    0.1353362 -38.88  0.001154097    2.179    0.541
        71 -11.4146    149.2432    140.8318   9.7764181208e+01   2.4986180279e+01    0.3303587    0.2504408  75.69   0.00171717    1.585    0.369
        72 -12.6451     42.5952    139.4670   1.2180251893e+02   4.1970101845e+01     0.333303    0.2294098  69.40  0.001439888    1.304    0.233
        73 -13.8697     45.5285    134.0435   1.2049342575e+02   4.2817269117e+01    0.6044928    0.5518833  83.42   0.00439676    1.212    0.175
        74 -10.9332     56.6301    137.6656   1.1831521346e+02   4.0749229570e+01    0.1776272    0.1360799 -46.51 0.0009864995    1.663    0.399
        75 -14.4189    232.0546    129.6152   7.9739411648e+01   9.7451446397e+00    0.9823632    0.7770763 -16.03  0.005647392    1.202    0.168
        76 -13.7278     98.3727     93.3814   9.9312899436e+01   4.4384508707e+01     1.020968    0.6594865  77.17  0.004443306    2.374    0.579
        77 -14.3110    121.6546    102.1516   9.5441791444e+01   3.8163305487e+01     1.035372    0.9542437 -21.32  0.005841725    1.229    0.186
        78 -15.0754    107.2617    123.9297   1.0386053644e+02   3.6247093237e+01     1.637334      1.29007  24.00  0.008868297    1.650    0.394
        79 -13.3293    137.3889     95.8913   8.9992397299e+01   3.6186993761e+01     0.560948    0.3992287 -43.73    0.0015947    1.383    0.277
        80 -10.7872     11.2671    134.2690   1.2850493580e+02   4.6005171870e+01    0.1498464   0.09671961  72.84 0.0004949379    1.294    0.227
        81 -11.6607    138.0550    132.5681   9.8496592318e+01   2.8760648105e+01    0.2481066    0.1997778 -27.02 0.0007949626    1.521    0.343
        82 -12.6739    132.8613    128.6034   9.8831226954e+01   3.0554796875e+01    0.7988422    0.3455427 -42.00  0.003121518    2.601    0.616
        83 -12.9013    135.7302    103.3764   9.2334390885e+01   3.5044660679e+01    0.7886702    0.3763214  50.86  0.002748335    2.159    0.537
        84 -14.4194     28.0216    123.9738   1.2358220692e+02   4.6782583150e+01     1.934141    0.4832259 -55.09  0.007443006    4.078    0.755
        85 -13.4235     62.2398    102.2955   1.1134121591e+02   4.7891713007e+01     1.253544    0.4560353 -64.41  0.005048386    2.589    0.614
        86 -14.4517     48.6687     96.1422   1.1406605465e+02   5.0914343065e+01     1.139127      1.03049  55.34  0.007316963    1.256    0.204
        87 -13.1336      5.8004    118.5218   1.2852094968e+02   4.9769580978e+01    0.6043935    0.4469165 -34.43  0.004232081    1.991    0.498
        88 -14.8143     17.9504    110.8583   1.2470538825e+02   5.0528165333e+01    0.8550798    0.8097996  76.67  0.006076592    1.305    0.234
        89 -15.9165     22.8026     96.6960   1.2163716651e+02   5.3287411129e+01     1.995009     1.434619 -23.56   0.01254885    2.064    0.516
        90 -14.0660      2.5370     97.2603   1.2741424441e+02   5.4607877080e+01    0.7728752    0.3229522 -75.10  0.003185677    1.779    0.438
        91 -12.1781     62.5632    134.5136   1.1648802785e+02   4.0693742700e+01    0.4229836    0.3071439  76.32  0.002591563    1.289    0.224
        92 -10.8713    185.1388    124.3673   8.6858594588e+01   2.0447729044e+01    0.2310869    0.1825958 -74.63 0.0004565134    1.707    0.414
        93 -11.6462    180.8606    121.0561   8.6918028771e+01   2.1943626779e+01    0.3442606    0.2080104  49.41 0.0008710497    1.618    0.382
        94 -14.9365     89.5467    111.6251   1.0581343998e+02   4.1870417000e+01     1.764236     1.302752   1.19  0.008618891    2.378    0.579
        95 -11.9054     59.7157    125.8823   1.1595187962e+02   4.2938718962e+01     0.439398    0.2782954 -35.67   0.00222858    2.518    0.603
        96 -15.2877    106.0820    108.3659   1.0084657793e+02   3.9781478646e+01      1.72665      1.18053 -34.11  0.008387011    1.826    0.452
        97 -12.0425     51.8649    117.0769   1.1664347879e+02   4.5835945889e+01     0.454099    0.1861899 -79.41  0.001796564    3.112    0.679
        98 -10.4610    192.4966    117.0023   8.3702722230e+01   2.0064658800e+01    0.2089828    0.1184458 -56.31 0.0008105786    2.572    0.611
        99 -12.3375    176.7918    110.8903   8.5258393331e+01   2.4616246231e+01    0.4768936    0.3994738  -2.85  0.002059817    1.354    0.262
       100 -12.5854     45.1986    110.1625   1.1736567356e+02   4.8131710461e+01     0.517039    0.3607953 -63.46   0.00317792    1.267    0.211
       101 -10.6185    194.6242    112.6946   8.2251491068e+01   2.0299596815e+01    0.1561325    0.1093997  18.86 0.0001437181    1.771    0.435
       102 -13.7742    248.7254     97.1917   6.9561187713e+01   1.0701583517e+01     1.479338    0.3833241 -29.34  0.004860105    3.429    0.708
       103 -12.8237    245.6213    133.8218   7.8535661526e+01   6.5216036584e+00    0.4799651    0.3150661 -41.68  0.002547774    1.746    0.427
       104 -10.2920    154.1982    105.6050   8.8681294497e+01   3.0630488407e+01    0.2140421    0.1359199  39.04 0.0006914641    1.689    0.408
       105 -11.4256    162.0526     97.1629   8.4762459302e+01   3.0443503553e+01    0.3081146    0.2601633  49.63  0.001589379    1.187    0.157
       106 -12.8884    109.8823     96.1273   9.6930245517e+01   4.1701558635e+01     0.389696    0.3073063 -78.19  0.000367535    1.422    0.297
       107 -10.9450     76.0143     95.6773   1.0609259504e+02   4.7485014095e+01    0.1757332    0.1663972  81.17 0.0003812825    1.116    0.104
       108 -13.5750    188.4574     84.4614   7.5968090432e+01   2.6400708746e+01     1.215685    0.4722195  46.34  0.003367045    2.655    0.623
       109 -13.5606    214.2045     77.8037   6.9693723683e+01   2.1206100319e+01     1.146403    0.8705109  70.35  0.005702012    1.513    0.339
       110 -14.6494    197.8438     70.8273   7.0410401122e+01   2.6255824037e+01     2.595919    0.8324606  43.19  0.007501425    3.997    0.750
       111 -13.4349    163.9442     71.1039   7.6860856766e+01   3.4648166379e+01      1.12208    0.5715784  41.34  0.003413098    2.208    0.547
       112 -14.9504    160.7832     80.8073   8.0438532535e+01   3.3715105460e+01     2.125387     0.970162  35.02  0.006808404    3.359    0.702
       113 -14.4625    170.0678     77.0311   7.7392719216e+01   3.2132136955e+01     1.022985    0.7759236  35.62  0.004216567    1.423    0.297
       114 -13.3191    135.0854     79.5323   8.5928260069e+01   3.9898779358e+01    0.9024407     0.447831  50.02  0.002994236    2.071    0.517
       115 -12.8731    131.4372     85.7536   8.8634153259e+01   3.9480393438e+01    0.6159652    0.3994237  58.85  0.002242501    1.716    0.417
       116 -11.5787    125.6954     86.7029   9.0333498148e+01   4.0510681503e+01    0.3662344    0.2658583  88.48  0.001652451    1.946    0.486
       117 -11.7914     89.6563     87.4752   1.0024543581e+02   4.7159928678e+01    0.4293702    0.2561093  52.11  0.002032805    1.883    0.469
       118 -13.6374    238.4654     81.6124   6.7092730007e+01   1.5023629377e+01    0.9297997    0.6236187  81.36  0.004340339    2.130    0.530
       119 -11.2191     98.3070     83.9565   9.6868303674e+01   4.6422292263e+01    0.2314979     0.193921  68.88 0.0005580935    1.323    0.244
       120 -13.2170    100.2191     64.3602   9.0485439630e+01   5.0129742321e+01    0.8486636    0.6373873 -89.78  0.004102227    1.905    0.475
       121 -13.2882     54.9897    247.0477   1.2775013492e+02   2.1105419192e+01    0.7374563    0.3831347  32.51  0.004709613    2.664    0.625
       122 -14.6123     39.1962     67.7443   1.1120213375e+02   5.8309065631e+01     1.881165    0.5569355  29.71   0.00748242    4.086    0.755
       123 -13.4762     71.9538     75.0207   1.0226126383e+02   5.2655035481e+01    0.7678355    0.4952291 -42.16  0.003207202    1.530    0.347
       124 -13.1385     77.2121     73.4735   1.0019908665e+02   5.2200385931e+01    0.5709412    0.3783194 -40.07   0.00228832    1.515    0.340
       125 -13.4006    170.6050    242.6413   1.0926351546e+02   5.9549874715e+00    0.6271824     0.325332  36.16  0.003945353    1.621    0.383
       126 -13.7197     56.4960     78.8496   1.0810074247e+02   5.3893394425e+01     0.666384    0.3876519 -44.92  0.001901609    1.701    0.412
       127 -13.7184     60.7802     75.6313   1.0595571855e+02   5.4065779643e+01    0.5749187    0.4179418 -67.65  0.001150689    1.288    0.224
       128 -11.1618     41.4727    249.9865   1.2990083297e+02   2.2191489925e+01    0.1613551    0.1127144  79.29  0.001430216    1.253    0.202
       129 -12.2279    147.2187    238.9322   1.1258790305e+02   9.8922563085e+00    0.2391336    0.1831037 -89.85  0.000988974    1.731    0.422
       130 -12.2133    144.6340    231.9544   1.1226158217e+02   1.1176288226e+01    0.2481554    0.1718129 -51.42   0.00177382    1.890    0.471
       131 -12.7063    131.2417    173.1313   1.0714147309e+02   2.2406406116e+01    0.4464282    0.3498373 -69.91  0.002752083    1.406    0.289
       132 -11.2579     38.6371    210.6137   1.2830606581e+02   2.8680289045e+01    0.3354335   0.09816424  42.10  0.001645801    2.637    0.621
       133 -12.9841     45.7393    208.8442   1.2699369834e+02   2.8194611167e+01    0.6831194    0.2036958  62.28  0.002995313    3.783    0.736
       134 -13.0903     57.3431    202.5352   1.2453477069e+02   2.7932955234e+01    0.7240936     0.280003 -76.03  0.003897158    2.678    0.627
       135 -13.7070     67.5677    222.8176   1.2426057877e+02   2.3291313132e+01    0.6630791    0.4759189  38.45  0.004971873    1.609    0.378
       136 -10.4102    163.4985    225.4861   1.0839385503e+02   9.1084163921e+00    0.1133558   0.08743893  42.26 0.0001499167    1.034    0.033
       137 -12.0754    113.8669     80.3753   9.1592639554e+01   4.4219333646e+01    0.4340225    0.3677711 -43.45   0.00156215    1.131    0.116
       138 -11.9688     90.6913     80.2451   9.8027961045e+01   4.8549396664e+01     0.384688    0.3398745 -14.75  0.002126248    1.340    0.254
       139 -12.3644     41.9253     77.3115   1.1242895709e+02   5.5894092908e+01    0.3464561    0.2366785 -61.89  0.001006544    1.201    0.167
       140 -11.4314     23.1581     75.1764   1.1814396195e+02   5.8089381677e+01    0.1832979    0.1339844 -55.84 0.0005847933    1.221    0.181
       141 -12.9054    241.5201     71.6169   6.4082400601e+01   1.5678562026e+01    0.5806375    0.3884726 -70.20  0.002684884    2.123    0.529
       142 -13.9517    131.8413     66.8194   8.2781102900e+01   4.3033799191e+01     1.324295    0.9340296  51.34  0.006293883    1.468    0.319
       143 -14.5732    101.6434     50.2017   8.5199858660e+01   5.2571677057e+01    0.8810155    0.7163574  72.84  0.002012276    1.548    0.354
       144 -14.3510     97.8780    217.3673   1.1867908631e+02   2.0152873116e+01      0.65666    0.4900267  43.80  0.004792553    1.316    0.240
       145 -14.4311     62.7354    214.6828   1.2449066587e+02   2.5209957262e+01    0.8983025    0.4822463  48.66  0.006030744    1.475    0.322
       146 -11.1396    158.1463     63.9127   7.5823536355e+01   3.7298701923e+01    0.3489035    0.2058768 -51.31  0.001415526    1.929    0.482
       147 -12.4667     85.4694    215.9095   1.2068947934e+02   2.2088948869e+01    0.3011518    0.1598615  51.59  0.001582209    1.458    0.314
       148 -13.7864     79.6640     60.1928   9.5433379069e+01   5.4614637301e+01    0.8418288    0.5319883 -33.38  0.004113459    1.692    0.409
       149 -11.9528     85.8291     50.3390   9.0094063510e+01   5.5529056510e+01    0.5070012    0.2546127 -35.07  0.002166922    2.026    0.506
       150 -13.9930    178.1333     57.4092   6.9829767691e+01   3.3302192145e+01    0.9309526    0.6726041 -47.49  0.002524772    1.431    0.301
       151 -12.9679     39.5377     60.2989   1.0924841624e+02   5.9913476200e+01     0.330306    0.3115587  40.64  0.002161927    1.284    0.221
       152 -13.3204    248.2078     51.7464   5.8055200502e+01   1.6699917553e+01    0.7195642    0.4653119 -23.81  0.003490131    1.431    0.301
       153 -12.0150    231.9912     55.3223   6.0962543891e+01   2.0049866325e+01    0.3122696    0.2148128  57.60  0.001071293    1.534    0.348
       154 -12.6594     24.4660     59.9381   1.1462742737e+02   6.1370557842e+01     0.332388    0.1969319 -57.74   0.00111793    1.317    0.241
       155 -11.0395     23.2153     49.9509   1.1270991504e+02   6.3645062692e+01    0.1758246     0.140237 -73.29  0.000518951    1.199    0.166
       156 -13.6290    157.2414     44.4729   6.9541290806e+01   4.0624171763e+01     1.114031    0.6422468  32.04  0.004371856    2.232    0.552
       157 -12.7960    139.2775     21.5218   6.4696036515e+01   4.8351862068e+01    0.5586275    0.3259563  60.76 0.0007069713    1.712    0.416
       158 -12.2538    185.3880    213.4101   1.0314934851e+02   7.1206557518e+00    0.2391251    0.1102383 -47.18  0.001252365    2.916    0.657
       159 -11.2236    157.4027    213.2006   1.0788484615e+02   1.1707503814e+01    0.1415177    0.1095675 -71.46 0.0009517238    1.717    0.418
       160 -12.1672    211.3928     33.4210   5.7318730922e+01   2.7960869347e+01    0.3874601    0.3007767 -82.26 0.0002245926    1.426    0.299
       161 -11.5178    136.7689    211.4311   1.1125954772e+02   1.5258166660e+01    0.1842736    0.1605719 -75.40 0.0009695498    1.352    0.261
       162 -12.1430     72.3580    207.9471   1.2230520572e+02   2.5131744453e+01    0.4372559     0.231388 -76.82  0.002743696    1.969    0.492
       163 -11.8573     80.1187    208.4215   1.2097624156e+02   2.4036677390e+01    0.2816955    0.1472307  61.92  0.001527556    1.691    0.409
       164 -10.7841    149.7504    206.7128   1.0838158337e+02   1.3870958699e+01    0.2138343    0.1203694  42.25 0.0009132608    1.475    0.322
       165 -12.1370    202.0101     46.3090   6.2471980669e+01   2.8733584607e+01    0.4649859    0.3250616 -88.16  0.002114124    1.772    0.436
       166 -10.8275    186.3228    205.3233   1.0182492200e+02   7.9872435757e+00    0.1194946   0.08156466  19.29 0.0007046929    1.681    0.405
       167 -11.6345     25.6286     43.3302   1.0994461736e+02   6.4857278829e+01    0.2431015    0.1186705 -56.90 0.0006371029    1.586    0.370
       168 -10.9943    169.4682     42.8898   6.6684118392e+01   3.7694647427e+01    0.2846735    0.2168565  58.95 0.0008870574    1.322    0.244
       169 -13.2866     75.8841     37.4168   8.8499608675e+01   5.9665797381e+01    0.3336253    0.2977585  20.62  0.000815539    1.207    0.172
       170 -12.7723     70.5595     36.6089   9.0043204219e+01   6.0691388001e+01    0.3816209    0.3155012 -12.65 0.0009442381    1.245    0.197
       171 -12.8604     41.7009    201.0046   1.2718851201e+02   3.0007325268e+01    0.2232779    0.1657104 -88.63  0.001217307    1.254    0.202
       172 -12.3214    245.8933     30.4063   5.2660171738e+01   1.9771423401e+01    0.3671764    0.2576117 -25.96 0.0007468638    1.320    0.242
       173 -12.7394    105.4227     34.9112   7.8230713274e+01   5.4426917898e+01    0.6029292    0.3172685 -28.27  0.002580026    1.909    0.476
       174 -11.1823     91.0953     34.5201   8.2319535620e+01   5.7409453070e+01     0.199132    0.1384624  46.40 0.0005959178    1.551    0.355
       175 -13.1943     40.3316    195.0705   1.2704078113e+02   3.1215928778e+01    0.4304051    0.2826734  73.36  0.002556544    1.167    0.143
       176 -11.0234     89.1417     30.1236   8.1089308371e+01   5.8511984748e+01    0.2069985    0.1734156  -3.68 0.0002817362    1.202    0.168
       177 -12.2426     97.7302     26.9342   7.7108209894e+01   5.7287552151e+01     0.319263    0.2638689  65.88  0.001432442    1.466    0.318
       178 -11.3480     65.0632     24.7805   8.7036576107e+01   6.3652964505e+01    0.3021749    0.2081171  -5.78  0.001596658    1.765    0.434
       179 -11.3095     74.7482     23.4150   8.2906908669e+01   6.2250705491e+01    0.3415922    0.1292833  46.73   0.00137817    2.908    0.656
       180 -11.1569     78.1387     20.7393   8.0507943845e+01   6.2058572999e+01    0.2267051    0.1778623 -25.84 0.0006168087    1.141    0.124
       181 -11.0049    213.1064    200.7013   9.6622273459e+01   4.0702598871e+00     0.231645    0.1900931  78.09  0.001485318    1.988    0.497
       182 -12.9329    164.3349    194.6333   1.0409699238e+02   1.3196367465e+01    0.5589494    0.3439737 -62.23  0.003041639    2.355    0.575
       183 -12.5191    201.1703    191.9874   9.7206417931e+01   7.1670919838e+00    0.3097942    0.2647429  10.40  0.002102952    1.168    0.144
       184 -10.8980    107.3627    192.9951   1.1443022917e+02   2.2788756303e+01     0.161774    0.1406035  84.08  0.001153777    1.154    0.134
       185 -11.6313     70.7698     16.7433   8.1180980473e+01   6.3979941348e+01    0.2394635    0.2041114 -18.66  0.000458483    1.026    0.026
       186 -10.4535     81.2432    193.3882   1.1938346322e+02   2.6487075433e+01    0.1693905   0.08395415  51.08 0.0009591966    1.668    0.400
       187 -13.2067     98.3236    187.3525   1.1549704676e+02   2.5136816891e+01    0.4511781     0.382338 -80.36  0.003201173    1.238    0.192
       188 -12.2473     88.9973    170.1773   1.1530168447e+02   2.9707854679e+01    0.2763694    0.2154475  16.99   0.00165331    2.020    0.505
       189 -13.1313     84.8995    180.1044   1.1729251413e+02   2.8408056626e+01    0.5668648    0.3045629  83.80  0.002867613    2.400    0.583
       190 -11.7981    109.4696    183.5071   1.1287461384e+02   2.4128636253e+01    0.2787083    0.1868249  34.96  0.001635348    1.661    0.398
       191 -12.4719     48.7369    180.8343   1.2442635694e+02   3.2905827961e+01    0.4737721    0.2477495 -66.95  0.002909035    1.881    0.468
       192 -12.1725    198.7597    182.5118   9.6026694347e+01   8.8383342073e+00    0.2483898    0.2126051  27.05  0.001477914    1.034    0.033
       193 -11.5413    123.0096    182.5029   1.1010803741e+02   2.2139899848e+01    0.3024629    0.1558217  73.41    0.0011566    3.975    0.748
