#   1 NUMBER                 Running object number                                     
#   2 MAG_AUTO               Kron-like elliptical aperture magnitude                    [mag]
#   3 X_IMAGE                Object position along x                                    [pixel]
#   4 Y_IMAGE                Object position along y                                    [pixel]
#   5 X_WORLD                Barycenter position along world x axis                     [deg]
#   6 Y_WORLD                Barycenter position along world y axis                     [deg]
#   7 A_WORLD                Profile RMS along major axis (world units)                 [deg]
#   8 B_WORLD                Profile RMS along minor axis (world units)                 [deg]
#   9 THETA_WORLD            Position angle (CCW/world-x)                               [deg]
#  10 FWHM_WORLD             FWHM assuming a gaussian core                              [deg]
#  11 ELONGATION             A_IMAGE/B_IMAGE                                           
#  12 ELLIPTICITY            1 - B_IMAGE/A_IMAGE                                       
         1 -10.3427    178.0033     29.5968   7.6270936956e+01   3.7164072564e+01    0.8391579    0.4025406 -34.79   0.00325855    1.944    0.485
         2 -12.3572    237.1791      5.9798   6.3507135706e+01   2.5482406392e+01      1.31248      1.06547  63.96  0.008409732    1.370    0.270
         3 -11.0938    225.9405     16.9891   6.7240100615e+01   2.6970634318e+01    0.7425879    0.5039925 -66.91   0.00405859    1.626    0.385
         4  -8.2582    120.0521      9.6045   7.8534067831e+01   5.4142921563e+01    0.2763854    0.2095471  -4.30  0.001046356    1.342    0.255
         5  -7.5704    172.6276      3.3206   6.8158180848e+01   4.1101037464e+01     0.154076    0.0945007 -57.19 0.0007032527    1.804    0.446
         6  -7.0064    109.3285      3.3336   7.7921410260e+01   5.7436653707e+01    0.1575537   0.09507291  30.38 0.0007051863    1.720    0.419
         7  -9.1669    235.4588    239.8820   1.1407586140e+02  -3.4260448729e-01    0.2171888   0.09491944  22.94  0.001212575    1.913    0.477
         8  -9.1703    249.9947    248.1606   1.1303363012e+02  -2.7092137765e+00    0.3027298    0.1128642 -21.27  0.001809937    2.894    0.654
         9 -10.1633    235.2276    246.7580   1.1504662715e+02  -9.0818997897e-01    0.2495712   0.09714511  33.14  0.001530474    1.933    0.483
        10  -7.5647     94.4836    239.4928   1.3807721698e+02   1.7326786979e+01    0.1035611    0.0796304  40.47 0.0002259614    1.044    0.042
        11  -8.8478    236.4585    235.1719   1.1326406838e+02  -4.6154891533e-02    0.1703441   0.09755998  31.51  0.001205448    1.437    0.304
        12  -7.8431      4.2888    233.9168   1.5360006196e+02   2.7077659799e+01    0.1259874   0.09236595  66.97 0.0005324668    1.129    0.114
        13  -7.8267    136.0042    229.6993   1.2961088269e+02   1.3540492032e+01    0.1546476    0.1122286  33.38 0.0005560725    1.067    0.063
        14  -8.5341    250.2149    224.2050   1.0957334766e+02  -7.2868884032e-01    0.1309696    0.1222217  31.76   0.00105804    2.112    0.527
        15  -7.4549    141.3751    224.2302   1.2800893830e+02   1.3569098443e+01    0.1254791    0.1070971 -74.61 0.0005034647    1.669    0.401
        16  -9.0166     47.1926    223.1730   1.4560498788e+02   2.4960909656e+01    0.1938426    0.1320229  59.00 0.0003505463    1.192    0.161
        17 -11.4822     34.3919    212.5499   1.4743729329e+02   2.7961926825e+01     1.257311    0.4555008  50.74  0.004971282    2.138    0.532
        18  -8.6559     65.3120    199.5476   1.4045547299e+02   2.7052714814e+01     0.185965    0.1447667 -87.88 0.0007274226    1.340    0.254
        19 -11.0047     56.0158    195.1768   1.4203268949e+02   2.8857214544e+01    0.4998444    0.3808415 -51.56  0.003535373    1.650    0.394
        20 -10.9341     51.3311    190.0448   1.4262519605e+02   3.0298026498e+01    0.4526453    0.3043372  38.18  0.002676329    1.337    0.252
        21  -9.3468    189.5181    189.8522   1.1420831580e+02   1.1293128439e+01    0.2125774    0.1846814  14.27 0.0003916786    1.146    0.127
        22  -7.0605    189.7810    175.0213   1.1160682654e+02   1.3262177711e+01    0.1419087   0.09740674 -29.86 -0.000430966    1.523    0.343
        23  -7.3596     64.5507    158.5491   1.3665910171e+02   3.5052059614e+01      0.11971    0.1088649  68.18 0.0008062544    1.028    0.027
        24  -7.5336     17.2691    151.2171   1.4761071833e+02   4.1232570510e+01    0.1543285    0.1053227  64.21 0.0004524724    1.270    0.213
        25  -7.2894     19.0050    145.2155   1.4677589238e+02   4.2386248509e+01    0.1368181   0.08947105  29.90  0.000648822    1.630    0.387
        26  -9.2903    133.8564    137.1290   1.1612063542e+02   2.9111457371e+01    0.2238788     0.203399   6.83            0    1.101    0.092
        27  -8.5918      1.7958    136.6173   1.5061208582e+02   4.5456920662e+01    0.2212116    0.0715643 -77.75  0.001030398    2.547    0.607
        28  -8.2045    198.3448    125.9018   9.9942777648e+01   1.8920200945e+01    0.1956002    0.1779933  19.99 0.0002239639    1.142    0.125
        29  -7.3311    202.2749    125.6686   9.9171373232e+01   1.8209530121e+01    0.1261224    0.1071619 -54.35 0.0003500913    1.596    0.373
        30  -8.4021    130.9534    122.0026   1.1356978032e+02   3.2582886909e+01    0.2036607    0.1920028  14.05            0    1.026    0.026
        31 -10.1585    244.1116    116.8077   9.0361549019e+01   1.1766920349e+01    0.2454834     0.201902  16.23 0.0004224393    1.168    0.144
        32  -6.9378     54.6813    110.7342   1.3278023018e+02   4.6873119945e+01    0.1270768   0.09738628 -31.94 0.0001468014    1.554    0.357
        33  -7.8732     32.5176    107.4771   1.3924499046e+02   4.9884929348e+01    0.1268571    0.1098873 -85.16 9.166103e-05    1.021    0.021
        34  -8.5842    189.9437    103.2816   9.6005753718e+01   2.4046136389e+01    0.1999432    0.1975813 -27.63 0.0005378281    1.210    0.174
        35  -7.7494    194.5229     98.2288   9.3857473322e+01   2.3862406094e+01    0.1984859    0.1296275 -15.02  0.000495323    1.597    0.374
        36  -8.1325    246.9365     97.4631   8.5514513069e+01   1.3623130678e+01    0.1752943    0.1280943  48.78  0.001026515    1.587    0.370
        37  -7.6111    145.9760     95.9990   1.0336496984e+02   3.4607929072e+01    0.1767589    0.1664303  -5.46            0    1.005    0.005
        38  -8.6561    153.4991     87.8891   9.9335583605e+01   3.4453034674e+01     0.442893    0.2564038 -13.96  0.001677379    2.525    0.604
        39  -8.3408    163.4919     78.4496   9.4392513152e+01   3.3823264246e+01    0.2548875    0.1426898 -20.02  0.001011041    2.080    0.519
        40  -8.8287    146.5577     75.9201   9.7366335259e+01   3.8108728598e+01     0.370378     0.295519 -84.68 0.0009305137    1.773    0.436
        41  -7.5933    213.9626     76.7466   8.4962694912e+01   2.2783742712e+01    0.1612956    0.1198585  50.01 0.0003092147    1.452    0.312
        42 -10.4212    166.6473     73.3799   9.2223380826e+01   3.3918210184e+01    0.5825348    0.5168524  54.03  0.003131759    1.215    0.177
        43  -7.6545     19.5667     70.4469   1.3819472224e+02   5.9801144125e+01    0.1285173     0.105427 -63.06 0.0001544478    1.036    0.034
        44  -9.9346    163.4804     63.1921   8.9705373821e+01   3.6256378451e+01    0.4184431    0.3052946  -9.33  0.001568896    1.488    0.328
        45  -9.9792    158.9700     59.9771   8.9582654527e+01   3.7827972322e+01    0.4502682    0.2726362 -39.82 0.0008451933    1.645    0.392
        46 -10.9871    183.3425     58.5516   8.4618532114e+01   3.2195535172e+01    0.6082351    0.5408864 -12.88  0.002049964    1.062    0.058
        47 -11.0180    176.7506     54.6152   8.4525481174e+01   3.4320050318e+01    0.6247566    0.5110864   6.35  0.003245824    1.284    0.221
        48  -8.8498    196.2984     55.3969   8.1616655403e+01   2.9561548311e+01    0.2520028    0.2312885 -10.37  0.000419167    1.020    0.020
        49  -8.2538    190.4483     51.8008   8.1428913963e+01   3.1408848565e+01    0.2663422     0.128275 -30.64 0.0007368942    1.891    0.471
        50  -6.9301     45.6838     65.6968   1.2649033944e+02   5.8578040885e+01    0.1398211   0.09361001 -32.37  0.000376552    1.621    0.383
        51  -8.3027    136.2017     45.9826   8.9686152290e+01   4.5475019107e+01    0.2221078    0.2038487  -2.40 0.0004791115    1.051    0.049
        52  -9.7854    184.0204     40.1600   7.8798752086e+01   3.4429637828e+01    0.3343905    0.2729142 -13.52 0.0004834455    1.201    0.167
        53  -9.9216    185.9069     35.6933   7.7116686283e+01   3.4498719668e+01    0.3113315    0.2597026  13.29 0.0005454892    1.266    0.210
        54  -9.4092    250.5027     40.7699   7.1269706657e+01   1.9394937535e+01    0.2218905    0.1358555 -22.50 0.0002505635    1.404    0.288
        55  -9.5988    203.6749     38.3074   7.5566244565e+01   2.9908899212e+01    0.2678114    0.2376802  -5.89 0.0004664514    1.107    0.096
        56  -9.0201    176.3066     33.3273   7.7742824483e+01   3.7160562675e+01    0.3186264    0.2043089 -17.51  0.001208217    1.571    0.363
        57  -9.9625    245.7364    245.4950   1.1329870597e+02  -2.0137602068e+00    0.2301249    0.1134436 -11.48  0.001541972    2.074    0.518
        58  -8.7953    203.8098     23.5221   7.1183621774e+01   3.1467983196e+01    0.5430391    0.2560227 -57.78  0.002124094    2.792    0.642
        59  -9.3424    195.0513     31.2799   7.4534097401e+01   3.2761763411e+01    0.5273784    0.2756807 -66.56  0.002009541    2.968    0.663
        60  -9.7104    212.1118     30.2548   7.2250568045e+01   2.8813974317e+01     0.298291    0.2419695  19.19 0.0006415791    1.352    0.260
        61  -7.6935     39.6645    247.3411   1.4811702000e+02   2.1982016484e+01    0.1055048   0.04710703  55.61 0.0001665615    1.759    0.431
        62  -9.3046     69.4981    244.2325   1.4283794060e+02   1.9436483255e+01    0.1755877    0.1343097  39.69 0.0002707418    1.143    0.125
        63  -7.5251    155.7080     16.9684   7.5180068162e+01   4.4221736558e+01     0.200808    0.1741086 -17.29 0.0003381256    1.145    0.127
        64  -8.1349    163.8046     22.3217   7.5873960637e+01   4.1573163079e+01    0.3610522    0.2108991  15.05 0.0008174893    2.266    0.559
        65 -10.3252    145.2016     21.9573   7.8789869321e+01   4.6398082183e+01    0.2577477    0.2347856  -6.55 0.0002400503    1.081    0.075
        66  -8.4833     37.0205    243.3835   1.4839512560e+02   2.2811283439e+01     0.157514   0.09266087 -57.12  0.001158586    2.374    0.579
        67  -9.1248    226.5174    241.4771   1.1567347896e+02   5.8574017043e-01    0.1842711   0.09162053 -27.99  0.001230783    2.242    0.554
