#   1 NUMBER                 Running object number                                     
#   2 MAG_AUTO               Kron-like elliptical aperture magnitude                    [mag]
#   3 X_IMAGE                Object position along x                                    [pixel]
#   4 Y_IMAGE                Object position along y                                    [pixel]
#   5 X_WORLD                Barycenter position along world x axis                     [deg]
#   6 Y_WORLD                Barycenter position along world y axis                     [deg]
#   7 A_WORLD                Profile RMS along major axis (world units)                 [deg]
#   8 B_WORLD                Profile RMS along minor axis (world units)                 [deg]
#   9 THETA_WORLD            Position angle (CCW/world-x)                               [deg]
#  10 FWHM_WORLD             FWHM assuming a gaussian core                              [deg]
#  11 ELONGATION             A_IMAGE/B_IMAGE                                           
#  12 ELLIPTICITY            1 - B_IMAGE/A_IMAGE                                       
         1 -11.9092    182.0534     36.8325   6.4707089364e+01   3.5093626984e+01    0.9522199    0.5757017   4.67  0.003768248    2.300    0.565
         2 -12.3748    190.9633     29.8069   6.1029269351e+01   3.3621768886e+01     1.025904    0.8857173  20.52   0.00401937    1.218    0.179
         3 -12.3621    201.2958     16.5925   5.5437647615e+01   3.2374074098e+01     1.059531    0.7772691  19.04  0.004212909    1.572    0.364
         4 -10.3455     41.1627     17.1199   9.6446800929e+01   6.7590198499e+01    0.1981655     0.141875 -26.10  0.000966842    1.258    0.205
         5  -9.2978     59.6016      3.6148   8.2108103901e+01   6.7180775991e+01    0.2587425    0.1027815 -21.75 0.0009587191    3.397    0.706
         6  -9.9117    193.6211    238.2651   1.0656138292e+02   3.7347824907e+00    0.2383757    0.1328121 -37.31  0.001589721    2.416    0.586
         7 -11.8685    139.7321    248.8926   1.1611039694e+02   1.0502794841e+01    0.4566382    0.3120362  48.52  0.003575129    1.041    0.039
         8 -11.8378    121.8972    248.5013   1.1882801118e+02   1.3041856783e+01     0.615299    0.3206782  32.53  0.003780634    2.306    0.566
         9 -10.0650     98.6540    250.3120   1.2252423165e+02   1.5913947940e+01      0.36388    0.1006472  42.94  0.001904334    2.626    0.619
        10 -10.5759     95.1563    248.1641   1.2289963462e+02   1.6646442692e+01    0.2472638    0.1855068 -81.30  0.001793735    1.559    0.358
        11 -18.6902      6.7269    132.9518   1.3054541021e+02   4.6228589637e+01     15.59479     2.024279 -77.86   0.04715766    7.036    0.858
        12 -11.7247    114.5027    228.7525   1.1825323363e+02   1.6677237264e+01    0.4607517    0.2969923 -87.09  0.003182754    1.969    0.492
        13 -10.4190    143.2647    228.6313   1.1351866734e+02   1.2497704111e+01    0.2532412    0.1698452  11.10  0.001456518    2.941    0.660
        14  -8.9187    199.5086    200.4548   1.0040418026e+02   6.9972719738e+00    0.1198716   0.09469526  34.52 0.0001968447    1.008    0.008
        15 -10.1015     70.9099    193.0837   1.2256660361e+02   2.8162945701e+01     0.270971    0.2236112 -23.06   0.00187271    2.285    0.562
        16 -10.5820     75.7973    183.5326   1.2077480985e+02   2.9216036067e+01    0.3230717    0.2452654 -43.94  0.001772877    1.980    0.495
        17 -10.1979     79.6772    177.7783   1.1944561333e+02   2.9741747693e+01    0.2440726    0.2098135 -48.51  0.001067473    1.602    0.376
        18  -8.1970    198.6688    178.3425   9.6945103049e+01   9.9334468213e+00    0.1187951   0.09779087  77.19 0.0007051073    1.751    0.429
        19  -9.7407     72.7243    237.5487   1.2561504302e+02   2.0916234925e+01    0.1815439   0.07855861  40.02  0.001131081    2.053    0.513
        20 -10.2821     87.4780    167.3555   1.1671770558e+02   3.0596701938e+01    0.2842043    0.2158197 -80.76 0.0006873735    1.279    0.218
        21  -9.8076     82.9726    162.2186   1.1702104589e+02   3.2203306886e+01    0.2837513    0.1731507 -89.41  0.001596692    1.818    0.450
        22 -11.8111     75.6353    163.6802   1.1871033556e+02   3.2919288476e+01    0.4237707    0.2832408 -47.20  0.001258991    2.001    0.500
        23 -12.6567     68.4188    145.0860   1.1802284286e+02   3.7540410698e+01     1.149957    0.5614554  82.45  0.004930519    3.201    0.688
        24 -10.8500     40.5120    146.4851   1.2431205876e+02   4.0489209621e+01     0.241404    0.1498557  88.32  0.001399229    1.413    0.292
        25 -11.0551     39.8164    143.3942   1.2416246262e+02   4.1187936875e+01    0.2247192    0.2186528 -73.56  0.001478541    1.400    0.286
        26  -9.5694    105.3716    143.8347   1.0960268340e+02   3.2434568199e+01    0.3613743    0.2038572 -37.16  0.001637364    2.759    0.638
        27 -10.6284     93.6028    143.9221   1.1223732959e+02   3.4256443180e+01    0.2356525    0.2283333 -60.60 0.0004948113    1.255    0.203
        28 -10.0084    102.3316    235.2116   1.2078466630e+02   1.7455837797e+01    0.2116039    0.1404074  77.29  0.001151207    1.562    0.360
        29 -10.5298     93.1852    160.4355   1.1466583431e+02   3.1084371801e+01    0.3902342    0.3092962 -25.19  0.001399144    2.047    0.511
        30  -8.9759     88.4924    235.4887   1.2300445457e+02   1.9238564403e+01    0.1018292   0.07409149  57.47 -2.682895e-05    1.041    0.039
        31  -9.2785    113.9970    132.5331   1.0570270911e+02   3.3240805703e+01    0.2409975    0.1886521 -37.53  0.001353343    1.534    0.348
        32  -9.9540     66.5231    233.1674   1.2629766496e+02   2.2296770275e+01    0.2134544   0.08104193  53.29  0.000983426    1.934    0.483
        33 -12.1717     98.6827    227.1182   1.2070040861e+02   1.9094262606e+01      0.72937    0.2834701  42.91  0.004148751    2.026    0.506
        34 -11.8443    126.1241    229.8909   1.1645829570e+02   1.4859998807e+01    0.4278427    0.2540582  50.25  0.002936994    1.266    0.210
        35  -9.3097    101.3544    129.2429   1.0803954905e+02   3.6023044308e+01     0.226602     0.207177 -37.63 0.0007941999    1.310    0.237
        36  -8.2122    109.4388    120.7679   1.0451846093e+02   3.6410865085e+01    0.1724218    0.1252045 -44.16 0.0004359866    1.490    0.329
        37  -8.0926    167.6698    112.3337   8.9417486445e+01   2.6486164337e+01    0.1477789    0.1162774 -83.37 0.0007052086    1.725    0.420
        38 -10.8316    119.3506    228.2117   1.1740699162e+02   1.6063909559e+01    0.3105246    0.2323202 -51.68  0.002360258    1.820    0.451
        39  -9.0687     83.4180     72.7993   1.0031489804e+02   5.0841498008e+01    0.2011225    0.1162775 -42.00 0.0009507341    1.689    0.408
        40 -11.2866    163.2274    245.6069   1.1213898920e+02   7.4855522391e+00    0.3651912    0.2801287 -27.61  0.002888576    1.905    0.475
        41 -10.2772    114.3136    249.8260   1.2010239667e+02   1.3907702946e+01    0.2768696    0.1368981  49.04  0.001809653    1.428    0.300
        42 -10.5212    132.6390    246.9343   1.1702824002e+02   1.1740658942e+01    0.2770535    0.1344589  52.98  0.001785394    1.646    0.393
        43  -9.8639     88.0447    241.7034   1.2352742317e+02   1.8427855157e+01    0.1579853    0.1065427  72.97 0.0005411425    1.344    0.256
