#   1 NUMBER                 Running object number                                     
#   2 MAG_AUTO               Kron-like elliptical aperture magnitude                    [mag]
#   3 X_IMAGE                Object position along x                                    [pixel]
#   4 Y_IMAGE                Object position along y                                    [pixel]
#   5 X_WORLD                Barycenter position along world x axis                     [deg]
#   6 Y_WORLD                Barycenter position along world y axis                     [deg]
#   7 A_WORLD                Profile RMS along major axis (world units)                 [deg]
#   8 B_WORLD                Profile RMS along minor axis (world units)                 [deg]
#   9 THETA_WORLD            Position angle (CCW/world-x)                               [deg]
#  10 FWHM_WORLD             FWHM assuming a gaussian core                              [deg]
#  11 ELONGATION             A_IMAGE/B_IMAGE                                           
#  12 ELLIPTICITY            1 - B_IMAGE/A_IMAGE                                       
         1 -13.1072    208.9803     50.4846   1.9447422438e+01   2.6393077065e+01    0.9639696    0.8723742 -10.11  0.003379837    1.187    0.158
         2 -13.2524    221.2793     41.4863   1.5974915886e+01   2.4804993018e+01    0.8291623    0.6880026  29.81  0.002241472    1.451    0.311
         3 -11.9819    247.0002     20.1879   9.1790868490e+00   2.1862397760e+01    0.6825765    0.3523914 -46.00  0.004009098    1.609    0.378
         4 -10.9660    248.9964     14.2730   7.8089841101e+00   2.2037938691e+01    0.3605121    0.2303518 -40.85  0.001994466    1.274    0.215
         5  -9.9263      2.8403     10.8805   7.8098726316e+01   7.6135709307e+01    0.2055446    0.1375749 -34.38  0.001232474    1.286    0.222
         6  -9.6153    158.1445      8.8435   1.3710783635e+01   4.3160976541e+01    0.2135884    0.1712226 -68.52 0.0005595129    1.217    0.178
         7  -9.1061     60.6747      2.6959   3.2880945194e+01   6.8906219401e+01     0.145229   0.09184005  28.30 0.0006590003    1.643    0.391
         8 -12.7305    133.4797    228.9720   6.9870128663e+01   1.2907229548e+01    0.8079944    0.3671789  39.78  0.004237246    1.826    0.452
         9  -9.7244     75.5048    247.4816   8.3923367869e+01   1.7318351983e+01    0.2184564    0.1988817 -47.84  0.001753296    1.513    0.339
        10 -11.9437     71.7573    242.2051   8.4346367911e+01   1.8565860363e+01    0.5543243    0.3413387  68.21  0.003522978    1.973    0.493
        11 -12.6447     64.6783    162.4896   7.8843729795e+01   3.4552573757e+01     1.183951    0.7360443   2.04  0.005438206    2.330    0.571
        12 -15.1840     67.1625    146.8833   7.6086264788e+01   3.7729121553e+01     13.45293     5.720795  65.92   0.03361135    7.230    0.862
        13 -13.9975      4.8187    178.1319   9.6544017610e+01   3.7003626675e+01     1.590525    0.6316351  84.44  0.001237866    2.556    0.609
        14 -12.1387    126.3059    229.0109   7.1397590245e+01   1.3857345445e+01    0.4469723    0.3390265  36.29   0.00275348    1.169    0.144
        15  -9.3014    167.2437    224.9942   6.2450616396e+01   8.9158422407e+00    0.1326369   0.09750375 -30.81  0.000888133    1.613    0.380
        16 -11.1403    148.2869    228.9581   6.6786557460e+01   1.0926202602e+01    0.2825442    0.2131282 -45.74  0.001923736    1.787    0.440
        17  -9.0028    142.3616    216.4256   6.6422952131e+01   1.3544025996e+01    0.1619446    0.1200463 -45.22 0.0007814739    1.731    0.422
        18 -12.3098    116.4924    194.9401   6.9401024976e+01   2.0781916037e+01    0.6147639    0.3610361  12.92  0.002936719    2.122    0.529
        19 -13.5127     44.2771    177.3984   8.6046118477e+01   3.3687149429e+01     1.665867    0.9541296  71.29  0.008661426    1.938    0.484
        20 -13.1807      1.9059    248.7585   9.8952574613e+01   2.4231405600e+01    0.2910454    0.2271689  73.13 0.0007040232    1.347    0.258
        21 -10.1811    191.3334    191.9047   5.2769721758e+01   9.9591195050e+00    0.3943427    0.2501898 -61.43  0.001691098    4.578    0.782
        22  -9.7855    133.4753    191.0494   6.4857883875e+01   1.8901408087e+01    0.1706364    0.1320257 -42.92 0.0005749734    1.544    0.352
        23 -10.8818     81.7895    196.0057   7.8028634699e+01   2.5432750265e+01    0.5015053    0.3740898 -42.99  0.003016284    1.674    0.403
        24  -9.1434    162.4951    190.4672   5.8331019006e+01   1.4514150629e+01    0.1307317     0.105214  21.07 -2.24536e-05    1.020    0.020
        25 -10.3890     76.9083    183.8070   7.7945761886e+01   2.8468849531e+01    0.4771743    0.2590425  69.03  0.002108034    2.731    0.634
        26  -8.6355    129.2964    180.6640   6.4261040898e+01   2.1364650141e+01    0.1311017   0.09911301  58.57 0.0007030219    1.650    0.394
        27 -10.7780     99.0354    180.9553   7.1836954398e+01   2.5955284628e+01    0.2923814     0.242982  34.13 0.0006629305    1.007    0.007
        28  -9.9560    126.4047    177.1917   6.4414013638e+01   2.2452676004e+01    0.1683873    0.1354279 -69.44 0.0009486753    1.689    0.408
        29 -11.0691    180.8785    173.9244   5.1718483794e+01   1.4115002292e+01    0.4362867     0.305952  16.88   0.00252559    1.303    0.232
        30 -10.5275    102.6035    170.9410   6.9490248626e+01   2.7396818981e+01    0.4534239    0.2295315  45.60  0.002037256    1.879    0.468
        31 -10.6950    230.9057    170.3816   4.2107881686e+01   7.0043944540e+00    0.2359641    0.1241704  24.68  0.001307952    1.870    0.465
        32 -10.9728    247.0476    164.1284   3.8532794095e+01   5.5191114647e+00    0.3331316    0.1917208 -18.92  0.001134614    1.529    0.346
        33 -10.7812    245.5201    158.6774   3.7772191525e+01   6.3561061007e+00    0.3150748     0.187141 -38.51   0.00108593    1.897    0.473
        34  -8.7368     70.5119    173.5055   7.8492179073e+01   3.1429742726e+01    0.1351661    0.1144581  41.78 7.050398e-05    1.013    0.013
        35  -9.7297     54.0556    160.0409   8.1652531863e+01   3.6391932395e+01    0.3143412    0.1832161  88.88  0.001511485    2.102    0.524
        36  -9.3744     49.8555    157.6099   8.2630902564e+01   3.7420378111e+01    0.3191313    0.1940089  50.69  0.001243215    1.537    0.349
        37  -9.0399    110.6311    167.0505   6.6785015072e+01   2.6910512296e+01     0.176702    0.1756587  29.02  0.000481455    1.167    0.143
        38 -10.5269    134.4068    147.9259   5.7264495000e+01   2.6562298866e+01    0.7209588    0.2435448 -51.21  0.002434561    3.735    0.732
        39 -10.9150     81.7774    148.9352   7.1972377212e+01   3.5203181288e+01    0.4606793    0.2936514  26.87 0.0005632688    1.502    0.334
        40 -11.5037     83.9818    143.3607   7.0419185956e+01   3.6112749333e+01    0.5910581    0.3899686  73.72 0.0007962396    2.108    0.526
        41  -9.0790     44.8132    149.4063   8.3289416033e+01   3.9851048482e+01    0.2013328    0.1564168 -68.16 0.0008265541    1.362    0.266
        42 -10.8757     22.7690    147.4615   8.9905950018e+01   4.2398577323e+01    0.3715979    0.2587596  28.57  0.001181532    1.363    0.266
        43 -15.1104     12.7601    245.3101   9.6746422869e+01   2.3900524282e+01     1.197743     0.702484  33.30  0.004545903    1.289    0.224
        44  -9.9553     29.4101    142.7598   8.7456119143e+01   4.2923600387e+01    0.3445878    0.1843921  36.96  0.001144592    1.652    0.395
        45 -10.5333     98.9420    135.2764   6.4490024709e+01   3.5475470188e+01    0.5294458    0.3368864  -1.77   0.00209144    2.705    0.630
        46 -11.4591     85.6085    134.0589   6.8311597431e+01   3.7950049889e+01    0.2803367    0.2710834  13.49 0.0004350381    1.086    0.079
        47 -10.2671     18.6352    134.0605   9.0206026300e+01   4.5867559839e+01     0.250924     0.193937  47.53  0.001110914    1.192    0.161
        48  -9.4125    109.0293    127.4883   5.9951576862e+01   3.5362809482e+01    0.2806199     0.224623  -2.64 0.0007824082    1.497    0.332
        49  -9.8700    105.2325    130.4389   6.1674733641e+01   3.5421387773e+01    0.3212049    0.3115331  63.03  0.001447342    1.113    0.102
        50 -15.8821     31.4411    184.9452   8.9991673497e+01   3.3383075851e+01     8.736976     3.059562  67.61    0.0234096    3.930    0.746
        51 -14.8083     10.1414    206.4191   9.6188221676e+01   3.0961498239e+01     1.059356    0.7596666  25.21  0.005724502    1.346    0.257
        52 -10.8912     95.8573    123.0807   6.2980729156e+01   3.8697629433e+01    0.3344245     0.272544  -2.12 0.0006449236    1.454    0.312
        53  -9.4985    136.0000    129.4844   5.3031026001e+01   2.9801209805e+01    0.3071093   0.08500893 -45.11  0.000933648    3.926    0.745
        54  -9.2361    135.0000    120.0423   5.1148566718e+01   3.1826421377e+01    0.2337783   0.08595972 -44.06 0.0008002987    2.928    0.658
        55 -10.6693     32.8512    118.2480   8.3742119627e+01   4.8500490632e+01     0.365505    0.2298797  18.89  0.001852915    1.647    0.393
        56  -8.9040    106.1219    116.8975   5.8485017539e+01   3.8175866768e+01    0.2132166     0.189464  53.44 0.0002894395    1.148    0.129
        57  -8.2975    183.4971    116.4823   3.9478006702e+01   2.2554050139e+01    0.1400348    0.1240939   9.70 0.0008095062    1.068    0.063
        58  -9.7387    205.5268    110.3213   3.4183233393e+01   1.9175388016e+01    0.2616622    0.2063411  27.36  0.000878125    1.277    0.217
        59  -9.2856    244.3173    109.3243   2.8385148609e+01   1.2447948962e+01    0.1208427   0.08249395   6.17 0.0004523153    1.670    0.401
        60  -9.6361     76.5237    230.8511   8.2468080704e+01   1.9860529469e+01    0.2161044    0.1662243   9.78   0.00140985    1.466    0.318
        61  -9.9072     24.2673    104.4411   8.5287158491e+01   5.2643863139e+01    0.3306381    0.2296207 -79.43  0.001788455    1.417    0.294
        62  -9.2338     65.3010    104.5631   6.9461700425e+01   4.7966610765e+01    0.2991851    0.1262533  36.07  0.001148661    2.176    0.540
        63 -11.0182    128.6136     99.7208   4.7794085109e+01   3.7120236018e+01    0.5110478    0.3610195 -52.05  0.002390833    1.609    0.379
        64 -14.6820      4.6918    237.3450   9.8177236656e+01   2.5875843945e+01     0.560697    0.5384222 -23.56  0.002898293    1.505    0.336
        65 -10.9261     53.9512     94.9145   7.1811325555e+01   5.1877224413e+01    0.4127832    0.3094434  80.66  0.002064455    1.620    0.383
        66 -10.2149    245.1245     94.6432   2.5255312711e+01   1.4081173229e+01    0.2121073    0.1172756  66.50  0.001106774    2.619    0.618
        67 -10.6444     46.6301     91.5313   7.4101758012e+01   5.3624729750e+01    0.3101223    0.2281895  47.94 0.0005850299    1.404    0.288
        68 -16.1375      8.9718    227.2058   9.7050240228e+01   2.7266464288e+01      4.52906      1.40838  19.46   0.01572326    3.564    0.719
        69  -8.8903     29.6673     70.6920   7.7406509625e+01   6.0524946175e+01    0.1452798   0.09442662 -31.39 0.0007041044    1.669    0.401
        70  -9.1228     83.2902     67.3486   5.2649779049e+01   5.3296467384e+01      0.15353    0.1174757  -4.04  0.000702668    1.665    0.399
        71 -12.5407    198.8280     57.3831   2.2432290339e+01   2.7780996957e+01    0.7928964    0.5669412  15.96  0.001300323    1.854    0.461
        72  -8.5717    148.6457    244.2656   6.8545273859e+01   8.8273658465e+00    0.1126556   0.07031431  42.47 0.0003209631    1.626    0.385
        73  -8.9622     83.4071     61.7478   5.0715641396e+01   5.4414714369e+01    0.1982421    0.1437205 -31.78 0.0005356683    1.521    0.342
        74  -9.2907     65.2063     59.1489   5.7256971937e+01   5.8421588615e+01    0.2767377    0.1807719  59.14 0.0009495468    2.046    0.511
        75 -10.1676      2.1247     50.4048   8.8356910437e+01   6.7182022052e+01     0.321496     0.118934 -69.84  0.001399457    2.310    0.567
        76  -9.3543    119.2678    243.6651   7.4441796490e+01   1.2632008752e+01    0.1720949    0.1140248  28.47  0.000390482    1.101    0.092
        77 -14.5969      2.4984    209.8094   9.8014048330e+01   3.0916009432e+01     1.017005    0.3658115  85.52  0.003204702    2.908    0.656
        78  -8.8522     36.9815     36.9930   6.3473301757e+01   6.7465989442e+01    0.1674637    0.1442723  13.70 0.0004421555    1.111    0.100
        79  -9.6037     22.2518     36.4634   7.2462561065e+01   6.9211670320e+01    0.1845383    0.1145167  32.95 0.0009514838    1.683    0.406
        80  -8.5015    165.0341     35.4898   2.1078269786e+01   3.8562991513e+01    0.1998336    0.1318315  65.99 0.0003138535    1.437    0.304
        81  -9.8778    119.1130    240.1177   7.4115556231e+01   1.3160388438e+01    0.1758136     0.166633  40.08  0.000576308    1.347    0.258
        82 -10.1370    111.8202    241.9093   7.5821686953e+01   1.3819249633e+01    0.1920316    0.1617888  29.02 0.0003886891    1.163    0.140
        83  -9.3470     60.4976     21.0346   4.3263344814e+01   6.6458856468e+01     0.253826    0.1758075  30.24 0.0004864631    1.410    0.291
        84  -9.0679    189.5222     15.0176   1.2269491988e+01   3.4706890144e+01    0.1897396    0.1249154 -27.05 0.0007735945    1.559    0.359
        85  -9.4465    103.2174    242.3422   7.7672598327e+01   1.4822834462e+01    0.3917756    0.1226699  36.01  0.001847944    2.188    0.543
        86  -9.0525     90.4183    238.5337   8.0064871505e+01   1.6965362990e+01    0.1824497    0.1170435 -63.89 0.0007015276    2.103    0.525
