#   1 NUMBER                 Running object number                                     
#   2 MAG_AUTO               Kron-like elliptical aperture magnitude                    [mag]
#   3 X_IMAGE                Object position along x                                    [pixel]
#   4 Y_IMAGE                Object position along y                                    [pixel]
#   5 X_WORLD                Barycenter position along world x axis                     [deg]
#   6 Y_WORLD                Barycenter position along world y axis                     [deg]
#   7 A_WORLD                Profile RMS along major axis (world units)                 [deg]
#   8 B_WORLD                Profile RMS along minor axis (world units)                 [deg]
#   9 THETA_WORLD            Position angle (CCW/world-x)                               [deg]
#  10 FWHM_WORLD             FWHM assuming a gaussian core                              [deg]
#  11 ELONGATION             A_IMAGE/B_IMAGE                                           
#  12 ELLIPTICITY            1 - B_IMAGE/A_IMAGE                                       
         1 -10.9662    147.4077     18.7809   6.4425921045e+01   4.5255566525e+01    0.3163107    0.2042051   4.39  0.001362943    2.520    0.603
         2 -11.6827    153.3800     18.7264   6.3490719969e+01   4.3903979026e+01    0.3424049    0.1402136  50.09   0.00154508    2.324    0.570
         3 -11.7365    183.7483     10.2972   5.7528913522e+01   3.7885404263e+01    0.2537311    0.1572507  58.69   0.00149912    1.534    0.348
         4 -10.5860    250.5038      8.5343   5.1360049839e+01   2.4080324063e+01    0.3138281    0.0797088 -41.03  0.001438904    3.276    0.695
         5 -12.9842    123.1185      7.5923   6.5357199976e+01   5.1689538394e+01    0.5006449    0.2643515  47.44   0.00189332    1.659    0.397
         6 -10.4523    216.8859      7.6121   5.3758411751e+01   3.0962452937e+01    0.2051149    0.1383071 -59.35 0.0005476781    1.330    0.248
         7 -12.4470    102.9333      6.0310   6.8790502157e+01   5.6105226773e+01    0.3840786    0.2385548 -10.64 0.0007659133    1.986    0.496
         8 -11.6134    144.0005      6.5061   6.1672896306e+01   4.7166806098e+01    0.3689388    0.2346865 -21.44  0.001976053    2.000    0.500
         9 -11.8060    139.7148      3.4814   6.1496514577e+01   4.8375331585e+01    0.3939337    0.2134445 -49.35  0.002037555    2.224    0.550
        10 -10.3570    222.9141      5.0681   5.2778729789e+01   2.9976581250e+01    0.1760315    0.1271158 -78.62  0.000425624    1.073    0.068
        11 -10.8780    174.5436      5.5745   5.7490052297e+01   4.0400070830e+01    0.2830357    0.1420805 -68.54  0.001384938    2.424    0.587
        12 -10.4515    158.9968      4.0511   5.8995231226e+01   4.4020286374e+01    0.1923287     0.154744  78.46  0.001301667    1.023    0.022
        13 -12.3041    116.1811      2.3492   6.5037592358e+01   5.3602690345e+01    0.4084103    0.1856879  51.43  0.002155714    1.748    0.428
        14 -11.7046     87.5844      3.4215   7.1366082029e+01   5.9397566287e+01    0.2225751    0.1957403  52.41 0.0005893919    1.175    0.149
        15 -11.5804    248.5095      1.7599   5.0345117639e+01   2.5221363923e+01    0.2919986    0.1319808  64.78  0.001291957    2.224    0.550
        16 -10.2580     75.3788      3.2136   7.4397600080e+01   6.1737672110e+01    0.1415873    0.1027408 -29.07 0.0006658502    1.659    0.397
        17  -9.7544    201.0298      1.4459   5.3920503193e+01   3.4972623942e+01    0.1775898   0.09297546  74.58 0.0007906142    1.564    0.360
        18 -11.8959     94.2113      4.5152   7.0197161403e+01   5.8000583970e+01    0.2472823     0.184173 -46.32  0.001610157    1.771    0.435
        19  -9.8151      7.8426    203.1407   1.4163412304e+02   3.0370027715e+01    0.1429108    0.1249127 -75.55 0.0003220007    1.259    0.206
        20 -18.6237     67.8982    232.2656   1.3181156890e+02   1.6541209880e+01      6.47891     5.629678 -52.97   0.02674466    1.414    0.293
        21 -13.6381     79.0934    141.8406   1.1517183844e+02   3.6895210055e+01    0.5935525    0.4635611  59.10  0.002995858    1.437    0.304
        22  -9.2184    227.3013    125.2655   7.6955344218e+01   1.0691934864e+01    0.1280942    0.1096118  -5.48 0.0002452621    1.521    0.343
        23 -11.6063     75.9660    125.2559   1.1248966820e+02   4.1428030740e+01    0.1983378    0.1917562 -34.43 0.0002893891    1.052    0.049
        24 -10.4316    230.0991    123.3156   7.6096841744e+01   1.0516697483e+01     0.344928    0.1861525 -67.53  0.001309489    3.012    0.668
        25 -12.5339     94.6735    143.9441   1.1120737935e+02   3.3806050702e+01    0.3662006    0.2835067  45.08  0.000881373    1.350    0.259
        26 -10.2136    225.2663    133.8294   7.9109056428e+01   9.4466580893e+00    0.2184804    0.1869002  76.76 0.0006470228    1.330    0.248
        27  -9.9029    223.2336    121.7782   7.6868655522e+01   1.2156598008e+01     0.178378    0.1658338  -4.84 0.0005581619    1.311    0.237
        28  -9.3333    228.2292    144.6427   8.0890703093e+01   6.7969035886e+00    0.1408558   0.09885463 -61.64 0.0003496712    1.572    0.364
        29 -10.5200    231.3051    116.6469   7.4503798816e+01   1.1527340504e+01    0.2529833    0.2162086 -40.38 0.0009315527    1.169    0.145
        30 -10.3382    249.2742    122.4676   7.3056229102e+01   7.0923139782e+00    0.2472225     0.154008 -46.11  0.000698671    1.345    0.257
        31 -10.6496    235.2973    105.8592   7.1654931543e+01   1.2712775159e+01    0.3038838    0.2000859  60.63  0.001358922    1.688    0.408
        32 -10.5638    223.2637    103.9420   7.3024023452e+01   1.5476477599e+01     0.196258    0.1652887 -54.99 0.0002861136    1.057    0.054
        33 -10.5864    220.0725     96.9208   7.1988171622e+01   1.7405834492e+01    0.2129381    0.1880705 -62.31 0.0006243603    1.037    0.036
        34  -9.9986    234.2705     95.2309   6.9589881240e+01   1.4795573415e+01    0.1875875     0.136105 -69.26 0.0005497864    1.347    0.258
        35  -9.2496    181.7133     94.7101   7.7930941722e+01   2.6249421818e+01    0.1370595     0.118464  12.00 0.0002031581    1.537    0.349
        36 -10.6726    238.1431     91.4770   6.8295653664e+01   1.4672371307e+01    0.2549253    0.1881486 -54.80  0.000437902    1.154    0.134
        37  -9.9896    208.7935     91.9549   7.2626412497e+01   2.0701180118e+01    0.1922221     0.162314 -60.09 0.0003206264    1.071    0.066
        38 -10.4133    220.0116     90.6576   7.0638445039e+01   1.8525851264e+01    0.1889555    0.1698938  88.40  0.000618115    1.115    0.103
        39 -11.5725    243.1733     81.8223   6.5707187237e+01   1.5298483472e+01    0.2816034    0.2156778  63.13 0.0006103044    1.454    0.312
        40 -10.5682    237.0227     82.4347   6.6593094296e+01   1.6419646175e+01    0.2457851    0.1779646  65.43 0.0003762082    1.473    0.321
        41  -9.7618    250.2889     81.3314   6.4765383158e+01   1.3999252036e+01    0.1130227    0.1008327 -16.77 0.0005037169    1.624    0.384
        42 -11.3323    206.9851     76.0162   6.9321996560e+01   2.3838946762e+01     0.280699    0.1798174 -45.64 0.0009413081    1.479    0.324
        43 -10.9410    236.0047     72.8641   6.4773735225e+01   1.8183666955e+01      0.25034    0.1856414  89.26 0.0004601702    1.316    0.240
        44  -9.5764    209.3194     68.6569   6.7346410002e+01   2.4518078398e+01    0.1462426   0.09254764 -71.64 0.0007049595    1.721    0.419
        45 -11.1454    204.2615     64.4864   6.7125926182e+01   2.6296167629e+01    0.2341097    0.1736552 -47.19 0.0005536823    1.319    0.242
        46  -9.8563    175.6500     63.0721   7.1218382705e+01   3.3056587028e+01    0.1889077    0.1715934 -71.17 0.0004943253    1.075    0.070
        47 -10.1299    215.6904     60.6840   6.4757114822e+01   2.4362833734e+01    0.1190125    0.1050759  30.45 0.0003445389    1.634    0.388
        48 -10.6974    192.4573     59.3055   6.7644903153e+01   2.9755397493e+01    0.2842054    0.2020695 -88.49 0.0007340825    1.442    0.306
        49 -10.5821    246.2292     58.6535   6.0824911888e+01   1.8327224739e+01    0.2581566    0.1847758  80.38  0.001375094    1.356    0.263
        50 -10.3121    241.3504     58.1611   6.1243111745e+01   1.9371783682e+01    0.2825337    0.1511021  65.78  0.001389626    1.901    0.474
        51 -11.2160    204.9855     55.6920   6.5063687441e+01   2.7467089694e+01    0.1892454    0.1563798  82.82 0.0005882638    1.103    0.093
        52 -11.2283    188.7530     52.1174   6.6505660372e+01   3.1659131274e+01    0.3329188    0.2022406 -52.46 0.0007633491    1.635    0.388
        53 -10.9827    208.4881     50.4775   6.3465420698e+01   2.7446485316e+01    0.1313678    0.1112701 -82.08 0.0001228374    1.016    0.016
        54 -10.2247    213.2856     49.6515   6.2696000443e+01   2.6510108886e+01    0.1377627   0.08404586 -68.92 0.0004659541    1.654    0.396
        55  -9.5606     15.5167    175.5297   1.3737638555e+02   3.6193903055e+01    0.1299084     0.103785 -86.02 -4.06973e-05    1.035    0.034
        56 -10.7035    192.9757     42.0279   6.3582953985e+01   3.2091660253e+01    0.2044579    0.1768824 -85.20 0.0006131981    1.034    0.033
        57  -9.7187    172.2979     41.6640   6.6440127819e+01   3.6886959686e+01    0.1376613   0.09267724 -73.12 0.0006450968    1.653    0.395
        58 -10.2239    250.5484    152.9696   7.8959929673e+01   1.3169619136e+00    0.1979578    0.1125685 -42.60 0.0003019191    1.477    0.323
        59 -10.2241    249.8486    142.9788   7.7078956752e+01   3.2601641246e+00    0.2002193    0.1685773 -45.87 0.0004229768    1.014    0.014
        60 -11.3594    182.7347     40.1085   6.4532049607e+01   3.4682440568e+01    0.3050415    0.1333478  66.02  0.001355143    2.090    0.522
        61 -12.4711    210.2561     36.5373   6.0266259812e+01   2.8961208273e+01    0.3681249    0.1977753 -44.65  0.001955829    1.790    0.441
        62 -11.0979    193.1157     36.9119   6.2402533437e+01   3.2729731114e+01    0.3898854    0.2291494  81.76  0.002018097    1.677    0.404
        63 -11.9573    188.3546     32.7364   6.2060008776e+01   3.4334273005e+01     0.339976    0.2339436 -75.38  0.001300262    1.437    0.304
        64 -11.3897    202.7116     35.9878   6.1019466646e+01   3.0696827416e+01    0.2882045    0.1531148  61.18  0.001446869    1.770    0.435
        65 -10.7935    159.1927     28.8828   6.5231772879e+01   4.1478429015e+01    0.1959331    0.1579207 -82.23  0.000489273    1.239    0.193
        66 -11.3585    155.1344     25.6406   6.5023146182e+01   4.2772979097e+01    0.2263257    0.2080233 -57.33 0.0005655712    1.207    0.171
        67 -11.2980     65.8406     26.7502   8.6115031860e+01   6.1166473289e+01    0.2433294    0.2010963 -23.38 0.0007532994    1.326    0.246
        68  -9.4012    237.5025     26.5345   5.5577342026e+01   2.4492283303e+01    0.1214244   0.09076021 -75.98 0.0001233658    1.033    0.032
        69 -10.1419    145.7296     25.5586   6.6527707548e+01   4.4931075538e+01    0.1780968    0.1113835  74.70 0.0008742795    1.563    0.360
        70  -9.9539    224.8185     23.6410   5.6162826201e+01   2.7463172539e+01    0.1751832    0.0939315  85.72  0.000950004    1.744    0.427
        71 -10.2486    231.9785     22.0342   5.5213923157e+01   2.6173634082e+01    0.1819872    0.1401121 -82.48 0.0004971411    1.038    0.037
        72 -16.7197     36.5092    219.6110   1.3711413369e+02   2.3519274030e+01     2.955483     1.799875 -87.49   0.01633628    1.495    0.331
        73 -11.8869    189.1257     18.6046   5.8776428351e+01   3.5808765184e+01    0.2917763    0.2160931  84.61  0.001850135    1.128    0.114
        74 -11.0834    182.8336     18.8808   5.9573406646e+01   3.7192188428e+01    0.1810443    0.1527531  63.77 0.0004505613    1.231    0.188
        75 -11.1009    125.3247    243.2770   1.2093868434e+02   5.2609508276e+00    0.2552627    0.2357159 -21.40  0.001032587    1.286    0.222
        76 -10.3732    114.3210     16.3211   6.9687571355e+01   5.2823475697e+01    0.1298814   0.08011696  35.02 0.0007044693    1.672    0.402
        77  -9.5589    240.5212     18.4507   5.3840837087e+01   2.4876310301e+01     0.118662   0.08665026 -76.21 0.0008079475    1.037    0.036
        78 -10.0969     72.8553     13.6048   7.8994412514e+01   6.1312866792e+01    0.1550509    0.1020441  55.91 0.0004305866    1.616    0.381
        79 -11.2499    119.1238    244.5119   1.2242687235e+02   6.0293056536e+00     0.309965    0.2044028  37.10  0.001641663    1.405    0.288
        80 -10.3867     97.2804     11.6621   7.1905734838e+01   5.6796010722e+01    0.1093003   0.09139106 -74.96 0.0007007323    1.620    0.383
        81 -11.9524    144.2624    240.5247   1.1649398712e+02   2.6578571436e+00    0.3059658    0.2647336  40.63  0.000585543    1.046    0.044
        82 -12.9659    121.4020    150.9277   1.0550423738e+02   2.7147780711e+01    0.4678932    0.2699391  42.42  0.001919181    1.770    0.435
        83 -13.1743     38.7379    142.7313   1.2693701228e+02   4.1985146778e+01    0.4142616    0.3072341  11.59   0.00216858    1.705    0.413
        84  -9.1719      6.2953    239.2116   1.4450156140e+02   2.2564412007e+01   0.09071642   0.08279697 -78.19 0.0003602789    1.443    0.307
        85 -11.6226    147.5691    235.6800   1.1504040199e+02   3.0459776281e+00    0.3675154    0.2524238  69.67  0.001338443    2.056    0.514
        86 -10.3154    141.5096    235.8943   1.1638128099e+02   4.0280837036e+00    0.2365437    0.2084627  44.24 0.0007120478    1.046    0.044
        87 -10.7972    142.1706    231.8971   1.1561901368e+02   4.7157686519e+00     0.296129    0.2432696 -87.88  0.001637951    1.485    0.327
        88 -11.9579    156.3756    232.0936   1.1257145596e+02   2.2535116892e+00    0.4572331    0.2720293  19.53  0.001381435    2.198    0.545
        89 -10.9476    178.6088    230.2061   1.0752828620e+02  -1.1353163025e+00    0.1906753    0.1232031 -33.66 0.0009192566    1.668    0.401
        90 -11.3780    180.7419    196.9625   1.0098965008e+02   5.0434792003e+00    0.2041744    0.1870188 -35.98 0.0003726447    1.080    0.074
        91 -11.2712    154.1576    226.1000   1.1206708854e+02   3.8211362281e+00     0.327658    0.1798065  41.70 0.0007303577    1.707    0.414
        92 -13.0071     65.9847    134.0804   1.1738555688e+02   4.0756348489e+01    0.5589293    0.3360366  70.04    0.0022027    2.789    0.641
        93 -13.6318    167.6330    211.4255   1.0656282545e+02   4.4321126101e+00    0.6904054    0.3829603 -37.90  0.003020749    1.971    0.493
        94 -12.0119    173.9255    208.2273   1.0460475368e+02   3.9613478170e+00    0.3337271    0.1915685  31.43  0.001477396    1.820    0.451
