#   1 NUMBER                 Running object number                                     
#   2 MAG_AUTO               Kron-like elliptical aperture magnitude                    [mag]
#   3 X_IMAGE                Object position along x                                    [pixel]
#   4 Y_IMAGE                Object position along y                                    [pixel]
#   5 X_WORLD                Barycenter position along world x axis                     [deg]
#   6 Y_WORLD                Barycenter position along world y axis                     [deg]
#   7 A_WORLD                Profile RMS along major axis (world units)                 [deg]
#   8 B_WORLD                Profile RMS along minor axis (world units)                 [deg]
#   9 THETA_WORLD            Position angle (CCW/world-x)                               [deg]
#  10 FWHM_WORLD             FWHM assuming a gaussian core                              [deg]
#  11 ELONGATION             A_IMAGE/B_IMAGE                                           
#  12 ELLIPTICITY            1 - B_IMAGE/A_IMAGE                                       
         1 -14.4369    158.0949     49.4626   2.9030195683e+02   6.2578871625e+00    0.0849309   0.05071947 -35.85  0.005968344    1.940    0.485
         2 -14.1564    169.7207     33.2934   2.9006735802e+02   6.3737439824e+00   0.04274111   0.04015519 -54.79  0.003039137    1.055    0.052
         3 -13.3698    173.4532     25.9256   2.8997853288e+02   6.4359167327e+00   0.02765957   0.02134185 -45.07  0.001554945    1.300    0.231
         4 -11.9971    189.7161     14.7394   2.8972118324e+02   6.4664220320e+00   0.01258245    0.0113152 -73.80 0.0008625499    1.146    0.127
         5 -13.3326    185.3969      2.7219   2.8969653391e+02   6.6304338369e+00   0.04023611   0.01854969  27.27  0.003146651    2.188    0.543
         6 -11.0875    143.5726    200.0991   2.9140039803e+02   4.6118251808e+00   0.01963459  0.009121083  52.89   0.00151363    2.986    0.665
         7 -19.2141     63.2597    241.6876   2.9258338753e+02   4.6137537547e+00    0.3745266    0.3146611  13.93   0.04385797    1.241    0.194
         8 -10.7573    176.9768    195.9596   2.9098935511e+02   4.4589959674e+00   0.01688471   0.00933481  86.32  0.001277727    3.366    0.703
         9 -12.3664    180.2997    193.7767   2.9093755032e+02   4.4641643752e+00   0.03158673   0.01789169  85.80  0.002504952    3.111    0.679
        10 -12.0015    135.2971    195.8117   2.9146952235e+02   4.7108227268e+00   0.01735026    0.0121688  69.80 0.0008855948    1.812    0.448
        11 -10.4667    124.0534    196.6295   2.9160438780e+02   4.7688197563e+00    0.0109301  0.009222325 -84.06 0.0005565124    1.290    0.225
        12 -11.1262      1.2223    229.8398   2.9322716302e+02   5.1205323146e+00  0.009268933  0.005108111 -55.84 0.0008685685    1.745    0.427
        13 -10.2973    203.5807    188.2380   2.9063480387e+02   4.3880315355e+00  0.009722587  0.008583832 -51.51 0.0004622557    1.118    0.106
        14 -12.6412    207.6773    185.4921   2.9057060477e+02   4.3950028787e+00   0.01947798   0.01824931 -33.17  0.001273922    1.073    0.068
        15 -12.4970    212.1589    181.5461   2.9049455470e+02   4.4134625176e+00   0.01748925   0.01448879 -39.69  0.001138019    1.229    0.186
        16 -12.2155     38.3639    183.7417   2.9251513967e+02   5.4300501681e+00   0.01485066   0.01250926 -58.36 0.0008724509    1.174    0.148
        17 -10.8755    157.5076    184.9325   2.9114604835e+02   4.7028173669e+00   0.01003376  0.006557535 -64.36  0.001016611    1.554    0.356
        18 -19.1490     54.5746    104.2903   2.9183848468e+02   6.2481657326e+00    0.8418691   0.05032872 -62.01   0.02580192   17.410    0.943
        19 -10.9454    224.0686    184.1040   2.9037301795e+02   4.3124191099e+00   0.01010584  0.008670424 -23.70  0.001176305    1.240    0.193
        20 -11.9864    198.8048    178.2654   2.9062833204e+02   4.5314921258e+00   0.01852201   0.01396803 -86.24 0.0009527698    1.551    0.355
        21 -11.2162    165.3489    208.3206   2.9119973163e+02   4.3865169153e+00   0.01294971   0.01166703  40.46 0.0006293645    1.122    0.109
        22 -11.6479    179.2313    174.6505   2.9083186942e+02   4.6907151851e+00   0.01365528    0.0105532 -38.66  0.001516855    1.342    0.255
        23 -11.3107    137.0637    170.5006   2.9129311080e+02   4.9916492725e+00   0.01306846   0.01208871 -18.29 0.0009305046    1.113    0.102
        24 -11.2138    228.4076    171.2209   2.9024340738e+02   4.4345224459e+00  0.009491219  0.006457571 -77.72 0.0009524281    1.700    0.412
        25 -11.6215    144.8802    168.5084   2.9119055022e+02   4.9676813576e+00   0.01975508    0.0124158  38.62  0.001541408    1.588    0.370
        26 -11.3755    139.8340    173.8193   2.9128158074e+02   4.9368208693e+00   0.01282822  0.008608666  77.11 0.0008181717    2.035    0.509
        27  -9.6771     11.8638    168.3890   2.9272719258e+02   5.7650977040e+00  0.008636835  0.006274221   4.49 0.0005726297    1.600    0.375
        28 -11.1923    225.4559    166.9255   2.9025090139e+02   4.5016922543e+00    0.0101703  0.006525902 -63.86 0.0008496151    1.578    0.366
        29 -11.7345    103.7175    162.0063   2.9162599432e+02   5.2893982447e+00   0.01184658   0.01094826 -49.62 0.0003278663    1.070    0.066
        30 -10.2729    199.3121    162.6376   2.9052597101e+02   4.7082654237e+00  0.007087862  0.005007884  66.32 0.0002949603    1.753    0.429
        31 -12.9136    107.6028    154.8808   2.9153716987e+02   5.3481618456e+00   0.02787178   0.02420361 -30.51  0.002885967    1.195    0.163
        32 -10.7769     23.1593    156.1958   2.9252161331e+02   5.8381566169e+00   0.01380111    0.0114528  68.34   0.00119714    1.351    0.260
        33 -10.8074     27.0184    157.0000   2.9248192545e+02   5.8058556442e+00   0.01519876  0.009224672  32.33   0.00120358    1.621    0.383
        34 -12.6675     30.3772    207.6707   2.9275440833e+02   5.2020603879e+00   0.02038835    0.0125226  -0.92  0.001273643    2.286    0.563
        35 -12.0421     97.0911    150.5260   2.9163181835e+02   5.4612973782e+00    0.0253897   0.01211326  49.67  0.001119088    2.562    0.610
        36 -12.0152    133.6683    144.5719   2.9117237548e+02   5.3105199603e+00   0.04674635   0.01364424 -68.95  0.002519028    5.911    0.831
        37 -10.9534    174.4319    149.0756   2.9072936403e+02   5.0138823000e+00   0.01336803  0.009542502  36.77  0.000807927    1.395    0.283
        38 -10.5727      1.7195    145.6547   2.9270482245e+02   6.0874824738e+00   0.01033434  0.008540899 -41.73  0.001187294    1.222    0.181
        39 -10.7428    143.3062    144.6507   2.9106151089e+02   5.2517653150e+00  0.007004164  0.005024534  66.15 0.0006291146    1.704    0.413
        40 -10.2458    176.6675    143.3058   2.9066791042e+02   5.0668416983e+00  0.006971308  0.004975934  61.48 0.0005498652    1.663    0.399
        41 -12.4438    115.0774    139.6820   2.9135704173e+02   5.4783388812e+00   0.02338453   0.01132343 -46.07  0.002053631    2.122    0.529
        42 -11.1450     31.8087    141.8591   2.9233336895e+02   5.9516450303e+00   0.01495019  0.009548594   4.26  0.001162619    2.003    0.501
        43 -12.5986    104.9147    140.0228   2.9147661562e+02   5.5353451359e+00   0.01395436   0.01265704  24.89 0.0006375205    1.108    0.098
        44 -11.7212    105.9048    130.6639   2.9140743142e+02   5.6371554894e+00    0.0170624    0.0146215 -79.16  0.001162201    1.240    0.193
        45 -11.4574    108.3288    126.3649   2.9135287779e+02   5.6721111508e+00   0.01479317   0.01075475 -41.96 0.0007239711    1.412    0.292
        46 -11.7263    119.5420    130.1166   2.9124640612e+02   5.5616737513e+00   0.01524858   0.01349976 -55.10 0.0009865932    1.116    0.104
        47 -11.5290    160.4169    127.9865   2.9076093058e+02   5.3407849199e+00   0.01398056    0.0117372  85.71  0.001608847    1.336    0.252
        48 -12.0635    135.7146    122.5826   2.9101296141e+02   5.5513374510e+00    0.0245878   0.01186476 -68.77  0.002086113    2.357    0.576
        49 -12.1256    126.0214    127.4697   2.9115517268e+02   5.5532680518e+00   0.03007828    0.0131179  53.74  0.002141628    3.564    0.719
        50 -10.0725    143.8751    128.3263   2.9095413688e+02   5.4362375293e+00  0.008886955  0.008166603  22.32 0.0003439193    1.096    0.087
        51 -11.7271     26.0154    127.2341   2.9231037333e+02   6.1546725058e+00   0.02934412   0.01538795  32.97  0.001097044    1.857    0.461
        52 -12.4746     29.9953    126.4969   2.9225977970e+02   6.1393952331e+00   0.02409335   0.01481066  32.28  0.002426941    1.602    0.376
        53 -12.8594     92.2854    123.5615   2.9152108825e+02   5.8005474301e+00   0.02296264   0.01604997 -65.61  0.001481412    1.461    0.316
        54 -12.3041    248.7066    117.9853   2.8968011123e+02   4.9244941224e+00    0.0218629   0.01975078  42.91  0.002509796    1.124    0.110
        55 -10.9257    113.7385    119.0605   2.9124524321e+02   5.7237477384e+00   0.01104283  0.009498578  26.25 0.0004036531    1.168    0.144
        56 -11.0922    130.4106    206.1034   2.9158932980e+02   4.6216182250e+00   0.01277087   0.01097825 -85.37 0.0008038747    1.260    0.206
        57 -11.6364    171.5994    117.3141   2.9056579967e+02   5.3963701418e+00    0.0208639   0.01183323  56.12  0.001527074    2.271    0.560
        58 -10.8433      6.0163    111.9478   2.9244774049e+02   6.4500515755e+00   0.02669955   0.00977019  17.97  0.001733385    4.145    0.759
        59 -11.2292     95.8393    110.3583   2.9139850310e+02   5.9312332139e+00   0.01622161   0.00957005 -13.43  0.001371212    2.655    0.623
        60 -10.8847    205.3806    110.1726   2.9013157350e+02   5.2752860882e+00   0.01457815  0.009959621  12.74   0.00115839    1.652    0.395
        61 -14.0192    196.2731    195.7641   2.9076553629e+02   4.3453395940e+00   0.03965006   0.03305814  47.62  0.001654007    1.242    0.195
        62 -10.8339    134.4911    102.9508   2.9090580550e+02   5.7845978965e+00   0.01039493  0.006475987 -61.24  0.001033829    1.593    0.372
        63 -11.2222    247.8127    102.2843   2.8959319798e+02   5.1103623809e+00    0.0165403  0.008817906  29.79  0.001544057    1.852    0.460
        64 -11.2241     96.3337     80.1105   2.9120595714e+02   6.2763576405e+00   0.01890072  0.008433323  35.17  0.001632215    2.153    0.536
        65 -10.6517     13.5232     59.5296   2.9203772834e+02   7.0085949997e+00   0.01157293   0.01073323 -59.10 0.0005814357    1.072    0.067
        66 -11.3705      1.7760    247.3426   2.9332794524e+02   4.9155655592e+00  0.008601558  0.006875711 -33.25 0.0009594652    1.325    0.245
        67 -12.5101    188.8710    186.8266   2.9079577837e+02   4.4926672377e+00   0.03001147   0.02007307 -80.81  0.002273914    1.804    0.446
        68  -9.9494    211.4562    203.4480   2.9063785018e+02   4.1656842999e+00  0.006519046  0.006431242  64.48 7.247917e-05    1.035    0.034
        69 -12.3324    181.8808    234.4145   2.9116980493e+02   3.9869425225e+00   0.01808965   0.01235119 -24.47   0.00164341    1.785    0.440
