#   1 NUMBER                 Running object number                                     
#   2 MAG_AUTO               Kron-like elliptical aperture magnitude                    [mag]
#   3 X_IMAGE                Object position along x                                    [pixel]
#   4 Y_IMAGE                Object position along y                                    [pixel]
#   5 X_WORLD                Barycenter position along world x axis                     [deg]
#   6 Y_WORLD                Barycenter position along world y axis                     [deg]
#   7 A_WORLD                Profile RMS along major axis (world units)                 [deg]
#   8 B_WORLD                Profile RMS along minor axis (world units)                 [deg]
#   9 THETA_WORLD            Position angle (CCW/world-x)                               [deg]
#  10 FWHM_WORLD             FWHM assuming a gaussian core                              [deg]
#  11 ELONGATION             A_IMAGE/B_IMAGE                                           
#  12 ELLIPTICITY            1 - B_IMAGE/A_IMAGE                                       
         1 -12.0589     59.3869    132.5876   1.1224112828e+02   4.1119024013e+01     1.418939    0.4409728 -68.48  0.004738081    3.700    0.730
         2 -13.2296    191.2150     34.6759   5.2802506149e+01   3.2814996426e+01     1.814934     1.115171  20.88  0.007514371    2.378    0.580
         3 -10.5772     45.3584     30.5287   8.9716675448e+01   6.4865671481e+01    0.2924238    0.1933118 -56.94    0.0015568    2.178    0.541
         4 -12.1041    215.9326      4.5361   4.1416463159e+01   2.9895681946e+01    0.9382588    0.5869597  69.63  0.004323772    1.506    0.336
         5 -10.3467     61.5909      4.7852   7.1064282475e+01   6.6124782063e+01    0.2120491    0.1894773 -33.86  0.001417758    1.509    0.337
         6  -9.5232    156.6380    217.8154   1.0396127362e+02   8.1428317852e+00    0.1897538    0.1652071 -67.66 0.0005222509    1.400    0.286
         7 -10.6333    140.4851    245.4954   1.1052228419e+02   6.5680432228e+00    0.3182612    0.1918635 -47.47  0.001908826    2.130    0.531
         8 -19.5096     16.0559    142.8559   1.2420195081e+02   4.3149421764e+01     18.37064     2.695982 -73.76   0.05171796    6.414    0.844
         9 -11.8515     69.1589    187.8283   1.1744503900e+02   2.7553467106e+01    0.7625756    0.5804053 -64.39  0.003749463    1.370    0.270
        10  -9.3819    193.2016    195.0170   9.3173737361e+01   5.2516388879e+00    0.6434465     0.325032 -61.21  0.001808704    7.425    0.865
        11  -9.2532     99.2893    180.8598   1.1021393022e+02   2.4614908805e+01    0.2312088    0.1831225  41.96 0.0006955086    1.292    0.226
        12  -9.1678     51.2331    157.1408   1.1772071800e+02   3.6454437927e+01    0.2287783     0.182766  85.09 0.0006114724    1.083    0.077
        13 -11.0169     53.5686    148.4117   1.1604521240e+02   3.8158634954e+01    0.9999204    0.4891846 -44.70  0.004518459    2.669    0.625
        14 -11.6163     81.8174    171.7477   1.1274855450e+02   2.9203427427e+01    0.9927544    0.4754838 -44.51  0.003589079    2.908    0.656
        15 -10.2435     90.1105    161.1693   1.0930898033e+02   3.0285709690e+01    0.5320632     0.255481 -58.23  0.002410633    1.993    0.498
        16  -9.3285    125.3073    249.8415   1.1363590991e+02   8.2591773635e+00    0.1900506    0.1021596 -67.99   0.00108072    2.583    0.613
        17  -8.8720    130.9433    214.2638   1.0838999533e+02   1.3063639967e+01     0.171149    0.1414401  48.06 0.0002393505    1.053    0.051
        18  -9.9504     94.6116    168.6023   1.0943262810e+02   2.7956317758e+01    0.3383075    0.2392518  49.03  0.001057195    1.363    0.266
        19  -7.8964    163.4808    168.4799   9.4139086810e+01   1.5532744801e+01    0.1423542     0.134163  48.91  0.000123529    1.063    0.060
        20  -8.6879     75.2690    165.4412   1.1334145645e+02   3.1516640032e+01    0.1825934    0.1090163  52.93 0.0009445812    1.648    0.393
        21 -10.1115     94.9284    155.0670   1.0718134612e+02   3.0891637680e+01    0.3995253      0.32367 -37.67 0.0009654291    1.490    0.329
        22  -9.8176     98.1792    151.1632   1.0572655154e+02   3.1243626754e+01    0.3950676    0.2491279  59.69  0.001463699    1.760    0.432
        23  -7.9205    188.9827    154.3148   8.5808542652e+01   1.2979426160e+01    0.2334083    0.1203238  64.45 0.0007046023    4.253    0.765
        24  -9.9855    134.0000    144.5306   9.5825445849e+01   2.6247489764e+01    0.7708493    0.2541511 -56.69  0.002126293    4.609    0.783
        25 -11.0894     69.9409    134.8209   1.0989307606e+02   3.9233099286e+01     0.430458    0.3353435 -74.98  0.001549726    1.168    0.144
        26 -10.4981    107.7812    139.0692   1.0106741934e+02   3.2349857154e+01    0.5295795    0.3272486 -32.99  0.002282977    2.193    0.544
        27 -10.6663     95.8250    138.9837   1.0405129773e+02   3.4397501883e+01    0.2772868     0.257195 -53.44 0.0003815344    1.123    0.110
        28 -10.2444    106.4192    202.9096   1.1171566115e+02   1.9096529748e+01    0.4401733    0.1815105  59.31  0.001684256    3.371    0.703
        29  -9.6517    105.9194    130.8328   9.9817995087e+01   3.4550669781e+01    0.4078574    0.3091907 -61.57  0.001350199    1.289    0.224
        30  -9.9967    114.6400    130.0952   9.7426471622e+01   3.3141024919e+01    0.3462697     0.254431 -32.42 0.0008993925    1.579    0.367
        31  -9.3457    102.4164    125.8641   9.9647949060e+01   3.6301027940e+01    0.2858639    0.2317748 -27.67 0.0006422772    1.454    0.312
        32  -8.1030     87.1170    203.2680   1.1557986705e+02   2.1946963769e+01    0.1837079    0.1349781 -17.49  0.000949709    2.861    0.650
        33  -8.8779    119.4845    124.0729   9.4808847339e+01   3.3579192075e+01    0.2297009    0.1434447 -48.37 0.0004453757    1.548    0.354
        34  -7.6325    152.5481    119.5375   8.5523375821e+01   2.7693246956e+01    0.1533654    0.1509893 -48.57 0.0001260263    1.034    0.033
        35  -8.4994    110.0118    118.9243   9.6056278792e+01   3.6524853316e+01    0.2200419    0.2043325 -64.96 0.0003572197    1.045    0.043
        36  -9.5574     96.3008    200.5839   1.1344469851e+02   2.1106366628e+01    0.3200404    0.2732991  -3.37  0.001469948    1.827    0.453
        37  -8.5957    168.1773    113.0007   8.0224570681e+01   2.5488053152e+01    0.2716082    0.1853504 -66.90  0.001091799    2.110    0.526
        38 -11.9992     78.8619    155.5182   1.1106177678e+02   3.3225455756e+01    0.4808778    0.4216212 -71.15  0.001042058    1.104    0.095
        39 -10.0980    115.2376    110.1955   9.2505757514e+01   3.7500764351e+01    0.5287456    0.1635276 -41.80  0.001571585    3.491    0.714
        40 -10.2201    119.9632    109.8449   9.1158666630e+01   3.6652521874e+01    0.4851248    0.2075625 -52.60  0.001707554    2.486    0.598
        41  -8.6733    205.5328    110.1687   7.1798000216e+01   1.7326511650e+01    0.2762483    0.2169541  48.92 0.0006737821    1.328    0.247
        42 -10.2502    113.5701    195.7273   1.0931267023e+02   1.9327502087e+01    0.3453924    0.1912999 -43.18  0.001664168    2.366    0.577
        43  -7.9158    159.9820    197.0479   1.0006898792e+02   1.1003399785e+01     0.154104    0.1429448  39.15 0.0003210297    1.047    0.045
        44  -9.2283     80.1912    194.5423   1.1596333599e+02   2.4664530830e+01    0.3075676    0.1796372  47.79  0.001303547    1.547    0.354
        45  -8.8903    186.4823     87.5045   6.9285707223e+01   2.5905363303e+01    0.1563693    0.1507234 -39.44 5.081872e-05    1.044    0.042
        46 -12.1896     68.3877    144.3563   1.1185404276e+02   3.7228058676e+01    0.8666078    0.5650201  85.91  0.002662102    1.740    0.425
        47  -8.9058    207.6246    194.1781   9.0278469183e+01   2.7567225916e+00    0.1778351    0.1189642 -20.50  0.000741707    1.633    0.388
        48 -10.5077    109.0321    172.2711   1.0677702585e+02   2.4832480692e+01    0.3425173    0.1791925  39.56  0.001574867    1.904    0.475
        49  -8.3787     69.8177     72.1577   9.5440776560e+01   5.3596689742e+01    0.1844108    0.1470654 -21.99 0.0004107757    1.276    0.217
        50 -10.3398    163.5530     64.2439   6.6944520116e+01   3.5641250320e+01    0.4244422    0.3277743 -80.50 0.0006816122    1.696    0.411
        51 -11.8603    176.3967     49.4752   5.9765431896e+01   3.4650259747e+01    0.6978002    0.5903351   5.12  0.001244773    1.310    0.237
        52  -9.9135    102.1533    248.9643   1.1749851952e+02   1.1795228416e+01    0.3368148    0.1837409 -70.64  0.001824721    2.224    0.550
        53  -9.9927    109.4621    242.4317   1.1561746375e+02   1.1755539220e+01    0.2059208    0.1488476  46.24  0.001416462    1.177    0.150
        54  -8.9722     97.5363    193.4353   1.1229525394e+02   2.2325040277e+01    0.2702273     0.201527 -16.25  0.001403935    2.516    0.603
        55  -9.0702    169.0526    235.8751   1.0421958004e+02   3.3698738782e+00    0.1755456    0.1604686  30.38 0.0003676463    1.147    0.128
