#   1 NUMBER                 Running object number                                     
#   2 MAG_AUTO               Kron-like elliptical aperture magnitude                    [mag]
#   3 X_IMAGE                Object position along x                                    [pixel]
#   4 Y_IMAGE                Object position along y                                    [pixel]
#   5 X_WORLD                Barycenter position along world x axis                     [deg]
#   6 Y_WORLD                Barycenter position along world y axis                     [deg]
#   7 A_WORLD                Profile RMS along major axis (world units)                 [deg]
#   8 B_WORLD                Profile RMS along minor axis (world units)                 [deg]
#   9 THETA_WORLD            Position angle (CCW/world-x)                               [deg]
#  10 FWHM_WORLD             FWHM assuming a gaussian core                              [deg]
#  11 ELONGATION             A_IMAGE/B_IMAGE                                           
#  12 ELLIPTICITY            1 - B_IMAGE/A_IMAGE                                       
         1 -13.3474    189.3105     26.5726   7.4189878114e+01   3.4045667149e+01     1.268658     1.132156  62.44  0.005986551    1.132    0.117
         2 -13.7755    201.9017      8.6768   6.7311371277e+01   3.2677595786e+01     1.859511     1.135346  43.24  0.008911078    1.839    0.456
         3  -9.8782     22.0099      2.0000   1.1458585323e+02   7.4439092615e+01    0.1788022   0.06751617  29.65 0.0008027563    2.945    0.660
         4  -9.2608     99.3112    249.6622   1.3732220665e+02   1.5222330534e+01    0.1062401   0.05831365  56.73 0.0007045157    1.688    0.408
         5  -9.0948    249.6691    250.3026   1.1291787958e+02  -4.2035875248e+00   0.08453434   0.06644242  32.03 0.0007034874    1.652    0.395
         6 -11.0854    125.3984    249.9077   1.3287115906e+02   1.1885648180e+01    0.4755325   0.08200359  36.84  0.001744149    4.593    0.782
         7  -9.8474     81.9766    249.3211   1.4026494668e+02   1.7359816580e+01    0.2258177    0.1015017  50.01  0.001247564    1.665    0.400
         8 -10.2559     66.7879    250.5341   1.4291491120e+02   1.8936951499e+01    0.2906889   0.09505083  33.79  0.001479888    2.646    0.622
         9 -10.6539     29.3477    249.0314   1.4905835435e+02   2.3061226583e+01    0.2667102    0.2054071 -71.01   0.00239239    1.760    0.432
        10 -10.6153     33.5914    248.2294   1.4833517462e+02   2.2763721058e+01     0.264009    0.1728558  68.01   0.00223502    1.267    0.211
        11 -10.8558     36.8285    243.5866   1.4761524292e+02   2.3122671769e+01    0.4021659    0.2891379  61.63  0.003481922    1.109    0.098
        12 -13.8952      4.0488     25.1979   1.3576889111e+02   7.1059522624e+01     6.651877    0.2852056 -66.69   0.01486618    7.384    0.865
        13 -15.0714     12.8420    156.8436   1.4825372149e+02   4.0738517194e+01      5.31002     1.646574  89.72   0.02302961    3.342    0.701
        14  -9.9276    184.5055    237.9804   1.2154079774e+02   5.3050917419e+00    0.1280809    0.1037941 -22.59 0.0007651522    1.542    0.352
        15  -9.7161     35.2893    229.2049   1.4726705516e+02   2.5474326513e+01    0.2423603    0.2042652  72.22  0.001517172    1.267    0.210
        16  -9.6862     83.5340    244.5246   1.3967684044e+02   1.7841133963e+01    0.2778024    0.1057745  59.44  0.001403356    3.177    0.685
        17 -10.0488     66.8531    243.3806   1.4249255712e+02   1.9946011951e+01    0.2238829    0.1155673  67.23  0.001213849    1.973    0.493
        18  -9.5311     46.4469    248.3953   1.4621566800e+02   2.1438323234e+01    0.2656392   0.08983497  61.07   0.00117758    2.806    0.644
        19 -10.5774    172.8341    221.8261   1.2151738350e+02   8.8022219031e+00    0.2088537    0.1709658 -24.22  0.001281324    1.492    0.330
        20  -9.2543     27.7645    221.9833   1.4829332483e+02   2.7372302149e+01    0.1659287    0.1069472  47.73  0.000387489    1.180    0.153
        21 -13.7236      3.4432    230.9568   1.5278942610e+02   2.8138111422e+01     2.848299    0.6442087 -80.07   0.01471567    4.270    0.766
        22  -8.5384    152.5067    213.0117   1.2407309582e+02   1.2937848082e+01    0.1323967    0.1165222 -37.27  0.000979157    1.434    0.303
        23 -12.2059     27.4293    203.7474   1.4754801251e+02   3.0487279438e+01    0.4233436    0.1497534  47.10  0.001179657    1.999    0.500
        24 -11.2852     67.8858    200.4346   1.3933673695e+02   2.6678711119e+01     0.265532    0.2081466 -44.51  0.001150819    1.819    0.450
        25  -9.8024    192.0070    193.0253   1.1394035873e+02   9.4780757176e+00    0.3046286    0.1964995 -65.38  0.001370324    4.266    0.766
        26 -11.5769     73.2024    192.3128   1.3754954966e+02   2.7467071198e+01    0.2238146    0.2113203  84.53 0.0005160667    1.253    0.202
        27 -13.3322      9.8425    206.9800   1.5099000714e+02   3.1525082888e+01    0.9590913    0.5695626  59.68  0.004823792    1.215    0.177
        28  -8.6348    106.0878    182.0031   1.2944058838e+02   2.4817027206e+01    0.1425842    0.1179345  48.15 0.0003433648    1.020    0.020
        29 -13.0969     69.7024    177.3835   1.3689489333e+02   3.0688927350e+01    0.4237978    0.2666765 -42.22  0.001639965    2.345    0.574
        30 -10.7829     82.3244    179.3698   1.3431049126e+02   2.8666210231e+01     0.207975    0.1866255  56.74 0.0003485811    1.105    0.095
        31 -11.7370     88.9871    169.7196   1.3170411466e+02   2.9586902197e+01    0.6014204    0.5212685  57.17  0.004036846    1.016    0.016
        32  -9.1662    195.8812    159.7376   1.0741490238e+02   1.3312011563e+01    0.2106347    0.1703289 -67.02 0.0007043842    2.010    0.502
        33 -12.5327     43.4975    235.5628   1.4612319786e+02   2.3649037267e+01    0.2623171    0.2357104  35.75 0.0007514431    1.474    0.322
        34  -9.7655    100.5552    153.2597   1.2674152627e+02   3.1110739160e+01    0.2511836    0.2232243  49.78  0.000840423    1.045    0.043
        35 -11.8444     89.6716    152.7557   1.2929966107e+02   3.2863269908e+01    0.2518422    0.2330978   3.24 0.0006219394    1.339    0.253
        36 -12.3938     66.8665    143.6871   1.3377647370e+02   3.7931238394e+01    0.7354592    0.4143241  59.12  0.003744856    1.837    0.456
        37 -11.6513     57.9919    133.0610   1.3473637590e+02   4.1370456602e+01    0.8156204    0.3102186 -80.93  0.002812678    4.173    0.760
        38  -9.0420    103.3434    149.1409   1.2542859301e+02   3.1498859856e+01    0.1905762      0.15827 -39.76 0.0004243234    1.420    0.296
        39 -13.7528     49.2084    227.0098   1.4467872242e+02   2.4375931085e+01    0.8349319    0.5517004  55.14  0.004113971    1.106    0.096
        40  -9.1067     77.0436    245.9969   1.4089609059e+02   1.8400747919e+01    0.1658171   0.08533742  56.65 0.0007145563    1.646    0.392
        41  -9.6769    175.7623    138.9563   1.0715034927e+02   2.0220539324e+01    0.4815763    0.3180645  81.59  0.001552462    3.835    0.739
        42  -9.6160    111.1039    137.9195   1.2161204766e+02   3.2495547564e+01     0.366556    0.2422891 -12.11   0.00143786    2.980    0.664
        43 -10.1842     33.1209    131.6325   1.4131134164e+02   4.4376992983e+01    0.2080511    0.1261709 -71.73  0.001200788    1.498    0.332
        44 -10.4753     98.7983    135.4292   1.2428014835e+02   3.5057339042e+01    0.2404491    0.2222537 -35.28  0.000642332    1.244    0.196
        45  -9.0844    108.0874    124.5941   1.1984582601e+02   3.5781167949e+01    0.1877518    0.1602057  43.56 0.0003980972    1.132    0.117
        46  -8.4163    192.2498    144.3148   1.0503465883e+02   1.6221995908e+01    0.1322924   0.09579754   5.87 0.0002247443    1.521    0.343
        47 -10.0864    168.1660    113.2429   1.0292374257e+02   2.6099267322e+01    0.3294666    0.2768105 -83.33  0.001055525    1.598    0.374
        48  -8.7136    203.4918    111.4943   9.5635528772e+01   1.8908864660e+01    0.1423285    0.1256817   7.36 0.0003113707    1.050    0.048
        49  -8.6284    125.8017     99.1407   1.0936995417e+02   3.7710522722e+01    0.2082988    0.1900694  76.88 0.0005774742    1.188    0.159
        50  -8.8341     18.7021     67.0346   1.3769558113e+02   6.0606276234e+01    0.1709908    0.1395445 -72.43  0.000411563    1.035    0.034
        51 -10.1083     18.7463     57.0846   1.3582170138e+02   6.2937703010e+01    0.3940858    0.1456711  30.58  0.001794475    2.898    0.655
        52 -13.9762     54.9633    210.8418   1.4264501941e+02   2.6391110357e+01     7.627616          nan  42.79   0.02273597    6.896    0.855
        53  -9.4114    238.0000    249.0082   1.1446745710e+02  -2.7027388984e+00    0.1319112   0.05192768 -28.06 0.0008043685    2.956    0.662
        54  -9.5222     95.3642    241.2556   1.3737138579e+02   1.6855722139e+01    0.1548947    0.1168952  74.74 0.0002447753    1.456    0.313
