#   1 NUMBER                 Running object number                                     
#   2 MAG_AUTO               Kron-like elliptical aperture magnitude                    [mag]
#   3 X_IMAGE                Object position along x                                    [pixel]
#   4 Y_IMAGE                Object position along y                                    [pixel]
#   5 X_WORLD                Barycenter position along world x axis                     [deg]
#   6 Y_WORLD                Barycenter position along world y axis                     [deg]
#   7 A_WORLD                Profile RMS along major axis (world units)                 [deg]
#   8 B_WORLD                Profile RMS along minor axis (world units)                 [deg]
#   9 THETA_WORLD            Position angle (CCW/world-x)                               [deg]
#  10 FWHM_WORLD             FWHM assuming a gaussian core                              [deg]
#  11 ELONGATION             A_IMAGE/B_IMAGE                                           
#  12 ELLIPTICITY            1 - B_IMAGE/A_IMAGE                                       
         1 -13.8618    208.0214     60.9760   6.9937421018e+01   2.5472178495e+01     6.445616     2.675791 -50.91   0.02522373    2.533    0.605
         2 -13.0849    234.9306     68.3960   6.7947547225e+01   1.8140186056e+01     3.235305    0.7948719 -44.04   0.01094846    3.464    0.711
         3 -12.8284    248.8725     25.5738   5.7694825775e+01   2.1226028848e+01    0.7152071    0.4388152 -37.44 0.0004913851    1.781    0.439
         4 -14.4191    243.4588     16.1155   5.6343679469e+01   2.3537051662e+01     3.944483    0.9068079  63.78   0.01551225    3.668    0.727
         5 -12.6301    249.2384      2.8344   5.3429702809e+01   2.3853271780e+01    0.7824746    0.3989444  75.65  0.001657379    1.699    0.411
         6 -13.9300    242.5132    114.9865   7.7006141665e+01   8.5779610511e+00      7.68374     1.304229 -39.17   0.01917454    5.755    0.826
         7 -12.8910    144.5238     42.6760   7.6067683519e+01   4.3557584273e+01     2.923625     1.426696  70.47   0.01146369    2.563    0.610
         8 -13.4937    226.3721     47.6096   6.4490380398e+01   2.3186829065e+01     2.920703     1.373967  54.88   0.01336543    2.258    0.557
         9  -9.8990    130.5208     20.8216   7.2280733005e+01   4.9394661880e+01    0.3831035    0.2656001  -2.22  0.002092605    1.852    0.460
        10  -9.3983    142.5392     10.5614   6.6979660070e+01   4.7577032808e+01    0.4920938     0.253386  -9.39  0.002265278    2.955    0.662
        11  -9.1922    115.6497     12.6903   7.2766597601e+01   5.3526846342e+01    0.2771239    0.1855067  41.70 0.0008333836    1.309    0.236
        12 -10.8205    120.2801      9.2827   7.0686859920e+01   5.2798364987e+01    0.6404248    0.4742863  85.81  0.002563674    1.617    0.382
        13  -9.3768    151.0581      8.0104   6.4889010705e+01   4.5797625590e+01    0.5046009    0.1471723 -29.60   0.00189065    3.691    0.729
        14  -8.8696    183.8167      2.2890   5.9133490919e+01   3.8545079811e+01    0.3627805    0.2295645  85.44  0.002078792    1.384    0.277
        15  -8.5496    182.1551     11.2042   6.1462317780e+01   3.8076588232e+01    0.2021879    0.1488457  57.23  0.000371116    1.319    0.242
        16  -8.7981    182.6397      6.8175   6.0345568482e+01   3.8394585287e+01    0.3978326    0.2141831 -88.51  0.001956835    1.967    0.492
        17  -8.1881    199.8538      5.9413   5.8257641988e+01   3.4432943101e+01    0.2269814    0.1640805 -25.38  0.001125019    1.813    0.448
        18  -8.2027     52.3634      6.1920   8.8297371854e+01   6.6140782912e+01    0.1461122   0.09644905 -28.60 0.0004464706    1.695    0.410
        19  -8.4078    172.7097      3.7933   6.0801095917e+01   4.1034588470e+01    0.3727451    0.1607914 -62.05  0.001494571    3.412    0.707
        20  -8.8640      2.3965      3.2817   1.0931162186e+02   7.2266968974e+01    0.1938189   0.07442094 -36.26  0.001141707    2.124    0.529
        21  -8.6880    209.1753      1.8781   5.6473327786e+01   3.2694372542e+01    0.3954723     0.143308  56.08  0.001756576    2.776    0.640
        22  -7.7073    215.9432      1.0000   5.5685686698e+01   3.1250531193e+01    0.1873042   0.05719746  73.01 0.0004483961    2.738    0.635
        23  -9.8853    223.2561    129.4468   8.3374972248e+01   9.8713122253e+00    0.4139329    0.2125464 -36.93  0.001020095    1.918    0.479
        24  -7.2284    170.6964    127.2932   9.3430597287e+01   2.2067609135e+01    0.1586012    0.1252422 -86.57 0.0002664179    1.575    0.365
        25  -9.9146    185.9764    120.3008   8.8392557976e+01   1.9988621231e+01    0.3807473     0.229229 -42.30  0.001601218    1.640    0.390
        26 -11.9753    245.4431    238.4224   1.0129963195e+02  -1.2806306269e+01    0.2533094    0.2156919  -8.74  0.000113284    1.171    0.146
        27  -9.4892    167.9365    113.8391   9.0686681662e+01   2.5547019676e+01    0.4126903    0.3098899  78.54 0.0008682849    1.643    0.391
        28  -8.7245      8.8342    115.4383   1.3643564964e+02   5.1020871851e+01    0.1952511    0.1137684  27.85  0.001131791    2.076    0.518
        29  -8.8073    215.5370    112.9783   8.0973274375e+01   1.4681457203e+01    0.2319602    0.1377036 -43.67  0.001024244    1.585    0.369
        30 -10.4472    203.9794    110.5783   8.2492072560e+01   1.7752604164e+01    0.4618037    0.2582654  44.08  0.001919059    1.978    0.495
        31 -11.5290    124.2028    234.8168   1.2515753661e+02   8.0474834394e+00    0.6923222    0.3429087  31.93   0.00297546    2.282    0.562
        32 -11.1466    187.5518    101.5929   8.3434929187e+01   2.3332881315e+01    0.8707227    0.3903911 -44.28  0.003248073    2.195    0.544
        33 -10.0677    186.2069     92.6820   8.1450116102e+01   2.5338482475e+01    0.7053878    0.2329253 -37.34  0.002223009    3.236    0.691
        34  -8.2944    148.4135     99.2799   9.1416965194e+01   3.3120402492e+01    0.2089217     0.148377 -52.14 0.0004640782    1.486    0.327
        35  -8.5359     10.8675    235.1891   1.4740427429e+02   2.4019030580e+01    0.1671066    0.1382577  71.42 0.0004653308    1.247    0.198
        36  -7.6428    134.4430     96.4419   9.4136929210e+01   3.6900518495e+01    0.1527116    0.1483294  76.78 3.595758e-06    1.055    0.052
        37  -9.4577    193.3510     94.0670   8.0441904439e+01   2.3367458983e+01    0.2955414    0.2740355 -48.44  0.001604115    1.103    0.093
        38  -9.4606    158.3816     92.7717   8.7311765764e+01   3.2040223640e+01    0.4861636     0.306362  33.00  0.001993465    1.985    0.496
        39  -8.7564    128.6601    226.3069   1.2299598569e+02   8.9617058967e+00    0.1454051   0.09859779  67.09 0.0004003117    1.683    0.406
        40  -9.1362    141.7008     88.6081   9.0107625984e+01   3.6780496303e+01    0.4633638    0.2856044 -55.10  0.001478456    1.908    0.476
        41  -8.8754    123.7429    225.3989   1.2392692649e+02   1.0014173752e+01     0.197267    0.1239846  33.54 0.0007471131    1.639    0.390
        42 -10.6037    170.9591     34.9125   6.9075021316e+01   3.8128737879e+01     1.191072    0.3184059  59.65  0.004134458    3.031    0.670
        43 -10.8555    181.3973     76.9346   7.8323357604e+01   2.9321988863e+01     0.865866    0.4178966 -52.38 0.0002734212    2.376    0.579
        44 -11.7635    173.0071     66.7917   7.7232631292e+01   3.3071027064e+01    0.7730911    0.5194691 -52.61  0.001376034    1.582    0.368
        45  -7.3338      8.6984    222.6164   1.4699841152e+02   2.6817555175e+01    0.1076098   0.07543729 -58.14   0.00070205    1.781    0.439
        46  -9.0846      2.4030     75.7990   1.3164018245e+02   5.9973634082e+01    0.1672733   0.07897627 -53.00 0.0005681537    1.543    0.352
        47  -9.9715    190.7947     70.3884   7.4962009581e+01   2.8124856425e+01    0.3679536    0.2594564  49.41 0.0009058567    1.476    0.323
        48 -10.1481    196.0382     67.2902   7.3311701117e+01   2.7354165035e+01    0.4499386    0.2961073  46.54  0.001351938    1.681    0.405
        49  -8.5770    151.5297     70.4931   8.2659480105e+01   3.7705401853e+01    0.1486645    0.1403408  59.76 0.0001382626    1.006    0.006
        50  -8.5057    120.0121     68.9002   8.9885342983e+01   4.5254730917e+01     0.209154    0.1949841  29.33 0.0002835042    1.014    0.014
        51 -10.2692    132.0077     46.2310   7.9862590219e+01   4.6028960089e+01    0.2459253    0.2349568 -22.41 0.0002876818    1.148    0.129
        52  -8.3289    176.9240     58.3177   7.4264959309e+01   3.3433120374e+01    0.2099393    0.1683237  62.81 0.0004656003    1.157    0.136
        53  -8.8684    177.9944     84.9346   8.1061878706e+01   2.8746615221e+01    0.2210154    0.2067231  82.96  0.001193134    1.016    0.015
        54  -9.5384    196.9986     45.1657   6.7741897598e+01   3.0431106965e+01    0.2866028    0.2115138 -50.86 0.0005166943    1.356    0.263
        55  -9.6233    194.9545     40.9965   6.7020074973e+01   3.1493048738e+01    0.4676516    0.3507483 -30.93  0.001854966    1.572    0.364
        56 -10.4065    175.1617     81.3127   8.0672475451e+01   3.0084438656e+01    0.5897149    0.4945477 -68.56  0.001794199    1.242    0.195
        57 -10.3737    156.5701     82.5602   8.4924964678e+01   3.4383072952e+01    0.3571304    0.3280799   0.89   0.00128705    1.242    0.195
        58  -9.9918    158.0994    216.5083   1.1502331720e+02   5.5489445611e+00    0.2306708    0.2262336 -50.89  0.001384314    1.125    0.111
        59 -11.2025      8.0802    197.7551   1.4537334889e+02   3.2216219299e+01    0.5319737    0.3073568  51.16  0.002961173    1.651    0.394
        60 -11.6960     12.5457    192.9928   1.4409555828e+02   3.2859943076e+01    0.6935931    0.3657433  89.76  0.002921866    1.658    0.397
        61 -11.1983      6.4617    192.0328   1.4525799216e+02   3.3630310060e+01    0.5225705    0.3471096 -61.89  0.002643751    1.519    0.342
        62 -12.2591     42.5981    172.3648   1.3527214544e+02   3.4528938198e+01    0.9391139    0.8035409   2.38  0.003835087    1.631    0.387
        63 -11.4618     52.7501    164.1082   1.3165011922e+02   3.5307380343e+01      0.77491     0.587009 -86.84  0.002230183    1.242    0.195
        64  -8.8819    106.6646    159.0126   1.1673005284e+02   2.8253432226e+01    0.2268609    0.2090804  44.57 0.0003605538    1.121    0.108
        65 -11.4607    134.4617    245.0137   1.2441846681e+02   4.3421308351e+00    0.5625518    0.3894176  42.18  0.003158531    1.233    0.189
        66  -8.4879    172.3653    154.1206   9.9383929615e+01   1.5866605311e+01    0.2414179    0.2085944  33.25 0.0002563041    1.195    0.163
        67 -10.2635    218.9841    149.0252   8.8522658430e+01   6.9755724810e+00    0.2702474     0.259081  45.05 0.0003797997    1.111    0.100
        68 -10.1689     68.2152    144.8754   1.2439829674e+02   3.7974759083e+01    0.6057318    0.3866468  63.30  0.002534202    1.946    0.486
        69  -8.1409    104.9387    143.8642   1.1405093006e+02   3.2250038869e+01    0.2056732    0.1964617 -27.48  0.001101093    1.132    0.116
        70 -10.6027    198.5675    133.7431   8.9027595591e+01   1.4378529955e+01    0.5987355    0.4001263  21.27  0.002449149    2.241    0.554
        71  -7.9005    166.1959    131.4347   9.5473282903e+01   2.2207566401e+01    0.2123776    0.1521146  60.28 0.0002870058    1.521    0.343
