#   1 NUMBER                 Running object number                                     
#   2 MAG_AUTO               Kron-like elliptical aperture magnitude                    [mag]
#   3 X_IMAGE                Object position along x                                    [pixel]
#   4 Y_IMAGE                Object position along y                                    [pixel]
#   5 X_WORLD                Barycenter position along world x axis                     [deg]
#   6 Y_WORLD                Barycenter position along world y axis                     [deg]
#   7 A_WORLD                Profile RMS along major axis (world units)                 [deg]
#   8 B_WORLD                Profile RMS along minor axis (world units)                 [deg]
#   9 THETA_WORLD            Position angle (CCW/world-x)                               [deg]
#  10 FWHM_WORLD             FWHM assuming a gaussian core                              [deg]
#  11 ELONGATION             A_IMAGE/B_IMAGE                                           
#  12 ELLIPTICITY            1 - B_IMAGE/A_IMAGE                                       
         1 -14.3664    149.0846     61.6976   8.6802441973e+01   4.0172241084e+01     1.403003     1.097777 -10.51  0.001150995    1.514    0.340
         2 -14.7644    160.0019     46.6041   7.9635164599e+01   3.9758991264e+01     1.316255     1.059008 -27.12  0.003777754    1.314    0.239
         3 -14.8140    172.8591     15.5915   6.7643440230e+01   4.0284242804e+01     1.197801     1.039273  34.02  0.003902083    1.283    0.220
         4 -13.8566    189.1032     13.9847   6.5081210955e+01   3.6221205063e+01    0.9224599    0.4906406 -69.53  0.003295006    2.293    0.564
         5 -13.3186    199.1076      8.0137   6.2301949951e+01   3.4267487440e+01    0.5206815    0.2848942 -83.74  0.002362207    1.979    0.495
         6 -14.1752    135.0693    238.9452   1.2783977462e+02   8.3206081447e+00    0.4654526    0.3716769  74.90  0.002294314    1.365    0.267
         7 -20.2456     79.9656    176.8132   1.3142151169e+02   2.8984326940e+01     15.95316     6.901661 -66.77   0.07029957    2.323    0.570
         8 -10.4642     29.1599    201.2361   1.4451950845e+02   3.0233162893e+01    0.1474955    0.1244659  89.89 0.0005916614    1.262    0.208
         9 -11.3012     19.9468    196.4885   1.4597341948e+02   3.2152351149e+01    0.1674427    0.1241104 -76.38 0.0004517316    1.353    0.261
        10 -12.7291    145.6349    190.9039   1.1900814622e+02   1.4863459552e+01    0.4949276    0.3117079 -66.72  0.001627499    2.066    0.516
        11 -11.6582    114.7093    250.5708   1.3280911013e+02   9.6781944337e+00    0.1632954   0.09785224  42.73  0.001001877    1.353    0.261
        12 -10.4504     39.4928    250.7305   1.4573191339e+02   1.9852929677e+01    0.1043142   0.06756483  57.97 0.0007608386    1.128    0.113
        13 -13.0874    204.3738    175.5478   1.0416877404e+02   6.3021033622e+00    0.5196046    0.4633408  26.27  0.001182065    1.037    0.036
        14 -12.4835    202.1604    166.4836   1.0275448480e+02   8.2637820087e+00    0.6270449    0.4861299   2.32  0.003298539    1.462    0.316
        15 -12.2644    196.9870    176.5849   1.0581182515e+02   7.5608817719e+00    0.3656154    0.3113169  37.26 0.0009079141    1.102    0.093
        16 -13.8843    192.3851    163.6075   1.0409160975e+02   1.0739501931e+01     1.382529    0.5554886 -50.44    0.0021897    3.346    0.701
        17 -10.4363    152.1286    250.6778   1.2611171109e+02   3.8309062168e+00    0.1569295   0.08674914  37.23 0.0002084278    1.507    0.336
        18 -13.2113    164.0362    168.7095   1.1104959522e+02   1.5564665123e+01    0.4659617    0.2581261 -40.59  0.002040694    1.987    0.497
        19 -12.3497    230.4776    167.7178   9.7744837104e+01   2.6001375821e+00    0.4447249    0.1995884 -45.79  0.001814755    2.737    0.635
        20 -11.4876     13.1989    239.9001   1.4944373930e+02   2.4604898548e+01    0.1657981    0.1150008 -88.74  0.001315146    1.332    0.249
        21 -11.0700    151.7066    236.9873   1.2449988729e+02   5.9103504582e+00    0.2757317    0.1454073  43.26 0.0008291467    1.508    0.337
        22 -11.0367     28.2220    234.8375   1.4673264767e+02   2.3910023606e+01      0.14479    0.0971339  81.80 0.0007779631    1.193    0.162
        23 -12.7814    143.2674    156.4011   1.1323557235e+02   2.2265697135e+01    0.4407653    0.2595979  57.47  0.001875241    1.884    0.469
        24 -11.0584    139.7773    249.2267   1.2816611105e+02   5.9975039129e+00    0.2651471    0.1687601 -68.37  0.001608652    2.174    0.540
        25 -10.2795    176.8161    154.8367   1.0545192286e+02   1.5603248031e+01    0.1980808    0.1752847  88.00 0.0004921454    1.334    0.250
        26 -11.3603     17.6882    154.1580   1.4327856355e+02   4.1454785127e+01    0.1936514     0.156992 -66.90 0.0003140478    1.304    0.233
        27 -11.4152     18.4890    149.2487   1.4264854729e+02   4.2490030705e+01    0.3355621    0.2375716  71.53  0.002195614    1.261    0.207
        28 -13.4596    161.4721    152.9145   1.0837749395e+02   1.9223162294e+01    0.4325231    0.4033405  75.64  0.001576838    1.120    0.107
        29 -12.5751    174.0868    148.6375   1.0468441589e+02   1.7388123878e+01    0.4414885    0.3408973 -54.81  0.001167142    1.423    0.297
        30 -10.8731     21.6457    232.5293   1.4771622812e+02   2.5038313617e+01    0.1044482   0.07396869  74.38 0.0001905534    1.063    0.060
        31 -11.3958    171.2652    137.7189   1.0282137370e+02   2.0166821293e+01    0.2678537    0.1861777  50.55 0.0005934665    1.429    0.300
        32 -10.5292     32.6657    221.5985   1.4519901426e+02   2.5858839650e+01    0.2382763    0.1344118 -72.10  0.001543748    1.751    0.429
        33 -10.2317      2.4392    135.4877   1.4529185099e+02   4.6831061789e+01    0.1583834    0.1121681  -7.97  0.001013335    2.249    0.555
        34 -13.0063    160.5452    127.9749   1.0290608117e+02   2.4543943450e+01    0.5070135    0.3839124 -61.08  0.001839273    1.482    0.325
        35 -11.6023    218.1211    219.8871   1.0970824367e+02  -2.7228110932e+00    0.2690627    0.1660058 -44.78  0.001508272    2.122    0.529
        36 -10.5227     24.4321    216.1038   1.4634061085e+02   2.7805562493e+01    0.1392076    0.1025934  71.88 0.0003522218    1.048    0.046
        37 -11.1583    167.5577    112.7273   9.7482384226e+01   2.6038249651e+01    0.3763071    0.2717325  87.42  0.001311245    1.987    0.497
        38 -10.8647    205.3495    110.2349   8.9162021212e+01   1.7601745477e+01    0.3129906    0.2100839  46.32 0.0009657453    1.533    0.348
        39 -12.0914     25.2254    106.5485   1.3574728789e+02   5.1789455014e+01    0.3479303    0.2363049   4.18  0.002025856    2.089    0.521
        40 -12.9454     47.5905     92.7765   1.2613650561e+02   5.2846223383e+01     0.422946    0.2992762  25.48  0.001720159    1.676    0.403
        41 -13.1458     11.4279    206.0311   1.4812038135e+02   3.1076946113e+01     0.366577    0.2451372  32.00  0.001881893    1.911    0.477
        42 -10.2474     31.6846    205.0345   1.4429881898e+02   2.9194293955e+01    0.1476489    0.1107281  86.28  0.000415801    1.128    0.113
        43 -12.3549    138.7141    200.3340   1.2195208801e+02   1.4349795629e+01     0.860497    0.3531476  45.35  0.003605765    2.121    0.529
        44 -11.7425      6.2972     88.9819   1.3902466912e+02   5.7130347339e+01    0.5016499    0.2211376 -12.45  0.002176294    4.338    0.769
        45 -10.4848    143.1149     81.6633   9.4463651951e+01   3.8025826954e+01    0.2221487    0.1989495  46.96 0.0008630325    1.118    0.105
        46 -10.9083    155.8737    247.3728   1.2503750552e+02   3.7031280878e+00    0.1646024    0.1394388  53.01 0.0003137593    1.159    0.137
        47 -11.9606    127.8855    246.7528   1.3004288985e+02   8.2421692061e+00    0.1637401    0.1550106  81.62 0.0005935805    1.280    0.219
        48 -13.2988    164.2540     37.8611   7.6031707852e+01   3.9877161621e+01    0.4780135    0.4393486  55.25 0.0008400969    1.066    0.061
        49 -11.0370     13.3943     59.8814   1.3109408139e+02   6.3118600778e+01    0.1631977     0.159004 -78.98 0.0004245555    1.255    0.203
        50 -11.7633    162.6464    245.3117   1.2355200986e+02   2.9053552586e+00     0.275528    0.1696088  43.05 0.0005941855    1.272    0.214
        51 -11.8393    141.4769    198.4883   1.2109393883e+02   1.4197283778e+01      0.33045    0.2553976 -82.54 0.0009391683    1.577    0.366
