#   1 NUMBER                 Running object number                                     
#   2 MAG_AUTO               Kron-like elliptical aperture magnitude                    [mag]
#   3 X_IMAGE                Object position along x                                    [pixel]
#   4 Y_IMAGE                Object position along y                                    [pixel]
#   5 X_WORLD                Barycenter position along world x axis                     [deg]
#   6 Y_WORLD                Barycenter position along world y axis                     [deg]
#   7 A_WORLD                Profile RMS along major axis (world units)                 [deg]
#   8 B_WORLD                Profile RMS along minor axis (world units)                 [deg]
#   9 THETA_WORLD            Position angle (CCW/world-x)                               [deg]
#  10 FWHM_WORLD             FWHM assuming a gaussian core                              [deg]
#  11 ELONGATION             A_IMAGE/B_IMAGE                                           
#  12 ELLIPTICITY            1 - B_IMAGE/A_IMAGE                                       
         1 -12.2047    207.0461      1.7876   6.2791210889e+01   3.2815640894e+01     1.548869    0.6122155  71.94   0.00586782    2.272    0.560
         2 -13.2649    184.9732     24.3910   7.1899977223e+01   3.6193063162e+01     1.818484     1.375492 -31.04  0.005915727    1.383    0.277
         3 -13.1063    192.3374     17.2689   6.8783715134e+01   3.5054317903e+01     1.247954     1.042195 -67.22   0.00405812    1.178    0.151
         4 -12.1048    198.2245      9.7097   6.5899361565e+01   3.4312405598e+01    0.7291012    0.5609899  49.44  0.001493444    1.378    0.274
         5 -10.1005     40.5999      9.2088   1.0403695155e+02   6.9571856556e+01    0.1759304   0.09243213 -25.84 0.0009561575    1.748    0.428
         6  -9.8642    144.1764    242.2420   1.2934383834e+02   7.2675793389e+00    0.1610593    0.1155713  61.40 0.0006030717    1.339    0.253
         7  -9.8345    248.9237    249.7810   1.1255683334e+02  -1.0006110725e+01    0.2683658    0.1313638  27.21  0.001618339    1.691    0.408
         8  -9.8208    162.6842    246.3450   1.2657613622e+02   3.7040775162e+00    0.1359942    0.1037238 -47.88  0.000936501    1.724    0.420
         9 -11.3030    140.1519    248.5652   1.3075912433e+02   7.0011656164e+00    0.4118477    0.2647195  67.44  0.002559919    1.763    0.433
        10 -11.9743    106.0279    246.0596   1.3642333455e+02   1.2623629712e+01    0.5444346    0.3030032  61.54  0.002146275    1.606    0.377
        11 -11.7289     98.6520    248.3133   1.3788832713e+02   1.3354861401e+01    0.5509677    0.2602111  50.36  0.002101721    1.574    0.365
        12 -10.9340    101.1045    245.5717   1.3722735667e+02   1.3426894980e+01    0.3090679    0.2045176  69.77 0.0003777862    1.386    0.279
        13 -13.8954     53.6226    226.5954   1.4393871390e+02   2.3122326102e+01     2.366067     1.301608 -47.74  0.006332137    3.555    0.719
        14 -15.1272     63.5151    216.5834   1.4141073673e+02   2.3681030342e+01     6.619444     2.375753  54.12   0.01528803    2.343    0.573
        15 -11.1212     75.4530    193.2029   1.3690861620e+02   2.6577734984e+01    0.3646755    0.2508703 -49.24  0.002137712    1.963    0.491
        16 -11.0869     79.7151    186.4369   1.3527583354e+02   2.7343551409e+01    0.2667175    0.2305564 -65.89 0.0008389191    1.348    0.258
        17 -11.1644    162.9599    225.2595   1.2380010867e+02   6.6435872493e+00    0.5655428    0.1909601  40.73  0.002392367    2.483    0.597
        18  -8.4533    181.5237    192.0803   1.1510776152e+02   8.4758794060e+00    0.1792622    0.1346924 -40.70 0.0003464613    1.519    0.341
        19 -10.5320     87.4790    174.6482   1.3213937032e+02   2.8649601836e+01    0.2400486    0.2185552  73.28 0.0004372125    1.142    0.124
        20 -11.0505     79.4436    159.8084   1.3191947248e+02   3.3073086525e+01     1.459699    0.6109092  67.22  0.004248952    5.689    0.824
        21 -11.3472    103.8549    172.1624   1.2815483578e+02   2.6555836384e+01     2.154952    0.2579863  46.54   0.00486524    7.860    0.873
        22 -12.1769     67.6824    144.0350   1.3245590053e+02   3.8282732868e+01    0.7993987    0.4785791  71.78  0.003949677    1.920    0.479
        23 -12.1878     58.6702    131.7469   1.3288515082e+02   4.2276328923e+01     2.168015     0.735374 -77.09  0.005617674    6.773    0.852
        24  -9.2139     38.4857    161.7766   1.4151417995e+02   3.7845669303e+01    0.2146818    0.1548224  47.69  0.001396658    1.416    0.294
        25  -9.0351     51.4497    157.4916   1.3812169030e+02   3.7316177843e+01    0.2150985    0.1767067  85.18 0.0005562752    1.016    0.016
        26  -9.4956    104.5731    149.2614   1.2424880967e+02   3.1392780558e+01    0.2741573    0.2613273 -64.10 0.0008740816    1.171    0.146
        27  -8.8882    106.6555    145.6830   1.2309442932e+02   3.1823730531e+01    0.3070841    0.2023176 -33.93  0.001395753    2.173    0.540
        28 -11.4622     93.4294    149.0953   1.2692321250e+02   3.3300130091e+01    0.2659476    0.2584395  65.76 0.0004955261    1.191    0.160
        29  -9.2397    134.0000    143.9878   1.1618349982e+02   2.7030127760e+01    0.6089609    0.1928253 -58.81  0.001491099    6.071    0.835
        30 -12.5831     75.4176    172.0194   1.3446440493e+02   3.0992436367e+01    0.4293057    0.2772297 -44.23   0.00145523    2.157    0.536
        31 -11.0696    173.9691    220.7303   1.2112321553e+02   5.4121634992e+00    0.3817251    0.3073987  42.44  0.002492735    1.025    0.024
        32  -9.1558     40.1637    143.8157   1.3918595368e+02   4.1649451308e+01    0.1908818    0.1432387  79.20  0.001213062    1.177    0.150
        33  -9.3001    113.5639    135.4371   1.1939163095e+02   3.2856587752e+01    0.2879072    0.2490629 -20.06  0.000879252    1.487    0.328
        34 -11.4576     93.2997    166.6643   1.2971709512e+02   2.9450713595e+01    0.5420576    0.4869899 -40.86  0.001966964    1.439    0.305
        35 -10.0074    101.3767    132.5143   1.2189128182e+02   3.5710713707e+01    0.2853959    0.2263016 -39.27 0.0006428002    1.465    0.317
        36  -8.1786    106.3153    131.3099   1.2038053934e+02   3.5109440704e+01    0.1391213    0.1160611 -16.42 0.0007030862    1.633    0.388
        37 -10.7448     45.7239    129.7630   1.3597396175e+02   4.4250620953e+01    0.2886013    0.2357365  52.93  0.001861848    1.300    0.231
        38  -8.7009    118.5141    128.5043   1.1667683435e+02   3.3461253376e+01    0.1453944    0.1410676 -87.71 0.0008098939    1.055    0.052
        39 -10.1285     41.3582    125.7379   1.3655484503e+02   4.5642842901e+01    0.3543991     0.106752 -69.69   0.00135198    3.019    0.669
        40  -9.0646    109.5322    122.9723   1.1776928429e+02   3.6402548671e+01    0.2023608    0.1897738  71.61 0.0003127968    1.050    0.048
        41  -9.9572    184.1348    214.7254   1.1833458355e+02   4.5079710131e+00    0.2236631    0.1515899 -26.48  0.001270822    1.882    0.469
        42  -8.5336     32.6185    119.7917   1.3806957434e+02   4.7870396978e+01    0.1798183   0.09910745 -81.50 0.0007143458    1.679    0.404
        43 -10.0276    168.1907    113.0046   1.0102931564e+02   2.5957671869e+01    0.3796026    0.3041018 -86.51  0.000953824    1.557    0.358
        44  -9.6450    138.9660    171.7025   1.2032085760e+02   2.0340080741e+01     0.207955    0.1737198  52.76  0.001168591    1.084    0.077
        45 -11.3957     40.9776    213.8215   1.4528559569e+02   2.6980476833e+01    0.3526242    0.1821313  55.37  0.001331991    1.520    0.342
        46  -9.6619     33.2340    106.9804   1.3602222644e+02   5.0748765264e+01    0.4228444    0.1033946 -71.35  0.001307692    4.696    0.787
        47  -9.6101     29.0965    169.8903   1.4428058728e+02   3.7081727643e+01    0.1673691    0.1237906 -56.83   0.00111721    1.636    0.389
        48  -9.7561    229.9818    207.4890   1.0888735141e+02  -2.4654225371e+00     0.201213    0.1708872 -16.78 0.0003778134    1.273    0.214
        49  -8.0089    184.3417     77.3261   8.7865392151e+01   2.8603789349e+01    0.1632573    0.1209495  21.40 0.0007051194    1.735    0.424
        50  -8.7657    153.5387     75.4998   9.3805257833e+01   3.6701608098e+01    0.1537179    0.1523107  89.27 5.279417e-05    1.010    0.010
        51 -16.8143      2.6327    131.4953   1.4698849926e+02   4.7636405660e+01      16.9077    0.6990219 -75.21    0.0347593   12.962    0.923
        52 -11.1550    125.8269    244.2429   1.3279905228e+02   9.8843649068e+00    0.4002402    0.2412885  87.65  0.002246912    2.480    0.597
        53 -14.7872     15.0159    244.5129   1.5120637838e+02   2.4398739391e+01     2.388668      1.19612 -70.01   0.01200107    2.184    0.542
        54 -10.0710    192.6220    193.8978   1.1328744159e+02   6.0972656985e+00    0.6235906    0.3353591 -63.27  0.002205932    4.782    0.791
        55  -9.6252     32.8222     31.3827   1.1740899127e+02   6.6862218798e+01     0.239912   0.07953261 -51.59  0.001020899    2.752    0.637
