#   1 NUMBER                 Running object number                                     
#   2 MAG_AUTO               Kron-like elliptical aperture magnitude                    [mag]
#   3 X_IMAGE                Object position along x                                    [pixel]
#   4 Y_IMAGE                Object position along y                                    [pixel]
#   5 X_WORLD                Barycenter position along world x axis                     [deg]
#   6 Y_WORLD                Barycenter position along world y axis                     [deg]
#   7 A_WORLD                Profile RMS along major axis (world units)                 [deg]
#   8 B_WORLD                Profile RMS along minor axis (world units)                 [deg]
#   9 THETA_WORLD            Position angle (CCW/world-x)                               [deg]
#  10 FWHM_WORLD             FWHM assuming a gaussian core                              [deg]
#  11 ELONGATION             A_IMAGE/B_IMAGE                                           
#  12 ELLIPTICITY            1 - B_IMAGE/A_IMAGE                                       
         1 -10.7986     16.9079     31.8158   7.2889584194e+01   6.7579953168e+01    0.5557842     0.367238 -18.56  0.003699656    1.484    0.326
         2 -10.3465     74.0351      1.8580   3.6363594832e+01   6.4536744639e+01    0.2954889    0.2397005 -61.84  0.001430378    1.962    0.490
         3 -11.1691     76.3221     15.6280   4.1787628721e+01   6.2575380717e+01    0.3325675    0.2298913  22.94  0.001026363    1.402    0.287
         4 -10.7082     70.8252     13.8580   4.2918856450e+01   6.3761883870e+01    0.3751196    0.2203424 -34.19   0.00180961    1.742    0.426
         5 -11.6933     76.4660      9.9028   3.9217819548e+01   6.3230741848e+01    0.6455559    0.3276668  48.05  0.003136367    1.896    0.473
         6 -11.6276      3.2791     16.3526   7.4124618447e+01   7.1176348085e+01     0.462051    0.3140061 -75.26  0.002562759    2.333    0.571
         7 -10.4757    120.2698     17.1920   2.9958970446e+01   5.3241727790e+01    0.3895253    0.2175832 -27.33  0.001643237    1.913    0.477
         8 -11.7076     30.8992     12.9409   5.9054720584e+01   6.9481245786e+01    0.3417777    0.1512398 -38.47 0.0003677646    1.938    0.484
         9 -12.3682    238.0709     17.6072   1.2525002623e+01   2.3520090996e+01    0.2918158    0.2326601 -46.69 0.0002793398    1.226    0.184
        10 -11.7891    233.0251     15.2130   1.2436948707e+01   2.5012182870e+01    0.3519491    0.2081389 -49.27  0.001327406    1.534    0.348
        11 -10.5176    194.0553     16.9338   1.7111207419e+01   3.4581737990e+01    0.3272846    0.2222419  54.95  0.000799247    1.467    0.318
        12 -11.2889     19.7409      3.5761   6.0245928606e+01   7.1957630443e+01    0.4550304    0.2946174  10.75  0.003160643    1.501    0.334
        13 -10.4525     18.7406     15.9348   6.6212202540e+01   7.0168366569e+01       0.3149    0.2133676  -7.22  0.002171421    1.415    0.293
        14 -11.4322      9.3438      8.1215   6.7756241781e+01   7.2136498898e+01    0.2728246    0.2364558  -0.58  0.001186735    1.326    0.246
        15 -11.0136     10.6156      3.1284   6.4868186043e+01   7.2803749958e+01    0.1877655    0.1702784 -16.09 0.0009070264    1.403    0.287
        16 -11.4595     11.4210     14.3571   6.9236660233e+01   7.0989686173e+01    0.3326045     0.164598 -28.04  0.001562694    1.838    0.456
        17 -10.2414     15.2614     13.6514   6.7010930534e+01   7.0816408821e+01    0.1481014    0.1237828 -53.84 0.0003515249    1.543    0.352
        18 -11.2542    106.1876     12.4244   3.1567753165e+01   5.6954102413e+01    0.4110913    0.2212873  31.50 0.0007524581    2.042    0.510
        19 -11.5726     60.6276     13.7691   4.6650828921e+01   6.5449229999e+01     0.402045    0.2548088  28.41  0.002210013    1.512    0.339
        20 -10.8250    129.5425     11.3964   2.5793645019e+01   5.1661488135e+01    0.4397497    0.2837967 -54.41  0.001535008    1.976    0.494
        21  -9.8643    164.6453     12.8099   2.0006981884e+01   4.2679555653e+01    0.2673273    0.1402196 -10.75  0.001096463    2.758    0.637
        22  -9.5181    138.6076     11.7999   2.4138765734e+01   4.9401452042e+01    0.1877047    0.1222113 -39.99 0.0009407253    1.700    0.412
        23 -11.2435    176.3734     10.7569   1.7685086241e+01   3.9855394041e+01    0.2908993      0.22765  59.77            0    1.194    0.162
        24 -11.2853    145.6597      7.7994   2.1491810610e+01   4.8040965578e+01    0.4665014    0.2992456 -21.30  0.002379928    1.779    0.438
        25 -11.3983    237.2689      1.9827   9.0321023584e+00   2.5517573647e+01    0.3245868    0.2452917 -75.60  0.001987545    1.100    0.091
        26 -11.4623    241.0367      9.0327   1.0310705851e+01   2.3839721487e+01    0.2318642    0.1654182  88.05 0.0006614377    1.248    0.199
        27 -12.6809    232.1264      6.2679   1.0434453555e+01   2.6263212851e+01    0.8132561    0.3140604  89.64  0.001704646    3.256    0.693
        28 -10.1071    154.8424      9.1324   2.0392840806e+01   4.5580689411e+01    0.2125136    0.1750573 -75.48 0.0008397587    1.293    0.227
        29 -11.6642    244.3046      3.7375   8.8719097501e+00   2.3683301263e+01    0.3340439     0.178512 -58.69  0.001729279    1.672    0.402
        30 -11.2783    213.2474      5.5172   1.1986480337e+01   3.0967466017e+01    0.5989358    0.2899902 -48.93  0.002791332    1.977    0.494
        31  -9.3880    118.2224      7.9239   2.6932882235e+01   5.4692389650e+01    0.1583468    0.1090088 -23.18 0.0005908313    1.581    0.368
        32 -10.9943     36.4814      7.2955   5.3836224104e+01   6.9649942504e+01    0.2993376    0.2231067  44.10  0.001995431    1.890    0.471
        33  -9.5720     91.8440      6.9034   3.3167571164e+01   6.0573082900e+01    0.1946849    0.1433582  28.54 0.0004686495    1.239    0.193
        34 -10.7147    222.9408      5.6270   1.1097580034e+01   2.8558372244e+01    0.2307858    0.1682252 -50.92 0.0002256197    1.292    0.226
        35  -9.7882    164.5664      4.7630   1.7539945120e+01   4.3514718099e+01    0.1781327     0.122447 -44.42  0.000616968    1.568    0.362
        36  -9.5574     68.5612      5.5515   3.9942756275e+01   6.5125191892e+01    0.1227683    0.1012314  12.40 8.910147e-05    1.011    0.011
        37 -11.8452    247.1151      7.8955   9.5652344417e+00   2.2563514840e+01    0.3247008     0.194589  74.38  0.001604674    1.567    0.362
        38 -10.1103    201.0762      3.9076   1.2811949220e+01   3.4205561622e+01    0.1991097    0.1722776  80.63 0.0003130393    1.079    0.073
        39  -9.9759    179.0736      3.7432   1.5296020124e+01   3.9870351539e+01    0.1945278    0.1563067  72.92  0.000194183    1.087    0.080
        40 -11.8154     27.4736      3.0901   5.6099588622e+01   7.1245765348e+01     0.221862    0.2043028   4.28 0.0007983585    1.453    0.312
        41  -9.7898    126.2676      2.8836   2.3359232289e+01   5.3265512430e+01    0.1809371    0.1637082  27.88 0.0006752786    1.119    0.107
        42  -9.8863    168.0288      1.7454   1.6143268326e+01   4.2909409867e+01    0.1894665     0.151282  72.56 0.0002113538    1.085    0.078
        43 -10.4379     50.7612     14.5776   5.0967865258e+01   6.6801608925e+01    0.3098824    0.2217486 -40.29  0.001954808    1.562    0.360
        44 -10.0773     90.9984      2.0747   3.1331894150e+01   6.1218431808e+01    0.1837787    0.1545616  22.42 0.0003187216    1.053    0.051
        45 -10.5652     34.8539      1.6669   5.1835865818e+01   7.0583453166e+01    0.3098091    0.1432357  38.92  0.001714818    2.368    0.578
        46  -9.8896    238.7851    200.7768   5.3466568402e+01  -4.9285680263e+00    0.1535586    0.1468493  24.39 0.0005500843    1.299    0.230
        47 -11.3289    248.6321    247.9079   5.9721991995e+01  -1.2140895057e+01    0.4684099    0.2326372  -5.58  0.002301578    3.163    0.684
        48 -12.7019    232.5869    246.0474   6.2136751388e+01  -9.6109752205e+00    0.6155902    0.3499696  22.68  0.003677674    1.626    0.385
        49 -10.0726    110.0162    249.5378   8.4534238320e+01   9.6664755202e+00    0.1751853    0.1450377  77.20  0.001260391    1.216    0.177
        50 -12.1702     88.8576    249.2432   8.8246312122e+01   1.2919667923e+01    0.4731376    0.1834588  46.45  0.001200311    1.936    0.483
        51 -12.3494     22.3082    248.5697   9.9264656794e+01   2.1654699416e+01    0.5216113    0.1689387  50.70  0.003011008    2.105    0.525
        52 -11.7507     14.4241    244.7489   1.0031716936e+02   2.3175051624e+01     0.344968    0.1531387  89.03  0.001527832    1.904    0.475
        53  -9.5067    215.5547    194.2476   5.6479627507e+01   9.0665651798e-02     0.173227    0.1229254 -19.31 0.0009366664    1.565    0.361
        54 -11.7510     15.5094    193.1067   9.7379300933e+01   3.2892162241e+01    0.2807591    0.2024236  54.76  0.001126815    1.323    0.244
        55 -10.2952    244.6669    188.0207   5.0052871221e+01  -4.1377831856e+00    0.1806316    0.1512299  -8.46 0.0005114131    1.101    0.091
        56  -9.7264    163.3250    188.6713   6.5862823238e+01   1.1055676548e+01    0.1436805    0.1065072  75.11 0.0007050066    1.699    0.412
        57  -9.9317     61.8956    184.3853   8.7247216269e+01   2.9383691996e+01     0.225179    0.1492461 -88.66  0.001299606    1.367    0.268
        58 -11.0331     22.3024    179.6108   9.5101438722e+01   3.5049910286e+01    0.3667894    0.1459414  62.16  0.001292301    2.458    0.593
        59 -10.8674     19.6427    181.6791   9.5793259138e+01   3.4872617861e+01    0.2194175     0.190304 -70.71 0.0009159121    1.424    0.298
        60 -12.2842     15.4879    180.9917   9.6573912098e+01   3.5418906258e+01    0.4223616    0.1922173  78.04  0.002255562    2.037    0.509
        61 -10.0356    244.2617    178.6201   4.8298083146e+01  -2.7091686849e+00    0.2342637    0.1467559 -12.78  0.001014906    1.845    0.458
        62  -9.9096    118.5078    177.4817   7.3753313596e+01   2.1885434383e+01     0.142104    0.1263401  67.01 0.0003156865    1.023    0.022
        63  -9.3419      1.4993    180.0140   9.9251702369e+01   3.6872170543e+01    0.1459428   0.06570428 -60.05 0.0008080765    2.382    0.580
        64 -11.0142     18.0321    172.5923   9.5440374243e+01   3.6972845588e+01    0.3198713    0.1414216  65.22  0.001655692    2.182    0.542
        65  -9.9488    177.0170    168.9623   5.9295757718e+01   1.2032823342e+01    0.1740237    0.1673064  43.33 0.0004649563    1.034    0.033
        66 -10.5465     36.0832    160.9718   9.0474270532e+01   3.7721776569e+01    0.2501921    0.2236525   5.94  0.001705687    1.666    0.400
        67 -11.0491     36.9896    165.9814   9.0777399452e+01   3.6499280830e+01    0.3931989    0.1994008  78.30  0.001946149    2.071    0.517
        68  -9.9854     33.4607    166.4246   9.1603149693e+01   3.6780550226e+01    0.1980832    0.1487734  68.16 4.976093e-05    1.173    0.147
        69  -9.9765     25.4845    169.5140   9.3618158814e+01   3.6919173074e+01    0.1194991   0.09281445  87.62 -6.882149e-05    1.042    0.040
        70 -11.1059      5.3805    168.1179   9.7727763393e+01   3.9055184319e+01    0.1643173    0.1489397  81.99 0.0008604767    1.330    0.248
        71  -9.2273    210.6963    166.3006   5.1942256594e+01   5.5934256646e+00    0.1339567    0.1139226 -89.76 0.0005851776    1.590    0.371
        72  -8.9200     93.3058    166.7080   7.7874486196e+01   2.8642410419e+01    0.1434765   0.09625258  72.85 0.0003153612    1.577    0.366
        73 -11.5216     51.3259    162.1928   8.7106983001e+01   3.5695093166e+01    0.6385393    0.3082275 -81.73  0.002464258    2.108    0.526
        74  -9.9602    187.3348    165.6589   5.6474780490e+01   1.0509542536e+01    0.1483665     0.116126  86.13 0.0007050967    1.757    0.431
        75  -9.8902     67.2176    165.3707   8.3803280779e+01   3.2896866723e+01    0.1908136    0.1050917  50.71 0.0009492666    1.724    0.420
        76  -9.3037    132.4813    161.4816   6.7762989540e+01   2.2698169114e+01    0.1493812    0.1350136  69.77 0.0003947389    1.024    0.024
        77 -11.5710     21.4461    156.6363   9.3365117756e+01   4.0156776140e+01     0.342811    0.3170608 -40.24  0.001792871    1.520    0.342
        78 -10.8347     11.0517    153.0446   9.5381434993e+01   4.1862802373e+01    0.2655113    0.1824679  43.10  0.001793173    1.593    0.372
        79 -10.1512    235.5468    152.5733   4.4470435604e+01   2.9605682789e+00    0.2581969    0.1183824 -46.46  0.001033471    2.489    0.598
        80  -9.7354    176.8053    150.0700   5.5416522289e+01   1.5777218303e+01    0.2307416    0.2031347  86.71 0.0006465534    1.278    0.218
        81  -9.5268     15.2890    149.3280   9.4101172685e+01   4.2333667042e+01    0.1136358   0.07555693 -55.95  0.000333767    1.617    0.381
        82  -9.8782    216.2324    154.5906   4.8420524737e+01   6.4979368611e+00    0.1946993    0.1298851  35.71 0.0002789641    1.522    0.343
        83  -9.4359     85.0000    146.9953   7.6745333162e+01   3.4525618815e+01    0.2257719   0.07492891 -60.31 0.0006637058    2.875    0.652
        84  -9.8222    206.9993    146.7601   4.8484714769e+01   9.8352473416e+00    0.1952231    0.1211039  47.04 0.0008763359    1.589    0.371
        85 -10.0375    216.8197    145.1998   4.6262079859e+01   8.0249227381e+00    0.2030825    0.1685948   6.30 0.0007137794    1.331    0.249
        86 -10.1583    187.6906    144.0335   5.1773326217e+01   1.4569460183e+01    0.2604684    0.2070968  44.85 0.0004763329    1.221    0.181
        87  -9.8531    240.0176    140.2703   4.1034532008e+01   4.1011815969e+00    0.1883208    0.1758304  18.93 0.0003842032    1.081    0.075
        88 -11.2218      9.3573    137.4522   9.4404490400e+01   4.5463502477e+01    0.3617419    0.1016227 -72.06  0.001576359    2.658    0.624
        89 -10.2130    144.0939    137.1621   6.0021946018e+01   2.5640297230e+01    0.2246157    0.2139214  11.72 0.0004922008    1.194    0.162
        90 -11.0508    241.3432    134.2957   3.9493662374e+01   4.8231864990e+00    0.2432035    0.2268261 -46.99 0.0004329462    1.137    0.120
        91 -10.1585     20.8738    134.9158   9.1331540599e+01   4.5111190481e+01    0.2313769    0.1346019  84.53 0.0008708873    1.634    0.388
        92 -10.0375      2.9393    134.6778   9.5689351214e+01   4.6543911909e+01     0.159268    0.1243278 -89.16 0.0006405837    1.052    0.049
        93 -10.8104     53.4579    132.5280   8.2601313186e+01   4.2330668840e+01    0.2871796    0.2104435  31.36  0.001363753    1.618    0.382
        94 -10.6401     59.4774    131.5285   8.0838778419e+01   4.1820442965e+01    0.3226717    0.2224603  -2.80  0.001552301    2.597    0.615
        95 -11.4856     36.7158    130.6847   8.6759694071e+01   4.4613142710e+01     0.441458    0.2261551 -60.15  0.002296983    1.681    0.405
        96 -11.1234     73.4865    128.9202   7.6607708497e+01   4.0533005009e+01    0.3018943    0.2674586  88.20   0.00127931    1.053    0.050
        97 -10.6683     66.8384    127.2653   7.8125322618e+01   4.1858425494e+01    0.3482897   0.08018235 -59.01   0.00111009    3.620    0.724
        98 -11.4104     15.3011    125.3299   9.1686339825e+01   4.7744300561e+01    0.3405917    0.1668128  37.70   0.00189483    2.241    0.554
        99 -11.1943     10.7384    122.1301   9.2516415789e+01   4.8806645614e+01    0.2768593    0.1914097  89.41   0.00180763    1.239    0.193
       100  -9.4020    219.3702    124.2919   4.1025333787e+01   1.1201105614e+01    0.1527119    0.1139424  15.84  0.000702532    1.721    0.419
       101 -10.2903    243.6803    122.0922   3.6375977459e+01   6.3715623469e+00    0.2049727    0.1670435 -33.34 0.0006159989    1.142    0.124
       102 -11.0393     19.9008    121.4757   9.0026635439e+01   4.8260626759e+01     0.270257    0.1252556 -67.60  0.001384926    1.691    0.409
       103  -9.9878      4.9569    122.5397   9.4050809650e+01   4.9111833219e+01    0.1343915    0.1155552  32.08 0.0002816124    1.494    0.331
       104 -12.0082     54.9549    108.7128   7.8106359973e+01   4.7749556426e+01    0.5607716    0.2602952 -54.23  0.002126461    1.876    0.467
       105 -11.6773     52.4373    115.3741   8.0065197448e+01   4.6489078270e+01    0.5339301    0.2881808 -86.08 0.0009287756    2.463    0.594
       106 -10.6787     24.3243    118.4572   8.8447572888e+01   4.8588306090e+01    0.2937441    0.1810852 -78.51 0.0009667433    1.377    0.274
       107 -10.3294      1.3633    118.6996   9.4590276014e+01   5.0197063462e+01    0.1954422   0.08623703 -78.12 0.0004496542    1.781    0.439
       108  -8.9315     77.7054    118.2541   7.3389493140e+01   4.2432376232e+01    0.1356965    0.1023162  75.71            0    1.491    0.329
       109 -10.3340     44.6309    117.8678   8.2711008353e+01   4.6781843834e+01    0.3002556    0.1839028  60.03 0.0009337813    1.881    0.468
       110 -10.6558     72.1862    116.2166   7.4550888681e+01   4.3722218994e+01    0.2994686    0.1879394 -73.36   0.00111753    1.673    0.402
       111 -11.2009     30.9748    116.9732   8.6406685760e+01   4.8347075619e+01     0.285159    0.1714281   1.08  0.001433024    2.857    0.650
       112  -9.4275     86.4653    116.5036   7.0543902393e+01   4.1475220343e+01    0.1444767    0.1307464 -81.67 4.298292e-05    1.050    0.047
       113 -11.4315     19.0162    110.5869   8.8869686240e+01   5.0814449514e+01     0.391179    0.2558289 -86.30  0.002375107    1.395    0.283
       114 -11.3605     24.1662    106.4813   8.6811339742e+01   5.1345631504e+01    0.4236465     0.285465 -13.07   0.00220607    2.187    0.543
       115 -11.1542     15.8458    115.1365   9.0339284334e+01   5.0018465164e+01    0.3392892    0.1523362 -74.20  0.001446764    1.820    0.450
       116 -11.4343     14.1745    109.5149   9.0091395155e+01   5.1413907755e+01     0.333207    0.2391189 -54.32  0.001647595    1.319    0.242
       117 -11.2034    181.9893    114.6776   4.6006144285e+01   2.1686110570e+01    0.5276253    0.3198363  35.57  0.001505282    1.965    0.491
       118 -10.6850     94.0159    112.0418   6.7411921070e+01   4.1251606215e+01    0.3460149    0.2835488  48.04  0.001675221    1.265    0.209
       119 -10.8892    249.5174    111.9597   3.3168908930e+01   6.8371287282e+00    0.2483372    0.2145065  56.60 0.0005949214    1.271    0.213
       120 -10.2428      1.3415    108.8661   9.3568912783e+01   5.2383722781e+01    0.2607641     0.109122 -67.35  0.001304209    1.754    0.430
       121 -10.0932      2.7558    104.9778   9.2738605637e+01   5.3165259927e+01    0.3326699    0.1626442  88.37  0.001755806    2.096    0.523
       122  -9.5448     84.7655    108.0056   6.9151106696e+01   4.3731219386e+01    0.1964516    0.1124393 -55.92 0.0008810592    1.631    0.387
       123  -9.9269     41.8310    108.4500   8.1943435627e+01   4.9271348372e+01    0.1641149     0.127766  32.54 0.0005853614    1.506    0.336
       124 -10.5792     31.3321    106.1775   8.4663056511e+01   5.0804726952e+01    0.2523732    0.1711081 -34.24  0.001456675    1.784    0.439
       125 -10.2087    111.7499    105.8628   6.0934493749e+01   3.9385221707e+01    0.2371492    0.1967324  37.65 -0.000275831    1.278    0.217
       126 -10.2406    119.5792    103.0391   5.8059168696e+01   3.8433622366e+01    0.3977593    0.1403423 -42.16  0.001257842    3.074    0.675
       127 -10.6089     37.3335    101.9373   8.2150974338e+01   5.1222425259e+01    0.3890219    0.2360865  72.09  0.001968125    2.189    0.543
       128 -10.1369     34.0000     97.9954   8.2471767322e+01   5.2437200646e+01    0.2478985    0.1424856 -59.78   0.00135708    1.422    0.297
       129 -11.7776     62.0950     99.1487   7.3985114931e+01   4.9075840970e+01    0.4627066    0.2844215 -43.55  0.001187297    1.635    0.388
       130  -9.4648     14.2852    102.3194   8.9097961192e+01   5.3030056291e+01    0.1207323   0.07180897 -49.38 0.0002818425    1.591    0.371
       131 -10.0821    144.2559     99.0004   5.0553471153e+01   3.3868506687e+01    0.2497687    0.2098808 -73.04  0.001206526    1.309    0.236
       132 -10.8216     21.3519     98.4612   8.6424169263e+01   5.3388679569e+01    0.2256711    0.1556975 -73.70 0.0006589745    1.215    0.177
       133  -9.7186      9.6934     99.0555   8.9998827672e+01   5.4064996763e+01    0.1634185    0.1152651 -74.59 0.0004269886    1.130    0.115
       134  -9.3628    205.6864     97.7042   3.7021835536e+01   1.9194829689e+01    0.1513066    0.1209794  17.34  0.000300387    1.600    0.375
       135 -10.2913     41.3540     96.9469   7.9990595038e+01   5.1969672768e+01     0.209332    0.1642949  76.96  0.001077877    1.435    0.303
       136 -10.6897    102.0685     95.7804   6.1074350724e+01   4.3496633376e+01    0.3314296    0.1724562  45.64 0.0009473016    1.999    0.500
       137 -11.7897    159.9226     90.2045   4.4385663871e+01   3.1910540231e+01    0.6691843    0.4943106  71.36  0.003008208    1.532    0.347
       138 -10.4734    156.6773     82.4523   4.2931968759e+01   3.4212869060e+01     0.534871    0.2850839  32.76  0.001835914    2.801    0.643
       139  -9.8948      1.4866     92.8886   9.1619392212e+01   5.5906263099e+01    0.1758687   0.08835822 -71.77 0.0008129181    1.522    0.343
       140  -9.0996     31.2849     92.3343   8.2295538630e+01   5.3963685539e+01    0.1286159   0.07830867 -43.30 0.0005262175    1.622    0.383
       141 -10.7038     55.9243     90.3283   7.3963905898e+01   5.1858643385e+01     0.229734    0.2119612 -44.52  0.001262194    1.089    0.082
       142 -11.2593     38.4140     88.5716   7.9268869546e+01   5.4156911449e+01    0.4293439    0.1572082 -54.41  0.001556826    2.165    0.538
       143 -10.8524     83.7663     88.9516   6.4771322372e+01   4.8214863296e+01     0.327686     0.272326  74.71  0.001777437    1.431    0.301
       144  -9.5272     10.5248     90.5726   8.8536497597e+01   5.5899161409e+01    0.1176236    0.0918706 -65.05  0.000201302    1.031    0.030
       145 -10.6761    227.5046     92.9635   3.2114527832e+01   1.4848649510e+01    0.2615376    0.2203384  64.17 0.0004582101    1.239    0.193
       146  -9.4499     74.0274     89.0032   6.7843150363e+01   4.9718274883e+01    0.1651105    0.1459157 -52.81 0.0009581869    1.036    0.035
       147  -9.3706     60.3410     89.2790   7.2294558490e+01   5.1545019826e+01    0.1335105   0.09732383 -26.47 0.0006194101    1.624    0.384
       148 -10.2910     78.5501     87.3601   6.5986633797e+01   4.9395948081e+01    0.2745261    0.2282998 -79.46    0.0012198    1.358    0.264
       149 -11.4764     66.1485     86.0978   6.9637167710e+01   5.1486955303e+01    0.5373017    0.2861819 -38.59  0.002420256    2.048    0.512
       150 -10.1610     47.6279     88.0959   7.6158152988e+01   5.3316823270e+01    0.1804481    0.1701205  88.29 0.0003890275    1.158    0.136
       151 -10.4803     22.3580     86.9940   8.4191027706e+01   5.5884294222e+01    0.1889608    0.1747123  62.08 0.0007702266    1.272    0.214
       152 -10.0109     10.1425     86.2848   8.7999359563e+01   5.6868454533e+01    0.2108294    0.1113556  51.38  0.001148325    2.438    0.590
       153 -11.5353    166.5446     83.6749   4.1069396163e+01   3.1529347988e+01    0.8239436    0.3464286  57.43  0.002807836    2.497    0.600
       154 -10.6637    107.2820     84.7477   5.6507399258e+01   4.4880673917e+01    0.2426781    0.2277549  35.94 0.0003196264    1.098    0.090
       155  -9.5281    116.2669     83.6072   5.3604820136e+01   4.3290035531e+01    0.2131687    0.1421613  36.55 0.0009523102    1.616    0.381
       156 -10.8738     76.1517     82.2941   6.5400692744e+01   5.0873922835e+01    0.4481925    0.2451215  39.11  0.001793665    1.967    0.492
       157 -10.1062     42.7243     82.5593   7.6552461210e+01   5.5069613968e+01    0.2171617    0.1483372 -83.35  0.001175312    1.769    0.435
       158 -11.3081     30.4233     81.6724   8.0505649128e+01   5.6417638780e+01    0.2666747    0.2176111 -54.40 0.0006100016    1.041    0.039
       159  -9.8765    103.0037     82.0376   5.6981949592e+01   4.6284780989e+01     0.227701    0.1803509 -85.47 0.0005444752    1.643    0.391
       160  -9.5295     62.4822     82.4781   6.9923545761e+01   5.2778020474e+01    0.1339134    0.1199937 -51.17 2.124671e-05    1.012    0.012
       161 -10.3419      7.2689     81.2876   8.8135355483e+01   5.8128895796e+01    0.2660387    0.1471477 -41.47  0.001580204    1.777    0.437
       162 -14.4342     16.7322     67.5057   8.2347850732e+01   6.0516764710e+01     0.625446    0.3839448 -63.36  0.001316854    1.339    0.253
       163 -10.8303     10.9679     61.9526   8.3296255670e+01   6.2042546288e+01    0.2333221    0.1937033  84.30 0.0003572115    1.441    0.306
       164 -11.7053      7.3436     73.2702   8.6767580086e+01   5.9855260060e+01    0.5345334    0.2327192  19.37  0.002894301    2.851    0.649
       165 -12.4957      3.5073     64.6075   8.6554616945e+01   6.1889363120e+01     0.918031    0.4288815 -76.28  0.003412047    2.133    0.531
       166  -9.9460    112.6831     77.8136   5.2903216934e+01   4.5221112262e+01    0.3441454     0.208833  22.92  0.001156774    2.511    0.602
       167 -10.5179     88.3710     77.5496   6.0155760565e+01   4.9898727168e+01    0.2611778    0.2260105 -72.58  0.001445667    1.303    0.233
       168  -9.5111      3.0204     78.0305   8.9013705061e+01   5.9061087399e+01    0.1434857   0.09687856 -66.46 0.0003845707    1.136    0.119
       169 -10.7859     99.8665     76.5614   5.6304706323e+01   4.8019860798e+01    0.2730226    0.2042232 -52.03  0.000320693    1.348    0.258
       170  -9.5642    184.2410     76.4550   3.5402260411e+01   2.8370165208e+01     0.206841    0.1484626  74.11 0.0004967233    1.526    0.345
       171 -11.5650     44.5812     74.6796   7.4059543027e+01   5.6599489837e+01    0.2271142    0.2055815 -58.76 0.0003962771    1.093    0.085
       172 -11.5990    167.7292     73.4108   3.7874623689e+01   3.3121818897e+01    0.2985779    0.2616417 -53.25 0.0002910775    1.156    0.135
       173  -9.4216    167.5602     69.5321   3.6779858234e+01   3.3853113863e+01    0.2139157    0.1440192  46.44  0.000116573    1.507    0.336
       174  -9.9564    107.3971     74.1683   5.3328794440e+01   4.7032309066e+01    0.2064621     0.136661 -52.53  0.000490865    1.596    0.373
       175 -10.9412     54.0039     72.0039   7.0070311300e+01   5.6109144898e+01    0.2944142    0.2097119 -76.31  0.001586285    1.769    0.435
       176 -12.2689     50.3268     68.3065   7.0370914511e+01   5.7322412436e+01      0.46934    0.3040102 -69.21 0.0005742699    1.825    0.452
       177 -10.3160     91.3453     73.3234   5.7960050208e+01   5.0251172879e+01    0.2100081    0.1622966  -9.20 0.0002060807    1.592    0.372
       178  -9.9619    102.6821     72.6866   5.4274623351e+01   4.8262383803e+01    0.1475445    0.1141314  -2.28  0.000485805    1.647    0.393
       179 -10.0719     77.9700     69.6699   6.1185165461e+01   5.3252897147e+01    0.1814718     0.174746  -8.90 0.0004035802    1.065    0.061
       180 -11.4074    122.7522     67.2616   4.6814990910e+01   4.5109678931e+01    0.2767695    0.2507258 -42.12 0.0003096842    1.116    0.104
       181 -10.8056    139.8716     66.0586   4.2007941218e+01   4.1360578138e+01     0.272721    0.2106851  53.72 0.0008687029    1.266    0.210
       182  -9.4692     93.5158     66.5196   5.5161558329e+01   5.1218560374e+01    0.1412697    0.1330958 -18.39 7.517769e-05    1.019    0.019
       183  -9.4844    131.0309     64.9264   4.3877755298e+01   4.3654413096e+01    0.1771947    0.1719742 -36.11 0.0003459626    1.049    0.047
       184 -10.7368     81.9306     63.2549   5.7868430752e+01   5.3890340155e+01    0.3918195    0.2725556 -45.89  0.002048165    1.377    0.274
       185 -11.5022    156.0813     63.4453   3.7424740214e+01   3.7823827816e+01    0.2710108     0.264532  76.74 0.0003222778    1.018    0.017
       186 -11.7330     30.3563     61.8883   7.6011319467e+01   6.0664606493e+01    0.4761475    0.4137809  55.62  0.003283089    1.462    0.316
       187 -12.7617     38.2196     49.9443   6.9617925988e+01   6.2338237127e+01    0.6886714     0.491526 -30.86  0.002975099    1.275    0.215
       188 -11.2434     35.4545     41.7851   6.8139516815e+01   6.4165409283e+01    0.5589359    0.2738522 -18.65  0.002404378    3.324    0.699
       189 -10.6147     18.2153     42.2121   7.5518351747e+01   6.5542859995e+01     0.442543    0.1397105 -39.64  0.001617098    2.902    0.655
       190  -9.0741    160.3456    249.3269   7.5421870047e+01   1.5437380462e+00    0.1190559   0.08472318  20.27 0.0007050341    1.747    0.428
       191 -10.6051     23.9829     41.7748   7.2945956508e+01   6.5191270031e+01    0.2459158    0.1573473 -57.37 0.0006084981    1.472    0.320
       192 -13.1535     27.1124     37.2591   7.0172605173e+01   6.5775192884e+01    0.4118978     0.355439  47.69  0.001298626    1.604    0.376
       193 -11.2210    202.0614     62.5304   2.8413125966e+01   2.6162360151e+01    0.2571241    0.2269161 -36.93 4.059377e-05    1.184    0.155
       194 -10.6881     76.7639     62.1729   5.9259463968e+01   5.4945227690e+01    0.2308356    0.2008317   1.81 0.0002276566    1.194    0.163
       195  -9.5941     69.4616     61.9551   6.1708001671e+01   5.6108501300e+01    0.1758031    0.1165174 -71.49 0.0006778684    2.346    0.574
       196  -9.6206    113.5731     60.8406   4.7288112669e+01   4.8294801630e+01    0.1974967    0.1356464 -51.45 0.0004546845    1.608    0.378
       197 -10.5849     98.1359     60.1863   5.1655511296e+01   5.1556603659e+01     0.236009    0.2193054 -39.30 0.0003681007    1.091    0.083
       198  -9.8235    138.0120     60.0415   4.0560809524e+01   4.2867611517e+01    0.2219157    0.1792204 -78.93 0.0003187139    1.511    0.338
       199  -9.9343    119.7069     60.6287   4.5504009108e+01   4.6998447499e+01    0.2050913    0.1393346  57.47 0.0009439403    1.574    0.364
       200 -11.1353     46.4552     59.1700   6.9207637840e+01   5.9640551213e+01    0.5230819    0.2248911 -49.87  0.002021425    1.963    0.490
       201  -9.8564    127.1837     58.8263   4.2908608707e+01   4.5627980604e+01    0.1978047    0.1675499  21.24 0.0002364208    1.286    0.222
       202 -11.0929     58.5062     58.7447   6.4616648139e+01   5.8268821263e+01    0.3087747    0.2425955  21.63 0.0009768945    1.382    0.276
       203  -9.3644    134.2500     57.9597   4.0820082666e+01   4.4124261304e+01    0.1831542    0.1283553 -37.55 0.0003678969    1.463    0.317
       204 -10.8023     80.9086     55.6463   5.5704785268e+01   5.5513910036e+01    0.3997027    0.2484606 -12.00  0.001743585    2.441    0.590
       205 -10.7113     74.7243     56.1733   5.8000101916e+01   5.6424176594e+01    0.2694259    0.1998523 -19.10  0.001010334    1.445    0.308
       206 -10.4550     11.3181     56.4799   8.1972031836e+01   6.3152124201e+01    0.2999812    0.2126077  76.55  0.001090664    1.988    0.497
       207 -10.4399      7.7831     51.5648   8.2233393699e+01   6.4350291001e+01     0.223367    0.1983681 -49.63 0.0009399464    1.152    0.132
       208 -11.9060      3.4001     48.5654   8.3298312704e+01   6.5177217867e+01    0.6625506    0.2121224 -54.78  0.003382785    2.086    0.521
       209 -12.1508     12.7366     48.3724   7.9468466655e+01   6.4701706651e+01     0.383608    0.2117104 -55.75 0.0002050992    1.414    0.293
       210 -11.0059     11.0016     43.9927   7.9051568552e+01   6.5668861624e+01     0.247346    0.1516487 -57.00 0.0006799327    1.328    0.247
       211 -10.7785      7.0055     44.4938   8.0848984950e+01   6.5797914275e+01    0.2484948    0.1347505 -27.48 0.0008385116    1.889    0.471
       212  -9.9706      7.4091     40.5037   7.9648759371e+01   6.6551817014e+01    0.2342883    0.1297765 -36.73 0.0007163463    1.544    0.352
       213 -12.8433    105.2794     52.5948   4.6910529306e+01   5.1494036653e+01    0.4939111    0.3694102  42.38 0.0003964362    1.323    0.244
       214 -10.5337    102.9061     47.4531   4.5812850915e+01   5.2850694021e+01    0.4274295    0.2218959  28.93   0.00166427    2.661    0.624
       215  -9.9175    182.2117     54.7996   2.9646618453e+01   3.2518550777e+01    0.1936806    0.1739049  27.61 0.0002467637    1.283    0.221
       216  -9.7798     89.3643     54.6559   5.2566024503e+01   5.4215773026e+01    0.1393287    0.1119929 -85.96 0.0007027353    1.852    0.460
       217 -10.5963    154.3366     52.4880   3.4411958364e+01   4.0079885893e+01    0.2520853    0.2332212  56.30 0.0002015026    1.040    0.038
       218 -11.3159    132.7939     50.0320   3.8570695982e+01   4.5785060436e+01    0.4797432     0.348522 -68.02  0.001575726    1.824    0.452
       219 -11.3892    129.0236     50.1800   3.9561924889e+01   4.6652806516e+01    0.4675647    0.3187078 -17.69 0.0006916173    1.770    0.435
       220  -9.8067     73.6704     50.6791   5.6497182437e+01   5.7611092126e+01    0.2012156    0.1592313   0.08  0.001145292    1.355    0.262
       221 -11.0354     57.0246     50.6682   6.2563505551e+01   6.0024471030e+01    0.2367049    0.2016324 -22.86  0.001267289    1.057    0.054
       222 -11.8213     51.8872     47.0492   6.3309665380e+01   6.1357751033e+01    0.5014937    0.2142783 -48.27  0.001705547    2.121    0.529
       223 -10.4504     45.1123     50.7077   6.7144458590e+01   6.1460745173e+01    0.2594677     0.154894 -42.67  0.001443995    1.432    0.302
       224  -9.9909     88.7787     50.3897   5.1272265570e+01   5.5084297883e+01    0.1900239    0.1252488  31.46 0.0004633444    1.601    0.376
       225 -10.6738     69.0863     48.0291   5.7203964915e+01   5.8803486303e+01    0.1926891    0.1716814 -16.36 0.0003661135    1.010    0.010
       226  -9.4773     92.6812     47.7192   4.9065318960e+01   5.4819955185e+01    0.1391026    0.1033747   7.80 0.0001702888    1.581    0.368
       227 -10.8034     83.0340     47.1558   5.2023573071e+01   5.6675360957e+01    0.3141101    0.1734195  42.33  0.001493694    1.863    0.463
       228 -10.1060     78.4707     47.0861   5.3554065560e+01   5.7469593402e+01    0.1944017    0.1241332 -39.12 0.0003639654    1.492    0.330
       229 -10.2898    151.5668     45.6676   3.2838945709e+01   4.1837885682e+01    0.2526988     0.216818  65.18 0.0004679035    1.121    0.108
       230  -9.4976    143.1678     45.7991   3.4719271976e+01   4.3923053388e+01    0.1997551    0.1689862  20.64 0.0006149518    1.319    0.242
       231  -9.9853    120.3483     45.9015   4.0345218079e+01   4.9337559862e+01    0.2357347    0.1798445  32.40 0.0006286399    1.350    0.259
       232 -10.7004    112.5129     45.4172   4.2309772988e+01   5.1154826558e+01    0.2545432    0.2270475  16.22   0.00143488    1.118    0.106
       233  -9.2560    171.2136     44.9483   2.8736883568e+01   3.6885056415e+01     0.179931    0.1212334 -35.33            0    1.549    0.355
       234  -9.4015    163.7889     45.3680   3.0264935048e+01   3.8751372160e+01    0.2187063    0.1269778  51.07 0.0004910642    1.647    0.393
       235 -11.1094     44.5822     43.2964   6.4918221007e+01   6.2918896587e+01    0.3207937    0.2542725 -76.68  0.001185431    1.885    0.469
       236 -11.6817     44.8392     38.1063   6.2995821516e+01   6.3828466845e+01    0.2289523    0.2179875  21.19  0.001628694    1.301    0.231
       237 -11.1459     95.5071     42.4647   4.6266429229e+01   5.5145550164e+01    0.4513326    0.2542877  43.12  0.001312636    1.748    0.428
       238 -11.1643     89.3216     41.4198   4.7845142610e+01   5.6498059514e+01    0.2795371    0.2315456  29.18 0.0007609504    1.177    0.150
       239 -11.1406     72.6024     42.7749   5.4047171267e+01   5.9178285931e+01    0.2555545    0.2458795 -36.24            0    1.212    0.175
       240 -11.1209     67.0319     41.5626   5.5620869905e+01   6.0254807982e+01    0.2809612    0.1702324 -38.78 0.0006793569    1.533    0.348
       241  -9.1146    163.2651     42.2673   2.9406981525e+01   3.9341379427e+01    0.1420347    0.1111554  31.88            0    1.462    0.316
       242  -9.9817    130.7666     41.5134   3.6180191234e+01   4.7584936390e+01    0.2455949    0.2137515  33.13  0.001337358    1.141    0.124
       243 -11.4540     81.3605     37.6984   4.9083686256e+01   5.8542781165e+01    0.6979159     0.283453 -40.35  0.002931171    2.432    0.589
       244 -10.0764     84.1360     34.7275   4.7005558615e+01   5.8509574836e+01    0.2518806    0.1874987  45.54  0.001415248    1.407    0.289
       245 -10.8728    236.0485     39.4918   1.7884044610e+01   2.1154471742e+01    0.2258379    0.1921652 -18.26 0.0003589205    1.456    0.313
       246 -10.3117    226.1895     39.8309   1.9114723375e+01   2.3494250587e+01    0.3077206    0.1186281 -50.83  0.001134304    2.696    0.629
       247 -10.4144     53.8262     36.8383   5.8907452291e+01   6.2936951487e+01    0.2413854    0.1735819 -59.30 0.0006830836    1.869    0.465
       248 -12.1150     57.6064     33.9218   5.6306940032e+01   6.2914817860e+01    0.4519787    0.2482463 -30.46 0.0005513716    1.765    0.433
       249 -10.2559    147.9516     38.9324   3.1420980099e+01   4.3736325451e+01    0.2238715    0.2043559  82.14 0.0004467689    1.116    0.104
       250  -9.7206    159.4544     38.4288   2.8939115196e+01   4.0872180635e+01    0.1479479    0.1362976  59.11 0.0001315092    1.038    0.037
       251 -10.3145    193.8851     35.8821   2.2375282998e+01   3.2242564497e+01    0.3514642    0.1996312 -48.43 0.0008681214    1.790    0.441
       252  -9.3146    165.3196     37.2656   2.7473673236e+01   3.9515450668e+01    0.1487264    0.1072649  37.21 0.0002805324    1.555    0.357
       253 -10.1998    101.5846     36.2097   4.2093791639e+01   5.4891037085e+01     0.218955    0.1666627 -18.76   0.00042326    1.356    0.263
       254 -12.6121     74.9902     35.3572   5.0390013998e+01   6.0010779643e+01    0.5717433    0.3635828  26.81 0.0007051209    1.665    0.399
       255  -9.7219     71.6168     28.7430   4.8967470761e+01   6.1591170650e+01     0.165428    0.1138038 -39.56 0.0004091984    1.504    0.335
       256 -10.0957     72.5187     24.8995   4.7063889757e+01   6.2001426959e+01    0.3432488    0.2014705  21.98  0.001567276    1.976    0.494
       257  -9.5597     74.5109     21.4269   4.4901864352e+01   6.2142555915e+01    0.2012702    0.1533812 -12.26 0.0006853093    1.246    0.197
       258 -11.7397     37.7752    243.1360   9.6499528542e+01   2.0822062360e+01    0.3872249    0.2173166  75.54  0.001803918    1.415    0.293
       259 -11.3924     28.2678    245.1214   9.8151080429e+01   2.1583869455e+01    0.3300396    0.1549438 -89.16  0.002084285    1.895    0.472
       260 -11.6722    224.6461    248.4372   6.3859157568e+01  -8.6869825161e+00    0.3646654     0.195769 -32.19  0.002171329    2.201    0.546
       261  -9.6264    125.2747    245.6656   8.1382845354e+01   7.8690325116e+00    0.1208664   0.07734239  67.22 0.0003882587    1.602    0.376
       262 -10.6581    248.1342     36.2022   1.5823229910e+01   1.8774931103e+01    0.1865791    0.1758877 -81.73 0.0004804981    1.178    0.151
       263  -8.9608    214.2849     36.6812   1.9794650790e+01   2.6894105201e+01     0.149773   0.09762469 -65.35 0.0002478383    1.589    0.371
       264 -10.4275    128.7947     36.0061   3.4745801777e+01   4.8850782033e+01    0.2348591    0.1919029  49.32 0.0003627782    1.146    0.127
       265 -11.3650    111.4578     34.7911   3.8758157125e+01   5.2993361104e+01    0.3046269    0.2591027  73.29  0.001294038    1.388    0.279
       266 -11.6972      8.1338     31.6247   7.6811907059e+01   6.8186669531e+01    0.3638948    0.2219047 -67.60  0.001354449    1.850    0.459
       267  -9.7608    177.6656     33.8783   2.4312529870e+01   3.6752046632e+01    0.2659947    0.1450245 -18.76  0.001071194    2.442    0.591
       268 -10.7196    140.0623     33.8953   3.1434535682e+01   4.6406191541e+01    0.2098005    0.1952207  54.63 0.0003166296    1.008    0.008
       269  -9.8503    105.2593     33.9257   4.0168018299e+01   5.4455451297e+01    0.1886711    0.1664549  -3.27 0.0002444396    1.122    0.109
       270  -9.8114    135.2296     35.1337   3.2935487647e+01   4.7423350655e+01    0.1946474    0.1679684 -71.83 0.0006672821    1.333    0.250
       271  -8.9749     34.3222     33.6839   6.5825090515e+01   6.5747103952e+01     0.185705    0.1559722  50.38  0.001252887    1.710    0.415
       272  -9.6436     30.7927     32.2214   6.6835204714e+01   6.6349274704e+01    0.1948446    0.1633494 -71.19   0.00131473    1.690    0.408
       273 -11.0923    221.6791     31.6948   1.7623405441e+01   2.5712667491e+01    0.2465548    0.2020784 -66.71 0.0002521843    1.107    0.096
       274  -9.4424    167.0000     31.9658   2.5537913452e+01   3.9791826095e+01    0.2261406   0.08448999 -29.46 0.0007952647    2.893    0.654
       275 -10.6875     49.4808     29.1110   5.7677142947e+01   6.4790928290e+01    0.3427842    0.1819291 -34.52  0.001302292    1.700    0.412
       276 -10.0510      1.6808     30.7371   7.9495848537e+01   6.8696462114e+01    0.3122835   0.04737542 -46.03  0.001278892    3.491    0.714
       277 -13.0854     75.2324    239.2621   8.9811641722e+01   1.6616184600e+01    0.6676948      0.48678 -61.64  0.004552596    1.762    0.432
       278 -10.7548     10.7680     24.4385   7.3270917628e+01   6.9320676116e+01    0.3438849     0.172665   2.34  0.001512749    2.440    0.590
       279 -10.8266      1.9718     25.7448   7.7883127513e+01   6.9596188869e+01    0.2867936    0.1798796 -12.72  0.001985762    1.651    0.394
       280 -10.0469      2.2883     22.6804   7.6766633663e+01   7.0128929530e+01    0.1792644    0.1329448  35.58  0.001068863    1.865    0.464
       281  -9.3527    144.9674     30.0450   2.9098396842e+01   4.5693067064e+01    0.1620921    0.1594277  50.55 0.0003042313    1.064    0.060
       282 -10.8192     79.5121     28.3296   4.6029476817e+01   6.0295704673e+01    0.3360769    0.2195695 -21.59 0.0009828465    1.549    0.354
       283 -11.4801    246.1674     27.4716   1.4025326483e+01   2.0383952368e+01    0.3317203    0.1837831 -77.18  0.001190241    1.977    0.494
       284 -11.3990    238.1539     27.9165   1.4916077864e+01   2.2203974168e+01    0.2233524    0.1865472 -68.45 0.0003104894    1.028    0.027
       285  -9.9521    156.8405     28.1669   2.6170068216e+01   4.2912059985e+01     0.204516    0.1800174  83.70 0.0002996401    1.125    0.111
       286 -10.9895    112.3748     27.1511   3.5662024197e+01   5.3835001369e+01     0.327472    0.2626268 -12.43 0.0009060602    1.313    0.238
       287 -10.8727    197.6358     28.0397   1.9684094740e+01   3.2302482552e+01    0.3035512    0.1941525  70.38 0.0005211444    1.448    0.309
       288 -10.8300    215.1075     25.6013   1.6851188273e+01   2.8145728685e+01    0.4443828    0.2129747  54.16   0.00191598    2.160    0.537
       289  -9.6255    123.4150     26.4875   3.2641010320e+01   5.1394401448e+01    0.2320303    0.1814431 -73.47  0.001021571    1.676    0.403
       290 -11.0482    101.6894     28.9706   3.9305839265e+01   5.5901932023e+01    0.3648546    0.3288659  75.04  0.001178067    1.351    0.260
       291 -10.8877     27.5286     51.4328   7.4315871870e+01   6.3025531018e+01    0.8347433      0.38024 -68.23  0.003685504    3.025    0.669
       292 -10.4357     22.4313     24.0875   6.7632476547e+01   6.8508295271e+01    0.1979142    0.1329984  -9.85 0.0005789076    1.480    0.324
       293 -10.1578    226.2041     23.1454   1.5010119814e+01   2.5697082643e+01    0.1901634     0.175221 -87.67 0.0003579981    1.130    0.115
       294  -9.6187    186.5493     22.7287   1.9729040316e+01   3.5846806221e+01    0.1812398    0.1278826 -48.43  0.000341579    1.444    0.307
       295  -9.8218    159.4606     23.4901   2.4207442152e+01   4.2812451897e+01    0.1951426    0.1785537  62.00 0.0006410326    1.036    0.035
       296  -9.8719    161.6685     20.6702   2.2937890258e+01   4.2574926972e+01    0.2814212    0.1598107  34.12  0.001188518    2.266    0.559
       297 -11.4662     58.2734     21.5721   5.1005654292e+01   6.4735190971e+01    0.5526593    0.2575903  33.82  0.002536002    2.196    0.545
       298 -10.7134     67.2367     20.9803   4.7328969324e+01   6.3427699092e+01    0.3129787    0.1842048  49.63  0.001647765    2.019    0.505
       299 -10.3275     63.7058     19.3573   4.7950136945e+01   6.4217931778e+01    0.1766825    0.1662984  -4.66 0.0006590101    1.246    0.197
       300 -10.4417     93.8765     21.8948   3.8808961762e+01   5.8440769679e+01    0.2247856    0.1935722 -36.79   0.00132891    1.307    0.235
       301 -10.3827     83.0779     21.7966   4.2155253585e+01   6.0549485073e+01    0.2231862    0.2077436  39.94 0.0006981372    1.225    0.183
       302 -11.4592    248.1508     19.8444   1.2123522399e+01   2.0893824401e+01    0.2807387    0.1632301 -19.69  0.001338651    2.405    0.584
       303 -12.1754    132.9328     18.9495   2.7786169270e+01   5.0022503180e+01    0.2945792    0.2383659  43.68 0.0003612235    1.151    0.131
       304 -11.5040     18.3902    236.8384   9.9320425789e+01   2.4152714427e+01    0.4312282      0.15628  57.33  0.002496936    2.011    0.503
       305 -10.7528     42.0157     19.1739   5.6732766689e+01   6.7280152881e+01    0.2981888    0.2020711  29.08   0.00139466    1.541    0.351
       306  -8.5561     35.1633     14.4564   5.7742729186e+01   6.8788911648e+01    0.3137583     0.145781  19.15  0.001560182    2.683    0.627
       307 -10.5068     28.7523     19.8086   6.2999045322e+01   6.8638323799e+01    0.2202311    0.1558189 -24.55 0.0003751858    1.160    0.138
       308 -12.5781      7.0879    245.4563   1.0147609653e+02   2.3816652044e+01    0.5587078    0.2931761  70.85   0.00295039    1.323    0.244
       309  -9.7983     24.3432     20.2356   6.5242005517e+01   6.8984157768e+01    0.1522598   0.09307213 -50.63 0.0002919853    1.677    0.404
       310 -11.4136     29.9053    233.9131   9.7275149772e+01   2.3404808102e+01    0.3999547    0.1609351  71.93  0.002147366    2.306    0.566
       311  -9.8212     24.0240    232.0456   9.8152073935e+01   2.4408972426e+01    0.1724395    0.1265555  51.96 0.0006278551    1.381    0.276
       312  -9.5675    177.5077    235.4672   7.0422974126e+01   6.5626876107e-01    0.1264441    0.1009803  39.36 0.0008097176    1.006    0.006
       313 -10.1522    108.1384     17.8259   3.3193499766e+01   5.5922171628e+01    0.2258293    0.1832681 -10.49  0.001310951    1.283    0.220
       314 -10.2522    160.1662    235.6047   7.3686277225e+01   3.6125987101e+00    0.1789954   0.09924846  35.33 0.0004381151    1.667    0.400
       315 -10.0650    195.3564    238.4529   6.7569010967e+01  -2.7777147902e+00    0.2096956    0.1786071  14.50  0.001098508    1.191    0.161
       316  -9.4889    115.6428    235.2967   8.2033752679e+01   1.1154769576e+01    0.1317322   0.07662302  64.02 0.0007033889    1.700    0.412
       317  -9.8930    151.7750    228.3623   7.4307898324e+01   6.2142940084e+00    0.1714463    0.1419764  57.52  0.000696961    1.118    0.106
       318 -10.8799      4.0212    226.3037   1.0115295592e+02   2.7547210111e+01    0.2388604    0.1348835 -80.79  0.001705622    1.548    0.354
       319  -9.8162    190.9959    226.7431   6.6616409789e+01  -3.9969793156e-01    0.1740681   0.09179502  41.27 0.0008894972    1.562    0.360
       320 -11.1467    103.1536     17.0190   3.4199528056e+01   5.7100629797e+01    0.2039685    0.1743862  41.74 0.0002547787    1.085    0.078
       321  -9.7696    120.5158    226.0192   8.0046578656e+01   1.1976068345e+01    0.1694225   0.09979694  84.99 0.0008094657    2.463    0.594
       322  -9.6503    112.9493    222.4690   8.1098138533e+01   1.3873975706e+01    0.1970118   0.08125033  57.65 0.0008095339    2.632    0.620
       323  -9.4296    181.5536     19.5580   1.9525433976e+01   3.7527293858e+01    0.1422398    0.1267929  78.17 0.0001786525    1.021    0.021
       324  -9.5128    185.4922     14.4569   1.7525354253e+01   3.7084009080e+01     0.141535    0.1239929  83.32 9.722173e-05    1.004    0.004
       325 -10.7159     88.5980    240.7672   8.7551055010e+01   1.4410802617e+01    0.1920494    0.1054669 -63.75  0.001125641    2.089    0.521
       326 -11.2295     15.3345    221.9016   9.9071012913e+01   2.7230456704e+01    0.2642716    0.1104798  47.54  0.001424109    1.911    0.477
       327  -9.7899     99.5005     13.5743   3.3808286067e+01   5.8270397372e+01    0.1330297    0.1141917  29.17  3.51551e-05    1.031    0.030
       328  -9.8426      1.4714     37.0395   8.1304499539e+01   6.7520216899e+01    0.1676921   0.08213697 -57.06  0.001011181    1.542    0.352
       329  -9.5011    126.4743    220.4931   7.8204337866e+01   1.1957154211e+01    0.1326127    0.1049855  59.17 0.0001969825    1.059    0.056
       330  -9.4727     77.3268    220.3006   8.7753868788e+01   1.9827584537e+01    0.1014884   0.09826291   4.65 0.0002793001    1.639    0.390
       331 -10.1935     21.5336    219.9632   9.7906267939e+01   2.6943875593e+01    0.1572102   0.08550736 -83.87 0.0005871827    1.554    0.356
       332  -9.8671    211.8831    218.9135   6.1488379057e+01  -2.8850972601e+00    0.1938724    0.1512316  15.14 0.0009411346    1.227    0.185
       333  -9.4654    120.7848    219.4184   7.9192357835e+01   1.3122206798e+01    0.1719882    0.1098038  37.38 0.0006341391    1.565    0.361
       334 -10.2515     51.3863    217.8084   9.2416443306e+01   2.3853820284e+01     0.155152   0.09416818 -68.19 0.0009570392    1.719    0.418
       335 -11.4632      9.0673    216.7771   9.9871419669e+01   2.8837612599e+01    0.3779394    0.1310298  51.02  0.002148608    2.160    0.537
       336 -12.3666     11.6783    209.4998   9.9042443253e+01   2.9984240304e+01    0.6367635    0.2039574  88.59  0.002886783    3.226    0.690
       337 -12.4149      5.5830    208.7980   1.0006954973e+02   3.0711524838e+01    0.5274627    0.1847373 -74.03   0.00290009    2.386    0.581
       338 -11.8035      1.8772    208.0982   1.0067557123e+02   3.1193803469e+01    0.4932184    0.1277627 -76.31  0.002377302    3.065    0.674
       339  -9.7352    136.4699    215.9967   7.5629514510e+01   1.1027347771e+01    0.1612615    0.1137901 -24.90 0.0007231754    2.439    0.590
       340 -11.0515     29.2589    215.5244   9.6281740789e+01   2.6952287478e+01    0.2226463     0.160429  72.39  0.001097294    1.026    0.025
       341 -10.7985     24.0267    215.9996   9.7239975856e+01   2.7437081256e+01    0.1726721    0.1221608  76.25 0.0004530021    1.026    0.025
       342 -10.2821    169.3353    212.0364   6.8501280641e+01   5.7699959613e+00     0.179278    0.1707563  45.39  0.001162001    1.124    0.111
       343  -9.5643    110.3754    212.1690   8.0374589229e+01   1.6233965806e+01    0.1716079    0.1151708 -81.54 0.0007150332    1.668    0.400
       344  -9.9746     20.3094    211.6278   9.7637726005e+01   2.8686346090e+01    0.1236025   0.05768166  68.68 0.0007033205    1.772    0.436
       345 -10.9798    237.0813    209.1306   5.5270772433e+01  -5.7776385792e+00    0.1955447    0.1433544  10.30 0.0006115552    1.295    0.228
       346  -9.4582    184.6516    208.6965   6.4952465434e+01   3.5004403300e+00    0.1357422   0.09669155  16.04 0.0007040491    1.695    0.410
       347 -10.0783    247.5667    205.7765   5.2851433901e+01  -7.0316725367e+00    0.1590071    0.1115832 -38.64 0.0009518077    1.666    0.400
       348  -8.9904     28.3134    205.6761   9.5808019097e+01   2.9005742534e+01    0.1234114   0.06235919  68.21 0.0007041016    1.661    0.398
       349 -11.3017     19.8471    200.8069   9.7057731054e+01   3.0887793939e+01    0.5058103    0.1393989 -70.67    0.0023542    2.997    0.666
       350 -10.8404    175.3351    202.3313   6.5736056882e+01   6.2963264314e+00    0.2424023    0.2043359  49.92 0.0004481721    1.105    0.095
       351 -10.0407     68.1758    201.6805   8.7738419380e+01   2.4850437161e+01    0.2255151    0.1319179 -61.97  0.001256929    1.820    0.451
