#   1 NUMBER                 Running object number                                     
#   2 MAG_AUTO               Kron-like elliptical aperture magnitude                    [mag]
#   3 X_IMAGE                Object position along x                                    [pixel]
#   4 Y_IMAGE                Object position along y                                    [pixel]
#   5 X_WORLD                Barycenter position along world x axis                     [deg]
#   6 Y_WORLD                Barycenter position along world y axis                     [deg]
#   7 A_WORLD                Profile RMS along major axis (world units)                 [deg]
#   8 B_WORLD                Profile RMS along minor axis (world units)                 [deg]
#   9 THETA_WORLD            Position angle (CCW/world-x)                               [deg]
#  10 FWHM_WORLD             FWHM assuming a gaussian core                              [deg]
#  11 ELONGATION             A_IMAGE/B_IMAGE                                           
#  12 ELLIPTICITY            1 - B_IMAGE/A_IMAGE                                       
         1 -13.6783    131.7507     94.7623   5.2395076629e+01   3.7317499259e+01      3.08073    0.5265496 -47.39  0.005823073    8.570    0.883
         2  -9.8756     54.9991     10.9942   4.6913841522e+01   6.5871094525e+01    0.1541889    0.1223818   3.84  0.001017278    1.018    0.018
         3 -10.7938     84.6382      8.1544   3.5320680010e+01   6.1028843579e+01    0.1939562    0.1785145   2.24 0.0004341146    1.200    0.167
         4 -12.5741     21.9447      4.8862   5.8749073029e+01   7.0830094315e+01     0.473466    0.4549307  13.81  0.003722233    1.730    0.422
         5 -12.8898    199.3738      4.6809   1.2876555727e+01   3.4031554269e+01    0.8746615    0.3044365  61.81  0.003568088    2.416    0.586
         6 -10.8562     88.8705      4.1783   3.2359419003e+01   6.0575008352e+01    0.2312297     0.208194  46.25  0.001487198    1.249    0.199
         7 -11.8838     14.1839      5.1957   6.2837332039e+01   7.1503797169e+01    0.3212369    0.1732673  12.06  0.002000089    1.909    0.476
         8 -12.0730    159.7988      3.4300   1.7484800420e+01   4.4109556999e+01    0.4978054    0.3171651  67.17  0.002584738    1.381    0.276
         9 -10.8364    116.2120    240.2634   8.3048512336e+01   1.0415239999e+01    0.2010024    0.1559827  59.44 0.0002297411    1.107    0.097
        10 -10.8522    186.8892    249.2479   7.1127536433e+01  -2.2622455125e+00    0.2718388    0.1937228  44.69  0.001762561    1.280    0.219
        11 -14.2662     10.9092    188.0891   9.8323449632e+01   3.3834008752e+01     2.678375    0.8579585 -65.67   0.01344825    2.652    0.623
        12 -14.7527     58.6674    230.3006   9.2619158692e+01   2.0356590554e+01      2.93674    0.9944375  44.50  0.005087046    2.337    0.572
        13 -16.2476     68.3192    194.4224   8.7405350416e+01   2.6117009275e+01     3.411902     2.935389  78.62   0.02311492    1.061    0.058
        14 -15.6435     15.6434    236.4117   1.0028718399e+02   2.4154366733e+01     1.107254    0.7474356 -37.90  0.006277857    3.596    0.722
        15 -12.7785     64.0879    219.9835   9.0762104590e+01   2.1583356405e+01     0.500239    0.3717692 -61.53  0.001375846    1.584    0.369
        16 -12.6593     54.5739    248.9546   9.4694382223e+01   1.7582822139e+01    0.4952403     0.309194  54.72 0.0001365789    1.220    0.180
        17  -9.6254    184.4687    213.5134   6.6128303059e+01   3.2602634152e+00    0.1329809    0.1121869  29.04 7.623161e-06    1.013    0.013
        18 -10.2314    135.7399    212.4848   7.5747764323e+01   1.2029401284e+01    0.2501639      0.17954 -41.41  0.001267367    1.712    0.416
        19 -15.3057     20.2451    213.2765   9.8229710224e+01   2.7951271646e+01     2.458033     1.005545  84.79   0.01086684    2.468    0.595
        20 -10.2186    227.6907    211.6736   5.7606878009e+01  -3.9065508525e+00    0.1325596   0.08547923   8.80 0.0007038927    1.657    0.396
        21 -10.8148    153.8242    210.0626   7.1703565900e+01   9.2922534723e+00     0.392566    0.1959788  27.08  0.001589317    2.762    0.638
        22 -10.1264    141.4321    211.3186   7.4418970384e+01   1.1253394965e+01    0.2262619    0.1367205  56.07 0.0005714328    1.700    0.412
        23 -14.1688     35.3661    247.1252   9.7712146698e+01   2.0171482457e+01     1.059009    0.5343688  34.12  0.006495636    2.367    0.578
        24 -10.5142    223.9743    205.7039   5.7207486414e+01  -2.4607948842e+00    0.1908553    0.1498356  25.83  0.001167036    1.102    0.093
        25  -9.5312    124.0067    205.6899   7.7194124480e+01   1.5291697483e+01    0.1817836    0.1492546  48.93 0.0003718337    1.069    0.065
        26 -11.9318    220.0208    230.5996   6.2254829264e+01  -5.1538841166e+00    0.2306111    0.1958981  14.10 0.0004803099    1.120    0.107
        27 -10.3261    212.1370    199.7431   5.8331830302e+01   4.6067407162e-01    0.2147819    0.1805168 -38.13 0.0007869756    1.400    0.286
        28 -11.3579     34.7553    199.8839   9.4630940776e+01   2.9070407446e+01    0.2112948    0.1563594  29.86  0.001421951    1.761    0.432
        29 -10.1248    192.8799    194.4223   6.1106619381e+01   4.8016447340e+00    0.3053775    0.2037483  -0.50  0.001455791    2.046    0.511
        30 -10.3415    189.1470    194.9045   6.1943914103e+01   5.4163875272e+00    0.2687235    0.2188585  64.33  0.001491571    1.562    0.360
        31 -10.4637    124.2847    195.3613   7.5625051119e+01   1.7242297681e+01    0.3156209    0.2578735   0.20  0.001748723    1.729    0.422
        32  -9.2747    172.7238    195.6870   6.5432542371e+01   8.3522302749e+00    0.1343821    0.1031013   6.36 0.0002159509    1.561    0.360
        33 -13.7431     39.2891    191.0383   9.3006278778e+01   3.0388075097e+01     1.442269    0.6982179  24.20  0.004623459    3.241    0.691
        34  -9.7795    129.9973    200.7591   7.5221872831e+01   1.5201160655e+01    0.1834579    0.1020034  42.13  0.000722399    1.600    0.375
        35  -9.9329    166.8915    237.6466   7.3203280480e+01   2.6076690149e+00    0.1849997    0.1632329  -6.47 0.0004942584    1.336    0.251
        36 -10.5130    248.5448    185.8610   4.9002256908e+01  -3.7954412300e+00    0.2385439    0.1774115  37.97 0.0007314356    1.404    0.288
        37 -10.1812     30.5447    185.5087   9.4287844921e+01   3.2482445622e+01    0.1881531    0.1445807  88.03 0.0008454061    1.051    0.049
        38 -10.9906     29.3329    181.9690   9.4233748904e+01   3.3352890279e+01    0.2142579    0.1778944  76.97 0.0008778884    1.102    0.092
        39 -10.7548     37.5684    183.8787   9.2715107743e+01   3.2082568965e+01    0.2694653    0.1808245  73.82  0.001367454    1.306    0.235
        40 -10.4281      1.9543    182.4887   9.9663963683e+01   3.5741258592e+01    0.2032611    0.1133788  81.55 0.0006318006    1.448    0.310
        41 -10.0682     24.5961    179.1404   9.4962119145e+01   3.4423162778e+01    0.2268082    0.1115163 -62.71  0.001162255    1.900    0.474
        42  -9.1663    178.5988    228.7288   6.9682524885e+01   1.9587068412e+00    0.1321888   0.08641186  19.06 0.0006979945    1.747    0.428
        43 -10.1890    128.2492    176.5995   7.1714428444e+01   2.0341480069e+01    0.1858731    0.1299708  34.82 0.0002968255    1.460    0.315
        44  -9.4042    113.6123    175.2335   7.4822178487e+01   2.3233223092e+01    0.1786678    0.1287542 -47.55 0.0003221393    1.526    0.345
        45 -10.4726     22.4135    173.6413   9.4951480985e+01   3.5804318136e+01    0.2360844    0.1399689 -72.18 0.0007345231    1.432    0.302
        46 -10.1641      7.0082    175.0983   9.8196727074e+01   3.6855984580e+01    0.1612674    0.1235963 -87.32 0.0004576725    1.088    0.081
        47 -10.3017     27.5264    172.3750   9.3768018458e+01   3.5585526078e+01    0.1863032     0.156885 -66.40  0.001324224    1.311    0.237
        48 -11.1309    105.9451    169.9546   7.5729821501e+01   2.5683458139e+01     0.395173    0.2417436  63.91  0.001524459    1.934    0.483
        49 -11.6850     91.6116    168.9350   7.8921861589e+01   2.8235676580e+01    0.5265846    0.3084099  76.14  0.002280463    2.430    0.589
        50 -11.7869     48.0388    168.8855   8.8943741621e+01   3.4164212552e+01    0.4373195    0.2386897 -50.84  0.001579391    2.084    0.520
        51 -10.4492      2.9867    170.3510   9.8670101329e+01   3.8175179735e+01    0.2036932    0.1224044 -72.87 0.0006331084    1.386    0.279
        52 -10.9335    131.7231    168.4461   6.9463412422e+01   2.1406956658e+01    0.2860524    0.1298052  46.14  0.001134019    2.106    0.525
        53 -10.2113     10.2874    167.5057   9.6973485094e+01   3.8190221244e+01    0.2194563    0.1468607  66.33 0.0008415233    1.339    0.253
        54 -11.8632     22.1681    164.1344   9.4170044380e+01   3.7883736487e+01    0.5080938    0.3072753 -63.95  0.003134779    1.509    0.337
        55 -12.8774     21.7546    153.8230   9.3285454553e+01   4.0192028856e+01    0.6385345    0.5528123  53.20  0.004000455    1.299    0.230
        56 -11.3374     22.4013    149.2621   9.2676667224e+01   4.1151514840e+01    0.3163667    0.1851948  41.13  0.001156497    1.828    0.453
        57 -10.0135     14.4747    156.4725   9.5163795539e+01   4.0230525128e+01     0.197909   0.09150682 -75.90 0.0006514374    1.746    0.427
        58 -10.2731    205.4845    164.9998   5.2730119546e+01   7.3614361780e+00    0.2114489    0.1388842 -35.83 0.0004851857    1.551    0.355
        59  -9.5509    113.2247    227.6068   8.2178543710e+01   1.3042926813e+01    0.1752824    0.1046785  35.28 0.0009504197    1.675    0.403
        60 -15.3808      8.2023    227.4287   1.0103635407e+02   2.6495486685e+01     1.145773    0.8101251  64.86  0.009210936    1.127    0.113
        61 -11.2571     28.0873    160.4312   9.2513073327e+01   3.8144112884e+01    0.2459038    0.1838062 -81.60 0.0004526472    1.095    0.087
        62 -10.9701    212.0745    223.8141   6.2584547674e+01  -2.9757146718e+00    0.2860559    0.2149662  -7.56  0.001778478    1.387    0.279
        63 -14.4225     95.0446    195.6909   8.1930246534e+01   2.1985482623e+01       1.5856    0.9576696 -75.61    0.0082135    1.851    0.460
        64 -10.1591     50.8945    154.1179   8.6495157120e+01   3.7155148578e+01    0.1939228    0.1499028  78.99 0.0004127461    1.217    0.178
        65  -9.6004    126.1415    151.8514   6.7596719041e+01   2.6040434267e+01    0.1931218    0.1743114   2.11            0    1.298    0.230
        66 -10.1308    130.0051    151.2768   6.6542707988e+01   2.5425311843e+01    0.2141505     0.187717  47.30  0.000489554    1.110    0.099
        67  -9.9910    171.6546    150.3272   5.6645356801e+01   1.7094075227e+01    0.1536115     0.121776  86.06 0.0007050388    1.748    0.428
        68 -11.6890    108.8098    148.3317   7.1183140028e+01   3.0007680842e+01    0.3853346     0.313922 -47.96  0.001565943    1.267    0.210
        69 -10.5755    125.1973    221.9960   7.9152953220e+01   1.2104718468e+01    0.2303486    0.1807878  76.11 0.0004677558    1.369    0.270
        70  -9.3792    224.3419    148.6722   4.5543802632e+01   6.3793822799e+00    0.1390353    0.1158791 -75.49 0.0007051281    1.740    0.425
        71  -9.5772      5.1317    147.1960   9.6433571053e+01   4.2986414087e+01     0.147994    0.1053193  74.22 0.0003145492    1.274    0.215
        72 -12.3424    103.2865    142.1716   7.1382113878e+01   3.2372745280e+01     0.823855    0.4212499  43.03  0.003517701    1.959    0.490
        73  -9.7253     24.9215    144.7095   9.1596440739e+01   4.1951827180e+01    0.1647406     0.136347  87.45 0.0005007694    1.073    0.068
        74  -9.3292    176.3734    137.6782   5.2715914922e+01   1.8580864154e+01    0.1582455    0.1238724  88.87 0.0004559121    1.811    0.448
        75 -11.7812    136.3405    130.7007   6.0480373276e+01   2.8661671818e+01    0.5718254     0.292839  42.82  0.002264179    1.943    0.485
        76 -13.1737    143.5466    132.6419   5.9154850748e+01   2.6737338216e+01      1.06357    0.6693572 -14.41  0.003843194    2.932    0.659
        77 -13.3824    153.4587    130.4743   5.6250291825e+01   2.5075743439e+01     1.081619     0.665858  35.26  0.004558266    1.745    0.427
        78 -15.7354     21.9966    239.2136   9.9417069692e+01   2.3004681147e+01    0.7451375    0.6285216  78.86   0.00376354    1.323    0.244
        79  -9.7603     11.3054    133.2921   9.3664795902e+01   4.5619248574e+01    0.1615794    0.1472513  30.78 0.0006518218    1.413    0.292
        80  -9.4674    205.1922    131.8318   4.5320485866e+01   1.3344434604e+01    0.2016586    0.1683506   1.02 0.0002578354    1.287    0.223
        81  -9.5842    126.4743    131.9526   6.3259003521e+01   3.0383054494e+01    0.2179929    0.1476908 -48.65 0.0003713255    1.475    0.322
        82 -10.3596     31.1708    128.8940   8.8098095310e+01   4.4995648167e+01    0.3341538    0.1864168 -61.57  0.001352286    1.487    0.328
        83  -9.7012     14.3938    126.9672   9.2197856514e+01   4.6814837508e+01    0.1605181    0.1480307  86.72 0.0005304646    1.195    0.163
        84  -9.8484    245.3824    123.0132   3.6067521528e+01   6.3955200798e+00     0.197196     0.180568  26.10 0.0002873525    1.148    0.129
        85 -10.3647    173.1246    238.6015   7.2166236355e+01   1.4341214145e+00    0.1907897    0.1709109   7.77 0.0004553139    1.225    0.184
        86 -10.3468    189.0388    121.0236   4.5958991874e+01   1.8972823497e+01    0.2226146     0.217465 -10.20  0.001199714    1.021    0.021
        87 -10.5380     43.1095    120.8947   8.3688843890e+01   4.5688344392e+01    0.2220832    0.1927108   3.70  0.000669044    1.457    0.314
        88 -13.0717    152.8373    118.6065   5.3472693360e+01   2.7697234457e+01     1.074196    0.3690166  44.00  0.003400654    2.917    0.657
        89 -10.7086    100.8648    119.4006   6.7183382296e+01   3.8016886700e+01    0.4838901    0.2143818  47.33  0.001833219    2.481    0.597
        90  -9.8892     35.9322    120.4754   8.5608290436e+01   4.6494509317e+01    0.1609972    0.1274784  26.64 0.0006594576    1.529    0.346
        91 -10.0199    232.3606    118.6959   3.7216512931e+01   9.7788198013e+00    0.1443914    0.1130251 -71.41 0.0007038465    1.727    0.421
        92  -9.9056    184.3230    117.6571   4.6104821097e+01   2.0699232528e+01    0.1591178    0.1244395 -77.59 0.0007050542    1.730    0.422
        93 -14.0285    149.1125    106.1204   5.1118340125e+01   3.1118179078e+01     1.545444     1.192145  35.08  0.007301078    1.345    0.257
        94 -10.3988     48.3192    115.2455   8.1258765014e+01   4.6449239471e+01    0.2467226    0.1741745  47.65    0.0014002    1.594    0.373
        95 -12.9799    138.6440     93.7310   5.0315054198e+01   3.6002839958e+01     1.001187    0.6149494  66.92  0.003840116    2.386    0.581
        96 -11.6381     53.4302    110.8698   7.8965206674e+01   4.6893206647e+01    0.2851732    0.2559294 -29.50  0.001491084    1.230    0.187
        97 -10.5329    238.1701    248.7097   6.1962441572e+01  -1.0029396484e+01    0.1771681    0.1451956 -16.90  0.001307381    1.418    0.295
        98  -9.9242     23.9458    115.9082   8.8243294763e+01   4.8592917539e+01    0.1867176    0.1451632 -69.84 0.0005940263    1.040    0.039
        99 -10.1861     91.9959    108.1419   6.7041151356e+01   4.2098354783e+01    0.2104657       0.2005 -51.48 0.0003316166    1.012    0.012
       100  -9.9021    116.7943    103.0582   5.8714002592e+01   3.8686217914e+01    0.2595299     0.176636 -19.09  0.001093341    2.007    0.502
       101 -10.9050    223.1250    220.0247   5.9909175045e+01  -4.2790457533e+00    0.2567258    0.2414892  69.25   0.00119684    1.628    0.386
       102 -12.0249     57.0497     99.6869   7.5582327671e+01   4.9041177139e+01    0.5969613    0.2430955 -48.13  0.002522083    2.181    0.541
       103 -11.5538     54.4356     92.9426   7.4899479589e+01   5.0877691406e+01    0.3402866    0.2237446  51.86  0.001772547    1.919    0.479
       104  -9.7015    237.8401     98.8426   3.1598343536e+01   1.1880550621e+01    0.1913837    0.1605397 -62.68 0.0003880462    1.317    0.241
       105 -11.7652     10.1920    100.7836   8.9999909807e+01   5.2994470928e+01    0.1972448    0.1578818 -73.73 0.0003048816    1.068    0.064
       106 -10.0546     21.2331     98.2773   8.6334931743e+01   5.2806942991e+01    0.3180522    0.1137346 -48.20  0.001431127    2.448    0.591
       107 -10.4153    117.2881     95.4063   5.6491927132e+01   4.0225136257e+01    0.2763467    0.1944336  52.54  0.001273612    1.550    0.355
       108 -10.8679     59.0906     91.8497   7.3158025948e+01   5.0564476263e+01    0.2363272    0.1742414 -64.85 0.0007175765    1.350    0.259
       109  -9.7880    232.7621     89.2893   3.0070983160e+01   1.4539317081e+01    0.3091539    0.1240748  53.65   0.00102197    2.584    0.613
       110  -9.2810     66.5268    116.4809   7.6259873515e+01   4.3973494577e+01    0.1366598    0.1224279 -62.71 9.414438e-05    1.002    0.002
       111 -12.5020     51.0718     83.2565   7.3708988420e+01   5.3416215461e+01    0.5712508    0.3162723  38.61  0.002874506    2.087    0.521
       112 -12.1621     48.8280     78.6721   7.3327886549e+01   5.4665458524e+01    0.5870916    0.2471075  37.20  0.002618456    2.712    0.631
       113  -9.2080     11.7141     87.3053   8.7466213345e+01   5.5895482350e+01    0.1114021   0.08195607  81.66   0.00026848    1.564    0.361
       114 -10.5524     21.9898     80.7767   8.2924096755e+01   5.6645509008e+01    0.2061674    0.1426669 -59.84  0.000293175    1.166    0.142
       115  -9.8429    214.0740     78.5435   3.0328452750e+01   2.0603230282e+01    0.2101729    0.1453609  59.17 0.0004308198    1.491    0.329
       116 -10.0340    112.0054     76.4998   5.2433691505e+01   4.5153168057e+01    0.2557903    0.2165202  25.80  0.000972418    1.205    0.170
       117 -10.1268    116.5071     74.1852   5.0429446465e+01   4.4672274546e+01    0.2958084    0.2189109  33.45  0.000900377    1.389    0.280
       118 -10.1097     74.9392     75.7731   6.3722812742e+01   5.1884804358e+01    0.2055054    0.1739126 -14.68 0.0004754977    1.191    0.160
       119 -11.8490    115.8699     85.7276   5.4115841530e+01   4.2522762479e+01     0.263791    0.2562453 -42.46 0.0002517793    1.070    0.065
       120 -10.0305     65.9489     74.0211   6.6226386796e+01   5.3542921537e+01    0.1956831     0.168969 -31.13 -0.002661949    1.039    0.037
       121 -12.6588     29.9673     65.0548   7.6566425173e+01   5.9394107297e+01    0.9815164    0.5624833  31.48  0.005537586    2.065    0.516
       122 -11.6381    100.5395     68.7635   5.3390220987e+01   4.8909260069e+01    0.6008657    0.3387406 -23.97  0.002443416    2.270    0.559
       123 -10.0883    199.1732     65.1784   2.9250978478e+01   2.6372067725e+01    0.2037292    0.1681384 -63.82 0.0004237879    1.285    0.222
       124 -11.0897    178.4137     64.3547   3.2754529830e+01   3.1715311551e+01    0.2836339    0.2584597  31.12  0.000327782    1.144    0.126
       125 -10.5288    140.1811     62.0046   4.0313694808e+01   4.1548915059e+01    0.2368855    0.1621668  31.10  0.001058881    1.614    0.380
       126 -11.3716    166.0063     58.4428   3.3451703338e+01   3.5781254630e+01    0.2565783    0.2400367 -28.64 0.0004964034    1.102    0.093
       127 -10.0337      4.6372     59.2047   8.4616475787e+01   6.2304368488e+01    0.1846466    0.1483086  -7.01  0.001350263    1.445    0.308
       128 -10.3978    194.2121     57.4940   2.7968315999e+01   2.8792077571e+01    0.2385239    0.2325955  -3.77  0.001344707    1.096    0.088
       129 -10.8784     55.0186     57.8469   6.5208471569e+01   5.8247487300e+01    0.3172586    0.1968884  44.99  0.001643275    2.087    0.521
       130 -11.4844     50.4813     56.1912   6.6369626961e+01   5.9122573539e+01    0.3838914    0.2776557  69.67  0.001926601    2.636    0.621
       131 -10.5713      9.6685     44.5243   7.9109023448e+01   6.4990968346e+01    0.2363498    0.1188463 -58.58  0.001348373    1.661    0.398
       132 -11.4642     52.5679     43.2489   6.1202021406e+01   6.1286066229e+01    0.4146273    0.2051331  25.75  0.002010435    2.261    0.558
       133 -10.2212    122.0722     41.5263   3.7955867885e+01   4.8972944225e+01    0.2212456    0.1363758  51.33 0.0009081424    1.564    0.361
       134 -11.1369     59.7703     39.3656   5.6997881547e+01   6.0993845899e+01    0.2513507    0.1592577  27.61   0.00137831    1.627    0.385
       135  -9.4111     56.9490     36.9532   5.7161563618e+01   6.1792084638e+01    0.1590407    0.1488958 -31.12 0.0004396598    1.322    0.243
       136  -9.6568     36.5010     39.4924   6.6323543352e+01   6.3803151652e+01    0.1228414   0.09986485 -27.61 0.0008103314    1.039    0.038
       137 -11.6500     70.5487     35.7183   5.1596646018e+01   5.9961961112e+01     0.259203    0.1166564 -32.53  0.001150808    2.140    0.533
       138 -10.4718    106.5264     31.3764   3.8400735413e+01   5.3813595889e+01    0.2594168    0.2163969  14.70 0.0006901859    1.129    0.114
       139 -11.2292     78.0593     31.1059   4.7122514535e+01   5.9400844783e+01    0.2745269    0.2504361 -61.97 0.0007249612    1.571    0.364
       140  -9.7270    247.6844     31.7071   1.4474250824e+01   1.9478822205e+01    0.1208503   0.09950643  34.23            0    1.599    0.374
       141 -10.2952     84.3983     24.1280   4.2169795116e+01   5.9215394043e+01    0.2419256    0.1776793  60.39  0.001188926    1.827    0.453
       142 -10.1329    173.2462     22.4331   2.1240962066e+01   3.8787049444e+01    0.3878876    0.1774368 -57.85  0.001358323    3.399    0.706
       143  -8.9058     50.2869     22.2973   5.3870273068e+01   6.5006751335e+01    0.1249008   0.08119367  -5.55 0.0002371233    1.551    0.355
       144  -9.6765     21.6285     22.6836   6.6637937138e+01   6.8123939640e+01    0.1258916    0.0689183 -20.59 0.0007034205    1.789    0.441
       145 -10.8282     30.9273     15.5303   5.9340592663e+01   6.8361487789e+01     0.234801    0.1290776 -25.14  0.001312166    1.597    0.374
       146 -10.9013     10.7318     16.1358   6.9293388531e+01   7.0068379955e+01    0.2282799    0.1344705  26.46  0.001481677    2.009    0.502
       147  -9.5702    172.9978    249.0022   7.3623504013e+01  -2.8990412196e-03    0.2374287    0.1336276   9.44 0.0009605754    4.146    0.759
       148 -10.0333    214.2269     10.4208   1.2780322262e+01   2.9794867797e+01    0.1918666    0.1146187  88.45  0.000949941    1.680    0.405
       149  -9.4094     93.3320    248.8358   8.8048674325e+01   1.2415314861e+01    0.1292643    0.1008772 -63.32 0.0003508047    1.579    0.367
       150  -9.6337    125.1499    248.1617   8.2275992091e+01   7.7569429579e+00    0.1537925    0.1123701  61.06  0.001007837    1.267    0.211
       151 -10.1506     83.6151    246.2803   8.9530069429e+01   1.4214047073e+01    0.2688605    0.1001318  44.90  0.001372821    2.075    0.518
       152 -10.9389    180.4880    244.2908   7.1601726102e+01  -5.7148659471e-01    0.3279235     0.132091  43.96 0.0009534917    2.052    0.513
       153 -10.0095    173.6031    220.2093   6.9337398431e+01   4.1204861113e+00    0.2220307    0.1279262 -49.36  0.001140022    2.149    0.535
