#   1 NUMBER                 Running object number                                     
#   2 MAG_AUTO               Kron-like elliptical aperture magnitude                    [mag]
#   3 X_IMAGE                Object position along x                                    [pixel]
#   4 Y_IMAGE                Object position along y                                    [pixel]
#   5 X_WORLD                Barycenter position along world x axis                     [deg]
#   6 Y_WORLD                Barycenter position along world y axis                     [deg]
#   7 A_WORLD                Profile RMS along major axis (world units)                 [deg]
#   8 B_WORLD                Profile RMS along minor axis (world units)                 [deg]
#   9 THETA_WORLD            Position angle (CCW/world-x)                               [deg]
#  10 FWHM_WORLD             FWHM assuming a gaussian core                              [deg]
#  11 ELONGATION             A_IMAGE/B_IMAGE                                           
#  12 ELLIPTICITY            1 - B_IMAGE/A_IMAGE                                       
         1 -15.8120    185.6696     96.3507   7.0951339051e+01   2.5082611514e+01     2.328716     1.225284 -46.85  0.009015734    2.253    0.556
         2 -19.6076    173.8380    145.1544   8.4189869306e+01   2.0085594576e+01     7.626075     6.911414 -36.83   0.04923812    1.248    0.199
         3 -12.0657    238.8521     16.0822   4.0876782161e+01   2.2329590416e+01    0.4208761    0.2586486 -54.17  0.001546677    1.705    0.413
         4 -11.1567     23.6554     11.0413   9.2286303758e+01   7.2647451878e+01    0.2888689    0.1521323 -38.99  0.000845449    1.731    0.422
         5  -9.7307    165.8795      8.1407   4.5828598631e+01   4.2193780434e+01    0.2020082    0.1688211  22.30  0.000372206    1.253    0.202
         6 -10.8985     26.9016      6.9787   8.8240506017e+01   7.3112670097e+01    0.1938978    0.1741742   9.65 0.0004036138    1.290    0.225
         7 -11.0464    107.7468      4.3671   5.4469243750e+01   5.8165427982e+01    0.2707044    0.2299954  22.01 0.0003607497    1.162    0.139
         8 -11.3880      7.5280      4.9043   9.9745482196e+01   7.5285683912e+01    0.1966557    0.1773844  -5.66 0.0005566928    1.324    0.245
         9 -11.1632    245.7636      3.5892   3.6901106822e+01   2.1809581287e+01    0.1777965    0.1219802 -75.98  0.000453912    1.620    0.383
        10 -10.4550     40.2613      2.7838   7.8140341991e+01   7.2153202796e+01    0.1949025    0.1760128  49.64  0.001273446    1.430    0.301
        11 -11.3215    206.5050      1.8232   3.9282533218e+01   3.1715053424e+01    0.2566216    0.2029709  77.90  0.000674776    1.317    0.240
        12  -9.7432     62.6974    157.0595   1.0944859979e+02   3.6069673241e+01    0.1531872    0.1252957  77.61 0.0002102747    1.068    0.064
        13 -11.6846    218.8406    249.9124   9.2365196318e+01   1.5659804752e+00    0.3502117    0.1257808  43.65  0.001809635    2.185    0.542
        14 -12.8942    193.0793    248.8163   9.5945417910e+01   5.0134269972e+00    0.3563519    0.1538652  39.18 0.0005765921    1.578    0.366
        15 -11.6685    135.4942    250.5581   1.0476786784e+02   1.2427595824e+01    0.2462271    0.0830947  45.90  0.001443698    2.087    0.521
        16 -10.3084    132.7685    246.5505   1.0484866593e+02   1.3217688216e+01    0.1498544   0.09096247  46.28 0.0008661179    1.159    0.137
        17 -11.2324    125.4783    248.7451   1.0615878626e+02   1.3913913555e+01    0.1920934    0.1569034 -62.79  0.001267457    1.743    0.426
        18 -11.5936    122.2238    244.4642   1.0631909858e+02   1.4818548015e+01    0.3338287    0.1403283  44.61  0.001531072    1.630    0.386
        19  -9.4957     16.2984    250.3289   1.2287814159e+02   2.5875272268e+01    0.0680978     0.061718  59.87 0.0004685001    1.638    0.390
        20 -10.5134    207.2910    240.5851   9.2936828703e+01   3.8183749111e+00    0.1811239   0.07037318  43.22 0.0007833142    1.952    0.488
        21 -10.4760    150.9184    239.9699   1.0142229524e+02   1.1526818669e+01    0.1898518     0.108678  49.09  0.001316727    1.415    0.293
        22 -12.1358    125.5557    235.3317   1.0501927350e+02   1.5457453971e+01    0.3055907    0.2171711  83.23  0.002020943    1.899    0.473
        23 -11.5437    104.0928    237.1434   1.0862478329e+02   1.8017918042e+01    0.3649248    0.1685148  57.67   0.00232475    2.054    0.513
        24 -11.1110     59.7937    239.0105   1.1582927228e+02   2.3024357396e+01     0.218934   0.07525704  47.41  0.000823794    1.865    0.464
        25 -11.5010    243.6763    235.7068   8.7150008440e+01  -5.9386961101e-01    0.2682576    0.1487687  12.47 0.0006739246    1.690    0.408
        26 -10.7586     68.9078    236.4434   1.1424012671e+02   2.2350206360e+01     0.157235    0.1148207  72.18 0.0004244151    1.277    0.217
        27 -11.6668    118.3983    234.9720   1.0614290588e+02   1.6445286674e+01    0.2088269    0.1636294  64.61  0.000982772    1.294    0.227
        28 -11.1606     42.9864    235.6039   1.1832907794e+02   2.5286978245e+01    0.1498986    0.1067178  72.92 0.0003557431    1.249    0.199
        29 -10.4156     33.3639    235.7243   1.1984830444e+02   2.6245009580e+01     0.168663   0.09059135  59.21 0.0006449925    1.270    0.213
        30 -12.7173    156.2963    223.8974   9.8906396160e+01   1.2557887039e+01     0.386802    0.2170361 -47.20 0.0009575001    2.447    0.591
        31 -12.9174    164.7530    231.0194   9.8326802665e+01   1.0578597866e+01    0.2456969    0.2226005  43.70 0.0007307113    1.297    0.229
        32 -13.1631    164.8300    224.2162   9.7560694293e+01   1.1302984372e+01    0.6349334    0.2162662  43.49  0.002823262    2.168    0.539
        33 -15.1627    245.6973     92.9739   6.0602278745e+01   1.2608303327e+01     3.395942     1.501371  21.96   0.01162186    4.062    0.754
        34 -15.8388    230.7303    168.5669   7.8806285739e+01   7.0512160401e+00     1.754185     1.181245  -7.33  0.007790322    1.471    0.320
        35 -15.7986    142.4580    189.1397   9.7143621199e+01   1.9062478704e+01     1.580584     1.169368 -53.34   0.00940323    1.688    0.408
        36 -15.1302    239.8723    142.3294   7.2426948786e+01   8.2472819220e+00    0.8581894    0.5563647  12.55  0.003054794    1.486    0.327
        37 -16.1020    207.6306    179.6272   8.4373885043e+01   9.6622992580e+00     2.062413      1.23709   7.37   0.01156727    2.109    0.526
        38 -16.0338    119.6739    154.4234   9.6735856327e+01   2.8265781776e+01      1.51335     1.289221  59.57  0.006352096    1.050    0.048
        39 -10.5656    209.9807    247.4105   9.3338317425e+01   2.9071775644e+00    0.1697615     0.147908  73.04  0.001461452    2.162    0.537
        40 -16.4254    211.7283    122.1820   7.2588327446e+01   1.5892354626e+01     2.176044     1.233036  53.83    0.0105912    1.901    0.474
        41 -16.4953    142.6873    143.1698   9.0016336547e+01   2.6213714139e+01     2.453218     1.298848 -25.68  0.009480798    3.835    0.739
        42 -16.2711    186.6984    179.5462   8.7869253468e+01   1.3135468177e+01     1.614331    0.8963342  31.48  0.006159052    1.669    0.401
        43 -16.9686    208.0749    133.3672   7.5637374674e+01   1.5158041781e+01     3.163267     1.658363  53.67   0.01499771    2.084    0.520
        44 -16.0965    190.1779    166.7642   8.5150700911e+01   1.4141483297e+01     1.659032     0.606811  35.23   0.00684444    2.885    0.653
        45 -11.2730    176.0590    244.9252   9.8060767552e+01   7.6326396835e+00    0.2793404    0.1240134  37.16  0.001189028    1.611    0.379
        46 -11.7589     13.3647    152.2837   1.1992475381e+02   4.2156238147e+01     0.301974    0.1104687 -78.60  0.001639216    2.359    0.576
        47 -10.2125     83.7327    154.0041   1.0446846375e+02   3.3868163037e+01    0.1660092    0.1380604  86.49 0.0003632857    1.138    0.121
        48 -10.3320    246.2349    152.6849   7.3525303679e+01   6.0983331889e+00    0.3137007    0.2022312  57.25  0.001224355    2.198    0.545
        49  -9.8926     15.1520    223.8914   1.2234280390e+02   2.9692779811e+01    0.1509263   0.07840125  57.85 0.0006921026    1.262    0.208
        50 -12.5110     79.2723    144.3070   1.0425233885e+02   3.6384043579e+01    0.2546156    0.2059455  70.46 0.0003683844    1.071    0.066
        51 -11.3551     76.1554    150.1497   1.0569287714e+02   3.5662938494e+01    0.1847967    0.1505167  67.00 0.0004028321    1.028    0.027
        52 -11.4841     73.0035    146.9859   1.0603036708e+02   3.6711711827e+01    0.2295713    0.1903439  66.68 0.0003347326    1.029    0.028
        53 -12.2270     73.4256    141.6616   1.0527550359e+02   3.7720127564e+01    0.4068389    0.2344972 -78.91 0.0008280195    1.824    0.452
        54 -11.8813     70.7712    138.3752   1.0548591792e+02   3.8745878986e+01    0.3399192    0.2186105  73.26 0.0006399232    1.568    0.362
        55 -11.4379     54.3685    147.5600   1.1037265112e+02   3.8948776400e+01    0.3083337     0.145098 -59.82  0.001644803    2.231    0.552
        56 -10.0362      6.9804    224.0360   1.2364868299e+02   3.0401811471e+01    0.1120251   0.07068436  58.60 0.0003901765    1.028    0.027
        57 -10.9515     29.3318    143.2764   1.1577951213e+02   4.2506299998e+01    0.2725402      0.15305  73.23  0.001250927    1.539    0.350
        58 -10.9004     73.8344    219.5708   1.1238501607e+02   2.4140840265e+01     0.243424    0.1756704 -62.20  0.001947868    1.848    0.459
        59 -10.5603     36.3762    141.0892   1.1396040377e+02   4.2251514010e+01    0.1618747    0.1384211  67.90 0.0002870078    1.157    0.136
        60 -10.0244     23.0739    137.8694   1.1685205027e+02   4.4200201848e+01    0.1782091    0.1152371  67.95 0.0005684982    1.253    0.202
        61 -10.2346     55.4722    135.9616   1.0888201052e+02   4.1189070131e+01    0.1717241    0.1411469  66.14 0.0004487766    1.077    0.071
        62 -10.9230    108.1743    219.6982   1.0652781359e+02   1.9770055632e+01    0.1545758    0.1423347  78.58 0.0005569013    1.323    0.244
        63 -10.4117     72.6918    134.1557   1.0446802207e+02   3.9354234591e+01    0.1971083    0.1401205  85.89  0.000879602    1.373    0.272
        64  -9.7578     47.4960    133.4742   1.1055979799e+02   4.2638663688e+01    0.1198097   0.09747598  77.93 0.0001065482    1.010    0.010
        65 -12.4532     78.1881    131.3968   1.0273870294e+02   3.9158924366e+01    0.4949362    0.3175696 -77.94 0.0003884392    1.593    0.372
        66 -10.9131     80.6631    124.3141   1.0104786286e+02   4.0281668993e+01    0.2471756    0.1695165 -67.15 0.0009903726    1.421    0.296
        67 -10.8954     68.3507    130.9258   1.0509770454e+02   4.0612719570e+01    0.2125414    0.1489518  56.97 0.0005146575    1.300    0.231
        68 -11.5097     62.9553    128.8159   1.0616341495e+02   4.1762617182e+01    0.2785195    0.1961682  84.53 0.0005528503    1.339    0.253
        69 -10.3724    205.1525    217.8460   9.0418749704e+01   6.1311973088e+00    0.1489327    0.1151084  37.15 0.0004039293    1.209    0.173
        70 -10.3492     46.8492    124.6623   1.0975048697e+02   4.4589207130e+01    0.2267502    0.1368977 -51.85  0.001269433    1.959    0.489
        71 -10.3330     72.7655    123.3652   1.0290842401e+02   4.1611817805e+01    0.1789515    0.1528493  57.27   0.00010497    1.141    0.124
        72 -11.8467     67.5815    119.9691   1.0373956462e+02   4.3050173751e+01    0.5476713    0.2873165  69.35  0.002499625    2.433    0.589
        73 -11.9155    201.2068    232.8717   9.2918360406e+01   5.3105555185e+00    0.1964082     0.153795  33.19 0.0004493159    1.177    0.151
        74 -10.5512     78.9896    116.7570   1.0024121208e+02   4.2136853328e+01    0.3202924    0.1557936 -52.28 0.0009420685    2.135    0.532
        75 -10.6288     84.5038    108.0778   9.7212579952e+01   4.3176392252e+01    0.1896509    0.1602011 -70.03 0.0008609289    1.127    0.112
        76 -12.3001     93.4506    105.5204   9.4301886152e+01   4.2282612278e+01    0.3450437    0.2387248 -26.32 0.0007393967    2.289    0.563
        77 -12.1519    174.9364    231.3786   9.6766275626e+01   9.1138228148e+00    0.3286014    0.2170492  36.43  0.002095621    1.090    0.083
        78 -11.5891     93.6883    115.5100   9.6207424125e+01   4.0121841825e+01    0.4270107    0.2941983  89.29  0.002202719    1.729    0.421
        79 -12.8106     95.6784    110.1178   9.4648425750e+01   4.0931501267e+01    0.5002313    0.3212551 -44.49  0.002523609    1.752    0.429
        80 -12.0552     89.4963    109.7592   9.6202501595e+01   4.2022342116e+01     0.359046    0.3408753 -86.33  0.001776933    1.098    0.089
        81 -11.3358     87.0475    115.1377   9.7853880840e+01   4.1260634923e+01    0.3339829    0.2636999 -12.76  0.001727515    2.018    0.505
        82 -10.4007    249.8948    114.1045   6.4957699655e+01   9.4714630010e+00    0.2680448    0.1542009 -10.38  0.001389125    1.682    0.406
        83 -11.6349      6.1772    114.7885   1.1950848603e+02   5.0454487868e+01    0.2023666    0.1466109  76.24 0.0008948883    1.076    0.071
        84  -9.9574     31.3268    114.6968   1.1275860535e+02   4.8383621465e+01    0.1267651   0.07251998  66.98 0.0004745832    1.644    0.392
        85 -10.1914     48.9983    113.5147   1.0779865043e+02   4.6784746956e+01    0.1822917    0.1403612 -83.48 9.028703e-05    1.123    0.110
        86 -12.0511     73.3040    109.4044   1.0049831729e+02   4.4562076419e+01     0.429345    0.2311839 -53.80  0.001460428    1.859    0.462
        87 -10.6593     32.8228    111.6053   1.1201721137e+02   4.8924230063e+01    0.1575212    0.0951686  50.31 0.0002764486    1.576    0.365
        88 -10.7275     23.7108    108.6536   1.1424202699e+02   5.0420856898e+01    0.2061182    0.1631942  63.54 0.0008388758    1.183    0.154
        89 -10.9894     60.2123    216.1586   1.1450181441e+02   2.6236200789e+01    0.1863208    0.1646933  68.64  0.001500486    1.339    0.253
        90 -10.7295     84.5557    100.0043   9.5585779148e+01   4.4929778402e+01    0.1975707    0.1674069 -70.89 0.0004350626    1.105    0.095
        91 -12.0066     86.6773     93.7176   9.3625398458e+01   4.5966798611e+01    0.5592853    0.2885903 -33.95  0.002046848    3.537    0.717
        92 -11.6992     89.5204     87.6237   9.1381180123e+01   4.6826758704e+01    0.3907672    0.3095379 -10.91  0.001194097    1.862    0.463
        93 -11.0820     92.5508     83.5387   8.9478727426e+01   4.7190912796e+01    0.2267107    0.2142988 -38.58 5.799088e-05    1.163    0.140
        94 -10.2214     79.2812    100.3352   9.7134399024e+01   4.5679789214e+01    0.1292249    0.1026189 -33.89 0.0004211128    1.616    0.381
        95 -12.7131     72.5196     96.7843   9.8361349668e+01   4.7480176531e+01    0.5191254    0.3804153 -69.71  0.002212673    1.266    0.210
        96 -11.6297     13.3168    216.3472   1.2241922864e+02   3.0997477743e+01    0.1756713    0.1221019  53.46  0.000644047    1.175    0.149
        97 -12.3496     92.6090     92.8178   9.1738916471e+01   4.5166065006e+01    0.3773637    0.3224797 -52.58 0.0004077633    1.174    0.148
        98 -12.5186    103.8124     92.1389   8.8480137470e+01   4.3311415160e+01    0.3778273    0.2909176  -6.82  0.001403598    1.999    0.500
        99 -11.8248     99.3253     91.8817   8.9644791898e+01   4.4185349686e+01      0.34148    0.2762372  47.76 0.0009523754    1.265    0.209
       100 -10.1349     34.3739     97.1947   1.0981198470e+02   5.2026655512e+01    0.1778932   0.09907864 -85.14 0.0005256126    1.655    0.396
       101 -10.5688     46.0913     94.0639   1.0578184382e+02   5.1513341307e+01    0.2697998    0.1587383 -74.84 0.0009097028    1.518    0.341
       102 -11.6712     96.4094    213.4789   1.0802364604e+02   2.2194884334e+01     0.349755    0.1832752  38.00  0.001491078    1.645    0.392
       103 -11.6164     66.6188     90.2852   9.8800775877e+01   4.9790603088e+01    0.3712724    0.2328254 -58.88  0.001445424    1.459    0.314
       104 -10.8045     52.1488     90.8565   1.0336433294e+02   5.1545094385e+01    0.2009976    0.1565185  80.29 0.0005486371    1.233    0.189
       105 -12.1862    239.9870     85.9697   5.9643776390e+01   1.4569924943e+01    0.2759416    0.2378844  18.19 0.0003537932    1.109    0.098
       106 -11.0535    239.2212     81.7337   5.8678920803e+01   1.5219818085e+01    0.2407541    0.2099483 -11.21 0.0005313186    1.045    0.043
       107 -10.1728     13.2321     85.3299   1.1496374366e+02   5.6541459187e+01      0.34506     0.126992  53.75  0.001576445    2.892    0.654
       108  -9.9883     97.3014    209.3613   1.0751332393e+02   2.2674913430e+01    0.1420218    0.1148991  46.76  0.001119691    1.175    0.149
       109 -10.6223     81.8182    230.3132   1.1176489754e+02   2.1668501394e+01     0.172759    0.1024831  39.46 0.0009623659    1.429    0.300
       110 -11.4420     70.6671     82.5508   9.5858722272e+01   5.0964447648e+01    0.3547738    0.2640816  10.81  0.001270063    2.019    0.505
       111 -11.5776     87.0177     81.4449   9.0572962379e+01   4.8607956609e+01    0.3210933    0.2486818  78.33   0.00052003    1.476    0.322
       112  -9.4729      2.4891     80.5266   1.1798941890e+02   5.8333356314e+01    0.1179053   0.08957523 -89.38 0.0002699276    1.013    0.013
       113  -9.9329    248.0125     77.9736   5.6598135198e+01   1.3812470167e+01    0.2059776    0.1763427  -3.22 0.0006388795    1.020    0.020
       114  -9.9859    236.5410    213.4980   8.5129094273e+01   2.0479079660e+00    0.1970551    0.0789473  41.26 0.0006363826    1.957    0.489
       115 -10.4148     69.4441    230.2241   1.1379192258e+02   2.3141529680e+01    0.1738894   0.09947861  44.75 0.0004773955    1.293    0.226
       116 -11.0041    105.0792    211.8757   1.0636619395e+02   2.1272190936e+01    0.2213972    0.1466266  79.65 0.0004991028    1.791    0.442
       117 -10.0655    231.0560     74.7901   5.7978875923e+01   1.7795517630e+01    0.2111284    0.1670446  16.95 0.0005716748    1.261    0.207
       118 -11.8952     88.8026     74.5064   8.8175585893e+01   4.9814642489e+01    0.2925946     0.274094 -16.32 -0.0003778393    1.239    0.193
       119 -10.4211      6.9780     72.0067   1.1558196760e+02   6.0031203272e+01    0.1409603    0.1130025 -85.89 0.0003089684    1.042    0.040
       120 -11.0460    222.5349     69.7295   5.7793023772e+01   2.0322240934e+01    0.4307612    0.2924277  12.00  0.002076029    1.665    0.399
       121 -10.4383     52.9368     70.3589   9.8874632943e+01   5.6188677769e+01     0.172977    0.1650546 -79.85  0.000546523    1.130    0.115
       122 -12.5669    104.6131    206.7869   1.0597985666e+02   2.2068105692e+01    0.5563018    0.3859017  -4.41  0.003005504    3.799    0.737
       123 -12.1944    237.5135    222.0062   8.6184205577e+01   1.2357029491e+00    0.2435067    0.1998567  32.27 0.0004285097    1.418    0.295
       124 -10.3775    241.9861     64.6289   5.3900276913e+01   1.6576220021e+01    0.4930385    0.2375068 -52.05  0.001904057    3.074    0.675
       125 -10.1169    214.1424     66.5265   5.8099000678e+01   2.2671231976e+01    0.2059354    0.1433077  56.94 0.0007433955    1.522    0.343
       126 -10.3018     57.8201    205.1355   1.1424303791e+02   2.8209767617e+01    0.1605991   0.09987262  58.84 0.0004989633    1.200    0.167
       127 -11.0429    130.1093     62.2178   7.2850218968e+01   4.3795385613e+01    0.3157091    0.2417579  76.16 0.0008537881    1.593    0.372
       128 -11.3448     69.1055    203.4638   1.1209759015e+02   2.7149141248e+01    0.1895898    0.1513705  54.77 0.0009038021    1.150    0.131
       129 -10.7418     29.9308     62.3253   1.0554011121e+02   6.0566287446e+01     0.211484    0.1472683 -79.16 0.0003300734    1.265    0.209
       130 -10.3777     23.9937     71.3338   1.0940155475e+02   5.8971189556e+01     0.159481    0.1435884 -81.83  0.000389649    1.134    0.118
       131 -10.2894     37.3089     61.0898   1.0243883544e+02   6.0135547217e+01    0.1832548    0.1435292 -70.80 0.0004264604    1.075    0.070
       132 -11.8299     11.5963    201.7785   1.2226259365e+02   3.3451459104e+01    0.3608534    0.1255362  73.60  0.002127601    2.508    0.601
       133 -10.3466    211.0829     60.3738   5.6788560914e+01   2.4181138437e+01    0.3502129    0.1873354  72.71  0.001399224    2.489    0.598
       134 -11.8296    149.0872    227.6422   1.0047702460e+02   1.3148149237e+01    0.2700256    0.1612183  55.87  0.001846662    1.698    0.411
       135 -12.7404    138.1600     58.5828   6.9692328249e+01   4.2544010518e+01    0.6148114    0.3993112  -2.60 0.0009582936    2.409    0.585
       136 -10.7972    134.2989     59.3412   7.0864845249e+01   4.3332328325e+01    0.2798147    0.2479596  24.51 0.0007310015    1.213    0.176
       137 -10.3788     45.6729    201.8713   1.1622923637e+02   3.0082884383e+01    0.1681741    0.1192817  42.56  0.001154208    1.359    0.264
       138 -10.0567     10.2262     58.8931   1.1261924488e+02   6.2886872245e+01    0.2158122   0.09567263 -53.64  0.001099758    2.021    0.505
       139 -11.4809     90.0821     56.9493   8.2375589458e+01   5.3321174300e+01    0.3422031    0.2325799 -27.02  0.001589704    1.804    0.446
       140 -11.9263    151.7592     56.3947   6.5922548688e+01   3.9577321434e+01    0.3810909    0.3525185  57.05  0.001470674    1.113    0.102
       141 -10.9112    112.2103     55.5499   7.5281060976e+01   4.9079183978e+01     0.459379    0.2930744  73.17  0.001529199    2.321    0.569
       142 -10.2862     44.1362    209.1756   1.1689681921e+02   2.9082509973e+01     0.136105    0.1088283  58.70 0.0003927374    1.205    0.170
       143 -11.2505    210.5383     54.3606   5.5114924342e+01   2.5067965344e+01    0.2818879    0.2556652  62.45  0.001007427    1.200    0.167
       144 -10.1635     46.5610    195.6751   1.1570856133e+02   3.1003816930e+01    0.1784745   0.06629963 -58.53  0.000941363    3.546    0.718
       145 -12.5336    116.7348     47.9453   7.1292611767e+01   4.9474802162e+01    0.6033702    0.4989038 -80.00  0.001505457    1.467    0.318
       146 -10.9585    128.9978     45.0340   6.7067063529e+01   4.7080187273e+01     0.311942    0.2733039 -12.31 0.0005849662    1.179    0.152
       147 -10.6818    249.1266     53.0335   5.0026444218e+01   1.6285879185e+01    0.2054168    0.1721763 -20.89 0.0003939231    1.049    0.047
       148 -11.3638    230.6218    220.0814   8.6912724326e+01   2.3324341345e+00    0.2837403    0.1591966  38.58  0.001460914    1.388    0.280
       149 -11.4318    185.1337     51.4912   5.8073575879e+01   3.1814736528e+01    0.3162197    0.2232072 -50.93  0.001454288    1.560    0.359
       150 -11.2639    177.1801     48.8877   5.8564500479e+01   3.4221641881e+01    0.2905113    0.1982926 -43.50 0.0007385687    1.493    0.330
       151 -10.0452     58.4873     52.5216   9.1966165812e+01   5.9513851563e+01    0.1369168    0.1192983 -54.64 4.219467e-05    1.030    0.029
       152 -11.2831     31.0525     51.4989   1.0265216862e+02   6.2988727467e+01    0.3416171    0.2013258  77.70  0.001225061    2.333    0.571
       153 -11.5116    171.7342     49.7572   5.9803908041e+01   3.5506459015e+01    0.3322634     0.218189 -19.07  0.001310718    1.578    0.366
       154 -10.3572     73.9559     50.7604   8.5684450837e+01   5.7503803211e+01      0.24318    0.1915522  67.88 0.0009623649    1.540    0.350
       155 -10.7145     11.9616     40.0069   1.0837380125e+02   6.7178318632e+01    0.2934934    0.1353499 -70.14   0.00128083    1.712    0.416
       156 -11.4248     18.3353     49.0658   1.0748213990e+02   6.4631672077e+01    0.2268074       0.1993 -82.46 0.0003364476    1.121    0.108
       157 -13.6334     18.2008     43.1912   1.0622559476e+02   6.6007161220e+01    0.3426794    0.2905687 -65.19 0.0007819299    1.074    0.069
       158 -10.7515    241.4221     47.9002   4.9479886490e+01   1.8536571059e+01    0.3419907    0.2063315  73.55  0.001635479    2.052    0.513
       159  -9.9744     36.4611    194.8686   1.1752486916e+02   3.2209257385e+01    0.1398287   0.08348241  88.87   0.00101089    1.548    0.354
       160 -11.0147     53.0193    191.9518   1.1426929761e+02   3.0909906201e+01    0.1639836    0.1297578  83.02 0.0003046563    1.224    0.183
       161 -10.9328     55.9508    188.6779   1.1348881808e+02   3.1129821158e+01    0.1892767    0.1311245  60.72 0.0003490042    1.090    0.082
       162 -12.4545     81.9204    187.8755   1.0843477503e+02   2.8064950955e+01    0.2219252    0.1744029  57.25 0.0004543966    1.040    0.038
       163 -11.0627    101.5001     45.0252   7.4511830341e+01   5.3386245918e+01    0.2761857    0.2158149  78.92 0.0009250577    1.640    0.390
       164 -11.0523     86.6935     44.7494   7.9092024131e+01   5.6444922180e+01    0.2844901    0.2193327  11.19  0.001251346    1.715    0.417
       165 -10.0797    247.9774    185.7369   7.9181847869e+01   2.7420043139e+00    0.1759698    0.1087553  22.44 0.0008831783    1.290    0.225
       166 -10.4971    191.7251     43.3810   5.4456651902e+01   3.1188390707e+01    0.2603323    0.2055222  82.14  0.001008002    1.457    0.313
       167 -11.7208    191.6560     40.2179   5.3450611075e+01   3.1604533636e+01    0.4183325     0.286347  34.91   0.00117002    1.601    0.375
       168 -11.4753    155.0471     43.1709   6.0672008590e+01   4.0794931138e+01    0.2862429    0.2215605 -30.23  0.001372634    1.251    0.201
       169 -10.7952    124.5630     43.4838   6.7577576705e+01   4.8413060584e+01    0.3098724    0.2535028 -30.36 0.0007695879    1.184    0.155
       170 -11.3376    123.8749     39.7934   6.6326123132e+01   4.9194181630e+01    0.3009922    0.2770932 -12.90 0.0009434204    1.082    0.076
       171  -9.7251     36.0228     49.0269   9.9931066009e+01   6.3065311439e+01    0.1523701    0.1315572 -64.17 0.0003458974    1.040    0.038
       172 -12.0737     66.7243    185.0964   1.1113804692e+02   3.0461740756e+01    0.2063202    0.1543537  58.68 0.0002662085    1.034    0.033
       173 -11.6715     66.0738     41.4372   8.5216376015e+01   6.0768878532e+01    0.5396138    0.3107532  54.46   0.00199582    2.248    0.555
       174 -10.3774    178.3166     42.3121   5.6197360180e+01   3.4822907464e+01    0.2305106    0.2022351  59.21 0.0008390485    1.178    0.151
       175 -11.9606    176.2525     39.1154   5.5456290865e+01   3.5789393224e+01    0.6134933    0.2963213  37.66  0.002199017    2.556    0.609
       176 -10.4269     17.6683    184.0094   1.2051344007e+02   3.5899357939e+01    0.2352479   0.09166874 -72.73  0.001415384    2.514    0.602
       177 -12.0416    124.6098     51.2522   7.0444471438e+01   4.7056428048e+01    0.5561457    0.3827954  -0.13  0.001904926    2.133    0.531
       178 -12.6321    134.3372     37.5425   6.2958260063e+01   4.6962250007e+01    0.6184593    0.2903516 -37.57 0.0002951606    2.022    0.505
       179 -10.5287    165.0569     38.5241   5.7152469527e+01   3.8830577634e+01     0.349523     0.254328 -77.19  0.001164361    1.749    0.428
       180 -10.6349     55.4624     38.9621   8.8511249273e+01   6.2908948541e+01    0.2049199    0.1183085 -51.85 0.0002900871    1.507    0.337
       181 -11.7130    155.4556     37.1360   5.8415572514e+01   4.1558804596e+01    0.3644372    0.2854277  41.92  0.001759196    1.313    0.238
       182  -9.4691     42.6908     38.7442   9.3888176062e+01   6.4642209196e+01    0.1254607   0.09192756 -30.66  0.000691393    1.520    0.342
       183 -11.5597    122.5231     34.4366   6.4528696160e+01   5.0387753658e+01    0.2899252    0.2717369 -25.71 0.0002474485    1.025    0.024
       184 -11.2718    125.9870     30.5336   6.2094189868e+01   5.0130400194e+01     0.280306    0.2137401 -28.93 -9.438866e-05    1.263    0.208
       185  -9.5975      8.4528     34.5104   1.0881823514e+02   6.8662117428e+01    0.1219838   0.09493478 -70.00 9.203468e-05    1.026    0.025
       186 -11.0048    200.3348     32.6270   4.9825852093e+01   3.0254309763e+01    0.2788084    0.2460977  20.85 0.0007523949    1.174    0.148
       187 -11.1783     99.0276     32.1538   7.0005937628e+01   5.6239304889e+01    0.3097672    0.2353462  28.92  0.001323312    1.492    0.330
       188 -11.3385    214.3806     31.4761   4.7765705171e+01   2.6785717079e+01    0.2789681    0.2668228  43.37 0.0004123347    1.108    0.097
       189 -11.5669    140.4017     31.3665   5.9227752159e+01   4.6321931977e+01     0.364798    0.2701963  22.41  0.001094082    1.552    0.356
       190 -11.9738    141.5579     24.9538   5.6443539728e+01   4.6897291336e+01    0.4176113    0.2545967 -31.52  0.000931587    1.566    0.362
       191 -10.3252     85.1585     31.4659   7.4153450304e+01   5.9275125648e+01    0.2506679    0.1841614 -38.96 0.0002522388    1.250    0.200
       192 -11.0226     51.3719    180.0282   1.1376286073e+02   3.3157628091e+01    0.1911952    0.1291993  48.39 0.0002893711    1.248    0.199
       193 -14.1099    243.7979    220.8331   8.5129181030e+01   4.7800806994e-01    0.3650508    0.2484122   8.19  0.001113737    1.280    0.218
       194 -10.3683    166.1395     31.0060   5.4283269412e+01   3.9536812820e+01    0.2910231    0.2129765   8.96  0.001073539    1.573    0.364
       195 -10.4421    203.0071     28.7021   4.8242461833e+01   3.0001448665e+01    0.2047964    0.1993309  81.43 0.0006011672    1.092    0.084
       196 -10.5378      9.9083     28.7720   1.0664458221e+02   6.9886159177e+01    0.1846762    0.1493064  62.78 0.0002087513    1.470    0.320
       197  -9.5360     42.3076    177.2988   1.1537402364e+02   3.4645411020e+01   0.08804331   0.08262458 -54.82 0.0002293678    1.594    0.373
       198  -9.4656     25.0290    181.9758   1.1902081390e+02   3.5566933516e+01    0.1239839   0.08793964  63.39 0.0009645432    1.029    0.028
       199 -11.7280    216.2826     25.3552   4.5693192514e+01   2.6955430196e+01    0.4555796    0.2209859 -42.68   0.00187486    2.009    0.502
       200 -10.8499    209.3551     25.2081   4.6402031206e+01   2.8736961933e+01    0.2670027    0.2360864  51.43 0.0005877875    1.188    0.159
       201  -9.2007    109.6540     26.2923   6.4401563801e+01   5.4764639674e+01    0.1516968    0.1152903 -66.70 0.0007028838    1.664    0.399
       202 -10.3015    104.0563     26.0082   6.5821404820e+01   5.6119211314e+01    0.2206097    0.2059066 -42.44 0.0003300844    1.096    0.087
       203 -10.8955     33.4811     24.9702   9.3085850053e+01   6.8700335911e+01    0.3944534    0.2693499  70.70  0.002054865    2.326    0.570
       204 -10.8567     68.9246    174.9738   1.0983208803e+02   3.1961600867e+01    0.1631263    0.1291107  63.92  0.001188105    1.020    0.019
       205 -10.5303    228.5389     24.1670   4.4104158861e+01   2.4033277564e+01     0.275104     0.163148  46.72 0.0007721832    1.831    0.454
       206 -11.7140    201.8280     22.7942   4.6491965324e+01   3.0947400336e+01    0.4156224    0.2513593  -3.55  0.001785563    1.865    0.464
       207  -9.5062    149.3991     23.4588   5.4359972216e+01   4.4998194595e+01    0.1523598    0.1453831  -4.64   0.00010402    1.026    0.026
       208 -10.0035      1.8515    173.1454   1.2313468696e+02   3.9187899695e+01    0.1218601   0.09941047  83.44  0.000339657    1.288    0.224
       209 -10.0127    222.4631     21.6946   4.3961098833e+01   2.5776349111e+01     0.239183    0.1538706  43.62 0.0008315876    1.696    0.410
       210 -11.2450     97.1822    230.7762   1.0926919487e+02   1.9711321779e+01     0.233134    0.1447795  38.70  0.001140021    1.380    0.276
       211 -10.5790     48.9832     21.1215   8.3817168180e+01   6.7509791483e+01    0.3415377    0.2014965 -29.26    0.0016566    1.889    0.470
       212 -10.1408    187.7355     21.0154   4.7611579533e+01   3.4885080626e+01    0.2060108    0.1904935 -17.64 0.0004060511    1.047    0.045
       213 -11.0927     55.2036    171.1901   1.1231427504e+02   3.4311288599e+01    0.2969072    0.1531475 -74.55  0.001197698    1.940    0.485
       214  -9.6987     33.6367    169.3170   1.1661428980e+02   3.7010285152e+01    0.1208198   0.05657327  61.49 0.0003654469    1.768    0.434
       215 -11.2449    154.1892    244.7109   1.0137149143e+02   1.0587770440e+01    0.1882899    0.1313957  53.88 0.0006094571    1.399    0.285
       216 -10.1901    175.0891     17.0356   4.7880114464e+01   3.8747126934e+01    0.2247625    0.2164271 -21.61 0.0003679421    1.012    0.012
       217  -9.8214     12.4646     15.9934   1.0113967821e+02   7.2565247371e+01    0.1899799    0.0963368 -61.57 0.0005311275    1.555    0.357
       218  -9.7856     50.0369     15.4733   8.0501958494e+01   6.8431989689e+01    0.1738489    0.1325376  37.84 0.0004455923    1.509    0.338
       219 -10.9701      2.6800    168.2211   1.2281066519e+02   4.0016754579e+01    0.1838244    0.1295022  68.67 0.0002299193    1.014    0.014
       220 -11.3275    220.5014    225.4210   8.9110995514e+01   3.2890631301e+00    0.3406534    0.1412839  26.41  0.001220991    2.474    0.596
       221 -10.1673    163.3049     12.9333   4.8010376050e+01   4.2419262225e+01    0.2172077    0.1977126  -4.70 0.0008848931    1.097    0.088
       222 -10.9449    175.4133    224.7817   9.5934423614e+01   9.7267674186e+00    0.1946904    0.1279849  31.17 0.0006625059    1.242    0.195
       223 -10.9323    185.4825    243.0123   9.6440808036e+01   6.5412521724e+00    0.1692643    0.1584629  17.80  0.001169398    1.420    0.296
       224 -10.9789     65.6603    165.5925   1.0963946773e+02   3.4082843221e+01    0.2384206    0.1759359  81.95 0.0007237804    1.224    0.183
       225 -10.9234     42.7092    164.3245   1.1438692024e+02   3.6996524288e+01    0.3424086     0.130048 -84.09  0.001679108    2.842    0.648
       226 -10.3343    104.3019     10.2966   5.8297272500e+01   5.8304899423e+01    0.1512977    0.1066718  22.48 0.0002095265    1.578    0.366
       227 -12.4222    182.7990    238.0080   9.6295478019e+01   7.3723261565e+00    0.2997791    0.1686196  36.35 0.0003937908    1.262    0.207
       228 -10.5648    189.9269    241.6517   9.5626050487e+01   6.0643798325e+00    0.1462147   0.09007028  37.24 0.0005983363    1.124    0.111
       229 -10.8388     16.7012    161.1511   1.1966097763e+02   4.0156613544e+01     0.178148    0.1078006  53.26 0.0004935247    1.317    0.241
       230 -11.8266     76.8847    158.2896   1.0647449519e+02   3.3997817928e+01    0.3294955    0.2164481  30.17  0.001260878    1.813    0.448
       231 -10.7312     57.0271    158.2328   1.1080338981e+02   3.6533523089e+01     0.177015     0.137901  83.45 0.0003624339    1.129    0.115
       232  -9.3207     36.2970    159.3039   1.1538971839e+02   3.8633016055e+01   0.09453733   0.08198498 -56.85 0.0001883815    1.583    0.368
       233 -12.0350    193.4479    237.3190   9.4607707102e+01   5.9769737568e+00    0.2708757    0.2022537  10.51 0.0007568143    1.418    0.295
       234 -11.9749    190.1394    230.8659   9.4355709635e+01   7.0335922612e+00     0.347047    0.1717414  39.85  0.002312234    1.448    0.310
       235 -11.5806    112.8978    240.7433   1.0749384137e+02   1.6454678775e+01      0.22745    0.1657211  36.10  0.001223391    1.321    0.243
       236  -9.5516    224.2859    241.3157   9.0575444118e+01   1.5098878451e+00   0.09857531      0.05452  20.94 0.0002859599    1.585    0.369
       237 -13.1724    231.3841    237.6075   8.9110758620e+01   8.6132906468e-01    0.3066027    0.1846482  15.51  0.001164151    1.478    0.323
       238 -10.5813     69.1895    158.0795   1.0813055064e+02   3.5052577022e+01    0.1594786    0.1440337  86.63 0.0003293684    1.208    0.172
