#   1 NUMBER                 Running object number                                     
#   2 MAG_AUTO               Kron-like elliptical aperture magnitude                    [mag]
#   3 X_IMAGE                Object position along x                                    [pixel]
#   4 Y_IMAGE                Object position along y                                    [pixel]
#   5 X_WORLD                Barycenter position along world x axis                     [deg]
#   6 Y_WORLD                Barycenter position along world y axis                     [deg]
#   7 A_WORLD                Profile RMS along major axis (world units)                 [deg]
#   8 B_WORLD                Profile RMS along minor axis (world units)                 [deg]
#   9 THETA_WORLD            Position angle (CCW/world-x)                               [deg]
#  10 FWHM_WORLD             FWHM assuming a gaussian core                              [deg]
#  11 ELONGATION             A_IMAGE/B_IMAGE                                           
#  12 ELLIPTICITY            1 - B_IMAGE/A_IMAGE                                       
         1 -13.0012    168.0991     66.2020   2.9031883975e+02   5.9965473991e+00   0.08261696   0.04121093 -73.29  0.002090055    2.575    0.612
         2 -16.1707    204.2577     61.1385   2.8986128230e+02   5.8326199033e+00    0.5189595    0.3142658  54.37   0.04913906    1.954    0.488
         3 -15.2497    233.2311      5.7238   2.8918049396e+02   6.2886361477e+00    0.1709408    0.1129933 -63.25   0.01276022    1.561    0.359
         4 -14.9407    247.7437     23.3918   2.8911768288e+02   5.9972378165e+00   0.08112528    0.0295058 -59.95  0.003799574    2.702    0.630
         5 -15.9262    246.5247     15.7698   2.8908536154e+02   6.0919164195e+00    0.2009581   0.09616216  10.22   0.01478776    3.325    0.699
         6 -14.1512    249.7572      3.3174   2.8897098322e+02   6.2143986354e+00   0.03804297   0.02900466 -22.56  0.002653349    1.506    0.336
         7 -10.1238    143.2702      8.0536   2.9025656488e+02   6.8146733064e+00    0.0263475  0.009424198 -53.41  0.002051718    2.651    0.623
         8  -8.5568    144.3771      1.7785   2.9020509159e+02   6.8797012110e+00   0.01042145  0.006670774 -62.13  0.001043089    1.600    0.375
         9 -10.2467    181.9068      4.4542   2.8977819774e+02   6.6187517770e+00   0.02688946   0.02207127  25.92  0.003095079    1.195    0.163
        10  -8.3546    188.8060      3.4988   2.8969090590e+02   6.5872958502e+00   0.01044792  0.007804359 -68.23 0.0006057091    1.417    0.294
        11  -9.0048    171.9495      2.8984   2.8988624029e+02   6.6977017721e+00   0.01604329  0.009985143 -75.41   0.00153788    1.913    0.477
        12  -8.9897    218.3080    169.7020   2.9035847033e+02   4.5023902299e+00   0.01988587  0.004858434  41.65  0.001206924    4.251    0.765
        13  -9.9478    248.3415    249.9862   2.9049390514e+02   3.3981187109e+00   0.02116229     0.011696  16.07  0.001895227    2.099    0.524
        14 -10.8783    238.7249    249.1608   2.9060199187e+02   3.4664703445e+00   0.02276148  0.009920616  35.96  0.001932868    2.151    0.535
        15  -9.1729     68.9107    244.7371   2.9257532520e+02   4.5549218370e+00    0.0107276   0.00929919 -51.10 0.0005407813    1.167    0.143
        16 -12.2350    188.3540    102.7864   2.9030329594e+02   5.4531112713e+00   0.03693302   0.02840265 -61.42    0.0037261    1.327    0.246
        17 -12.0883    188.8835     91.0578   2.9022543595e+02   5.5842667627e+00   0.04027931   0.02785366 -33.98  0.003112719    1.626    0.385
        18  -9.4876    134.5067    112.0095   2.9099492574e+02   5.6773126486e+00   0.01594714  0.005528278 -54.93  0.001217261    2.705    0.630
        19  -9.7427    152.1112    107.4029   2.9075904555e+02   5.6223461254e+00   0.01679535   0.01054155  63.12  0.001496835    2.098    0.523
        20  -8.3304     46.2232    223.7510   2.9271581356e+02   4.9340038547e+00  0.009223192  0.007492774 -28.29 0.0005315971    1.333    0.250
        21  -9.5313    178.0662    103.2376   2.9042739161e+02   5.5110331920e+00   0.01380822  0.009034656 -45.96  0.001402408    1.572    0.364
        22  -8.6012    140.2818    104.4049   2.9088038620e+02   5.7291569688e+00  0.009677312  0.005924081  37.64 0.0007534247    1.582    0.368
        23  -9.8774    146.4367     99.7725   2.9077947729e+02   5.7445769533e+00    0.0142415   0.01259949  89.24 0.0008291503    1.233    0.189
        24  -9.1256    133.1373     96.7806   2.9091823640e+02   5.8603045299e+00   0.01035435  0.008789798  58.79 0.0008913205    1.259    0.206
        25 -10.8916    155.6344     93.2888   2.9063135428e+02   5.7625593815e+00   0.02522976   0.01607743 -15.45  0.002331157    2.173    0.540
        26  -9.9040    139.6677     89.7637   2.9079832739e+02   5.9007660702e+00   0.01567196   0.01366777  69.72 0.0008176436    1.252    0.201
        27 -10.0052    167.9806     89.5471   2.9046281169e+02   5.7297747401e+00    0.0151283    0.0104284 -82.04  0.001526209    1.760    0.432
        28 -10.9469    170.2463     82.6168   2.9039376123e+02   5.7953041241e+00   0.02906791   0.01817516 -13.58  0.001060533    2.286    0.563
        29  -8.3311    142.4924    146.4502   2.9111052997e+02   5.2334616558e+00   0.00662549  0.006452232  13.97 4.649244e-05    1.010    0.010
        30 -13.4722    182.8025     79.9977   2.9022961402e+02   5.7483015477e+00   0.06786092   0.05313515 -40.92  0.007608043    1.327    0.247
        31 -10.3467    184.9703     71.9551   2.9015490345e+02   5.8271400335e+00   0.01789911    0.0123774 -26.87 0.0008732053    1.725    0.420
        32 -10.9751    189.6591     68.7949   2.9008027681e+02   5.8345650794e+00   0.02010188   0.01648656  -6.38  0.001449928    1.349    0.259
        33 -10.8182    176.3750     77.9535   2.9029296176e+02   5.8111512070e+00   0.02433501   0.01866237 -80.15 0.0003901735    1.477    0.323
        34 -10.9131    153.0886     83.0770   2.9059907646e+02   5.8952005831e+00   0.02101932   0.01267153 -51.06 0.0006729063    1.659    0.397
        35 -11.0494      3.9304    206.8379   2.9311246009e+02   5.3854075893e+00   0.02965574   0.01724934  59.43  0.002643941    2.280    0.561
        36 -11.2727    205.2989    125.7600   2.9024374083e+02   5.0858657757e+00     0.033514   0.01084592 -48.48  0.002409643    3.156    0.683
        37  -9.4406    146.1294     72.6360   2.9061749648e+02   6.0574949601e+00   0.01997583  0.009671449 -75.40  0.001568387    2.896    0.655
        38  -9.5412    150.6848     69.5599   2.9054492599e+02   6.0648321249e+00   0.02066323   0.01264681  81.22  0.001798235    2.534    0.605
        39 -12.3484    197.7650    130.6261   2.9036223283e+02   5.0763011412e+00   0.04575929   0.02288323 -70.00     0.003926    2.356    0.576
        40 -10.8581    183.6753    124.5357   2.9049119416e+02   5.2325107462e+00   0.01708892   0.01192813  38.16  0.001808434    1.398    0.285
        41 -11.8021    187.0206    120.9764   2.9043003409e+02   5.2528016717e+00   0.03101068   0.02034229  59.45  0.002824623    1.853    0.460
        42  -9.1505    133.0379    137.9431   2.9117027913e+02   5.3888821788e+00  0.009767671  0.009512499  16.13 0.0003360125    1.008    0.008
        43  -8.6345    124.0326    206.0211   2.9169058316e+02   4.6629044198e+00  0.009179277   0.00899098  23.04  0.001139047    1.004    0.004
        44  -9.6926    160.0022    127.9801   2.9079141437e+02   5.3380841669e+00   0.01055136   0.01029096  39.99 0.0008838542    1.026    0.025
        45 -10.5629     68.6576    145.1474   2.9197418286e+02   5.6995009324e+00   0.03139934   0.01740027  47.13  0.002873542    1.948    0.487
        46 -12.9899     20.1600    191.7960   2.9282985696e+02   5.4594411597e+00   0.04745783   0.04475669  15.93  0.003800662    1.049    0.046
        47  -8.1818     16.7190    151.6761   2.9262732326e+02   5.9409070375e+00  0.006899694  0.004967674 -28.71 0.0004496835    1.592    0.372
        48  -8.4506    130.3019    122.9369   2.9111115862e+02   5.5777303953e+00  0.008964383  0.008326757 -54.45  0.000185812    1.094    0.086
        49 -10.2088    220.7168    119.2858   2.9002253120e+02   5.0654469692e+00   0.01389166   0.01149616  49.36 0.0008280526    1.243    0.196
        50  -9.0722    134.7618    119.9244   2.9104015779e+02   5.5849889334e+00  0.009039759  0.005569007 -59.59 0.0008840915    1.634    0.388
        51 -10.9036    214.0844    116.2756   2.9008230688e+02   5.1406504676e+00   0.02397415   0.01249989  35.10  0.002214942    1.821    0.451
        52 -10.0651    189.1611    190.6169   2.9082922731e+02   4.4412020870e+00   0.01498911   0.01203387  57.10 0.0004810117    1.348    0.258
        53 -11.5889     60.9755    161.5972   2.9216483397e+02   5.5575658748e+00   0.03294564   0.02624426  62.24  0.001739612    1.401    0.286
        54 -11.5235    206.3726    110.5026   2.9013795469e+02   5.2541330542e+00   0.02972203   0.01682599  37.87  0.002852069    1.707    0.414
        55 -10.7404    168.1020    114.1296   2.9061139563e+02   5.4472591536e+00   0.01819925   0.01554849  70.83  0.001037447    1.296    0.229
        56  -9.9021    220.7251    114.9050   2.8999568462e+02   5.1155937267e+00   0.01503775   0.00912675  40.10  0.001478659    1.620    0.383
        57 -11.1015    185.1512    110.0375   2.9038532805e+02   5.3896497402e+00   0.02835946   0.01714721  75.03  0.002445114    2.587    0.613
        58 -11.5118     48.8576    171.7976   2.9236982841e+02   5.5143340591e+00   0.02627029   0.02037932  -8.37  0.001474129    1.483    0.326
        59 -11.9192     55.4726    166.7180   2.9226089823e+02   5.5323321313e+00   0.04039853   0.03481442  43.75  0.002852459    1.161    0.139
