#   1 NUMBER                 Running object number                                     
#   2 MAG_AUTO               Kron-like elliptical aperture magnitude                    [mag]
#   3 X_IMAGE                Object position along x                                    [pixel]
#   4 Y_IMAGE                Object position along y                                    [pixel]
#   5 X_WORLD                Barycenter position along world x axis                     [deg]
#   6 Y_WORLD                Barycenter position along world y axis                     [deg]
#   7 A_WORLD                Profile RMS along major axis (world units)                 [deg]
#   8 B_WORLD                Profile RMS along minor axis (world units)                 [deg]
#   9 THETA_WORLD            Position angle (CCW/world-x)                               [deg]
#  10 FWHM_WORLD             FWHM assuming a gaussian core                              [deg]
#  11 ELONGATION             A_IMAGE/B_IMAGE                                           
#  12 ELLIPTICITY            1 - B_IMAGE/A_IMAGE                                       
         1 -11.4725    151.0992     43.5276   8.4008701418e+01   4.2601402786e+01     3.145221     1.183874  73.64  0.005279291   12.663    0.921
         2 -10.4915    201.7826     60.6428   8.0010872168e+01   2.6822563344e+01     1.730087    0.7565728 -64.61  0.003490029    9.061    0.890
         3 -11.4379    196.8124     47.8991   7.7139582022e+01   2.9994773749e+01     1.011207    0.4717028 -50.52  0.002671161    2.436    0.590
         4 -11.0179    173.4169      4.7413   6.7380489654e+01   4.1330322350e+01     1.696657    0.8119611  80.72  0.006184774    2.213    0.548
         5 -10.9127    231.6599      3.5565   6.1091393888e+01   2.6471870993e+01     1.270939    0.4173548 -56.29  0.004462576    3.528    0.717
         6 -10.1162    220.8842      3.0336   6.1862971799e+01   2.9185384077e+01    0.5939838    0.3151123 -72.05  0.002105403    2.016    0.504
         7 -12.7787    218.5858     32.9514   6.9984396687e+01   2.6369619419e+01     4.939919     1.701243 -58.08   0.01261483    5.954    0.832
         8 -13.1981    223.4345     17.4537   6.5352023479e+01   2.7004486086e+01     1.925174    0.8096205 -48.36  0.007942558    2.298    0.565
         9  -9.1242     15.7346     13.5994   1.1840707018e+02   7.1485555651e+01    0.1762041    0.1280918 -60.20 0.0008286858    1.768    0.434
        10  -8.1111    116.1920     12.4091   8.0165902070e+01   5.5118625904e+01    0.2227507    0.1820459  27.19  0.001265336    1.167    0.143
        11 -10.1591    120.3262      9.0565   7.7877614336e+01   5.4478881019e+01    0.3939129    0.3747067  18.10  0.001546496    1.077    0.071
        12  -8.6304    164.7579      6.5687   6.9137372583e+01   4.3441920710e+01    0.2964059    0.2041429 -48.45  0.001203086    1.562    0.360
        13  -9.7085    249.0801      2.8743   5.9608124538e+01   2.2405971264e+01     0.364088    0.2400376 -57.62  0.002079966    1.321    0.243
        14  -8.8864    238.1804      3.4173   6.0542729930e+01   2.4912404721e+01    0.1897577    0.1092999 -84.23 0.0007277945    1.715    0.417
        15 -11.3420    232.5959     10.9106   6.2832287372e+01   2.5465211236e+01    0.3787495    0.3453494  55.09 0.0007244563    1.273    0.215
        16  -7.8897      1.6713      1.6780   1.2081590811e+02   7.4443518211e+01    0.1146393   0.05808354 -27.83 0.0007048852    1.692    0.409
        17  -7.8185    158.5021    141.9869   1.1011886817e+02   2.2340136963e+01    0.2060264    0.1306936 -70.85 0.0006068917    2.413    0.586
        18  -7.5450    200.2890    141.7012   1.0128585762e+02   1.3262829376e+01    0.1400281    0.1174977 -81.33 0.0002530066    1.558    0.358
        19  -9.2291    130.9624    140.0022   1.1607664401e+02   2.8492105729e+01    0.2148918    0.2020437  65.62 0.0003186149    1.025    0.025
        20  -8.6127    195.6560    129.3382   9.9325760633e+01   1.6499045538e+01    0.2353032    0.2215752 -86.63  0.001053964    1.184    0.155
        21  -8.3232    201.7853    125.6307   9.7237868064e+01   1.5774447448e+01    0.2002577    0.1417401  60.28 0.0003763776    1.563    0.360
        22  -8.5564    127.9261    125.0202   1.1352659176e+02   3.2360383538e+01    0.2097921    0.2024945  83.47            0    1.018    0.018
        23 -11.0910    241.8667    120.7948   8.9026035472e+01   7.7859294321e+00    0.4830628    0.4136371 -11.16  0.002753748    1.131    0.116
        24  -8.7574    168.9235    113.9640   1.0111391833e+02   2.5597127539e+01     0.284104    0.2304354  70.16  0.001232615    1.367    0.268
        25  -8.6320    203.5918    111.2210   9.3335555913e+01   1.7910100502e+01    0.2127758    0.1448631 -22.91 0.0007131996    1.639    0.390
        26 -10.6440    187.5978    106.3083   9.5186111022e+01   2.2606715833e+01    0.5897956    0.2593854 -39.17  0.001572307    2.252    0.556
        27 -11.3629    244.2017    100.9789   8.3964484128e+01   1.0356686397e+01      0.67369    0.3592277 -33.28  0.002470973    1.726    0.421
        28  -9.3238    191.5929    102.2198   9.3316951158e+01   2.2387360423e+01    0.2659885    0.1948023 -26.68 0.0006098082    1.457    0.314
        29  -8.2192    143.8008     98.8121   1.0292463942e+02   3.4494797411e+01    0.2299643    0.2123546   7.04 0.0007280864    1.202    0.168
        30 -10.7466    186.7815     92.7517   9.1719271131e+01   2.5276778861e+01     0.775812    0.2823217 -40.89  0.002566795    2.686    0.628
        31 -10.6603    243.0989     89.2638   8.1278059083e+01   1.2395887592e+01    0.6441218    0.2350649 -27.76   0.00221619    3.004    0.667
        32 -10.4790    241.5613     83.3264   8.0033211678e+01   1.3644534689e+01    0.4608203    0.3157455  88.61  0.002168949    1.974    0.494
        33  -9.1620    150.5629     91.2618   9.9169243103e+01   3.4429482323e+01    0.3707376    0.2884089 -10.02   0.00107745    1.637    0.389
        34  -8.6111    135.8372     90.6649   1.0261923575e+02   3.7968594316e+01    0.2875299    0.2230254 -89.24  0.001311793    1.677    0.404
        35 -10.0019     65.2272    246.2995   1.4333914755e+02   1.8274762479e+01    0.1924849    0.1441154  63.95 0.0002371746    1.094    0.086
        36 -11.0836    163.9501     52.2578   8.4257067993e+01   3.7977024776e+01     1.401631    0.7400771 -76.40  0.003619732    5.705    0.825
        37  -9.5247    160.1557     81.6226   9.4147287762e+01   3.3940328273e+01    0.3353277    0.2713271  25.91  0.000801667    1.417    0.294
        38 -10.0827    163.3400     79.0038   9.2667021457e+01   3.3627793061e+01    0.3796494    0.3318155 -70.83  0.001181615    1.246    0.198
        39  -9.7850    144.4146     79.6143   9.7213800058e+01   3.8149048247e+01    0.3473078    0.2749192 -42.64 0.0007687553    1.264    0.209
        40  -8.6380    231.5208     79.9419   8.0626044769e+01   1.6481631230e+01    0.2352605    0.1885181  61.86  0.001232884    1.317    0.241
        41 -10.2121    238.5649     77.3701   7.8967732521e+01   1.5230813651e+01    0.4899393     0.296677  36.72  0.002174901    2.103    0.525
        42  -9.6876    238.6959     71.1300   7.7380673967e+01   1.6133113848e+01    0.3290752    0.2471145 -20.62  0.001691805    1.416    0.294
        43 -11.0599    159.5936     67.4425   8.9966570050e+01   3.6617603077e+01    0.4741527    0.3329828 -39.37 0.0007005373    1.430    0.301
        44 -11.6732      3.3017    239.8188   1.5279456473e+02   2.6341512356e+01    0.5890949    0.2438328 -83.93  0.003951057    2.053    0.513
        45  -8.9652    194.5825     58.9407   8.0703376593e+01   2.8946218537e+01    0.2611622    0.2352366  38.33 0.0004499843    1.189    0.159
        46 -10.4110    208.6096     62.0012   7.9314173988e+01   2.4867464521e+01     1.119841    0.4946334 -63.46  0.002769276    6.054    0.835
        47  -9.7357     65.3782    240.2489   1.4289216780e+02   1.9258148562e+01    0.1876618    0.1163143  84.25  0.001284403    1.495    0.331
        48 -10.4612    187.6898     40.9859   7.6519610835e+01   3.3360629945e+01     1.092434    0.5083472 -64.14  0.003294295    4.069    0.754
        49  -9.2937    233.7881    239.0208   1.1338474502e+02  -6.7246401929e+00    0.1888084     0.109932   8.50  0.001085092    2.029    0.507
        50  -8.6504    131.9929    232.9667   1.3046142047e+02   1.0638922092e+01    0.1436157    0.1191865  57.59 0.0004774062    1.078    0.072
        51 -12.6190     21.0396    220.0315   1.4911358358e+02   2.8022836254e+01    0.6438571    0.3831904  69.05  0.002487085    1.216    0.178
        52  -8.4338     42.9441    224.8811   1.4567063833e+02   2.4721619572e+01    0.1457806    0.1228311  76.79 0.0004098359    1.292    0.226
        53  -8.9150    231.7480     64.0123   7.6503741943e+01   1.8828604046e+01     0.264277    0.1978128 -37.44 0.0004033245    1.254    0.202
        54  -9.1588    229.2301     60.9527   7.6050800087e+01   1.9884522938e+01    0.2675216    0.2620246 -60.39 0.0008028906    1.066    0.062
        55  -9.3948    144.2124     59.2865   9.0819836359e+01   4.1855337543e+01    0.2919196    0.2579524  81.93 0.0006191914    1.243    0.195
        56  -7.5307     72.5832     58.4244   1.1141363534e+02   5.6723491029e+01    0.1345337    0.1193093 -29.78 0.0001011721    1.020    0.019
        57 -10.0630    185.6928     56.3388   8.1458257813e+01   3.1664642107e+01    0.3293559    0.2948586  -5.92 0.0009898525    1.247    0.198
        58 -12.9247     41.8357    199.7821   1.4412016129e+02   2.9574684138e+01    0.8661932    0.7768574 -80.61   0.00668136    1.420    0.296
        59 -11.9810    179.0215     44.1246   7.8902610807e+01   3.5218491909e+01    0.6788325    0.4178101  -7.97  0.002756163    2.295    0.564
        60  -8.6685    134.8942     48.9952   8.9544374862e+01   4.5814236301e+01    0.2205726    0.2077456  19.95 0.0003280126    1.058    0.054
        61  -9.8636    249.4317     45.1507   6.9633635287e+01   1.7287837785e+01    0.2743761    0.2249188 -36.91 0.0003482368    1.159    0.137
        62 -10.4259    202.9971     39.8053   7.3898190007e+01   2.9494648967e+01      0.41684    0.2926586  34.48  0.001429531    1.748    0.428
        63  -8.4232     75.7605     37.9836   1.0279799026e+02   5.9940841950e+01    0.1981844    0.1702928 -50.49  0.001181491    1.360    0.265
        64  -8.6784    243.1806     34.0177   6.7557171329e+01   2.0190324344e+01    0.2935849    0.2001359 -56.30  0.000839946    1.374    0.272
        65  -8.9683    243.0000     29.9744   6.6580395892e+01   2.0738019381e+01    0.2619794    0.1758101 -25.02  0.001146093    1.589    0.371
        66 -10.7232    183.3660     78.1364   8.8286676107e+01   2.8713173079e+01    0.7330437    0.4824706 -45.06   0.00323078    1.536    0.349
        67  -9.7746    162.6709     27.2199   7.6301884302e+01   4.1768779444e+01    0.6049438    0.3410282 -76.46  0.002253985    2.829    0.646
        68  -8.9189     70.3098     28.6502   1.0090380766e+02   6.2350412935e+01    0.3179336    0.1747231 -53.79  0.001373458    2.904    0.656
        69 -10.4289    144.0163     25.1118   7.9038471537e+01   4.6865966069e+01    0.2553281    0.2301078   9.18 0.0003216836    1.168    0.143
        70  -9.5561    179.2883     24.0764   7.2626907508e+01   3.7740407124e+01    0.4657179    0.3205884  75.09  0.002264177    1.419    0.295
        71  -8.8966    192.4005     21.7775   7.0103985313e+01   3.4529729000e+01    0.2581918    0.1953664 -71.63 0.0004567509    1.363    0.266
        72  -7.9644    155.1711     20.1358   7.5212117040e+01   4.4563650075e+01    0.1959575    0.1648836 -69.24 0.0006315562    1.301    0.231
        73  -9.3868    246.0515     16.5776   6.3056942079e+01   2.1610347296e+01     0.377331    0.1645205 -69.80   0.00146185    2.992    0.666
        74  -9.9591    185.9372    193.2336   1.1445265304e+02   7.4568486810e+00    0.2034344     0.194547  24.71 0.0002459774    1.114    0.102
        75 -11.3993     56.8190    184.2072   1.3980558335e+02   3.0912137637e+01    0.8021706    0.7219839 -72.01  0.005725838    1.369    0.270
        76  -8.3483     14.0028    152.2617   1.4608219309e+02   4.2258410834e+01    0.1248413   0.09323355  44.22 0.0004507837    1.493    0.330
        77  -8.9320    233.8294    145.8316   9.6047895452e+01   5.5476327006e+00    0.2156154    0.1767303   8.20 0.0007092298    1.218    0.179
        78  -9.9970     67.3630    144.2438   1.3256615094e+02   3.8278290264e+01    0.5022174    0.2927202  62.86  0.001648188    1.864    0.464
        79  -7.8865     16.2980    146.6153   1.4509189752e+02   4.3292260994e+01    0.1261474   0.06733964  72.77 0.0007018164    1.774    0.436
        80  -7.5261    192.5077    144.4360   1.0344317385e+02   1.4469152094e+01    0.1459581    0.1390048  34.62 0.0001596199    1.024    0.023
        81 -11.8678    176.6542     65.3038   8.5812856557e+01   3.2600421736e+01     1.244543    0.8704723 -55.83  0.005590227    1.588    0.370
