#   1 NUMBER                 Running object number                                     
#   2 MAG_AUTO               Kron-like elliptical aperture magnitude                    [mag]
#   3 X_IMAGE                Object position along x                                    [pixel]
#   4 Y_IMAGE                Object position along y                                    [pixel]
#   5 X_WORLD                Barycenter position along world x axis                     [deg]
#   6 Y_WORLD                Barycenter position along world y axis                     [deg]
#   7 A_WORLD                Profile RMS along major axis (world units)                 [deg]
#   8 B_WORLD                Profile RMS along minor axis (world units)                 [deg]
#   9 THETA_WORLD            Position angle (CCW/world-x)                               [deg]
#  10 FWHM_WORLD             FWHM assuming a gaussian core                              [deg]
#  11 ELONGATION             A_IMAGE/B_IMAGE                                           
#  12 ELLIPTICITY            1 - B_IMAGE/A_IMAGE                                       
         1 -11.6051    127.4654     32.5967   5.7746673154e+00   4.9109177500e+01    0.2446742    0.2265647  46.04  0.001427632    1.183    0.155
         2 -12.7198     72.3283      8.8135   8.4973042830e+00   6.5518525031e+01    0.5857829    0.2119796 -26.28   0.00216614    2.964    0.663
         3 -13.0755     36.7692      4.7376   2.0886348759e+01   7.3695737912e+01     0.268707    0.2352016  35.31 0.0005778674    1.094    0.086
         4 -10.6997    139.9268      4.2203   3.5412885939e+02   4.9114656446e+01    0.1762896   0.09767655  79.43 0.0008652702    1.656    0.396
         5 -11.6153     92.2169      8.3531   3.1214538676e+00   6.0723933918e+01    0.2137329    0.1826959   2.83   0.00068372    1.348    0.258
         6 -10.8515     25.4628      1.9234   2.6021230891e+01   7.6111368534e+01    0.1737073    0.1178846 -29.20 0.0005259127    1.509    0.337
         7 -10.7461    114.0067      1.5355   3.5634286429e+02   5.5845238055e+01    0.2037449    0.1186405  76.17 0.0008787254    1.548    0.354
         8 -11.3850    178.1137    247.2061   4.3695176148e+01   1.7581435030e+00    0.1700822    0.1163622   2.54 0.0003597613    1.218    0.179
         9 -12.3659    238.1933    250.5892   3.3986562244e+01  -4.4842600073e+00    0.2053487   0.08528629  24.26 0.0008521939    2.144    0.534
        10 -10.9417    171.0769    250.1589   4.5387818179e+01   2.1145492893e+00    0.1664733    0.1165654   1.80 0.0003264606    1.200    0.167
        11 -12.7121    139.9631    248.5540   5.1266787367e+01   5.7929687616e+00    0.4007673    0.3275295   1.57  0.002897704    1.127    0.113
        12 -11.9482    143.7781    243.0179   4.9836917647e+01   6.1942272439e+00    0.2881628    0.2065451 -22.25  0.001898774    1.469    0.319
        13 -11.5138    114.5923    248.9739   5.6553868958e+01   8.6255961819e+00      0.27711    0.1878939  56.78  0.001686211    1.932    0.482
        14 -11.1198    106.8681    250.6538   5.8351702513e+01   9.2327490403e+00    0.2955765   0.08317077  30.42 0.0008988842    2.659    0.624
        15 -13.8010     33.6608    247.6474   7.3919066811e+01   1.7524581443e+01     1.759623     0.371586  23.00  0.005930985    4.928    0.797
        16 -13.1813     29.3335    217.4226   7.3369858336e+01   2.3917683901e+01    0.5855353    0.5339046  60.37  0.004107755    1.128    0.113
        17 -13.8810     37.2240    228.1137   7.2111067161e+01   2.0947406239e+01    0.8093501    0.4002318 -56.56  0.002895665    2.436    0.589
        18 -13.5289     28.7843    239.4144   7.4595959597e+01   1.9529926919e+01     1.033203    0.1908781  33.14  0.004213267    3.022    0.669
        19 -13.4860     32.1527    183.2091   7.0443578217e+01   3.1421043245e+01    0.7012614    0.2399604  48.45  0.001324294    2.665    0.625
        20 -13.7115     22.9171    242.2036   7.5996082601e+01   1.9534722128e+01    0.9073234    0.2865909  22.12  0.003933365    3.061    0.673
        21 -12.8664     13.5310    194.8158   7.6136638720e+01   3.0338900037e+01    0.2843084    0.2507087  64.45 0.0004391433    1.070    0.066
        22 -14.0694     11.0039    189.6497   7.6550827829e+01   3.1748504512e+01       1.0013    0.5427715 -11.36  0.004465061    3.070    0.674
        23 -14.5095      2.6474    216.6489   7.9625984007e+01   2.6380135748e+01     1.193386    0.3684272 -77.72  0.005047995    3.217    0.689
        24 -14.3685      4.3097    201.5210   7.8739227567e+01   2.9545228545e+01    0.8223651    0.6509116  53.23  0.004806621    1.038    0.036
        25 -15.0681     15.9478    228.2919   7.6986275526e+01   2.2876839745e+01     1.445192    0.6617028  85.08  0.007550767    2.313    0.568
        26 -14.5732     10.3907    239.3349   7.8593780138e+01   2.1173607656e+01    0.5207956    0.3923601 -34.14  0.002558299    1.937    0.484
        27 -14.6491      5.7314    234.8617   7.9465340191e+01   2.2427092652e+01    0.5441151     0.411595  34.16  0.003846901    1.197    0.165
        28 -11.2499     99.5804    246.8165   5.9537927276e+01   1.0695930913e+01    0.2027017    0.1362993  18.93 0.0005967446    1.320    0.242
        29 -11.0781    132.0493    245.0500   5.2481285574e+01   7.2380510313e+00    0.1802637    0.1470178  17.33 0.0008352737    1.034    0.033
        30 -11.1205    205.9841    244.0111   3.8296635093e+01  -7.1763253608e-01    0.1363295   0.09650573   6.11 0.0006617188    1.080    0.074
        31 -11.0179     94.3563    243.1632   6.0326776387e+01   1.1917827307e+01    0.1787967    0.1541916  88.83  0.001049239    1.468    0.319
        32 -11.2563    222.9052    242.9435   3.5331963145e+01  -2.2345140720e+00    0.1566011    0.1132913  -3.24 0.0003334087    1.051    0.049
        33 -11.1313    127.6423    242.9630   5.3160617695e+01   8.0810154298e+00    0.2137523    0.1346373  42.73 0.0007161117    1.643    0.391
        34 -12.0209    117.4500    241.3918   5.5143796351e+01   9.5325453998e+00    0.2261188    0.1800499  20.53 0.0008159565    1.028    0.027
        35 -12.2289     67.6508    240.5402   6.6016375330e+01   1.5378859653e+01    0.4395638     0.208738  29.89  0.001970406    1.678    0.404
        36 -12.8120     70.9165    233.4024   6.4711260202e+01   1.6355739976e+01    0.6345547    0.3521603 -30.08  0.003022825    2.955    0.662
        37 -10.7184    180.5409    240.4559   4.2347729009e+01   2.4119680190e+00    0.1157515   0.08598131   2.79  2.19278e-06    1.058    0.054
        38 -10.5764    171.4549    240.4667   4.4058458192e+01   3.4149313619e+00    0.1151661   0.08967121   7.42 8.965963e-05    1.022    0.021
        39 -13.9800     24.1634    187.4064   7.2920459530e+01   3.1160811166e+01    0.6700963     0.513413   8.82  0.003898869    1.521    0.342
        40 -10.9201    207.7887    236.3897   3.6918787673e+01   5.8808175935e-02    0.2244302   0.08430549  21.91  0.001120829    2.642    0.622
        41 -11.5187    137.4781    236.0589   5.0283357684e+01   8.0254069403e+00    0.2050033     0.140967  36.14  0.000461996    1.386    0.279
        42 -11.2505     47.9572    235.6668   7.0109123986e+01   1.8380660436e+01     0.177432     0.128682  38.43 0.0007246974    1.104    0.094
        43 -12.2374    165.6164    234.3469   4.4364309758e+01   4.9658471938e+00    0.2274972    0.1724781  21.51 0.0002064007    1.172    0.147
        44 -12.0779    158.4981    233.3941   4.5642505689e+01   5.9419534765e+00    0.2122476     0.178334  13.64 0.0004708157    1.121    0.108
        45 -11.9182     56.7243    232.3997   6.7889113367e+01   1.8099129203e+01    0.3813021    0.1929169 -59.29   0.00201172    2.287    0.563
        46 -10.5368    243.1839    233.2092   3.0769340112e+01  -2.9807204805e+00    0.1243072   0.09812891  -7.66 0.0003688216    1.308    0.235
        47 -15.3608      4.8588    247.2158   7.9981985927e+01   2.0143965782e+01     0.874642    0.4965966  39.69   0.00506618    1.300    0.231
        48 -10.6559     26.3146    229.6911   7.4696437654e+01   2.1667827250e+01    0.1302106   0.06646242  52.05 0.0002512559    1.630    0.386
        49 -11.6591     27.6904    226.5682   7.4230654167e+01   2.2171806211e+01    0.4552878    0.1614992  26.03  0.001743785    2.401    0.583
        50 -11.4903    223.0000    231.9608   3.3743145508e+01  -9.1841927704e-01    0.1604338    0.0515825 -37.89 0.0005944063    2.892    0.654
        51 -12.8331    150.0791    229.2316   4.6792260524e+01   7.5992718502e+00    0.3552015     0.267326  41.35  0.002099636    1.516    0.340
        52 -12.6276    147.9919    224.3114   4.6560547697e+01   8.6519187275e+00    0.2345225     0.197409 -35.85 0.0003820566    1.330    0.248
        53 -11.2384    216.4520    231.2202   3.4710520134e+01  -1.6944575536e-01    0.1844618    0.1218154  15.51 0.0008642459    1.303    0.233
        54 -11.8355    180.7090    229.9036   4.0851349302e+01   3.8751337645e+00    0.2632281    0.2077798  75.18  0.001484254    3.197    0.687
        55 -11.4904     61.5081    230.3076   6.6630215549e+01   1.7991477822e+01    0.2813338    0.2028371 -85.32  0.001746453    1.614    0.380
        56 -12.7050    194.3045    228.2011   3.8103122099e+01   2.5836791045e+00    0.2853427    0.2075912   6.02 0.0009161078    1.103    0.093
        57 -11.0640    138.2716    227.6296   4.9049947349e+01   9.3090252770e+00     0.191549    0.1553649 -64.97 0.0008658936    1.712    0.416
        58 -12.3067     80.8069    227.0106   6.1863094647e+01   1.6448566816e+01     0.284612    0.2368841  67.68 0.0009311505    1.324    0.245
        59 -12.4886    105.5146    226.2342   5.6093227910e+01   1.3618546127e+01    0.3098218    0.2011578  -1.99  0.001642687    1.948    0.487
        60 -12.6861    119.5694    213.8646   5.1379184768e+01   1.4128503323e+01    0.3920897    0.1826742  34.92  0.001858458    1.861    0.463
        61 -12.5431    116.6126    225.6193   5.3521328069e+01   1.2353308744e+01    0.3324399    0.2151958  53.12 0.0008301634    1.896    0.473
        62 -12.4141    115.0000    221.0276   5.3327856419e+01   1.3388959535e+01    0.3011926    0.1547283 -55.90  0.001490785    2.260    0.558
        63 -14.7037     21.5568    196.8039   7.4167330878e+01   2.9192500936e+01      1.10492    0.6240547 -58.79  0.005767233    1.983    0.496
        64 -11.7109    101.0802    224.2015   5.6879220433e+01   1.4542506452e+01    0.2025278    0.1770851  48.92 0.0005802752    1.201    0.167
        65 -11.7482     92.4913    223.9857   5.8842177046e+01   1.5635336366e+01    0.2872497    0.2050639   2.33 0.0009490084    1.610    0.379
        66 -13.0361    160.9128    222.7719   4.3693106222e+01   7.3012612221e+00    0.3716902    0.2227517  36.44  0.001528524    1.663    0.399
        67 -10.7457     67.3274    224.3201   6.4783977172e+01   1.8528139396e+01    0.1217046   0.09284893 -15.80 0.0007047408    1.684    0.406
        68 -12.0448     52.6168    224.1710   6.8252612948e+01   2.0172304434e+01    0.2477177    0.1529347 -76.20  0.001406577    1.836    0.455
        69 -12.0723     48.1884    221.8254   6.9136941480e+01   2.1118943384e+01    0.3215578    0.1869227 -77.64  0.001770914    1.930    0.482
        70 -11.9184     51.0176    219.5012   6.8292602087e+01   2.1301342991e+01    0.2710173      0.18265  37.93 0.0008738933    1.229    0.186
        71 -13.1969     50.0705    215.1346   6.8197194625e+01   2.2318313962e+01      0.41032    0.3643342  61.38  0.001586657    1.098    0.089
        72 -12.6664    190.2273    220.2909   3.7672410098e+01   4.1634986130e+00    0.2453153    0.2314748  12.23 0.0002882952    1.479    0.324
        73 -12.0668    193.5419    217.0152   3.6568524278e+01   4.2512391474e+00    0.2636514    0.1354017 -40.73  0.001098706    1.980    0.495
        74 -13.0193    124.6201    221.9622   5.1285982713e+01   1.1998440785e+01     0.393595    0.2157295  37.10  0.001232565    1.642    0.391
        75 -12.9629    173.4879    220.3986   4.0856252208e+01   6.1350382824e+00    0.3027554    0.2022749 -33.54 0.0007688224    1.487    0.327
        76 -11.2974     43.6462    219.9461   7.0093888709e+01   2.1978259530e+01    0.2248913      0.11296 -88.57  0.001103481    2.356    0.576
        77 -11.9373    240.5037    220.0106   2.9206795978e+01  -1.1696948450e+00    0.1653332    0.1163107   1.99  0.001256589    1.157    0.135
        78 -10.8245    197.2877    219.9412   3.6337906465e+01   3.4015269309e+00    0.1597333    0.1200458 -12.09 0.0005054591    1.103    0.093
        79 -12.2803     76.2043    219.0954   6.2197403130e+01   1.8550964925e+01    0.2790258     0.174327  41.55 0.0003937479    1.384    0.278
        80 -11.3826     80.4430    218.4603   6.1119462094e+01   1.8174394035e+01    0.2105779    0.1434095  60.34 0.0006926069    1.621    0.383
        81 -13.0370     17.4654    237.6274   7.7003262202e+01   2.0896604556e+01    0.2091052    0.1410896  39.59 0.0006213302    1.162    0.139
        82 -13.1205     22.4795    215.7458   7.4923334150e+01   2.4906654080e+01    0.4457137    0.3137454  88.98    0.0022543    1.442    0.306
        83 -10.6021    221.0936    218.1968   3.1988058814e+01   1.0242171000e+00    0.1313203    0.1105094  -1.89 0.0002532312    1.289    0.225
        84 -12.8081    140.1282    208.2743   4.5982740881e+01   1.2426544630e+01    0.3917524     0.286412 -89.85   0.00200517    2.582    0.613
        85 -12.3126    141.7707    213.7799   4.6417194860e+01   1.1231496162e+01    0.2754622    0.2288885 -59.50  0.001551769    1.553    0.356
        86 -11.0890    138.4836    217.9050   4.7706027749e+01   1.0938385825e+01    0.1683057    0.1221633 -44.18 0.0004799329    1.520    0.342
        87 -12.2185     93.0324    217.0646   5.7968364629e+01   1.6912711840e+01    0.3934186    0.2104713  34.88  0.001193315    1.575    0.365
        88 -11.8274     65.8910    216.9137   6.4484967648e+01   2.0195771488e+01    0.2597884    0.1999345 -58.19  0.001205017    1.491    0.329
        89 -10.2725    179.3239    222.3091   4.0013939654e+01   5.1470452371e+00    0.1235932   0.07714222  -5.05 0.0002619662    1.651    0.394
        90 -10.5005    226.3113    216.3067   3.0850370813e+01   7.2214252793e-01    0.1143973   0.06659724  -7.38 0.0003212238    1.618    0.382
        91 -11.1464    161.4819    216.0873   4.2610270231e+01   8.3022943312e+00    0.1726984    0.1143296 -38.35  0.001020394    1.560    0.359
        92 -12.4123    107.8731    213.6409   5.4061588882e+01   1.5695031473e+01    0.3542494    0.2359541 -57.55  0.001975525    1.728    0.421
        93 -11.7492     85.0310    214.3999   5.9596512284e+01   1.8436376988e+01    0.4198787    0.2079603  34.15   0.00204777    1.688    0.407
        94 -11.6552    156.8815    213.8400   4.3223191867e+01   9.2587615271e+00    0.1894672    0.1760618 -10.96 0.0003586972    1.216    0.178
        95 -11.3071     73.1161    212.3969   6.2297805179e+01   2.0291661748e+01    0.2143901     0.165177  24.63 0.0006365041    1.208    0.172
        96 -12.9529     36.3440    195.7889   7.0244923868e+01   2.8031096811e+01    0.7206575    0.2829698  31.94  0.003178869    2.113    0.527
        97 -12.2837     34.1750    200.1150   7.1113258984e+01   2.7254046390e+01    0.3482253    0.2109528  23.57   0.00102837    1.610    0.379
        98 -11.9167     41.9860    211.3355   6.9911299597e+01   2.3977963597e+01    0.2931493    0.2287507 -26.72  0.001245476    1.685    0.407
        99 -13.4207     36.9755    207.1906   7.0877107672e+01   2.5391064814e+01    0.5255337    0.5013925  38.45  0.001778745    1.163    0.140
       100 -13.6584    127.8721    215.0419   4.9655192124e+01   1.2825036001e+01    0.4746461    0.4080493 -71.54  0.002204598    1.529    0.346
       101 -10.7629    172.5127    211.4911   3.9706976368e+01   7.6465625228e+00    0.1249163    0.1003454  -0.05 0.0001949821    1.044    0.042
       102 -11.8806     54.1156    209.8156   6.6778415738e+01   2.3018909811e+01     0.458909    0.1800633  54.21  0.001858414    2.798    0.643
       103 -11.1112     97.1362    209.8513   5.6155844833e+01   1.7831407298e+01    0.2356655    0.1544085 -71.82  0.001243878    1.915    0.478
       104 -13.1057    180.2177    207.4706   3.7577780833e+01   7.3090629531e+00    0.2571163    0.2111375  -0.25  0.000493776    1.016    0.016
       105 -12.4813    160.9860    207.2146   4.1374389662e+01   9.8342826433e+00    0.2737556    0.1917344 -49.88 0.0003110328    1.695    0.410
       106 -11.3917    160.4737    203.5114   4.0904191239e+01   1.0531031387e+01    0.1993608    0.1587591  22.56 8.743811e-05    1.162    0.139
       107 -11.2286     26.5063    208.0287   7.3540385197e+01   2.6212974860e+01    0.2609343    0.1455065 -88.18 0.0007714299    1.864    0.464
       108 -11.8281     26.7699    204.7639   7.3289627910e+01   2.6913021987e+01    0.3603423    0.1332928  30.74  0.001613746    2.191    0.544
       109 -11.0597    230.0143    208.0000   2.8955644167e+01   1.4131431961e+00    0.1642718   0.05669284  31.75 0.0008079758    2.981    0.665
       110 -11.1308    103.8472    205.6334   5.4012515046e+01   1.7805531121e+01    0.1894619    0.1504377  32.50 0.0008525131    1.119    0.106
       111 -12.7957    145.4550    200.8710   4.3699724533e+01   1.3041813551e+01    0.4763508    0.3911668  79.33  0.001389635    1.914    0.478
       112 -12.4834     91.4593    199.2625   5.6266577796e+01   2.0768491791e+01    0.6524577    0.4699373 -38.65  0.003069506    1.595    0.373
       113 -12.5526     91.5658    193.0094   5.5445137726e+01   2.2104326842e+01    0.5146621    0.3298762  36.80  0.001693174    1.402    0.287
       114 -12.9188     83.0581    201.6971   5.8678653498e+01   2.1335588882e+01    0.5523559    0.3587841  -2.87  0.001697045    2.137    0.532
       115 -11.9333     82.1684    196.6997   5.8322179992e+01   2.2534730316e+01    0.5171938    0.2792169  30.03  0.002221155    1.662    0.398
       116 -11.0529    213.0115    200.9353   3.0586580671e+01   4.2819517843e+00    0.1543142    0.1497845 -74.43  0.001006892    1.797    0.444
       117 -12.2348    145.3669    216.4121   4.6017204104e+01   1.0308579666e+01    0.2852396    0.2820245 -83.24  0.001426188    1.355    0.262
       118 -12.8994    121.9791    196.6364   4.8421547843e+01   1.7131534196e+01    0.4136296    0.2595381 -46.52  0.002141926    1.693    0.409
       119 -11.9266    176.5157    198.5089   3.6853711997e+01   9.2290215947e+00    0.2182052    0.1594514 -45.75  0.001309876    1.561    0.360
       120 -12.5930    172.7520    195.7236   3.7140204200e+01   1.0197003324e+01    0.2633961    0.2081034 -14.67 0.0003607906    1.146    0.127
       121 -11.0703    176.5107    194.9552   3.6265663490e+01   9.8171937494e+00    0.1824936    0.1165009 -41.02  0.001021442    1.575    0.365
       122 -12.0247    138.9777    197.0000   4.4540573731e+01   1.4662801208e+01    0.2171568    0.1397564  48.97  0.001095954    1.880    0.468
       123 -10.6803     59.2008    198.2198   6.4451299950e+01   2.5007796620e+01    0.2088192    0.1211233 -30.70 0.0009180345    2.620    0.618
       124 -12.6778    192.5557    194.7969   3.3177344094e+01   7.7223872491e+00    0.3627791    0.2278389 -14.78  0.001245431    1.626    0.385
       125 -10.7953    188.8586    191.8287   3.3361746874e+01   8.6766489746e+00    0.1669655    0.1567712  72.37 0.0003879451    1.676    0.403
       126 -12.0433    103.3445    196.0093   5.2865648195e+01   1.9856979332e+01    0.4498993    0.1658125  22.45  0.001527102    3.448    0.710
       127 -10.7367    160.4894    192.9442   3.9194654568e+01   1.2371076840e+01    0.1843643     0.122104 -41.25 0.0006274233    1.526    0.345
       128 -11.6572    164.6150    191.9057   3.8159922408e+01   1.1975136945e+01    0.2246488    0.1737582  31.26 0.0004771121    1.296    0.228
       129 -12.4468    133.4229    190.9142   4.4855879062e+01   1.6627750624e+01    0.3518129    0.2204447 -26.08    0.0017141    1.908    0.476
       130 -13.3769    110.5703    188.1862   4.9947805809e+01   2.0493822512e+01    0.5108632    0.3075651 -71.33  0.002332341    2.286    0.563
       131 -12.9945    105.4206    182.6505   5.0422881590e+01   2.2432173279e+01    0.3651803    0.2677306 -35.87 0.0007671974    1.509    0.337
       132 -11.5152    197.9991    188.2742   3.1069802041e+01   8.0363632654e+00    0.1698542    0.1374266   3.06  0.000304854    1.101    0.092
       133 -10.6198    174.6686    188.7009   3.5570692822e+01   1.1123743516e+01    0.1332032   0.08909569  -5.69 0.0003277965    1.646    0.392
       134 -11.3359    120.3271    188.2888   4.7557304704e+01   1.9060264571e+01    0.1389333     0.101779  -8.20 0.0003483955    1.614    0.381
       135 -10.6590     50.4066    190.4981   6.6061763043e+01   2.7780265559e+01     0.133664    0.1190468  55.43 8.051447e-05    1.018    0.018
       136 -11.6835    227.1866    186.6062   2.5861550643e+01   4.6438856471e+00    0.2228428    0.1477428 -17.30 0.0006960978    1.270    0.213
       137 -11.4479    186.1628    187.1684   3.3067735184e+01   9.7952041627e+00    0.1894299    0.1446851  -9.81 0.0004171087    1.186    0.157
       138 -13.2083    127.2179    185.7361   4.5491256833e+01   1.8571732566e+01     0.477238     0.229404  34.24  0.001565398    1.926    0.481
       139 -13.3494      8.5441    175.6593   7.6543110684e+01   3.5302441839e+01    0.8085077     0.508862 -79.69  0.004407284    1.519    0.342
       140 -13.7449     20.3254    174.1357   7.3127072631e+01   3.4730984248e+01    0.5949595    0.4649321   8.37  0.003426552    1.491    0.329
       141 -12.9496     23.7509    167.4899   7.1661614109e+01   3.6101178621e+01     0.506509    0.3579049  56.37   0.00149775    1.293    0.227
       142 -13.6176      3.5943    168.0782   7.7579031845e+01   3.7536238055e+01    0.7903344    0.3475873 -66.55  0.002489253    2.206    0.547
       143 -11.6778      7.2582    163.5538   7.6287135561e+01   3.8418317614e+01    0.2976848    0.2042582  -4.48  0.000555796    1.867    0.464
       144 -13.1977      5.7582    159.7161   7.6527876021e+01   3.9500246682e+01    0.5070047    0.3920027  11.75  0.002949034    1.481    0.325
       145 -13.4603     15.3540    167.0018   7.4104636963e+01   3.6932533276e+01    0.5757927    0.4385564  44.11  0.002013979    1.210    0.174
       146 -11.8346     12.9845    161.7986   7.4478850018e+01   3.8442212870e+01    0.3797424    0.2022776  42.76  0.001028567    1.691    0.409
       147 -12.6044      7.3503    185.0353   7.7307875171e+01   3.3125141978e+01    0.4250945    0.2701651 -24.76   0.00133157    2.274    0.560
       148 -13.0267      2.4183    184.3997   7.8592293859e+01   3.3640803456e+01    0.6976372    0.3127005 -83.62  0.002373874    2.111    0.526
       149 -11.7020    209.0263    186.0206   2.8741076469e+01   6.9595520004e+00    0.1841597     0.148942 -12.75 0.0005131831    1.026    0.026
       150 -11.7189    164.5311    185.5157   3.7088135991e+01   1.3119530133e+01    0.2704783    0.2063676  74.56  0.001374783    2.469    0.595
       151 -12.0847    156.0589    184.3597   3.8686375352e+01   1.4565256271e+01    0.2565381    0.1939209 -49.88  0.001450395    1.479    0.324
       152 -10.1454     54.4675    184.5362   6.4378023282e+01   2.8730339943e+01    0.1357515    0.1244659  50.68 0.0003798287    1.025    0.025
       153 -12.1877     94.7243    181.0024   5.2972695828e+01   2.4338134028e+01    0.4358159    0.2353599 -62.64  0.001947328    2.046    0.511
       154 -12.0393    134.1341    181.9891   4.3232271463e+01   1.8297293257e+01    0.2175107    0.1836504  23.61 0.0002624533    1.108    0.098
       155 -10.5145     67.0938    181.5834   6.0559600762e+01   2.7914414570e+01    0.1731466    0.1299129  10.48 0.0004750449    1.505    0.336
       156 -10.6211    179.4524    180.2388   3.3138751191e+01   1.1896887165e+01    0.1707928    0.1189709 -49.53 0.0009414508    1.660    0.398
       157 -11.4243     49.6260    178.8585   6.5159798397e+01   3.0651276880e+01    0.3589764    0.2230736 -16.64  0.001581598    2.482    0.597
       158 -12.4380    155.0758    176.9438   3.7595456860e+01   1.6103254070e+01    0.4792328    0.2798035 -64.86  0.001998228    3.007    0.667
       159 -12.9886    116.4380    178.0141   4.6887132916e+01   2.1804660023e+01     0.383424    0.2586945   9.72  0.001831579    1.772    0.436
       160 -12.1145     63.2542    176.8641   6.1078008039e+01   2.9525957060e+01    0.3339837    0.2543581  -6.64  0.001711269    1.651    0.394
       161 -11.0246    191.4470    177.4951   3.0357364681e+01   1.0657856325e+01    0.1274279    0.1070004 -12.73 0.0001035047    1.009    0.009
       162 -12.7196    137.5710    176.7263   4.1522955096e+01   1.8834944361e+01    0.3721762    0.2650043  75.78  0.001632272    2.484    0.597
       163 -13.6407    128.8150    175.8313   4.3457598733e+01   2.0372360343e+01    0.4688972    0.3830976  49.43  0.001065616    1.346    0.257
       164 -12.3870     31.1767    176.4810   7.0197868682e+01   3.3161604702e+01    0.2809204    0.2444581 -42.63  0.001106972    1.349    0.259
       165 -12.4595    106.7358    175.4882   4.8968527054e+01   2.3822117599e+01    0.2979462    0.2201367  35.45 0.0009670408    1.274    0.215
       166 -12.3904    145.6506    173.8240   3.9138603123e+01   1.8161622922e+01    0.2682337    0.1894623  37.04 0.0009675594    1.409    0.290
       167 -13.7571     90.3426    170.5928   5.2612486652e+01   2.7372791972e+01    0.4950819    0.4272907 -79.89  0.001601866    1.261    0.207
       168 -12.7654     78.6928    173.1808   5.6242035608e+01   2.8401062635e+01    0.5995219    0.2537672  30.11  0.002058135    2.216    0.549
       169 -10.9633     43.9876    171.9653   6.6093310217e+01   3.2977025762e+01    0.1674138    0.1510231  76.79 0.0004470772    1.058    0.054
       170 -12.0097    198.3481    170.5824   2.7832662721e+01   1.0820450788e+01    0.2572094    0.2165922  50.32  0.001220945    1.633    0.387
       171 -12.0919     53.3602    170.4412   6.3187125896e+01   3.2301385864e+01     0.338412    0.2086781 -59.95 0.0008511062    1.656    0.396
       172 -11.6860    208.1377    169.8220   2.5986411761e+01   9.5777457006e+00    0.1813953    0.1625196 -36.07  0.001231827    1.320    0.243
       173 -12.0433    153.1926    170.1291   3.6766844167e+01   1.7704024955e+01    0.2332078    0.1977602  44.95 0.0007477547    1.329    0.248
       174 -11.3394     62.8701    170.2078   6.0380265306e+01   3.1204577627e+01    0.2111245    0.1765453  55.52 0.0002710108    1.142    0.124
       175 -11.2285    145.4610    169.4316   3.8380913557e+01   1.9066016622e+01    0.1377375    0.1271409   0.94 4.095362e-05    1.011    0.011
       176 -12.1706     39.4974    168.8377   6.7108941910e+01   3.4240851209e+01    0.2559119    0.1885734  32.31 0.0009862513    1.305    0.234
       177 -13.0650    121.6706    167.1323   4.3705282051e+01   2.3352885425e+01    0.4224781    0.3449286   6.72  0.001896722    1.307    0.235
       178 -11.8900     31.4667    168.0209   6.9417042217e+01   3.5253288037e+01    0.2765703    0.1591816  45.26  0.001157528    1.584    0.369
       179 -11.9094    127.5126    166.4810   4.2123197127e+01   2.2556787963e+01    0.3142122    0.2167594 -26.08  0.001191148    1.686    0.407
       180 -12.5460    152.7158    165.1263   3.5932265761e+01   1.8758366535e+01    0.3696194     0.255494  55.22  0.001205433    1.917    0.478
       181 -11.2351     64.4412    166.0814   5.9392136588e+01   3.2031226608e+01    0.2122298    0.1380553 -65.88   0.00101466    1.566    0.362
       182 -12.7790    198.9525    164.2937   2.6543650529e+01   1.1765539057e+01    0.2508405    0.2146923 -23.72 0.0004625801    1.087    0.080
       183 -12.0321    102.4911    165.2400   4.8415188879e+01   2.6801959999e+01    0.2717794    0.1912338  34.01 0.0005232827    1.357    0.263
       184 -11.6552     45.5871    164.3041   6.4821375333e+01   3.4738362906e+01     0.375481    0.1982015 -31.94  0.001097556    2.948    0.661
       185 -11.2374     49.2899    160.9850   6.3319382687e+01   3.5170457489e+01    0.2214633     0.186612  34.86 0.0004431267    1.163    0.140
       186 -13.6013     92.1692    162.5339   5.0825507941e+01   2.9017886292e+01    0.4797972    0.3342264  45.50  0.001152613    1.420    0.296
       187 -11.8431     56.9744    164.4817   6.1411158285e+01   3.3367740600e+01    0.2232818    0.1347057  29.47   0.00103408    1.597    0.374
       188 -12.7819     37.1342    161.4712   6.7100711264e+01   3.6366672823e+01      0.36298    0.1971056 -72.66  0.001274914    1.795    0.443
       189 -12.6371     25.1173    159.9302   7.0651991256e+01   3.7916896749e+01    0.3095819    0.2550072  19.25  0.001218359    1.319    0.242
       190 -12.3805    170.3576    160.6176   3.1285365565e+01   1.6782273237e+01    0.2620541    0.2480692  -9.95  0.000812502    1.113    0.101
       191 -11.7143     75.4201    161.7180   5.5538060955e+01   3.1650374909e+01    0.2101704    0.1292566 -51.04 0.0009516671    1.693    0.409
       192 -12.8983    110.8864    164.2454   4.5989101545e+01   2.5714151556e+01    0.4172533    0.3059767 -27.71   0.00205319    1.576    0.366
       193 -12.1526    191.0842    157.2673   2.6604003886e+01   1.4124634571e+01    0.3608732    0.1852468 -48.53  0.001011893    2.127    0.530
       194 -12.8193    104.9023    158.3978   4.6564656005e+01   2.8016278342e+01    0.4528826    0.2774208  57.85  0.001916498    2.100    0.524
       195 -10.8536    152.0785    158.5432   3.4798960211e+01   2.0167646678e+01    0.2123663    0.1344153  37.34  0.001027725    1.597    0.374
       196 -13.1025    132.5234    155.7990   3.8863356996e+01   2.4025805551e+01    0.6084095     0.426971  64.65  0.002149963    2.034    0.508
       197 -12.6617    118.9361    157.6152   4.2662311454e+01   2.5905724252e+01     0.355773    0.2720624  44.20  0.001811286    1.329    0.248
       198 -11.8268    213.0859    156.9563   2.2739433511e+01   1.0915291863e+01    0.1884691    0.1567481 -22.26 0.0004890584    1.038    0.037
       199 -11.3549    141.1656    155.8284   3.6779111640e+01   2.2554848035e+01     0.199404    0.1944781  76.12 0.0003655919    1.176    0.150
       200 -12.1964     61.8877    154.8380   5.8635006855e+01   3.5212785062e+01    0.2195868    0.2041777 -16.90  0.001224806    1.205    0.170
       201 -11.6411     19.8680    153.7132   7.1781550454e+01   3.9988156465e+01    0.3383491    0.1839016  82.31  0.001537482    1.864    0.463
       202 -13.0237      2.4653    141.7741   7.6559488289e+01   4.4378154048e+01    0.7831967     0.293745  73.40  0.002940514    2.856    0.650
       203 -13.6897      4.7382    150.2147   7.6316290740e+01   4.2021603147e+01    0.8318401    0.4422353 -24.63  0.002542584    2.708    0.631
       204 -12.3932     19.4924    138.7049   7.0616571966e+01   4.4007113078e+01      0.57519    0.2776206 -16.65  0.002091616    3.514    0.715
       205 -12.7969      9.4394    143.5051   7.4378775061e+01   4.3472084014e+01    0.3128882    0.2178046  87.00 0.0007538575    1.312    0.238
       206 -12.7991     12.4866    142.5537   7.3302078850e+01   4.3510409454e+01    0.3480966    0.2518178  73.26 0.0007545171    1.287    0.223
       207 -10.0421    195.2776    154.3188   2.5263008175e+01   1.3983893681e+01    0.1313904   0.09117693 -11.42 0.0003353501    1.575    0.365
       208 -10.9975    250.0491    158.3048   1.7536190329e+01   5.8555429425e+00    0.1521691     0.120103 -19.93 0.0004361435    1.072    0.067
       209 -13.4379     75.2170    150.7847   5.3895837091e+01   3.4427351118e+01    0.5676073    0.2598084  38.81  0.002234124    2.056    0.514
       210 -12.8244     81.5047    153.4950   5.2434528261e+01   3.2826164723e+01    0.3896929    0.2497312 -56.50  0.001571828    1.571    0.364
       211 -12.1757     84.4896    150.0255   5.0949126926e+01   3.3244571986e+01    0.2790534    0.2152487   6.93 0.0007587981    1.540    0.351
       212 -10.8404     14.5209    153.9707   7.3483297041e+01   4.0347707550e+01    0.1969748   0.08649171 -53.65  0.000691701    2.417    0.586
       213 -12.0690     67.4534    153.5305   5.6719779808e+01   3.4811304727e+01    0.1434884    0.1412056  69.61  0.000142041    1.044    0.042
       214 -12.6831     27.5332    150.6631   6.9068200730e+01   4.0123197316e+01    0.3532072    0.2926784  -2.08 0.0006683074    1.432    0.302
       215 -11.9564    109.0154    149.2216   4.3716986273e+01   2.9491217172e+01    0.3124528    0.2618908  52.64 0.0008115664    1.253    0.202
       216 -12.6286    103.1007    143.3521   4.4225960337e+01   3.1883302007e+01    0.6166518    0.3878042  76.06  0.002280059    2.806    0.644
       217 -11.2500    146.8558    148.3168   3.3920066279e+01   2.3134666432e+01    0.2522355    0.1872011 -53.23 0.0008775573    1.429    0.300
       218 -12.3074     95.8348    148.9766   4.7406105052e+01   3.1723580926e+01    0.2690879     0.213098  35.18 0.0009330362    1.236    0.191
       219 -12.1836     52.6092    153.1555   6.1315013643e+01   3.6807529833e+01    0.3610383    0.1176783  40.86  0.001246245    2.788    0.641
       220 -11.1749    158.1043    145.1128   3.0720287612e+01   2.1813115760e+01    0.2156105    0.1806252  -4.64 0.0003930667    1.256    0.204
       221 -12.5720    143.1487    143.3786   3.3748556161e+01   2.4818490318e+01    0.3540313    0.2693461 -17.13 0.0005479372    1.508    0.337
       222 -12.8390     50.2827    141.9817   6.0547228189e+01   4.0033605172e+01    0.4310023    0.2476774  32.93  0.001693515    1.686    0.407
       223 -10.2199    186.7306    143.7062   2.4664720004e+01   1.7188586043e+01    0.1315643   0.09637009 -10.65            0    1.514    0.339
       224 -11.9028     37.9133    142.9908   6.4824549959e+01   4.1151510805e+01     0.218206    0.1989477  76.74 0.0003770598    1.024    0.024
       225 -12.0642     30.0714    142.4825   6.7403735670e+01   4.2066859734e+01    0.2267578    0.1799622 -78.98 0.0008194253    1.191    0.161
       226 -11.5060    178.5170    141.9649   2.5854469297e+01   1.8880550648e+01     0.288386    0.1128015 -31.42 0.0009897705    3.296    0.697
       227 -11.6746    179.0176    138.2690   2.4971326039e+01   1.9472317038e+01    0.2775166    0.1745472 -69.77  0.001097586    3.262    0.693
       228 -10.7853    150.5260    141.5058   3.1637016833e+01   2.3883943570e+01    0.1445355    0.1340325 -17.14 -1.30488e-05    1.029    0.028
       229 -13.6354     95.9664    138.2320   4.5286756649e+01   3.4332965570e+01    0.7451154    0.4555124  -2.11  0.002610728    3.184    0.686
       230 -12.3776     60.0769    139.9009   5.6970871933e+01   3.9349583562e+01    0.3416854    0.2442379 -44.05 0.0005482737    1.512    0.339
       231 -12.8335     72.8461    139.1889   5.2668370728e+01   3.7750050726e+01    0.2682359    0.2611561  85.60 0.0003553475    1.012    0.012
       232 -13.6346     67.5835    137.0732   5.4013110400e+01   3.9062958172e+01    0.5542606    0.3213208  33.40  0.001226894    1.691    0.409
       233 -12.3863     60.9897    136.4264   5.6099203294e+01   4.0146942139e+01    0.3550543    0.2226186  31.42  0.001599857    1.586    0.369
       234 -11.0415    234.1534    140.1770   1.6318385241e+01   1.0508876704e+01    0.1583419    0.1194405 -41.27 0.0004084752    1.273    0.214
       235 -10.7113     26.6473    140.6598   6.8369286161e+01   4.2871959502e+01    0.1522274   0.09843075 -39.59 0.0007042558    1.805    0.446
       236 -11.8556    206.3347    139.0931   2.0298096842e+01   1.4811001968e+01    0.1998841     0.185021  24.98 0.0003237166    1.243    0.195
       237 -11.1777    121.8392    145.1325   3.9438630701e+01   2.8226191384e+01    0.2088533    0.1997323 -89.05 0.0003170382    1.141    0.123
       238 -13.2477     40.6603    137.6423   6.3214553393e+01   4.2296818381e+01    0.4194912     0.299182  34.92  0.001220619    1.387    0.279
       239 -12.8615     49.1090    130.6978   5.9263350175e+01   4.3201786051e+01    0.3752528    0.2637289  16.94  0.001300751    1.588    0.370
       240 -12.4099    134.7831    135.4556   3.4051913442e+01   2.8035789142e+01    0.4952615    0.3193389  17.34 7.681201e-06    2.126    0.530
       241 -11.1301    183.8363    137.1456   2.3818704533e+01   1.8847506193e+01    0.1829182    0.1463003 -14.17 0.0002594926    1.275    0.216
       242 -11.8165     32.0228    136.3462   6.6042029064e+01   4.3534172158e+01    0.2585394    0.1815811 -46.91 0.0007349785    1.522    0.343
       243 -12.6969    123.2732    135.0033   3.6900163046e+01   3.0261938462e+01     0.286771    0.2510518 -42.34 0.0003236417    1.128    0.114
       244 -12.9951    125.7319    132.6901   3.5739601495e+01   3.0328399373e+01    0.5424878     0.370762  84.08  0.002161996    2.578    0.612
       245 -12.6264     52.3924    135.0031   5.8793488607e+01   4.1640875444e+01    0.3630606    0.1783223  46.43  0.001440255    2.094    0.522
       246 -12.4829     58.0405    132.9851   5.6525772289e+01   4.1455470259e+01    0.2806098    0.2117905  88.47 0.0005667295    1.433    0.302
       247 -11.5023     86.5113    134.5040   4.7430450047e+01   3.6829672791e+01    0.1496457    0.1490522 -57.12 4.188509e-05    1.026    0.025
       248 -12.7569     77.9744    133.2049   4.9897435722e+01   3.8521334423e+01    0.3275461    0.2712769 -48.17 0.0007803756    1.230    0.187
       249 -12.4489     82.1238    130.8695   4.8093712029e+01   3.8463863704e+01    0.3203904    0.2707592  72.41  0.001151978    1.288    0.224
       250 -11.8129     83.5585    127.4927   4.6935834206e+01   3.9091737942e+01    0.2682031    0.2307196 -49.17 0.0008713945    1.169    0.144
       251 -12.1512     13.4984    134.4964   7.2310480703e+01   4.5597107689e+01    0.2373458    0.1722364 -68.03  0.001261609    1.297    0.229
       252 -13.0816     19.1248    131.7735   7.0081451312e+01   4.5909869664e+01    0.4931677     0.274832  29.56  0.001294557    1.789    0.441
       253 -11.9883      6.7069    133.7453   7.4608489612e+01   4.6255798531e+01    0.3010898     0.128433  71.82  0.001174121    2.531    0.605
       254 -11.1147     31.4854    131.7443   6.5674347581e+01   4.4834789468e+01    0.2050042    0.1353318 -76.21 0.0009792853    1.438    0.304
       255 -11.3798     88.9777    130.2802   4.5791937981e+01   3.7485831428e+01    0.2102104      0.19629  31.82 0.0002334757    1.085    0.078
       256 -12.1110    111.0697    135.8966   4.0420077342e+01   3.2270619915e+01    0.2705607    0.2069795  28.90  0.000903856    1.357    0.263
       257 -12.4881    176.6230    127.1489   2.2991648335e+01   2.1945120362e+01    0.2682859    0.2262186  29.60 0.0004463781    1.285    0.222
       258 -10.1554    162.6935    128.2938   2.6043638942e+01   2.4296887483e+01    0.1369303    0.1135389 -80.36 0.0002486107    1.582    0.368
       259 -10.3399    130.6790    128.2653   3.3455106055e+01   3.0380456360e+01    0.1458077    0.1189455  77.99 0.0001994097    1.558    0.358
       260 -12.7481     58.2051    126.9601   5.5426038274e+01   4.3042668811e+01    0.4498588     0.237492 -37.07   0.00169627    2.476    0.596
       261 -12.1632     41.8780    126.9114   6.1269080607e+01   4.5070003882e+01    0.3764741    0.2489306 -75.08  0.001767925    1.479    0.324
       262 -10.6340    109.6633    127.7066   3.9010636803e+01   3.4460169661e+01    0.1555128    0.1209792  -9.47 0.0007026829    1.645    0.392
       263 -11.9102     97.1386    126.9266   4.2540665536e+01   3.6912376075e+01     0.288441    0.2067192 -48.40  0.001335092    1.391    0.281
       264 -11.5185    183.0388    126.9538   2.1743888172e+01   2.0823513465e+01    0.2021164    0.1795984 -32.47  0.001203463    1.019    0.018
       265 -12.5221      3.8696    121.4013   7.4706685340e+01   4.9751676966e+01    0.4000611    0.1870233 -83.84  0.001438352    1.949    0.487
       266 -13.0112      6.2552    126.6333   7.4237342685e+01   4.8198788459e+01    0.3974935    0.1902136 -56.26  0.001148277    2.006    0.501
       267 -11.0834    115.9666    126.3052   3.6913069688e+01   3.3614093769e+01     0.219788    0.1932913  34.13 0.0008862917    1.156    0.135
       268 -12.2043     26.9038    125.4066   6.6555731930e+01   4.6989926239e+01    0.2635277    0.2147979 -74.07 0.0002821937    1.144    0.126
       269 -12.4232     75.6097    123.1291   4.8654272528e+01   4.1497527819e+01    0.2890736     0.241188 -26.32  0.001001733    1.362    0.266
       270 -10.9141     49.0330    124.0434   5.8207718342e+01   4.5009348861e+01    0.2221944    0.1668772 -32.77  0.000366553    1.531    0.347
       271 -12.4654     20.3099    110.0178   6.7151007789e+01   5.1765122391e+01    0.2793091    0.2634284 -70.13 0.0004103139    1.048    0.046
       272 -14.1018     14.4080    119.7792   7.0603741055e+01   4.9530956213e+01     0.589765    0.5051402  42.51  0.003081786    1.203    0.169
       273 -12.9349      9.5162    118.0047   7.2293154396e+01   5.0341122024e+01    0.2918463    0.2628547  24.55 0.0009030243    1.219    0.180
       274 -10.9143    164.0529    122.6964   2.4472089277e+01   2.5128701231e+01    0.1912811    0.1828598   0.90 0.0003262805    1.079    0.073
       275 -11.9331    123.9060    122.3994   3.3838544112e+01   3.2988035204e+01    0.2723857    0.2197045   7.33 0.0009160457    1.508    0.337
       276 -11.5454     91.0190    122.9768   4.3564649685e+01   3.8965631022e+01    0.2410836    0.1865863 -18.78   0.00054581    1.616    0.381
       277 -10.9782    178.8765    122.0882   2.1420680872e+01   2.2462354783e+01    0.1878634    0.1558475 -12.15 0.0004274835    1.287    0.223
       278 -11.5774    188.9847    121.0318   1.9356575388e+01   2.0811219260e+01    0.2027059    0.1804058 -34.96 0.0003196856    1.028    0.027
       279 -11.2587    104.9646    121.2249   3.8880593436e+01   3.6873158586e+01    0.2934081    0.1982022  54.92 0.0008721461    1.672    0.402
       280 -12.3219    100.5803    119.2807   3.9738210899e+01   3.8154873133e+01    0.4372042    0.1883216  36.70  0.001401657    2.380    0.580
       281 -10.5091     28.9996    120.9924   6.5204747953e+01   4.8006926991e+01    0.1686553    0.1616835  73.85            0    1.052    0.049
       282 -14.0658     68.2284    112.6028   4.8972565748e+01   4.5396452355e+01    0.9584678    0.3480294 -52.05  0.003188998    2.598    0.615
       283 -13.6640     74.8355    115.1727   4.7197816880e+01   4.3680495606e+01    0.7745643    0.4710988  68.59   0.00293236    2.479    0.597
       284 -11.5782     77.6722    113.2833   4.5781289630e+01   4.3699621929e+01    0.2572846    0.2285174  82.52 0.0002291384    1.202    0.168
       285 -13.2300     82.3482    115.9359   4.4796780084e+01   4.2234826306e+01    0.5127767    0.3562564 -47.01 0.0003341521    1.448    0.309
       286 -12.1567     82.4600    111.9595   4.3826690351e+01   4.3221989773e+01    0.3867911    0.2452017 -47.71  0.001377259    1.575    0.365
       287 -11.8273     20.6265    113.7411   6.7502713873e+01   5.0718848883e+01    0.2698381    0.1765411 -61.74  0.000385688    1.407    0.289
       288 -11.9242    100.7054    113.5890   3.8321496395e+01   3.9503409872e+01     0.290128    0.2232276  37.12 0.0008122819    1.324    0.245
       289 -12.1459     96.6121    116.1310   4.0210598463e+01   3.9652353584e+01    0.3758073    0.2758524 -19.76 0.0003614419    1.796    0.443
       290 -12.5225     93.4926    116.4574   4.1272397913e+01   4.0142220405e+01    0.4911079    0.2535099  45.61  0.001740756    2.010    0.502
       291 -11.5792     64.1747    118.4971   5.1686161163e+01   4.4456876207e+01    0.2230451    0.1505912  31.15  0.001006082    1.511    0.338
       292 -11.3438    214.3809    114.1492   1.3807418172e+01   1.7545046691e+01    0.1848022    0.1671391   1.55 0.0003491617    1.226    0.184
       293 -10.7853    201.6809    114.2836   1.5747159195e+01   1.9704848651e+01    0.1271413   0.09793255 -64.77   0.00024454    1.587    0.370
       294 -10.3772    142.9759    114.3130   2.7090137487e+01   3.0952891514e+01    0.2384305    0.1200422  64.73 0.0007046151    4.265    0.766
       295 -13.6236     62.8816    110.7608   5.0529403908e+01   4.6691309355e+01    0.8326002    0.3930771 -61.72  0.003173384    2.089    0.521
       296 -10.9992     56.9287    113.7054   5.3372402784e+01   4.6762854868e+01    0.2412619    0.1255804   0.16 0.0007029598    4.279    0.766
       297 -13.4408     10.9251    111.6056   7.1110442412e+01   5.1998813117e+01    0.5122635    0.3618439  17.23   0.00212047    1.558    0.358
       298 -12.3988      2.7828    109.1080   7.4124691976e+01   5.3143458865e+01    0.3050437    0.2137002  71.94  0.001609428    1.394    0.283
       299 -11.7624    210.3689    107.6427   1.2968605298e+01   1.9265791176e+01    0.2311992      0.19275 -25.03 0.0006122753    1.143    0.125
       300 -11.0710     87.4969    108.4926   4.1282122114e+01   4.3196228052e+01    0.1537623    0.1513085 -70.77 9.975884e-05    1.002    0.002
       301 -11.1473    139.6459    107.1155   2.6054122576e+01   3.3126482092e+01    0.2533615    0.2124705  61.84 0.0008869576    1.305    0.234
       302 -10.4907    105.0326    107.0012   3.5328979778e+01   4.0228475293e+01    0.1813152    0.1763338 -57.10 0.0003170522    1.013    0.012
       303 -12.3734     12.6095    104.2106   6.9593093928e+01   5.3911174124e+01    0.2450153    0.2341014 -68.13 0.0003777439    1.067    0.063
       304 -12.9994      4.9541    100.7857   7.2442974371e+01   5.5293236694e+01    0.4878161    0.3787913  -5.01  0.002711957    1.475    0.322
       305 -10.8417    105.1273    102.3827   3.4073949544e+01   4.1283004450e+01    0.2188481    0.1423318  54.34   0.00044966    1.701    0.412
       306 -11.7434     78.7108    101.9609   4.2652755052e+01   4.6389771042e+01    0.3140852     0.221913  47.94  0.001427462    1.472    0.321
       307 -12.0570     55.9767    101.4392   5.1100581499e+01   5.0153300127e+01    0.3191197    0.2207017 -58.97 0.0006174828    1.386    0.279
       308 -11.8105     57.6893     97.5649   4.9505861000e+01   5.0920446468e+01    0.2723274    0.2472828  44.87 0.0007421921    1.130    0.115
       309 -11.2749    129.6211    100.3596   2.6728817229e+01   3.6643922036e+01    0.2443345    0.2174896 -78.81 0.0006689614    1.221    0.181
       310 -10.6999     85.4723    100.4492   3.9892472023e+01   4.5545800572e+01    0.1530002    0.1510082 -48.16 0.0001375498    1.021    0.020
       311 -12.2438     94.0757     98.3869   3.6452925153e+01   4.4407808799e+01    0.3868863    0.2751204  54.89 0.0009456647    1.535    0.348
       312 -11.1306    122.5652     98.1022   2.7945029463e+01   3.8623037612e+01    0.3151853    0.2083409  25.54  0.001312577    2.028    0.507
       313 -11.1077      6.7999     87.0397   7.0014556243e+01   5.8913712864e+01    0.2153005    0.1881203  43.57 0.0006663246    1.239    0.193
       314 -11.9814      6.2532     95.0566   7.1253633084e+01   5.6779200860e+01    0.5532645    0.1841947  37.34  0.002059612    3.027    0.670
       315 -11.1449      3.4002     90.5163   7.2017189880e+01   5.8148642611e+01    0.2338897    0.1828824 -67.40 8.578916e-05    1.133    0.117
       316 -11.4621      2.5713     87.4658   7.2049889003e+01   5.9006996479e+01    0.2584558     0.187347 -78.65 0.0006217268    1.241    0.194
       317 -13.4667     74.3988     90.1406   4.1038714789e+01   5.0077886681e+01    0.5121263    0.3740003  65.93  0.002307838    1.701    0.412
       318 -10.9367    176.6853     94.3240   1.5175435351e+01   2.7873842747e+01    0.1442531     0.103928 -67.13  0.000704211    1.664    0.399
       319 -13.2388    121.0999     91.7914   2.6559782083e+01   4.0280798640e+01    0.4911084    0.3732807  -4.41  0.001413917    1.874    0.466
       320 -11.7690     57.9798     90.4419   4.7595440473e+01   5.2715680005e+01    0.4366755    0.2157901 -57.41  0.001721498    1.947    0.486
       321 -12.1163     54.7567     85.1903   4.7546321088e+01   5.4537045919e+01    0.5190011    0.4483055 -15.81  0.002707083    1.270    0.212
       322 -11.2265     25.5882     92.0975   6.2111218542e+01   5.6207506061e+01    0.2387361    0.1906195  38.56 0.0005302532    1.321    0.243
       323 -11.5053    153.9681     90.4936   1.8474041526e+01   3.3356830778e+01    0.2214543    0.1457515  51.58  0.001037465    1.607    0.378
       324 -14.6565     94.4373     83.4762   3.1984663318e+01   4.7768448150e+01    0.6909109    0.5793192  76.28  0.001345023    1.373    0.272
       325 -11.9009    149.7041     84.9994   1.7849838447e+01   3.5314204950e+01    0.2142657    0.1824834 -46.12 0.0004607652    1.109    0.098
       326 -10.6684    144.4896     82.5466   1.8263451968e+01   3.6933218921e+01    0.1472849     0.140357 -58.43 8.759907e-05    1.009    0.009
       327 -11.0121     10.1984     81.8851   6.7642837631e+01   6.0102768863e+01    0.2090174    0.1785055  77.73  0.000750425    1.214    0.176
       328 -11.4647     65.8022     81.5608   4.1897690889e+01   5.3668008453e+01    0.2980886    0.1526034  29.70  0.001146319    2.173    0.540
       329 -11.4118      3.8064     79.3204   7.0430387785e+01   6.1125304467e+01    0.3852519    0.1420447  41.34  0.001467022    3.022    0.669
       330 -11.6605    112.7591     78.9576   2.5002783781e+01   4.4784573662e+01    0.4407778    0.1914053  59.62  0.001311452    3.252    0.692
       331 -11.6305    162.8253     77.8520   1.3326226660e+01   3.3683436477e+01    0.2048225    0.1613433 -67.26 0.0006390414    1.345    0.256
       332 -10.7346     41.1484     91.8193   5.5104788816e+01   5.4648769596e+01    0.2249331    0.1891724  62.83 0.0007128875    1.289    0.224
       333 -11.1648      9.3217     77.6284   6.7404846094e+01   6.1285765651e+01    0.2447058    0.2031628  71.26  0.001388332    1.289    0.224
       334 -11.3659    106.0157     73.3247   2.5139734299e+01   4.7435582428e+01    0.2697023    0.2131245 -73.68 0.0007118886    1.494    0.331
       335 -12.0533      1.7161     73.3644   7.0671825593e+01   6.2790698011e+01    0.2994738    0.1624111 -53.99   0.00144515    1.601    0.376
       336 -10.7674     45.4121     73.2713   4.8374891029e+01   5.8870067516e+01    0.1950408    0.1405861 -72.45 0.0005882442    1.551    0.355
       337 -12.1892     52.6891     71.4786   4.4441701827e+01   5.8241833705e+01    0.3935835    0.2821585 -18.74  0.001822529    1.737    0.424
       338 -12.5578     70.9865     69.9283   3.6081479925e+01   5.5457954568e+01    0.3961195    0.2956105 -14.31  0.001254907    1.748    0.428
       339 -12.2379     60.5440     67.6868   3.9684428288e+01   5.7850504200e+01    0.4131465     0.285598 -74.79  0.001542472    1.959    0.489
       340 -10.3979    154.4697     68.4322   1.2206016387e+01   3.7165718265e+01    0.1433672    0.1333787 -63.57 0.0001271853    1.008    0.008
       341 -11.8925      7.8396     67.3116   6.6402427053e+01   6.4071976311e+01    0.2804315    0.1738593 -63.65   0.00085132    1.411    0.291
       342 -11.0969    124.8559     66.8528   1.7991094040e+01   4.4349538258e+01    0.2099086     0.201977  16.44 0.0002791868    1.152    0.132
       343 -12.2607     48.9621     66.1860   4.4475218388e+01   6.0074745137e+01    0.3137133    0.2783953 -19.81 0.0003285086    1.152    0.132
       344 -11.6199     46.7934     62.6548   4.4342832321e+01   6.1231289640e+01    0.3185322    0.1983768  28.02 0.0006481308    1.670    0.401
       345 -11.8341     21.0635     61.1472   5.7582812654e+01   6.4686161282e+01    0.2498304    0.2194168  53.40 0.0004540853    1.288    0.223
       346 -10.6629     17.4047     61.1887   5.9680244837e+01   6.4986922256e+01    0.3880258    0.2123875 -71.78  0.001646166    1.854    0.461
       347 -12.0243     13.0731     59.9876   6.1893059848e+01   6.5615459482e+01    0.3477028    0.2861484  50.64 0.0009396682    1.385    0.278
       348 -11.4281    135.9836     60.9843   1.3601271092e+01   4.2745162638e+01    0.2834087    0.1385036 -56.25  0.001034103    2.623    0.619
       349 -11.1628     27.5337     60.7297   5.3830883122e+01   6.4157258057e+01    0.2197852     0.181364  21.42 0.0002159874    1.260    0.206
       350 -10.9679    183.7178     60.0482   5.2554380780e+00   3.1938915556e+01    0.1898987    0.1578423 -46.19 0.0003942593    1.076    0.070
       351 -11.7392     42.1650     57.6401   4.4939058239e+01   6.3072143523e+01    0.5475098     0.220879 -48.21  0.001910313    2.338    0.572
       352 -11.9546     33.7626     58.2756   4.9632137166e+01   6.4039368603e+01    0.4404469    0.2698046  66.19  0.001461633    2.725    0.633
       353 -12.7465     37.5371     54.2548   4.6190882787e+01   6.4494620872e+01    0.5929603    0.2650063 -53.09   0.00193891    2.114    0.527
       354 -11.2128    197.0714     58.3011   3.1187452538e+00   2.9363370842e+01    0.1739677    0.1542571 -68.99 0.0003368681    1.096    0.088
       355 -12.6402    153.4092     57.1360   9.0795143471e+00   3.9242010588e+01    0.2604395    0.2404857 -49.93  0.000409176    1.071    0.066
       356 -10.7169    179.8032     56.1831   4.7599533730e+00   3.3360810010e+01    0.1656931    0.1576195  -7.33  0.000321165    1.261    0.207
       357 -13.4079    107.1447     51.7081   1.7317349727e+01   5.1216861296e+01    0.5865424    0.3871132 -88.48  0.002440882    2.276    0.561
       358 -12.5452    195.4581     52.4368   1.8372599664e+00   3.0519550535e+01    0.2380145    0.2024987 -54.16  0.000287506    1.008    0.008
       359 -11.4005    174.6875     51.0611   4.0627904588e+00   3.5239805895e+01    0.1973298    0.1639582 -47.51 0.0007736862    1.094    0.086
       360 -11.1838    151.1795     51.1729   7.6648462029e+00   4.0682636156e+01    0.1995963    0.1980715  32.47 0.0004787404    1.160    0.138
       361 -11.2233     96.9580     56.4715   2.2011624234e+01   5.2751840207e+01    0.2241722    0.1445734  51.42 0.0005551851    1.525    0.344
       362 -12.9399     30.0294     49.9423   4.8881446015e+01   6.6443575684e+01    0.3545809     0.297892 -47.01  0.001192523    1.133    0.117
       363 -12.1157     16.7493     49.6199   5.6871473588e+01   6.7882336461e+01     0.359789     0.233723  -7.58  0.001815173    1.711    0.416
       364 -11.2456     41.3187     47.1302   4.1402594069e+01   6.5542301986e+01    0.4730147    0.1423434  43.85  0.001459712    4.087    0.755
       365 -12.4578     89.4134     45.1170   1.9990689216e+01   5.6495997781e+01    0.3029706    0.2621251  61.52 0.0004733644    1.150    0.131
       366 -11.9033     49.7143     43.9642   3.5657164318e+01   6.4847111645e+01    0.2356374    0.1980609  37.91 0.0003392645    1.196    0.164
       367 -12.1417     25.0454     54.3185   5.3289223846e+01   6.5972802277e+01    0.1953731     0.176013   3.76  0.001024751    1.126    0.112
       368 -11.1345      3.4463     44.2184   6.4107729494e+01   7.0088336623e+01    0.1738953    0.1210764 -84.99 0.0007668751    1.596    0.374
       369 -13.2371     34.0563     40.4075   4.2727324249e+01   6.8027770435e+01    0.4380149    0.3281456  50.83  0.001896279    1.614    0.380
       370 -12.1828    120.8586     39.4059   9.5236558004e+00   4.9811939359e+01    0.2431698    0.2368693 -73.52 0.0003391694    1.063    0.059
       371 -11.4439     93.8342     40.3715   1.6698994332e+01   5.6243209917e+01    0.2109713    0.1246986  45.49 0.0004191234    1.690    0.408
       372 -10.8510     83.9821     38.0055   1.8787523691e+01   5.8917681598e+01    0.2098007    0.2023416  58.08 0.0003412317    1.023    0.023
       373 -12.0663     80.0195     36.6147   1.9518730463e+01   6.0044145759e+01    0.4611954    0.2465854 -42.13    0.0020089    1.958    0.489
       374 -12.5286      9.7900     36.9073   5.7461242270e+01   7.1414921308e+01    0.2606196     0.217009 -29.16 0.0003886591    1.081    0.075
       375 -12.0790     41.9849     34.1626   3.5262444106e+01   6.8072648888e+01    0.3014062    0.2280703 -14.29 0.0009544381    1.462    0.316
       376 -11.4372     86.2376     33.9911   1.6320041647e+01   5.9017758293e+01    0.2658799    0.1860958  71.56  0.001158805    1.616    0.381
       377 -11.2122    190.1808    249.1399   4.1753974086e+01   2.3872683658e-01    0.1555234    0.1101959  -1.41 0.0002953523    1.113    0.102
       378 -11.7200     15.2245     33.2309   5.2135709981e+01   7.1782828607e+01    0.2801506    0.1701765  21.19  0.001455782    1.662    0.398
       379 -12.3802     30.3511     31.6561   4.1024574640e+01   7.0339491908e+01     0.433987    0.1917926  38.92  0.001856971    2.330    0.571
       380 -11.5854     77.4696     30.9863   1.7856257234e+01   6.1496305442e+01    0.2088384    0.1403951 -33.05  0.001023673    1.568    0.362
       381 -11.4265      2.3964     30.4216   6.0866624384e+01   7.3374271903e+01    0.2622638    0.1714587  -4.47  0.001459789    1.551    0.355
       382 -11.5277     96.5866     30.2148   1.1709161581e+01   5.7085770172e+01    0.1877846    0.1402286 -14.36 0.0005239541    1.602    0.376
       383 -10.7413     52.3147     29.6654   2.7595768470e+01   6.7029769362e+01    0.1341035    0.1118802 -87.11 0.0006913845    1.689    0.408
       384 -10.6134    116.5313     26.4388   5.6086287708e+00   5.2632665529e+01    0.1397259    0.1289749  81.39 5.898229e-05    1.009    0.009
       385 -11.4848     45.5638     25.3022   2.8744059185e+01   6.9032070298e+01    0.2611772    0.1291839 -44.35  0.001151413    2.172    0.539
       386 -11.6527      1.5619     25.6337   5.9873067863e+01   7.4493921056e+01    0.2181554    0.1417831 -65.73 0.0006663772    1.535    0.348
       387 -11.2396     53.5463     33.4722   2.8901441198e+01   6.6136176779e+01    0.1389624    0.1291522  11.61 0.0001109933    1.017    0.017
       388 -12.3412     84.9376     24.4125   1.2421762891e+01   6.0678256357e+01    0.3068911    0.2010833 -68.55  0.001390013    2.149    0.535
       389 -11.5434     89.5406     24.0151   1.0923845066e+01   5.9623182720e+01    0.2059281    0.1394347 -29.38 0.0007565838    1.585    0.369
       390 -10.3911     19.2529     23.6493   4.4734344618e+01   7.3357214989e+01    0.1176001    0.1036241  81.67 0.0006574578    1.595    0.373
       391 -11.4977     70.7922     20.8939   1.5305559651e+01   6.4445401010e+01    0.2064853    0.1788561  24.08 0.0005500265    1.180    0.152
       392 -10.8334    141.1920     18.8580   3.5886707491e+02   4.7342500155e+01    0.1779112    0.1512787  52.30 0.0004200219    1.291    0.225
       393 -11.5815     96.9148     15.6202   5.3401552057e+00   5.8807934321e+01    0.2270416    0.1915999 -42.38 0.0002439374    1.257    0.204
       394 -11.0564     65.9208     16.1635   1.4594009243e+01   6.6158889475e+01    0.2091558    0.1829993  77.28  0.001224603    1.269    0.212
       395 -10.7555     34.0036     15.2053   2.9547154961e+01   7.2718195776e+01    0.1748208    0.1516215  19.61  0.001080467    1.050    0.047
       396 -10.8949    125.0454    249.3152   5.4406634320e+01   7.3766919832e+00    0.1675772    0.1250978  21.87 0.0004840365    1.061    0.057
       397 -10.9304     58.1081    248.7292   6.8696474666e+01   1.4901639811e+01    0.1776536    0.1224306  -1.25  0.001067297    1.890    0.471
       398 -11.7715     49.8881    247.7196   7.0418168080e+01   1.5924770025e+01    0.2713317    0.1727625  80.14  0.001241766    1.817    0.450
       399 -12.2993    162.5790    247.4391   4.6662078570e+01   3.4167260092e+00    0.2033749    0.1631312  15.03 0.0004817796    1.123    0.109
       400 -11.2603     68.4372    246.9064   6.6319380530e+01   1.4138538867e+01     0.251148    0.1497688  59.09  0.001467216    1.807    0.447
