#   1 NUMBER                 Running object number                                     
#   2 MAG_AUTO               Kron-like elliptical aperture magnitude                    [mag]
#   3 X_IMAGE                Object position along x                                    [pixel]
#   4 Y_IMAGE                Object position along y                                    [pixel]
#   5 X_WORLD                Barycenter position along world x axis                     [deg]
#   6 Y_WORLD                Barycenter position along world y axis                     [deg]
#   7 A_WORLD                Profile RMS along major axis (world units)                 [deg]
#   8 B_WORLD                Profile RMS along minor axis (world units)                 [deg]
#   9 THETA_WORLD            Position angle (CCW/world-x)                               [deg]
#  10 FWHM_WORLD             FWHM assuming a gaussian core                              [deg]
#  11 ELONGATION             A_IMAGE/B_IMAGE                                           
#  12 ELLIPTICITY            1 - B_IMAGE/A_IMAGE                                       
         1 -13.0585     62.1574     44.3883   7.4510065412e+01   6.0877032979e+01    0.4447657    0.3982318  44.87 0.0007687828    1.355    0.262
         2 -10.3297     16.1918     17.9502   8.4398948581e+01   7.1085179058e+01    0.4422778     0.255194  20.57  0.001754248    1.684    0.406
         3 -11.4769     14.4233     37.9930   9.3547382056e+01   6.7871291102e+01     1.040642    0.6667857  36.54  0.005918586    2.028    0.507
         4 -11.5657     18.8081     28.5165   8.7634146102e+01   6.9147823653e+01    0.3782185     0.268962 -46.91 0.0006728003    1.508    0.337
         5 -10.3071     26.4771     21.6004   8.0654134681e+01   6.9430205296e+01    0.3396352     0.298284   2.38  0.001598367    1.258    0.205
         6 -12.5008    107.6537     28.9874   5.4087801761e+01   5.3989917697e+01    0.4663527    0.4557176   9.16  0.002981382    1.105    0.095
         7 -11.0336    218.3178     19.0500   3.4551609952e+01   2.8912943744e+01    0.5420179    0.2673516 -56.05  0.002063855    1.848    0.459
         8 -10.2529    211.1680     15.4247   3.4368796146e+01   3.0913724655e+01    0.4648432    0.2210962 -64.23  0.001665196    2.161    0.537
         9  -9.5290     62.6599     23.1652   6.5451727397e+01   6.3867132723e+01    0.9844505    0.3265096  36.24  0.003737771    3.260    0.693
        10 -11.4403     61.8874     16.8578   6.2903770987e+01   6.4759336060e+01    0.6315075    0.3296592  27.98  0.002874436    2.002    0.501
        11 -12.0695    117.0343     22.2313   4.9490255510e+01   5.2594583584e+01    0.2829574    0.2265156  29.51 0.0004174791    1.292    0.226
        12 -10.7000    164.6824     20.3628   4.0726866055e+01   4.1305179310e+01    0.3540816    0.2674167  83.21  0.001467856    1.213    0.176
        13 -10.8434    166.5097     17.5686   3.9706001770e+01   4.1160424546e+01    0.3758303    0.2460589 -19.06   0.00156816    1.915    0.478
        14  -9.5283    199.6526     18.4594   3.6157199066e+01   3.3192988587e+01     0.267422    0.2177265 -28.68  0.001199603    1.464    0.317
        15 -10.7768    182.2772     18.3143   3.7980119326e+01   3.7288396653e+01    0.4064626    0.2454946  45.76  0.000425874    1.987    0.497
        16 -10.7214    175.5496     12.8887   3.7338167964e+01   3.9468452969e+01    0.7559189    0.3152196  71.31  0.003238483    2.128    0.530
        17  -8.6723    178.5164      8.4293   3.5849093887e+01   3.9207545832e+01    0.1273225    0.1076777  83.72 1.393258e-05    1.050    0.047
        18 -10.9732    231.1219     15.2064   3.2681133012e+01   2.6592697373e+01    0.4949493    0.2568884 -66.14  0.002600163    1.782    0.439
        19  -9.7740    110.5982     16.5910   4.8863152273e+01   5.4665211303e+01      0.38229    0.2111703  25.84 0.0006474075    2.358    0.576
        20 -10.1298    117.0739     15.4314   4.7082719824e+01   5.3277809193e+01     0.345176    0.2073182  54.40 0.0006922422    1.428    0.300
        21  -9.8263     23.4580      1.7059   7.2152107360e+01   7.2426161255e+01    0.2410243    0.1607259  28.66 0.0008742079    1.396    0.283
        22 -10.3846     13.6509     11.1684   8.2559521677e+01   7.2334322121e+01    0.2518434    0.1720891   5.39  0.000570469    1.273    0.215
        23 -11.0474      5.9887     16.2574   8.9405000183e+01   7.2259279037e+01    0.3751515    0.3502403  58.18   0.00222268    1.877    0.467
        24 -10.3631      9.9120     14.5372   8.6336172514e+01   7.2193688409e+01    0.2550607    0.1859072   9.36  0.001178477    1.286    0.223
        25 -11.4460     24.9330      6.9607   7.4222652832e+01   7.1613756047e+01    0.2870418    0.1774343 -38.34 0.0004175254    1.857    0.462
        26 -11.6670     20.6464      6.5456   7.6281122733e+01   7.2190628102e+01    0.3125215     0.204797   8.53  0.001914561    1.334    0.250
        27 -10.9936    243.8268     13.6275   3.1440543897e+01   2.4146434111e+01    0.3283791    0.2715461  64.60  0.002278009    1.508    0.337
        28  -9.8137    247.2219      9.8014   3.0465346483e+01   2.3898618606e+01    0.2095639    0.1845821  88.38 0.0009503239    1.313    0.238
        29 -10.5562     98.3819     12.9455   5.0297041222e+01   5.7772859568e+01    0.4518943    0.2999686  60.90   0.00251816    1.409    0.290
        30  -8.6802     97.7012      6.6881   4.8018675444e+01   5.8480430325e+01    0.2130234    0.1362987  20.54  0.000723693    1.763    0.433
        31  -7.5558     84.6030      8.5235   5.2030539272e+01   6.1151130589e+01    0.2020479    0.1094047  55.36 0.0002227641    1.632    0.387
        32  -9.5231     89.1520     13.2528   5.2762656345e+01   5.9749793592e+01    0.2686794    0.2354429   7.20  0.001147181    1.161    0.139
        33  -9.6019     90.8632      8.6783   5.0458427960e+01   5.9804608426e+01     0.369586    0.1491442  46.56  0.001682285    2.068    0.516
        34  -9.2814     88.3105      6.4207   5.0183641519e+01   6.0548324788e+01    0.3124942    0.1983969  55.70  0.001493794    1.383    0.277
        35 -10.1275     32.3986     12.7548   7.3443900446e+01   6.9912379223e+01    0.2204448    0.1997828  10.31 0.0008943671    1.367    0.268
        36  -9.2373    219.3087     12.1642   3.2958804700e+01   2.9474157852e+01    0.2889192    0.1478681 -48.38  0.001567425    1.702    0.413
        37 -10.3755    146.1683     12.3720   4.1024023826e+01   4.6617217503e+01    0.5075195    0.1966198  63.52  0.001872228    2.142    0.533
        38 -10.5766    133.1021     12.7179   4.3198053781e+01   4.9735817969e+01    0.2061106    0.1995227  70.39 0.0002744649    1.107    0.097
        39  -9.7845    128.8095      8.8925   4.2671575606e+01   5.1109493910e+01    0.3683978    0.2577501  70.97  0.001544043    1.289    0.224
        40  -9.6655     43.5638      9.4017   6.6623534680e+01   6.8683426192e+01    0.3364658    0.1512263  32.98  0.001395812    2.074    0.518
        41  -9.1591     48.7667      7.7601   6.3623721701e+01   6.8020969855e+01    0.1480343    0.1333691  40.54 0.0006867959    1.400    0.286
        42 -10.5761     55.9446     11.4854   6.2618633098e+01   6.6404501805e+01    0.2690287    0.1777359 -17.70 0.0006733615    1.510    0.338
        43  -9.2174     51.1940     12.2552   6.4847919751e+01   6.7130176679e+01    0.3234648    0.2136571 -18.61  0.001969239    1.482    0.325
        44  -8.7354     53.0347      7.9862   6.2045447058e+01   6.7275355397e+01     0.217978    0.1142967   1.65 0.0008813732    2.584    0.613
        45 -11.3661     14.7971      4.7661   7.8589830122e+01   7.3083556712e+01    0.5094399    0.2732581 -20.72  0.001898192    1.716    0.417
        46  -9.7401     78.9731     11.5679   5.4914754123e+01   6.2032740067e+01    0.2133657    0.1665417  -2.66  8.22543e-05    1.316    0.240
        47 -10.6931    192.3889      8.0571   3.4364402372e+01   3.5986529584e+01    0.4923918    0.3577546 -76.77   0.00163351    1.214    0.177
        48 -10.5427    195.8155      3.5896   3.2986963526e+01   3.5639926075e+01    0.4801444    0.2530783  67.54   0.00204757    1.701    0.412
        49  -9.4178    224.3659      9.4275   3.1978624977e+01   2.8678091075e+01     0.223401    0.1286773 -40.19 0.0007672656    1.638    0.389
        50  -9.1817    165.7493      9.3668   3.7542173810e+01   4.2169563653e+01    0.2276621    0.1714222 -39.03   0.00136412    1.431    0.301
        51  -9.4556    119.9857      9.1391   4.4318180368e+01   5.3174963700e+01    0.2964216    0.1910892 -20.93   0.00088549    1.788    0.441
        52 -10.9300    218.0939      3.3476   3.1149800242e+01   3.0678726179e+01     0.371208    0.3042933  34.52   0.00113488    1.830    0.454
        53  -9.8282    232.4946      5.9796   3.0681277394e+01   2.7328251684e+01    0.2178838    0.1857396 -34.59 0.0008252157    1.460    0.315
        54 -10.3312    236.5613      6.7541   3.0563285419e+01   2.6399581684e+01    0.2616397    0.1673432 -71.66  0.001039813    1.288    0.223
        55 -10.6978    237.0274      2.8038   2.9744992688e+01   2.6727908027e+01    0.4113105    0.2305286  89.33  0.002469928    1.587    0.370
        56  -9.5159     74.5154      8.1261   5.4745379955e+01   6.3254465555e+01    0.2968367    0.1684874  45.79  0.001109624    1.486    0.327
        57 -10.6605     73.8763      2.7778   5.2555785671e+01   6.3848042651e+01    0.2756429    0.2478094 -17.65  0.001404556    1.293    0.226
        58 -10.2637     69.1607      2.1378   5.3677771935e+01   6.4836651302e+01    0.4882475     0.185471  35.10  0.002117333    2.697    0.629
        59  -8.6872    173.6089      5.2292   3.5542131271e+01   4.0680221287e+01    0.1918549    0.1705434  53.18  0.001094003    1.279    0.218
        60 -10.1517    168.6467      5.2394   3.6087633102e+01   4.1862649938e+01      0.64236    0.2247604 -53.60  0.002441194    3.537    0.717
        61 -10.7269    160.0282      2.6577   3.6368801399e+01   4.4157366077e+01    0.4414964    0.2406157  70.33  0.001220927    1.553    0.356
        62  -9.7848    106.8102      6.1537   4.5828707389e+01   5.6477902534e+01    0.3500681    0.2533449 -44.48  0.001079518    1.649    0.393
        63  -9.4949     62.3135      6.0110   5.7710560112e+01   6.5804507336e+01    0.2485994    0.2318864 -57.78  0.001411429    1.532    0.347
        64 -10.3807    209.0371      4.3784   3.2066466204e+01   3.2568812142e+01    0.3041182    0.2762758  14.82  0.001326021    1.600    0.375
        65  -9.2174    206.4068      1.7308   3.1682513784e+01   3.3421893495e+01    0.2111727    0.1345298 -81.13  0.000484078    1.366    0.268
        66  -9.9271    248.0157      4.7577   2.9445031760e+01   2.4298685882e+01    0.2265821    0.1501003 -86.63 0.0002267253    1.300    0.231
        67  -9.9466    249.8022      1.5802   2.8736846904e+01   2.4289066212e+01    0.2317783    0.1643762 -73.28 0.0008517923    1.087    0.080
        68  -9.9412    153.2255      4.4137   3.7697205479e+01   4.5638425389e+01    0.2423506    0.2124469 -50.80  0.001343126    1.241    0.194
        69 -10.5247     39.9272      3.2657   6.5055268172e+01   6.9909433233e+01     0.396809     0.253734  11.11  0.002464997    1.464    0.317
        70 -10.5030     30.8495      3.1176   6.9181162396e+01   7.1271682318e+01    0.2404574    0.1808008 -38.06 0.0007523651    1.796    0.443
        71  -9.5937    202.0395      8.8039   3.3659479161e+01   3.3690703106e+01    0.2576053    0.1946861  66.32 0.0008095382    1.344    0.256
        72  -8.7006    119.6140      2.1588   4.1974874559e+01   5.3838453667e+01    0.1669884    0.1495349  32.89 0.0003905461    1.178    0.151
        73 -10.4075    115.8264      1.9619   4.2574008347e+01   5.4736757194e+01    0.2342921    0.1679085  66.77 0.0003325557    1.223    0.183
        74  -9.9520     55.9053      2.0532   5.8054930342e+01   6.7337746857e+01    0.1800748     0.142829   9.16 0.0003557933    1.132    0.117
        75  -8.3138      2.9579      2.8491   8.4691336440e+01   7.4496878799e+01      0.15613   0.08365902 -24.54 0.0006086629    1.563    0.360
        76 -10.3552     90.2096      1.8392   4.7838700887e+01   6.0510725094e+01    0.3827715    0.1570539  59.97  0.001286996    2.096    0.523
        77  -9.1710     80.5706      1.7528   5.0236276384e+01   6.2562221497e+01    0.3541643    0.1362208  61.44  0.001549124    2.537    0.606
        78  -9.3500     50.2443      1.8575   6.0070084131e+01   6.8352455521e+01    0.2389069      0.13699  38.59 0.0008475243    1.469    0.319
        79 -11.2901    179.7728      2.0535   3.4094611813e+01   3.9516124033e+01    0.2767456    0.1752637  75.95 0.0007156733    1.352    0.260
        80  -8.6436    127.9654      1.2808   4.0303238930e+01   5.1940683324e+01    0.1915894   0.08472861  58.43 0.0006436481    1.821    0.451
        81  -8.7407    109.4272      1.4041   4.3560706099e+01   5.6256021295e+01    0.2205642    0.1123165  77.88 0.0006826396    2.272    0.560
        82  -9.2408     62.0342    120.7880   9.7099607300e+01   4.4416107425e+01    0.2198198    0.1863853  87.27 0.0005854416    1.288    0.224
        83  -9.4633    201.6562    249.5496   8.6339737308e+01  -6.2159895220e+00    0.2335411    0.1613987  13.07 0.0006803087    1.295    0.228
        84 -10.1446    115.9924    248.5789   1.0327985447e+02   6.7033588399e+00    0.2422934    0.2283656  56.58  0.001017865    1.135    0.119
        85  -9.5680     93.7176    119.0355   8.6777673632e+01   3.9831679867e+01    0.2830024    0.2333453 -20.27  0.001387851    1.401    0.286
        86  -9.7455     43.4781    119.3198   1.0280311593e+02   4.7079175769e+01    0.3038095    0.2221275  40.47  0.001064163    1.517    0.341
        87  -9.7607     67.8028    118.7735   9.4814315273e+01   4.4106921718e+01    0.2882642    0.2294977 -89.96 0.0005192671    1.458    0.314
        88  -9.6098     70.1815    116.0759   9.3441164790e+01   4.4426234929e+01    0.3411305    0.2337047  63.39  0.001050914    1.905    0.475
        89 -10.2808      3.6502    116.5662   1.1515841260e+02   5.1110182230e+01    0.2898057    0.2471405 -63.52  0.001082278    1.093    0.085
        90  -8.6245    239.2819    117.3368   5.3998582159e+01   9.7359994289e+00    0.1326394     0.101403 -11.38 0.0007009117    1.621    0.383
        91  -9.7351     82.4483    116.1470   8.9551095116e+01   4.2478650164e+01    0.4463177    0.2243596  47.41  0.001740684    2.268    0.559
        92  -8.1745     33.5901    117.7031   1.0572955111e+02   4.8510243928e+01    0.1460756   0.09044486 -34.42 0.0006981949    1.843    0.457
        93  -9.9006     28.6720    116.3403   1.0710074312e+02   4.9310140880e+01    0.2451484    0.1826705  84.62  0.001353916    1.467    0.318
        94 -10.2538     32.1736    112.6080   1.0528710416e+02   4.9913986929e+01    0.3982146    0.2842432 -88.91  0.002111837    1.548    0.354
        95  -9.2763     62.8151    115.7879   9.5766008263e+01   4.5555707947e+01    0.2807153    0.1867877 -88.98  0.001225946    2.092    0.522
        96  -8.5035     45.6710    114.7201   1.0119100641e+02   4.7983267895e+01    0.1422439   0.09868198 -32.63 0.0002403733    1.600    0.375
        97  -9.0496    120.8598    111.6365   7.6988364190e+01   3.6269466058e+01    0.2714468    0.2163608 -36.84 0.0008009477    1.277    0.217
        98  -8.2232     40.3468    112.2422   1.0247839028e+02   4.9184578803e+01    0.1360423   0.09701642 -29.86  0.000269017    1.570    0.363
        99  -9.9793     62.8716    110.8987   9.4642744773e+01   4.6754076422e+01    0.2279389    0.2052893 -49.52 0.0002677492    1.022    0.021
       100 -10.3281      2.3631     80.1375   1.1004501568e+02   5.9821112111e+01    0.3863184    0.1970343 -64.38  0.001795678    1.564    0.361
       101  99.0000      6.7021     90.7837   1.1031458681e+02   5.7122963385e+01     1.075511    0.1937311 -62.44  0.001582818    3.323    0.699
       102  -9.4270      2.0683     92.3358   1.1225348780e+02   5.7010571758e+01    0.2161606     0.166992 -73.16 0.0005545673    1.156    0.135
       103  -9.8818      1.8847     87.3944   1.1150902192e+02   5.8174466400e+01    0.3793823    0.1264746 -62.29  0.001697563    2.145    0.534
       104  -8.9242      8.5946     98.7987   1.1097992484e+02   5.5111769193e+01    0.2480842    0.1422776 -66.71 0.0007254781    1.416    0.294
       105  -9.6410      4.2529     98.0660   1.1238066237e+02   5.5538902745e+01    0.4747308     0.262027 -65.59   0.00165289    1.427    0.299
       106  -9.7194      2.5014    109.0227   1.1454619505e+02   5.3007148032e+01    0.3493614     0.206494  87.25  0.001316102    1.790    0.441
       107 -10.5409      6.9471    107.5624   1.1288308276e+02   5.3102100504e+01    0.4419674    0.2561565 -49.15  0.002432367    1.520    0.342
       108 -10.2346     20.6013    108.5885   1.0847164580e+02   5.1905101040e+01    0.3790039    0.2149086 -37.58  0.001900537    1.868    0.465
       109  -8.4197     20.3105    103.6759   1.0772344135e+02   5.3126308424e+01    0.1952513    0.1072045  85.71 0.0007820692    2.603    0.616
       110  -9.1921    183.8614    107.2844   6.1017937670e+01   2.3089692856e+01    0.2396841    0.1917732 -51.68 0.0002634375    1.209    0.173
       111 -10.5150    117.3103    106.4630   7.6580096229e+01   3.8179016841e+01    0.5274072    0.3325503 -22.22   0.00202123    2.332    0.571
       112  -8.9256    103.3689    108.1634   8.1081877575e+01   4.0607170635e+01    0.2443548    0.1822558 -33.73 0.0007594854    1.418    0.295
       113  -9.2692     43.1869     96.0300   9.8011933048e+01   5.2820494816e+01    0.3803506    0.1313083 -61.21   0.00112636    2.772    0.639
       114  -8.8159     43.3005    106.6528   1.0033486495e+02   5.0242471645e+01    0.3771515    0.1753755  26.90  0.001624707    2.417    0.586
       115  -9.4444     36.6847    107.8077   1.0284681553e+02   5.0658441410e+01     0.393249    0.2073364 -46.76  0.001839247    1.729    0.422
       116 -10.6873     37.2761    103.1151   1.0168667294e+02   5.1745747738e+01    0.5399113    0.3560332  10.11  0.002774759    1.867    0.464
       117 -11.0044     49.9740    101.9227   9.6967425296e+01   5.0619451612e+01    0.5429671    0.3747627 -47.59  0.002804166    1.298    0.229
       118  -9.5728     43.2663     99.7943   9.8848266572e+01   5.1911452035e+01    0.5036489    0.2187324  39.01   0.00210328    2.590    0.614
       119  -9.7381     92.9819    104.3625   8.3230418657e+01   4.3449818832e+01    0.4524285    0.2720572 -50.14  0.001441112    1.603    0.376
       120  -9.4420     87.9297    102.3201   8.4273713688e+01   4.4834547284e+01    0.4903352       0.2177  50.18  0.001706666    2.888    0.654
       121  -8.4413     83.7586    105.3494   8.6417698688e+01   4.4851973724e+01    0.1469675    0.1167032 -83.21 0.0002305462    1.574    0.365
       122 -10.0559     70.9217    104.0552   9.0298922350e+01   4.7236065224e+01    0.3642206    0.2619298  43.92  0.001796968    1.521    0.343
       123 -10.2094     63.4870    104.4291   9.2899842531e+01   4.8239950564e+01    0.2897599    0.2340865 -10.49  0.000523915    1.429    0.300
       124 -10.6997    101.2175    101.5656   7.9928676449e+01   4.2534561389e+01     0.660397    0.3620477 -40.77   0.00144707    1.845    0.458
       125  -8.7409    134.0139    103.5002   7.1259046689e+01   3.5215892409e+01    0.2350687    0.1552899  45.57 0.0005002691    1.537    0.349
       126  -9.2341     77.6349     99.7708   8.6941036368e+01   4.7184174166e+01    0.3027924    0.1838335 -58.11  0.001329612    1.699    0.411
       127 -10.5202    109.0918     98.9575   7.6847864210e+01   4.1546822980e+01    0.5390745    0.3671382  59.75  0.001662355    1.780    0.438
       128  -9.6716     72.5150    100.0495   8.8729384967e+01   4.7938119316e+01    0.2311152    0.1373642 -52.43  0.001027891    1.576    0.366
       129 -10.0906     17.9618     98.9205   1.0769675933e+02   5.4452475415e+01    0.4848243    0.2748909   6.37  0.002460482    2.263    0.558
       130  -9.6996     22.8542     94.6585   1.0512370923e+02   5.5095258747e+01    0.4513413    0.1890665 -55.29  0.002050828    1.871    0.466
       131 -10.8503     30.4253     85.2433   1.0023346000e+02   5.6650512548e+01    0.5453238    0.4850214 -30.55  0.003470129    1.100    0.091
       132 -11.4124     31.4292     93.0463   1.0163452252e+02   5.4732976969e+01     0.478901    0.3894284  24.42 0.0008250491    1.403    0.287
       133 -10.5833     22.0268     87.6881   1.0399332856e+02   5.6804655676e+01    0.3420911    0.2542315  33.87  0.002027791    1.585    0.369
       134  -9.0984     46.9967     92.6649   9.5815959630e+01   5.3177805899e+01    0.4057364    0.1622053 -51.65  0.001648291    2.118    0.528
       135 -10.7207     43.3616     88.4930   9.6118317719e+01   5.4569341753e+01    0.4209225    0.2406363  25.88 0.0004863362    1.941    0.485
       136 -10.3303    137.2987     97.4139   6.8724339134e+01   3.5759363793e+01    0.3772186    0.2659681 -43.51  0.001711127    1.402    0.287
       137 -10.4247    124.7582     97.8958   7.2132930627e+01   3.8456908900e+01    0.5218983    0.3243175  19.31  0.001911015    2.669    0.625
       138  -8.3234    150.0013     97.0248   6.5536430297e+01   3.2920996599e+01     0.182486    0.1776091 -59.87 0.0009639499    1.008    0.008
       139  -8.8305     63.7260     96.9030   9.0918274135e+01   4.9993882436e+01    0.2119874    0.1773836 -51.62 0.0009225369    1.115    0.103
       140  -8.9027    155.3698     96.0001   6.4023405763e+01   3.1876633208e+01    0.2211254    0.1972321 -45.64 0.0006200416    1.101    0.092
       141 -11.1144    117.6035     97.9740   7.4126093146e+01   3.9985243634e+01    0.2730017    0.2622738   0.51 0.0002332448    1.071    0.067
       142  -8.8915     12.7787     96.0018   1.0902445602e+02   5.5513309683e+01    0.1905167    0.1452446 -60.80  0.001166028    1.071    0.067
       143  -8.6437     80.3522     94.7724   8.4665976658e+01   4.7881327578e+01    0.2089243    0.1292824 -42.41  0.000625222    1.553    0.356
       144  -8.7404    166.8774     94.4885   6.1116480729e+01   2.9478555272e+01    0.2189769    0.1507858  51.96 0.0003996129    1.482    0.325
       145  -9.2768    106.7899     91.2624   7.5298942272e+01   4.3685895574e+01    0.3007447    0.1984181 -35.42 0.0006182687    1.575    0.365
       146 -10.0828    123.7654     87.3831   6.9341157428e+01   4.0855931482e+01    0.3059626    0.2740118  63.52  0.001042983    1.177    0.150
       147 -11.7230    128.7504     85.5933   6.7490109119e+01   4.0093822224e+01    0.7532495    0.4961296  29.90 0.0008197167    1.861    0.463
       148  -9.3191     52.7505     90.1680   9.3075284117e+01   5.3051228460e+01    0.2375492    0.2033004 -46.66 0.0008484025    1.056    0.053
       149  -9.8347     58.7175     88.6050   9.0483362234e+01   5.2616394633e+01    0.4221188    0.2230397 -70.24   0.00156883    3.043    0.671
       150  -8.6975    101.4148     88.9478   7.6229227573e+01   4.5265838261e+01    0.2075081    0.1832705 -38.99  0.001080742    1.107    0.096
       151  -9.7992     87.1082     88.3632   8.0582685216e+01   4.8121278623e+01     0.354548     0.277715  45.32  0.001469511    1.359    0.264
       152  -9.7765     16.2847     87.6443   1.0615952568e+02   5.7245574469e+01     0.335793     0.257694 -54.30  0.001441175    1.065    0.061
       153  -8.8702     97.4961     87.4730   7.6995689525e+01   4.6353420252e+01    0.2592002    0.1422595 -55.60 0.0009364663    2.130    0.531
       154  -8.4978     94.1406     87.7875   7.8144883102e+01   4.6935141031e+01    0.1909872    0.1648783  -1.53            0    1.259    0.206
       155 -11.5253     79.7760     83.4046   8.1543837618e+01   5.0490799658e+01     1.148975    0.4776013  33.78  0.001411183    2.676    0.626
       156  -9.4175     73.4903     79.5013   8.2527961166e+01   5.2383736279e+01    0.2526397    0.2223202   7.92 0.0007407986    1.155    0.135
       157 -10.6633     65.4694     85.7854   8.7256591772e+01   5.2279780968e+01     0.347454    0.2828014 -58.83  0.001877962    1.286    0.222
       158 -10.5266    155.1315     84.4022   6.0843709331e+01   3.4167529406e+01    0.4755436    0.3120193 -26.80 0.0009536697    1.792    0.442
       159 -11.0905    150.3780     80.6916   6.0832477807e+01   3.5986735237e+01     0.537848    0.2799149  59.59   0.00210618    2.085    0.520
       160  -8.6335    104.7813     85.0453   7.4031380475e+01   4.5401403966e+01    0.2595919    0.1771443 -11.55  0.001077024    2.126    0.530
       161  -9.7814     55.7916     83.3170   9.0087521323e+01   5.4206880458e+01    0.3512839    0.2861479  44.62  0.001783188    1.423    0.297
       162  -9.4624     50.3960     83.2632   9.2094005152e+01   5.4922214436e+01    0.2219833    0.1892755  27.16  0.001288889    1.280    0.219
       163 -10.0573     45.2475     81.5309   9.3578910192e+01   5.5938092120e+01     0.962313    0.3178647  23.75  0.003323805    3.915    0.745
       164  -9.4395     38.3631     79.6427   9.5742005935e+01   5.7134053009e+01    0.2647341    0.2199513 -22.75  0.001183864    1.167    0.143
       165  -8.7045    101.5955     80.9076   7.3717720861e+01   4.6897065656e+01    0.3550772    0.1348431 -51.43  0.001128774    3.268    0.694
       166  -9.9230     20.7207     80.3415   1.0287714888e+02   5.8601478999e+01    0.3906729    0.2156565 -62.72  0.002010666    1.608    0.378
       167  -8.9733     19.3898     75.2709   1.0222639266e+02   5.9848547976e+01    0.2437497    0.1857107 -33.75  0.001040801    1.190    0.160
       168  -8.8198     18.9624     72.0000   1.0160751736e+02   6.0607899637e+01    0.2502609    0.1771319  -3.83  0.001482062    1.562    0.360
       169  -8.2531     59.2807     80.2769   8.7912591435e+01   5.4395373637e+01     0.138856    0.1005036 -20.84 0.0001848039    1.504    0.335
       170 -10.2857    136.9138     78.6003   6.3348043379e+01   3.9554518078e+01    0.3942625    0.2041687 -47.53  0.001552991    2.036    0.509
       171 -10.5517    137.4723     73.0106   6.1528160462e+01   4.0443471478e+01    0.3885167    0.3187655 -17.40  0.001314643    1.394    0.283
       172 -11.0174    144.2090     66.3107   5.7954388692e+01   4.0001487308e+01    0.3750349    0.3047093  42.77  0.001054673    1.262    0.208
       173  -9.6755    143.4935     73.5671   6.0294106354e+01   3.8916776309e+01    0.3050965    0.2813142  76.95 0.0007262171    1.099    0.090
       174  -9.4021    146.1696     70.6033   5.8809193920e+01   3.8797552013e+01    0.2812212    0.2373073  21.22  0.000974597    1.392    0.282
       175  -7.9292     62.6882     79.7233   8.6488270849e+01   5.4023244188e+01    0.1418283    0.1030709 -16.17 0.0004642544    1.560    0.359
       176  -8.8118     89.4827     78.0170   7.6629447315e+01   4.9859732115e+01    0.4864168    0.3089869 -78.13  0.001685777    3.734    0.732
       177  -9.8480     94.3276     69.9722   7.2459355817e+01   5.0502414701e+01    0.4376345    0.3127655 -37.19  0.002089505    1.389    0.280
       178  -9.3477     93.1353     74.1632   7.4213043492e+01   4.9928045928e+01    0.3579045    0.2695404 -58.41 0.0003535378    1.567    0.362
       179 -10.0409     89.1523     73.3003   7.5220488623e+01   5.0866088808e+01    0.5347832    0.3951106 -76.81  0.002443944    2.127    0.530
       180 -12.9567     53.0067     74.7282   8.8634939845e+01   5.6456179927e+01     0.613466    0.3310428 -55.70 0.0008065624    1.892    0.471
       181 -10.6667     45.2956     68.5234   8.9785202306e+01   5.8753038628e+01    0.4118048    0.2378621 -32.48 0.0001650945    1.735    0.424
       182 -10.3029    180.1876     74.1928   5.3101563315e+01   2.9997420369e+01     0.440093    0.3291087  -2.18  0.002048455    1.989    0.497
       183  -9.2087    110.8793     76.8816   6.9703154882e+01   4.5750936935e+01    0.2694225    0.2277168 -50.67 0.0008815653    1.241    0.194
       184  -9.5033     28.3442     76.1633   9.8818311449e+01   5.8901180511e+01    0.3376404     0.169737 -43.83 0.0008697765    1.705    0.414
       185  -8.4100    184.7675     75.9620   5.2772694719e+01   2.8611517113e+01    0.1884324    0.1183382 -38.05 0.0005921357    1.562    0.360
       186  -8.8846     80.9286     76.4366   7.8983617823e+01   5.1749277634e+01    0.2126478    0.1404415  35.70  0.001009921    1.553    0.356
       187  -9.1458    175.1176     74.9163   5.4205951985e+01   3.1084539977e+01    0.2261484    0.1894494 -73.97 0.0003146288    1.229    0.186
       188  -9.3804     68.9390     74.6120   8.2627220421e+01   5.4146762396e+01    0.2178967    0.1788773 -29.40 0.0003848256    1.147    0.128
       189 -10.0017     64.1634     74.3390   8.4292398469e+01   5.4947612768e+01    0.3125282    0.2008162 -48.41  0.001540336    1.495    0.331
       190  -9.1407     12.0207     74.8527   1.0512816324e+02   6.0461864582e+01    0.1648456    0.1527162 -60.31 0.0005082448    1.178    0.151
       191 -10.4017    170.1571     73.2342   5.4666937861e+01   3.2562379100e+01    0.3319777    0.2561323 -38.68 0.0007731262    1.302    0.232
       192  -9.6659    173.3675     69.0770   5.2933884513e+01   3.2487729074e+01    0.3173924    0.2005572  53.58 0.0009578388    1.588    0.370
       193  -8.7819    152.4052     73.2701   5.8238816444e+01   3.6835131897e+01    0.2534512     0.186341  86.58 0.0009785322    1.688    0.408
       194 -12.1131     79.5429     70.0042   7.7368661150e+01   5.3285268141e+01    0.3469416    0.2716615  10.84 6.023443e-05    1.393    0.282
       195  -9.8679     83.1706     64.1074   7.4132407814e+01   5.3751007201e+01    0.4515278    0.2370965 -48.26  0.001352416    2.077    0.518
       196 -11.5180     39.5898     57.8042   8.8716480650e+01   6.1614409100e+01    0.3014727    0.2643885 -51.20 0.0009023355    1.281    0.220
       197 -10.6309     18.0933     47.3563   9.4960694146e+01   6.5803597863e+01     0.686717    0.4731677 -57.62    0.0041692    1.528    0.346
       198  -9.9843     32.3867     48.0948   8.8546668945e+01   6.4295395640e+01     0.295936    0.2502213  75.28  0.001254452    1.958    0.489
       199 -11.6913      2.2940     66.3348   1.0729124447e+02   6.2905580581e+01    0.4451511    0.2384833 -59.74  0.001203921    1.481    0.325
       200 -11.0295      4.0005     59.6690   1.0500538550e+02   6.4250262368e+01    0.6469271    0.3719478  17.66   0.00378679    1.994    0.498
       201 -12.0872     31.0820     63.8211   9.4261872307e+01   6.1308799711e+01    0.7836961    0.5621376  12.05  0.004614229    1.493    0.330
       202  -9.7184     15.5990     59.8572   9.9881899338e+01   6.3472422301e+01    0.2794942    0.1765277 -16.01 0.0005494445    1.663    0.399
       203 -10.6966     14.0263     55.5794   9.9387964307e+01   6.4474120318e+01    0.3941915    0.2149887 -47.52 0.0003983329    1.455    0.313
       204 -11.3400      9.1757     51.5557   1.0048144903e+02   6.5626877791e+01     0.528743    0.3839199  -9.58  0.001624178    1.378    0.274
       205  -9.8316     45.1194     55.1853   8.5472197918e+01   6.1446036309e+01    0.2807236    0.2265049  15.35 0.0009559887    1.244    0.196
       206 -10.9293     30.5149     53.1479   9.1136388865e+01   6.3525081423e+01    0.6408266     0.253023  34.78  0.002325193    2.834    0.647
       207 -11.3740     45.0834     49.1447   8.3315905088e+01   6.2576847486e+01    0.8822866    0.4804694 -20.06  0.001865044    2.340    0.573
       208 -10.0873     38.3542     46.9135   8.5430685324e+01   6.3830231626e+01    0.6546371    0.3457388   6.84  0.002777579    2.708    0.631
       209 -10.6268     24.1456     55.6253   9.4803059937e+01   6.3645969232e+01    0.7584893    0.3068076 -40.98  0.003452185    2.122    0.529
       210  -9.5961     25.0061     48.0125   9.1920328986e+01   6.5062985903e+01    0.3073543    0.2079586 -29.01  0.000781364    1.280    0.219
       211  -9.7716     27.1288     44.4795   8.9684124024e+01   6.5520465055e+01     0.217843    0.1775862 -16.10 0.0004842624    1.057    0.054
       212  -8.9644    111.5240     71.4936   6.7799406379e+01   4.6631071885e+01    0.2600525    0.1426312 -27.69  0.001021497    2.233    0.552
       213  -8.6287    199.7960     71.0147   4.9084532840e+01   2.5924684823e+01    0.2210795    0.1668821  -1.69  0.001063388    2.024    0.506
       214  -9.1218    185.9099     70.2286   5.1076727326e+01   2.9298702361e+01    0.3150518    0.1542029 -58.19  0.001171318    2.635    0.620
       215 -11.1680     97.3244     63.9153   6.9486715137e+01   5.1015795859e+01    0.2956561    0.2572615  -2.82 0.0001768669    1.184    0.155
       216 -10.1731    101.8973     70.3180   7.0232998030e+01   4.8898448018e+01    0.3466968    0.2782025  18.48  0.001666808    1.364    0.267
       217  -9.7916    105.4622     65.7764   6.7669737247e+01   4.8979461710e+01    0.5544112    0.2686201  57.86   0.00179835    2.644    0.622
       218 -10.2773    119.6416     68.2810   6.4533953164e+01   4.5413174849e+01    0.4753963    0.3461601  20.25  0.002213875    1.716    0.417
       219  -9.7047     10.6713     69.1559   1.0438661527e+02   6.1811872098e+01    0.2094005    0.1516294 -36.94 0.0001697668    1.196    0.164
       220  -8.8763    157.3012     68.3109   5.5782689721e+01   3.6503090666e+01    0.1466995    0.1168331  20.51 0.0003232171    1.606    0.377
       221 -11.1236    134.4332     64.9280   5.9760229335e+01   4.2566966326e+01    0.6196284    0.4338624 -63.60  0.002841644    1.791    0.442
       222  -9.4819    129.0267     57.4589   5.8675023280e+01   4.5069638515e+01    0.3202718    0.1443352  60.80  0.001185892    2.470    0.595
       223  -9.2540     75.0828     65.9907   7.7584922158e+01   5.4848155360e+01    0.2076112    0.1905363 -13.65 0.0003441326    1.016    0.016
       224  -8.9167     15.3312     64.2197   1.0117150311e+02   6.2567928616e+01    0.2739709    0.1712853 -20.47  0.001549377    1.659    0.397
       225  -8.6751     59.5908     56.2600   7.9965730322e+01   5.9209962025e+01    0.2316613    0.1565206  -6.91 0.0009663526    1.763    0.433
       226  -9.4271     65.0692     56.6479   7.7994567738e+01   5.8276952610e+01    0.2184973    0.1837935 -50.07 0.0003133164    1.362    0.266
       227  -9.3001     61.8343     52.4205   7.7692887921e+01   5.9556706504e+01    0.2597754    0.2347361  48.63  0.001195354    1.373    0.272
       228  -9.9666     66.3640     62.0984   7.9430351244e+01   5.7050698602e+01    0.4091107    0.3273688 -59.33  0.001112195    1.545    0.353
       229 -10.0897     70.5001     59.9617   7.7151357320e+01   5.6769708201e+01    0.3362888    0.2178006  48.28 0.0009313507    1.797    0.443
       230  -9.0916    203.0392     63.2539   4.6685024584e+01   2.6407972439e+01    0.1931282    0.1672764 -86.30  0.000409563    1.101    0.091
       231  -9.4682    193.9504     60.6260   4.7334440697e+01   2.8925320482e+01    0.3339707    0.1989447 -34.90 0.0007266656    1.703    0.413
       232  -8.0558    110.2789     62.6637   6.5250291435e+01   4.8483902780e+01    0.1434378    0.1158412 -73.80  0.000700347    1.614    0.380
       233  -8.7053     77.0897     62.3350   7.5617874735e+01   5.5186926318e+01    0.1897313    0.1732704  19.97 0.0003870936    1.086    0.080
       234 -10.0492    161.7631     60.3506   5.2620642999e+01   3.6712900924e+01    0.3373123    0.2461247  18.15  0.001562903    1.987    0.497
       235  -9.3831    150.8408     60.8489   5.4905482074e+01   3.9294196434e+01     0.230622    0.2013739  32.78  0.001046611    1.263    0.208
       236  -9.6895    150.2096     53.7576   5.2908518477e+01   4.0548465850e+01    0.3436623    0.3138911 -31.40  0.001685715    1.174    0.148
       237 -11.2653    154.2361     48.9720   5.0704231857e+01   4.0268595329e+01    0.5995424    0.3708059  74.51  0.002654445    1.778    0.438
       238  -8.9222    145.6600     52.8758   5.3555281433e+01   4.1788965215e+01     0.368144     0.281758  -8.81  0.001783747    1.660    0.398
       239  -9.4313     53.6428     60.7483   8.3893518602e+01   5.9229334404e+01    0.2589464    0.2389281  88.66 0.0007725424    1.488    0.328
       240 -10.2161    177.1445     57.3555   4.9086512686e+01   3.3436460505e+01    0.4041753      0.19981  56.67  0.001205974    1.960    0.490
       241 -10.1900    171.0612     59.0452   5.0575575146e+01   3.4652232602e+01    0.3742965    0.2570961 -49.86 0.0009352358    1.453    0.312
       242 -10.2110    167.1507     56.5108   5.0549471703e+01   3.5993089283e+01    0.2524049    0.2107343 -61.01 0.0002674283    1.194    0.162
       243  -8.0571    115.9551     61.0000   6.3140908051e+01   4.7505058444e+01    0.2370674   0.08089401  51.21 0.0006576277    2.845    0.648
       244  -8.1855    105.4668     59.5334   6.5560761465e+01   5.0066507981e+01    0.1449967     0.135072  17.61  0.000808484    1.039    0.038
       245  -8.1197    198.9813     58.0336   4.5956967680e+01   2.8143132363e+01    0.1638422    0.1440491 -62.99 0.0009498341    1.041    0.039
       246 -10.6120     81.2019     55.1946   7.1653766737e+01   5.5714699458e+01    0.4263335    0.3471809  10.43  0.001465615    1.246    0.197
       247  -9.3081    136.6037     55.4803   5.6296970841e+01   4.3579550764e+01    0.2738602    0.2206453 -42.80  0.001404404    1.288    0.224
       248  -9.4977    128.7063     40.9600   5.3352735802e+01   4.7573615497e+01    0.3686435    0.3075636 -71.43  0.002032832    1.376    0.273
       249 -10.9002    118.0342     52.8071   5.9855791409e+01   4.8356904786e+01    0.4812022    0.2712546 -34.31  0.001183088    1.852    0.460
       250 -11.6166    124.7913     46.4762   5.6075423965e+01   4.7732410248e+01    0.7058344    0.5882208  16.00  0.002051482    1.352    0.261
       251  -8.3884    111.4326     56.4841   6.2846235566e+01   4.9264862299e+01    0.1421846    0.1366065  26.34 9.081682e-05    1.013    0.013
       252 -10.1016     93.5814     54.6997   6.7435109654e+01   5.3373686149e+01    0.3475299    0.2655816  -6.83 0.0007436213    1.478    0.323
       253  -8.8631     98.5158     54.9920   6.6029193649e+01   5.2304308147e+01    0.2066327    0.1969467 -77.59 0.0003601768    1.233    0.189
       254  -9.0192     53.1346     53.8570   8.1676978561e+01   6.0608959204e+01    0.2849802    0.1894324 -29.83  0.001527356    1.423    0.297
       255  -8.7893     53.8991     49.8073   7.9876130472e+01   6.1232252143e+01    0.1982839    0.1555899  -8.52 0.0003185724    1.212    0.175
       256  -8.6977    241.2633     54.5840   4.0109336063e+01   1.9388616450e+01    0.2200096    0.1190074  76.90  0.000915988    2.062    0.515
       257  -8.8367    191.1641     54.1420   4.6080219202e+01   3.0558902032e+01    0.2046015    0.1911568  33.98 0.0009853384    1.302    0.232
       258  -9.1023    106.7956     52.9004   6.2893931676e+01   5.0864798799e+01    0.2087262    0.1816179  19.69 0.0003056631    1.161    0.139
       259  -9.6753     87.3599     51.9562   6.8423529673e+01   5.5075166328e+01    0.3676136    0.2198223  65.08  0.001188787    2.765    0.638
       260  -9.1923     88.1205     48.4832   6.6900171842e+01   5.5483692917e+01     0.290328    0.2344489 -53.36 0.0008954186    1.512    0.339
       261  -9.4851    164.6051     51.9340   4.9697958130e+01   3.7299114653e+01    0.2866591    0.2055891  62.87 0.0007527045    1.332    0.249
       262  -9.2452     71.8096     40.8580   6.9510913326e+01   5.9772431124e+01    0.3624933    0.2018896 -15.15  0.001564078    2.458    0.593
       263 -10.0046     71.7924     50.9988   7.3422599423e+01   5.8139734139e+01    0.4000587    0.2726575 -18.65  0.001336867    1.585    0.369
       264  -8.5481    192.1996    248.3892   8.7964198686e+01  -4.7148732847e+00    0.1707282   0.09925416  39.51 0.0009442689    1.638    0.389
       265  -8.5512    245.0063     50.4970   3.8875208528e+01   1.9209009285e+01    0.1629554    0.1161897  79.75 0.0003404523    1.445    0.308
       266  -8.9996    181.6683     48.9622   4.6119133774e+01   3.3580173488e+01    0.2007501    0.1736269 -53.60  0.001150273    1.130    0.115
       267 -10.4869    114.6243     46.2825   5.8498101027e+01   5.0117454147e+01    0.3627851    0.2773045 -22.59 0.0007286168    1.417    0.294
       268  -9.2630    112.9214     41.2716   5.7182386091e+01   5.1216022131e+01    0.2194363    0.1851815 -39.27 0.0002191017    1.279    0.218
       269  -8.8987     96.4939     48.9324   6.4467839824e+01   5.3698397006e+01    0.2007704    0.1742598  34.02 0.0004170703    1.084    0.078
       270  -8.2644    214.6727     48.6699   4.1680923430e+01   2.5922153068e+01    0.1254205    0.1043051  28.79 0.0007051121    1.709    0.415
       271  -9.3552    202.5446     47.0561   4.2764363147e+01   2.8910589460e+01    0.2604808    0.1906309  43.74 0.0008022114    1.712    0.416
       272  -9.8155     81.4396     43.9253   6.7369006150e+01   5.7504334507e+01    0.3990871    0.2539913  12.29  0.001384185    2.073    0.518
       273  -9.1832    234.8763     47.0116   3.9124605540e+01   2.1774252080e+01    0.1887419    0.1523825 -63.69 0.0003214333    1.018    0.018
       274  -7.8736     84.2619     47.3186   6.7719508279e+01   5.6429395358e+01    0.1373769    0.1010858   4.83 0.0002989297    1.547    0.354
       275 -10.3588     87.9710     32.8027   6.0952093348e+01   5.7779620886e+01    0.6472451    0.3679528  66.04   0.00282267    2.572    0.611
       276 -10.2597     94.0261     45.0314   6.3781232382e+01   5.4809508769e+01    0.4074097    0.2316691  42.21 0.0003480612    1.667    0.400
       277  -9.9436     90.2390     39.0106   6.2667120097e+01   5.6469185337e+01    0.5713022    0.2960744 -43.55  0.002563021    2.244    0.554
       278 -10.4545     77.7986     34.2779   6.4793775027e+01   5.9609185534e+01     0.564769    0.3546513  39.43  0.001543094    1.475    0.322
       279  -9.5947     71.5128     30.0304   6.5205332690e+01   6.1373701373e+01    0.5643619    0.2316847 -29.33  0.002417282    2.591    0.614
       280 -10.4120     74.9575     27.2337   6.2852646896e+01   6.1085471488e+01    0.4671224    0.3657277 -87.54  0.002504325    2.241    0.554
       281  -9.9870    244.6496     44.1385   3.7580299855e+01   2.0157440526e+01    0.3387946    0.2550909  87.88  0.001919571    1.299    0.230
       282  -8.7169      4.4085     45.3275   1.0095108232e+02   6.7167534131e+01    0.1839513   0.09765978 -32.43 7.817159e-05    1.624    0.384
       283 -10.9434    142.1301     59.6601   5.6382516989e+01   4.1593017390e+01     0.351138    0.2773863  29.70 0.0001486331    1.452    0.311
       284  -9.4413    144.0779     42.4364   5.0650181562e+01   4.3665200604e+01    0.3640943     0.137377  45.12  0.001013832    2.966    0.663
       285  -8.9683    108.4983     43.1330   5.8986943971e+01   5.1954651447e+01    0.3264139    0.2130509 -37.51  0.001623832    1.623    0.384
       286 -10.5365    103.3241     43.0460   6.0359063624e+01   5.3112559198e+01    0.3942551    0.2652362  48.98 0.0006831422    1.394    0.283
       287 -11.7447    103.6546     38.7091   5.8688976645e+01   5.3645427936e+01    0.2697991    0.2599777  31.96 0.0002824652    1.071    0.066
       288  -9.3311    163.5561    246.2433   9.3285510078e+01  -1.4840890294e-01    0.1674445    0.1141947 -27.94 0.0009523371    1.732    0.423
       289  -8.5524      1.3465    244.1908   1.2517030632e+02   2.2091649869e+01    0.1510119   0.07672073  82.31 0.0004058906    1.628    0.386
       290 -10.1009      7.5175     39.4410   9.7549519547e+01   6.8111136858e+01    0.2276829    0.1631364 -26.34 0.0006527271    1.152    0.132
       291 -10.6180      4.4580     39.0936   9.8995066744e+01   6.8373625162e+01    0.3730627    0.1677388 -53.31  0.001417225    1.826    0.452
       292  -8.4265     86.6351     43.3008   6.5430953275e+01   5.6578020230e+01    0.1319939    0.1108339 -88.25 0.0007034605    1.730    0.422
       293  -8.7663     32.5403     42.5273   8.6433881204e+01   6.5299310094e+01    0.1882276    0.1157002  19.93 0.0006550919    1.666    0.400
       294 -10.0700     35.9356     41.1726   8.4350281814e+01   6.5145694196e+01    0.2377743    0.1738589  18.69 0.0003125467    1.355    0.262
       295 -11.6430     41.5415     38.1686   8.0621971495e+01   6.4953946595e+01    0.3456875    0.2128214  -8.81 0.0008874662    1.882    0.469
       296 -10.0114    228.2937     37.6547   3.7732740374e+01   2.4434902079e+01    0.2372801    0.1453122 -50.44 0.0006832734    1.404    0.288
       297  -9.5827    202.9611    242.1325   8.4930897626e+01  -5.3379100337e+00    0.1878906    0.1472021  14.36 0.0004061007    1.053    0.050
       298  -8.7098    222.6059     40.1791   3.8861141805e+01   2.5332254497e+01    0.1709695     0.120449 -27.05  0.000947955    1.694    0.410
       299  -9.5743    158.3685     39.2598   4.7106763133e+01   4.0590305746e+01    0.3035903    0.2281492 -58.83 0.0006838682    1.395    0.283
       300  -9.8863    164.5715     36.6512   4.5346845413e+01   3.9408041112e+01    0.4418542    0.3468599 -86.58  0.002448545    1.274    0.215
       301  -8.8045    123.8333     38.3655   5.3569584524e+01   4.9074167336e+01    0.2121573    0.1301707  58.29 0.0001086505    1.522    0.343
       302  -8.7133    120.4293     38.2256   5.4301829275e+01   4.9892102581e+01    0.2968388    0.1660453 -43.14  0.001289323    1.980    0.495
       303  -9.3686    238.5954     37.3127   3.6698940103e+01   2.2307736313e+01    0.2304373    0.2050155  49.82  0.001159032    1.520    0.342
       304 -10.3852    178.0225     36.8732   4.3412628148e+01   3.6103059783e+01    0.4079696    0.2799491 -71.10  0.001750518    1.538    0.350
       305  -9.8848    142.1586     32.5158   4.7916634426e+01   4.5410152042e+01    0.5964605    0.4344549  -8.55  0.003113858    1.750    0.428
       306  -9.6389    146.3972     29.1718   4.6122590069e+01   4.4776552185e+01    0.3114076    0.2098344  74.54 0.0008513496    1.452    0.311
       307 -10.2776    136.2434     37.4763   5.0631001242e+01   4.6223627624e+01    0.3362492    0.2600281 -71.70  0.001023799    1.508    0.337
       308 -10.8241    131.7124     35.3029   5.0847457446e+01   4.7592323985e+01    0.4068159    0.3317013 -45.97  0.002290832    1.325    0.245
       309  -9.6123    185.9907     36.4955   4.2230066216e+01   3.4234266719e+01    0.3424758     0.193563 -71.35  0.001541932    2.129    0.530
       310 -10.5870    186.8142     32.6386   4.1126215244e+01   3.4527600526e+01    0.4715111    0.3247534   3.84  0.001784728    2.472    0.596
       311  -8.8556     84.0115     37.5121   6.4039070797e+01   5.7942329187e+01    0.3155656    0.1086731  42.36  0.001180485    2.774    0.640
       312  -9.0507    214.3930     35.3639   3.8617051427e+01   2.7784814472e+01    0.2965355    0.1724748 -14.53  0.001309264    3.020    0.669
       313  -9.2276    114.6853     35.3452   5.4658550195e+01   5.1599565041e+01    0.2922758    0.2188453  87.98  0.001044902    1.735    0.424
       314  -9.6562    117.2137     32.8200   5.3173989223e+01   5.1331977577e+01    0.2498329    0.1932331  25.25 0.0002818705    1.404    0.288
       315  -8.8874     61.4478     34.9527   7.0976423240e+01   6.2466067895e+01    0.1950236    0.1592246 -40.32  0.001178175    1.421    0.296
       316 -10.9477     55.8559     34.1094   7.2836324232e+01   6.3507502531e+01     0.348278    0.2980146 -58.24  0.001751824    1.702    0.413
       317  -9.5634     50.7444     32.6597   7.4331251190e+01   6.4520867700e+01    0.4472412    0.2104901  20.23  0.001811767    3.132    0.681
       318 -11.1911     51.9810     29.0066   7.2238472322e+01   6.4866312516e+01    0.2085118    0.1775832   2.56  0.001362071    1.040    0.039
       319  -9.4585    223.2307     34.5302   3.7534266179e+01   2.5938067479e+01     0.247748    0.1684114 -60.27 0.0007989493    1.283    0.220
       320  -8.9725     96.1399     35.0815   5.9426230085e+01   5.5764556255e+01    0.2970972    0.1570518  47.66  0.001123339    1.721    0.419
       321 -10.4513    174.4340     50.0861   4.7540808592e+01   3.5170300970e+01    0.2867805    0.2497431  77.65 0.0003134281    1.083    0.077
       322  -8.9809    209.3493     33.4040   3.8694620875e+01   2.9174740367e+01    0.2668447    0.1515366 -39.74  0.001381508    1.668    0.401
       323  -8.6490    122.6976     33.9181   5.2311316109e+01   4.9911538585e+01    0.1815467    0.1758977  29.67 0.0005091851    1.073    0.068
       324  -8.4386     27.7513     34.6961   8.5657015494e+01   6.7195064204e+01    0.1223696   0.07705507 -20.04            0    1.500    0.333
       325  -8.7956    206.7675    240.5942   8.3963214542e+01  -5.6530795321e+00    0.1649595    0.1027721  38.09 0.0006513257    1.596    0.373
       326 -10.9663     24.8117     29.8893   8.5137267391e+01   6.8314622756e+01    0.4016154    0.2440048 -37.71  0.001954425    1.448    0.309
       327 -10.9103     35.8341     29.5046   7.9610521887e+01   6.7087634825e+01    0.5272961     0.279037 -22.27  0.002047029    2.041    0.510
       328  -9.9428     31.2712     28.4097   8.1314798409e+01   6.7822711133e+01    0.4037493    0.2377959 -15.11  0.002211965    1.795    0.443
       329 -10.3909    153.8450     32.6601   4.5916169608e+01   4.2536248972e+01    0.2285792    0.2159462 -88.14 0.0002786964    1.057    0.054
       330  -8.8967    246.9911    239.4690   7.6533361735e+01  -1.0791157916e+01    0.1694873   0.09734289  27.31  0.001036747    1.607    0.378
       331  -9.8496    109.5076     22.4744   5.1258051241e+01   5.4307247882e+01     0.248397    0.1861442  51.83 5.895416e-05    1.181    0.153
       332 -11.6347    105.0177     20.8917   5.1731244558e+01   5.5495705773e+01    0.2397715    0.2281935  74.42 0.0003005978    1.162    0.139
       333  -9.2315     42.8785     31.1208   7.7081625474e+01   6.5899107686e+01    0.3620707    0.1746003 -52.84   0.00119684    3.708    0.730
       334 -10.3615    248.4769     30.2232   3.4408392243e+01   2.1211455004e+01    0.3318184    0.2723722 -16.80  0.002172973    1.769    0.435
       335  -9.5493    233.6698     30.6520   3.5725823478e+01   2.4194942924e+01    0.3400642    0.1848429  52.55   0.00175517    2.341    0.573
       336  -9.7731    123.6777     29.6730   5.0649029644e+01   5.0195297284e+01    0.4249415    0.2002082  61.87  0.001837346    1.998    0.500
       337  -9.1316    206.7035     16.6814   3.5060756556e+01   3.1779344112e+01    0.1858101    0.1785637 -75.12 0.0007161059    1.260    0.206
       338 -10.0069    222.6261     26.8361   3.5886605648e+01   2.7039097084e+01    0.3695317     0.252658 -44.59   0.00221198    1.355    0.262
       339  -9.2041    189.0359    239.7589   8.7243365617e+01  -2.9611308473e+00    0.1682449   0.09230969  34.14 0.0008801286    1.599    0.375
       340  -9.0206    221.2453    237.5640   8.0774029514e+01  -7.2244731839e+00    0.1651876   0.09768122  20.00  0.000499214    1.569    0.363
       341  -8.6573     94.5248     30.1200   5.7984732078e+01   5.6745032582e+01    0.2336126    0.1358028  47.60  0.001157059    1.547    0.354
       342  -9.2316    134.0072     27.7625   4.7926478925e+01   4.7948707531e+01    0.2163234    0.2011037 -21.24 0.0006378205    1.198    0.165
       343  -9.3768    207.5546     22.4653   3.6320598685e+01   3.0922458349e+01    0.2519777    0.1864081 -80.93 0.0008400952    1.191    0.160
       344  -9.4792    207.9467     26.5054   3.7223839108e+01   3.0351393982e+01    0.2759576    0.1882509 -79.65 0.0004084612    1.368    0.269
       345  -8.9954    204.7304     24.6651   3.7118594949e+01   3.1306486684e+01    0.1876212    0.1546122 -34.35 0.0002487629    1.376    0.273
       346  -9.0872    161.8146     26.8543   4.2971291026e+01   4.1276778348e+01     0.198275    0.1729846  46.31 0.0004104713    1.249    0.199
       347  -8.8781    165.9782     26.0710   4.2147229237e+01   4.0351407579e+01    0.2161518    0.1433878 -73.36 0.0006297828    1.651    0.394
       348  -9.0605     49.3890     24.7862   7.1453182888e+01   6.5860635261e+01    0.2421159    0.1479598  -4.30 0.0006702156    1.905    0.475
       349  -9.1163     45.9068     24.9380   7.3016297427e+01   6.6368855730e+01    0.2069452        0.159 -34.20  0.001305256    1.412    0.292
       350 -10.0216     41.3245     21.7868   7.3608106718e+01   6.7475087964e+01    0.2838051    0.2639506 -67.69 0.0008165552    1.780    0.438
       351 -11.3184      1.9901     25.0413   9.5361694144e+01   7.1089591796e+01    0.2448262    0.1492622 -49.48 0.0005779326    1.493    0.330
       352  -9.4638    241.2821     25.2020   3.3957416250e+01   2.3291784721e+01     0.251246     0.148992  80.19  0.001468262    1.633    0.388
       353 -10.7890    174.3137     22.8957   4.0152030156e+01   3.8690815396e+01    0.4430048    0.3320044  78.49  0.001843491    1.198    0.166
       354  -8.8895    168.2741    237.6108   9.1058052840e+01   5.3659133286e-01    0.1203117   0.09946135  71.09 0.0006848729    1.724    0.420
       355  -9.0467    139.7278    236.9943   9.6872880132e+01   5.1248293686e+00    0.1735665    0.1576566  36.08 0.0003991213    1.053    0.051
       356  -8.8340     10.6107     23.3197   8.9855137877e+01   7.0742949639e+01    0.2798899    0.1094488 -43.31  0.001439008    2.096    0.523
       357 -10.1064    232.5966     23.6161   3.4327704000e+01   2.5291473202e+01    0.4327166    0.1982581 -87.75  0.002008666    2.519    0.603
       358  -8.5728     32.3451    232.7707   1.1877234622e+02   2.1137180993e+01    0.1548177    0.0956402 -71.52 0.0004538522    1.614    0.380
       359  -9.2366    188.9320     22.2179   3.8217524045e+01   3.5271935665e+01    0.2730715    0.1869819   0.39  0.001376429    2.416    0.586
       360  -9.4226    177.0912    231.1501   8.8260792562e+01   2.3541236985e-01    0.2462831    0.1379156  28.39  0.001233505    1.676    0.403
       361  -8.5514    163.4470    226.5407   9.0338909681e+01   3.1954584770e+00    0.1322533    0.1165889  24.16 0.0002531866    1.011    0.011
       362 -10.1685    153.4854     23.0355   4.3114912344e+01   4.3742575078e+01    0.2968037    0.1724633  62.51 0.0004085875    1.522    0.343
       363  -9.1257    125.0707     23.3695   4.8215720412e+01   5.0579118475e+01    0.1900812    0.1463025  61.70 0.0003141781    1.172    0.147
       364  -8.7598     85.7661     22.9880   5.7686043079e+01   5.9437317192e+01    0.2328437    0.1765655 -27.92  0.000638115    1.420    0.296
       365  -8.7169     84.0203     20.0259   5.6987679173e+01   6.0129198269e+01    0.1853801    0.1496223  21.98  0.001128919    1.151    0.132
       366  -8.6772     79.9015     22.4024   5.9227535357e+01   6.0698832496e+01    0.2389827     0.167256 -42.77  0.001328698    1.749    0.428
       367  -9.7816    132.0180     21.3305   4.6198691149e+01   4.9137309920e+01    0.2618533    0.2235992  54.18 0.0008832732    1.075    0.070
       368  -9.4593     95.3642     21.4665   5.4387763202e+01   5.7570936877e+01    0.2111939    0.1915156 -19.18 0.0003689725    1.207    0.172
       369  -9.3305     91.7757     19.8152   5.4700609481e+01   5.8522648695e+01    0.4068549    0.2185465   6.41  0.001703839    3.002    0.667
       370  -8.9611    223.9785    225.0433   7.8153565812e+01  -5.8005810397e+00    0.1865691    0.1532272   5.72 0.0006134135    1.055    0.052
       371  -9.3418    200.9562     13.9297   3.4956413931e+01   3.3393608803e+01    0.1841496    0.1563879 -82.45 0.0003023225    1.046    0.044
       372  -8.6228    132.0032    225.4772   9.6893426426e+01   8.5066407106e+00    0.2034323     0.118658  38.75 0.0003991214    1.514    0.340
       373  -8.2793      1.6955    224.2991   1.2418604939e+02   2.6059151551e+01    0.1210976    0.0615876  64.33 0.0002202339    1.588    0.370
       374  -9.3213     88.6635    221.0374   1.0584233467e+02   1.6210333808e+01    0.2381496     0.184854  33.37 0.0006193144    1.324    0.245
       375  -9.0734     37.2475     18.3483   7.3864973879e+01   6.8517001118e+01    0.3699536    0.2043932   5.36  0.001719664    2.339    0.572
       376  -9.9454     43.1955     15.5990   6.9839863116e+01   6.8008737362e+01    0.3691317    0.1723999  37.35  0.001646309    1.987    0.497
       377  -9.5119    145.1717     18.0491   4.2908253979e+01   4.6297585340e+01     0.442345    0.2485703  57.20  0.002216736    1.567    0.362
       378  -8.5029    203.1366    217.8047   8.0825997658e+01  -1.6180940220e+00    0.1732652     0.131242   2.69 0.0002475212    1.268    0.211
       379  -8.9002    225.8573     16.0883   3.3278471759e+01   2.7613668549e+01    0.2141411    0.1486115 -52.82  0.001338773    1.250    0.200
       380  -8.5774    242.4503    209.9330   7.2176915885e+01  -6.1271578189e+00    0.1544675    0.1027592 -53.88 0.0008072311    2.453    0.592
       381  -8.8619    230.9349    209.2801   7.4085597397e+01  -4.4151165244e+00    0.1753661    0.1398661   3.93 0.0003772704    1.097    0.089
       382  -8.4896    123.8634    206.1171   9.5814742497e+01   1.3781248712e+01    0.1752314    0.1594342  -6.35 -0.0006383859    1.262    0.207
       383  -9.2759     34.8123    201.0513   1.1579371070e+02   2.7788867830e+01    0.2606145    0.1514647  75.54  0.001371503    1.661    0.398
       384  -8.5388    120.1746    199.4012   9.5612321391e+01   1.5856262203e+01    0.2007588    0.1219636  48.71 0.0004198407    1.611    0.379
       385  -8.6508      6.6363    194.6884   1.2149566298e+02   3.2071296845e+01    0.1151082   0.08320639 -50.03 0.0007039952    1.755    0.430
       386  -8.1840    241.7125    193.6966   6.9288660520e+01  -3.5526253820e+00    0.1283913   0.08560543  -7.19 0.0003617561    1.564    0.360
       387  -8.1859     73.6573    187.6614   1.0512784489e+02   2.5983400299e+01    0.1394656    0.1076753 -29.80 0.0007049395    1.771    0.435
       388  -8.6098      5.5469    182.9305   1.2093178284e+02   3.4878872040e+01    0.1771977   0.09882335 -80.17 0.0003231785    1.470    0.320
       389  -8.8164     55.2579    181.2655   1.0887616927e+02   3.0041486788e+01    0.1892133    0.1394581  74.33 0.0005302167    1.311    0.237
       390 -10.6379    101.0055    176.0059   9.6442481516e+01   2.4512637516e+01    0.2080638    0.1963839  76.56  0.001160243    1.004    0.004
       391  -9.6337     18.3822    174.6845   1.1727081010e+02   3.5709063653e+01    0.2245519    0.2055913 -51.36  0.001043644    1.346    0.257
       392  -9.5762      7.3962    174.6145   1.1988672837e+02   3.6686247931e+01    0.2013053    0.1175029  67.44 0.0007567091    1.597    0.374
       393 -10.1807      6.9099    166.4725   1.1934941844e+02   3.8675600292e+01    0.2522704    0.2060292  -4.82  0.001046208    1.740    0.425
       394 -10.1879     14.3759    166.0449   1.1747085168e+02   3.8161640649e+01    0.4094841    0.1993339   1.56  0.001609914    4.481    0.777
       395 -11.8994     36.9344    159.3630   1.1090424244e+02   3.7644512877e+01     0.949492     0.358126  41.25  0.003942262    2.617    0.618
       396  -8.5821     85.0117     14.2192   5.4295567732e+01   6.0529217513e+01    0.1683683   0.09273391  53.19 0.0008551383    1.617    0.381
       397 -11.9912     30.8810    154.7976   1.1197573745e+02   3.9417655229e+01    0.6645954    0.3559133  48.02  0.003241874    1.948    0.487
       398 -10.0283     24.2138    162.8458   1.1465789297e+02   3.8058434478e+01    0.2540297    0.1842525  34.12 0.0007123582    1.546    0.353
       399  -9.3274     20.5420    160.5185   1.1536458687e+02   3.8973745769e+01    0.2092931     0.178123 -87.02 0.0007238694    1.040    0.039
       400 -10.5503      2.0818    154.7976   1.1957056594e+02   4.1861883963e+01    0.5064461    0.1663178 -74.22  0.001454458    2.385    0.581
       401  -9.5795    249.0443    153.9431   6.0234333075e+01   1.7950152033e+00    0.2108107    0.1473079  -6.37 0.0006648223    1.719    0.418
       402  -8.8863     75.0423     12.6169   5.6559236567e+01   6.2719942725e+01    0.1857396    0.1487358  64.59  0.001139543    1.490    0.329
       403 -10.7324      5.4420    146.8507   1.1797262194e+02   4.3562217394e+01    0.5888986    0.2778227  51.65  0.002795402    2.281    0.562
       404 -10.1336     19.0785    151.6967   1.1481070787e+02   4.1291389762e+01    0.2682765    0.2318858   1.85  0.001081772    1.515    0.340
       405 -10.4064     13.5419    144.8342   1.1556761889e+02   4.3454184140e+01      0.46027    0.2151632 -44.38  0.002102077    2.474    0.596
       406 -10.5299     18.5144    140.7806   1.1371157712e+02   4.4063215092e+01    0.3572866    0.2080926  43.09  0.001709193    1.856    0.461
       407 -10.2634     13.8280    150.2720   1.1607011448e+02   4.2083383957e+01    0.3039142    0.2596891  48.05  0.001648755    1.303    0.232
       408  -8.2744     22.6106     12.8100   7.8451005215e+01   7.1135243213e+01    0.1476521   0.09878765 -38.88 0.0009378622    1.638    0.390
       409  -9.0894     45.9969    151.4520   1.0734880926e+02   3.8633919549e+01    0.2072688    0.1653571 -72.82 0.0001912047    1.109    0.098
       410  -8.5664     54.3937    145.7789   1.0408001876e+02   3.9065311650e+01      0.19435    0.1184366 -55.91 0.0002196269    1.507    0.336
       411  -9.9064     66.9575     16.2278   6.0813085489e+01   6.3900902901e+01      0.34216    0.2413673  67.50  0.001879072    2.079    0.519
       412  -9.2925    241.2690    144.6360   5.9529208808e+01   4.6610484549e+00    0.1338627   0.09627844 -57.76 0.0006995114    1.654    0.395
       413  -8.5204     29.6401    142.1894   1.1070854187e+02   4.2716993485e+01     0.190468    0.1024832 -60.41 -0.0001541599    1.588    0.370
       414 -10.0975      3.2610    140.3235   1.1792579916e+02   4.5313125244e+01    0.4970994    0.2482497  55.81  0.001793063    2.218    0.549
       415 -10.7157      3.1026    131.2967   1.1703740852e+02   4.7537940064e+01    0.6012753    0.2124908 -71.09  0.001653021    2.175    0.540
       416  -9.4165     41.3160    138.9243   1.0682429618e+02   4.2350471017e+01    0.2334026    0.1823094  55.30  0.001297033    1.366    0.268
       417  -9.0626    236.0262    136.6862   5.8673864816e+01   6.9610206510e+00    0.1811541    0.1707401 -10.35 0.0005403989    1.129    0.114
       418  -9.0718    230.7742    137.1655   5.9622805106e+01   7.8258371238e+00    0.1881513    0.1523357 -14.90 0.0007020347    1.308    0.235
       419  -9.0894     34.2435    136.8948   1.0861600045e+02   4.3606465464e+01    0.2673511    0.1593166 -52.11   0.00130549    1.567    0.362
       420  -9.1945     75.8851    135.7769   9.5911267230e+01   3.8625972715e+01    0.3290604    0.2604441   8.15  0.001633628    1.589    0.371
       421 -10.2249      9.3035    151.6929   1.1741628957e+02   4.2088295799e+01    0.2644076     0.188196  65.82 0.0008946443    1.382    0.276
       422  -8.7478    248.6601    134.1062   5.6195263249e+01   5.1967591783e+00    0.1966495    0.1064627 -30.95 0.0005973798    1.747    0.428
       423  -8.9897     41.2222    133.9828   1.0607069238e+02   4.3617797270e+01    0.2180734    0.1766832  89.44 0.0005276259    1.222    0.182
       424 -10.3693     42.8166    130.0221   1.0492633425e+02   4.4449523722e+01     0.514856     0.305637  51.48   0.00174364    1.938    0.484
       425 -11.1657     28.7287    132.0689   1.0955904246e+02   4.5358763179e+01    0.2349371    0.2092331  89.59 0.0003113049    1.102    0.092
       426  -9.5794     20.1169    131.4655   1.1206240073e+02   4.6262680748e+01    0.2022865    0.1506251 -71.97 0.0004781364    1.120    0.107
       427 -10.1494      9.5360    131.0082   1.1513663880e+02   4.7180732542e+01    0.4247764    0.1884798 -58.00  0.001609453    1.850    0.459
       428  -9.0885     13.0301    127.0337   1.1360911272e+02   4.7916294484e+01    0.2053757    0.1352059  72.46  0.000816223    1.660    0.398
       429  -9.1406     61.9809    131.0092   9.9185034786e+01   4.1843066206e+01    0.2300114    0.1671831  74.46 0.0004842819    1.656    0.396
       430 -10.3547     88.5597    128.0872   9.0464644180e+01   3.8509710764e+01    0.2565563     0.241362  40.54 0.0002162427    1.117    0.105
       431 -10.5782     33.7255    125.2082   1.0695775182e+02   4.6613395237e+01    0.5793083    0.2523912 -78.08  0.002220479    2.710    0.631
       432  -9.5004     59.7378    125.4454   9.8787399773e+01   4.3553732304e+01    0.2671064     0.182909 -62.87 0.0007490895    1.343    0.256
       433  -9.4067     53.4400    126.2897   1.0093663341e+02   4.4150608274e+01    0.2404168    0.1292867  30.35 0.0001818668    2.049    0.512
       434 -10.0603    103.3040    123.9790   8.5138002344e+01   3.6873207739e+01    0.2597149    0.2245875  39.83  0.000258096    1.197    0.165
       435  -8.9092     72.0039    123.6895   9.4563481365e+01   4.2260096093e+01    0.1952899    0.1926692  89.41 0.0004257732    1.070    0.066
       436 -10.7302      8.2553    122.9970   1.1454484172e+02   4.9245904590e+01    0.3941903    0.2773059 -15.67  0.001796041    1.843    0.457
       437  -9.0116     46.3537    127.8173   1.0344272546e+02   4.4610820017e+01    0.2899711     0.146727 -54.54 0.0008870226    1.730    0.422
       438  -8.4424    130.9967    122.9598   7.7198500844e+01   3.1546832066e+01      0.18304    0.1792322  50.90 -0.002661949    1.041    0.040
       439  -9.3708     38.5983    123.0739   1.0505455932e+02   4.6659033861e+01    0.2222513    0.1811932 -31.02  0.001260568    1.361    0.265
       440  -8.0809     84.3008    122.3055   9.0432793706e+01   4.0658537409e+01    0.1526117    0.1160005 -23.66 0.0002704244    1.594    0.373
       441  -9.0897     13.7746    109.7504   1.1094463864e+02   5.2125389632e+01    0.2317336    0.1491633 -68.69  0.000484245    1.288    0.223
       442 -11.6278     21.3363    119.2815   1.0994483607e+02   4.9205546601e+01    0.6904076    0.4501483  87.92  0.001164897    1.655    0.396
       443 -10.6364     14.0289    113.5211   1.1143117882e+02   5.1183626842e+01    0.3849264    0.2517972  31.83  0.001499953    1.779    0.438
       444  -9.0752    221.0696    121.3567   5.7714401188e+01   1.2522399550e+01    0.1881458    0.1788055 -56.93 0.0004543873    1.094    0.086
       445  -9.0510    124.2173    121.1425   7.8546302721e+01   3.3389103299e+01    0.3169222    0.2092344  53.41 0.0008016406    1.651    0.394
