#   1 NUMBER                 Running object number                                     
#   2 MAG_AUTO               Kron-like elliptical aperture magnitude                    [mag]
#   3 X_IMAGE                Object position along x                                    [pixel]
#   4 Y_IMAGE                Object position along y                                    [pixel]
#   5 X_WORLD                Barycenter position along world x axis                     [deg]
#   6 Y_WORLD                Barycenter position along world y axis                     [deg]
#   7 A_WORLD                Profile RMS along major axis (world units)                 [deg]
#   8 B_WORLD                Profile RMS along minor axis (world units)                 [deg]
#   9 THETA_WORLD            Position angle (CCW/world-x)                               [deg]
#  10 FWHM_WORLD             FWHM assuming a gaussian core                              [deg]
#  11 ELONGATION             A_IMAGE/B_IMAGE                                           
#  12 ELLIPTICITY            1 - B_IMAGE/A_IMAGE                                       
         1 -10.1710     39.5539     19.3586   7.5828335755e+01   6.7407472427e+01    0.2860762    0.2461994  79.47  0.001708245    2.544    0.607
         2 -12.8139    216.6378     13.3413   3.4776432747e+01   2.9750362860e+01    0.3827236    0.3187849  70.32 0.0008066834    1.244    0.196
         3 -10.5390     65.6364     11.1095   6.1458538396e+01   6.4220415233e+01    0.2666061    0.1355736  39.64  0.001160345    1.708    0.414
         4 -11.8517    190.9569      9.3640   3.6281891349e+01   3.5998730456e+01    0.2555397    0.2027601  59.83  0.001176248    1.279    0.218
         5 -11.8343     57.4873      6.9286   6.2429292080e+01   6.6102382211e+01    0.5588948    0.4055551 -50.72  0.002795682    2.323    0.570
         6  -9.8974    109.5105      8.5295   4.8244860686e+01   5.5371582992e+01    0.1293944    0.1131494  47.33 0.0008095657    1.038    0.036
         7 -11.8341    186.3237      4.4814   3.5531015793e+01   3.7548055994e+01    0.3277401    0.2137578 -26.80    0.0018777    1.736    0.424
         8 -11.0241    165.6340      1.5822   3.7018948890e+01   4.2694222549e+01    0.3175392    0.1222446  62.52 0.0007201952    2.129    0.530
         9 -10.5484    233.4765    223.5177   7.8423790098e+01  -6.2999366846e+00    0.1243768    0.0986335   0.44  0.000235219    1.028    0.027
        10 -11.9345     21.9511    249.0717   1.2324781273e+02   1.9219911270e+01    0.2838142     0.205018  60.93  0.001585804    1.075    0.070
        11 -11.7554     10.4778    247.2202   1.2512841113e+02   2.0720040357e+01     0.216283    0.1244707  55.40 0.0007631636    1.341    0.254
        12 -11.4943      7.9633    250.6009   1.2570994164e+02   2.0342094784e+01    0.2955876    0.0842092  34.45  0.001137655    3.171    0.685
        13  -9.9699    174.3111    222.6662   8.9769539028e+01   2.7505017538e+00    0.1243386    0.1037274  65.58 0.0005414608    1.678    0.404
        14 -10.4702    101.8344    218.7899   1.0473748078e+02   1.5036301568e+01    0.1863214    0.1397655  62.58 0.0005245302    1.346    0.257
        15  -9.8783     22.0000    219.0150   1.2143856814e+02   2.5113558346e+01    0.1861742   0.05682338 -75.34 0.0008087223    2.986    0.665
        16 -10.2206    211.5647    218.0316   8.1534004834e+01  -2.3290407040e+00     0.234868    0.1672543 -52.64  0.001285193    2.065    0.516
        17 -10.8981    239.6366    215.3113   7.5850175737e+01  -5.9913012244e+00    0.3440728    0.1015268 -42.76  0.001255141    4.175    0.760
        18 -10.8793    225.1350    212.1557   7.7909125941e+01  -3.4589413668e+00    0.2060241    0.1507403   1.59  0.001038004    1.228    0.185
        19  -9.8801     86.3062    209.6495   1.0701448043e+02   1.9235263787e+01    0.1401764   0.09157445  68.51 0.0005808487    1.707    0.414
        20 -10.0748     99.2500    206.2475   1.0365468297e+02   1.8042875820e+01    0.2074392    0.1131492 -75.32 0.0008255838    2.446    0.591
        21 -11.4898     50.0661    201.7810   1.1419740857e+02   2.5748176455e+01     0.483138    0.2397816  57.98  0.002336544    2.059    0.514
        22 -10.5133    149.4843    198.5325   9.1004163977e+01   1.1364247054e+01    0.2436565    0.1394019 -61.60  0.001033016    2.393    0.582
        23 -10.2729    112.7853    198.2005   9.9368753601e+01   1.7641839935e+01    0.2449014    0.1435684  70.95 0.0009614955    2.855    0.650
        24  -9.7491    133.4035    196.1674   9.4256117785e+01   1.4626944833e+01    0.1911641     0.137424 -67.16 0.0005763089    1.686    0.407
        25 -12.3173    160.3737    192.2510   8.7432194039e+01   1.0699100638e+01    0.7480595     0.547009  77.76  0.003206493    2.297    0.565
        26  -9.8576     66.3146    194.6464   1.0973876445e+02   2.5319856357e+01    0.1430236   0.08984149  69.24  0.000704575    1.736    0.424
        27 -11.1019     44.2718    193.9023   1.1470447293e+02   2.8196076579e+01    0.3035336    0.1530734  60.28  0.001454537    2.088    0.521
        28 -10.3170     94.5303    186.5701   1.0192809481e+02   2.3130677349e+01    0.3034233    0.1315047 -77.16 0.0008098232    5.791    0.827
        29  -9.9180     34.3146    186.9835   1.1628477164e+02   3.0869366304e+01    0.2114779   0.08387164  83.94 0.0007045484    4.247    0.765
        30 -10.0161    109.2336    186.2224   9.8308968368e+01   2.0863974617e+01    0.2215666    0.1186937 -69.87 0.0007565959    2.470    0.595
        31 -10.4062    183.2630    183.0530   8.0657920418e+01   8.3799880389e+00    0.3593204    0.1881146 -39.35  0.001564237    1.907    0.476
        32 -11.2563     37.5545    179.0453   1.1473640102e+02   3.2377093171e+01    0.2730723    0.1465434  86.74  0.001300841    2.028    0.507
        33 -10.1853     77.2426    175.9891   1.0461143810e+02   2.8176415826e+01    0.3073448    0.1435072  55.72  0.001180853    2.704    0.630
        34  -9.4183     28.6750    176.6622   1.1659345551e+02   3.3843865932e+01    0.1263073   0.08696571 -46.05 0.0007051349    1.722    0.419
        35  -9.8520     12.6792    176.3419   1.2026544348e+02   3.5373639969e+01    0.1315693   0.07420792  68.27 0.0007050106    1.722    0.419
        36 -11.0507     34.6420    173.6541   1.1486358042e+02   3.3956618132e+01    0.3274555    0.1546163  59.89  0.001464605    2.423    0.587
        37 -10.0609      3.2563    174.2503   1.2222598426e+02   3.6609478661e+01    0.1980365   0.07987187  88.67 0.0008909461    2.445    0.591
        38 -12.2070     45.2251    171.3866   1.1201442485e+02   3.3362185479e+01     0.550437    0.3050983  87.26  0.002559422    2.076    0.518
        39 -10.0177    121.3006    169.6502   9.2400993625e+01   2.2572518494e+01    0.1524296    0.1166169  79.14 0.0006787094    1.692    0.409
        40  -9.8061    138.8122    165.1942   8.7182503126e+01   2.0370966147e+01    0.2586066    0.1703299  79.31 0.0009559265    2.900    0.655
        41 -10.3192     80.1971    164.5991   1.0208082980e+02   3.0492189084e+01    0.3118239    0.1633509  85.02 0.0009578042    4.381    0.772
        42 -10.2567     52.1187    160.2938   1.0881913463e+02   3.5265041364e+01    0.2798749    0.1622959  81.07  0.001241685    2.199    0.545
        43 -11.1445    106.7990    158.7149   9.4017416264e+01   2.7672871584e+01    0.6147281    0.3135486  57.45    0.0021957    2.857    0.650
        44 -11.0653    118.3808    157.2829   9.0708543796e+01   2.5966959321e+01     0.375738    0.3019028 -41.64 0.0009997451    1.264    0.209
        45 -10.8669    167.5070    157.0098   7.8645371726e+01   1.6575436318e+01    0.3633222    0.2533099 -79.02  0.001451216    2.577    0.612
        46 -10.4048    218.4075    155.6897   6.7850159487e+01   7.0627759461e+00    0.2895244    0.1239245 -42.33   0.00115357    2.215    0.548
        47  -9.8577     81.7918    155.1711   1.0005001737e+02   3.2560892155e+01    0.2578022    0.1478423  71.53 0.0009546573    2.901    0.655
        48 -10.0457     68.0055    154.4884   1.0368426549e+02   3.4689491195e+01    0.2084871    0.1025501  54.52 0.0008102104    2.563    0.610
        49  -9.7545     23.3884    153.7428   1.1550625855e+02   3.9818943628e+01    0.1733839    0.1005788 -64.80 0.0002556372    1.455    0.313
        50 -10.6277     22.3708    159.3977   1.1637777332e+02   3.8541374844e+01    0.3216998    0.1695588  55.62  0.001616522    2.033    0.508
        51 -11.2109    108.0755    145.9968   9.1097355024e+01   3.0495728172e+01    0.7124793     0.358545  62.46  0.002096986    4.309    0.768
        52 -10.7445     55.9861    146.0035   1.0562914321e+02   3.8338815534e+01    0.4098958    0.2162987  77.25  0.001477647    3.389    0.705
        53  -9.9208     56.5643    170.1157   1.0900781809e+02   3.2335127252e+01    0.2085383    0.1216759 -67.33   0.00101932    1.576    0.365
        54 -10.2003    148.3195    144.6889   8.0381156464e+01   2.3079115591e+01    0.2420769     0.191833  89.24  0.001018487    1.756    0.431
        55 -10.4266     88.4840    144.9721   9.6294703438e+01   3.4039575843e+01    0.2123842    0.1299414 -84.62 0.0008101047    2.539    0.606
        56 -10.0128    124.7907    143.3778   8.6054169088e+01   2.8028530503e+01    0.3209257    0.1882205 -79.67 0.0009514918    4.198    0.762
        57 -10.1054    182.0165    141.9847   7.2012083670e+01   1.6740633793e+01     0.241492    0.1943665 -82.76  0.001137375    1.765    0.433
        58 -10.2108     23.2740    138.6929   1.1374394128e+02   4.3504977320e+01    0.3240092    0.1377614  64.79  0.001150914    4.027    0.752
        59 -10.8595     83.3096    132.1075   9.5146184398e+01   3.8018376850e+01    0.3872578    0.2489619 -89.49  0.001549485    2.466    0.595
        60 -10.1700    132.1959    132.0251   8.1459173899e+01   2.9191814540e+01    0.2583324    0.1846253 -75.35  0.001074092    1.992    0.498
        61 -11.9932     99.3948    128.5456   8.9665252622e+01   3.6228089286e+01     0.772317    0.4931555  70.64  0.002968428    2.622    0.619
        62 -10.1506    118.2064    125.9673   8.3734579338e+01   3.3360514198e+01    0.3330649    0.1968735  63.78  0.001187563    2.765    0.638
        63 -11.2267     43.7872    123.1351   1.0534495525e+02   4.5421845709e+01    0.6149884    0.3476075  85.05  0.002510394    2.767    0.639
        64 -10.3322     58.8441    124.1393   1.0088358800e+02   4.3432652926e+01    0.3546733    0.1907014 -88.56  0.001201331    3.702    0.730
        65 -11.6464     28.2494    122.5747   1.1002224331e+02   4.7049746703e+01    0.6779552    0.3137834  75.64  0.002149872    5.061    0.802
        66 -11.7990    193.0696    118.0777   6.3981276464e+01   1.9129172395e+01    0.6027066     0.365251 -60.59  0.001856252    2.300    0.565
        67  -9.7553     73.2950    129.6574   9.7604728463e+01   4.0120488238e+01    0.1483036    0.1119023  80.31 0.0003894524    1.662    0.398
        68 -10.2443     71.5776    120.7042   9.6228449090e+01   4.2572224696e+01    0.3267783     0.201916  66.01  0.001325751    2.538    0.606
        69 -11.3613    142.2734    112.5652   7.3906152228e+01   3.1394252164e+01    0.4111329    0.3046665   4.32  0.001779847    1.822    0.451
        70 -10.9201     78.7044    112.6318   9.2144487203e+01   4.3472886037e+01     0.394706    0.2326901 -76.56  0.001476397    2.795    0.642
        71 -10.2081     92.1583    112.4505   8.7923630227e+01   4.1322091191e+01    0.3808658     0.174181 -58.32  0.001358029    2.501    0.600
        72 -11.0198    174.3298    110.7934   6.5975538659e+01   2.4655870024e+01    0.3891988    0.2741081 -52.07  0.001048457    1.500    0.333
        73 -11.2010    159.9103    111.8713   6.9461362072e+01   2.7656940947e+01    0.4430823     0.302047  76.62  0.001760843    2.324    0.570
        74 -11.5680     14.8088    109.4961   1.1219248423e+02   5.1271263005e+01    0.6390597    0.3673804 -88.51  0.003205756    1.969    0.492
        75 -12.1128    160.0233    106.1177   6.7906340769e+01   2.8800256403e+01    0.5959932    0.2853646  52.44  0.002205369    2.265    0.559
        76 -12.4482    141.0223    103.2858   7.1702543813e+01   3.3627345814e+01    0.7488281    0.4825731 -45.38   0.00324981    1.543    0.352
        77 -12.1071    127.7635    100.6882   7.4433620701e+01   3.7053791863e+01    0.6002589    0.3553402 -48.14  0.002491223    1.721    0.419
        78 -10.6582    108.5830    113.0265   8.3178787806e+01   3.8208200123e+01    0.5682619    0.2741794 -64.27   0.00169101    3.875    0.742
        79 -10.6946     20.8039    100.0409   1.0864125543e+02   5.3116893037e+01    0.4524406    0.2194036  75.38  0.001454242    5.412    0.815
        80 -10.2479     94.8818     97.7286   8.3157915809e+01   4.4224137406e+01    0.2908833     0.205948 -75.76  0.001241632    2.137    0.532
        81 -10.7861     63.0195     96.0340   9.3165368432e+01   4.9671933879e+01     0.322453    0.2010176 -78.87  0.001312628    2.647    0.622
        82 -12.6185    169.3194     90.9526   6.1748927563e+01   2.9603452445e+01    0.3834947    0.3329941  -8.90 0.0004937398    1.275    0.216
        83 -12.5461    108.9735     99.3258   7.9340718458e+01   4.1209673858e+01     1.158328    0.7522222  74.37  0.004216014    3.040    0.671
        84 -10.7549     34.1453     88.2785   1.0151437856e+02   5.4779363900e+01    0.5171589    0.1828419 -65.41  0.001861458    3.173    0.685
        85 -11.5100     87.4590     87.3820   8.2538939760e+01   4.7813054585e+01    0.5374603    0.3339702  53.42  0.002326908    2.094    0.522
        86 -11.1475     46.7778     83.2159   9.5604769420e+01   5.4631917743e+01    0.5737776    0.3694224  75.11  0.002362013    3.297    0.697
        87 -10.7724    104.6207     83.3789   7.5931772683e+01   4.5442211980e+01     0.350732    0.2651872 -62.13  0.001393329    1.653    0.395
        88 -10.8843     24.2445     80.5781   1.0342993454e+02   5.7396919815e+01    0.3841637    0.2199272 -81.80  0.001749726    2.569    0.611
        89 -10.8609     62.0000     71.0163   8.6382946426e+01   5.5320389222e+01    0.3647205    0.1547535 -43.59  0.001497026    2.128    0.530
        90 -11.0561     82.1508     73.1577   7.9899013743e+01   5.1694786646e+01    0.3560572    0.2378815 -73.49  0.001419453    2.961    0.662
        91 -11.9490     44.9691    101.1312   1.0058788264e+02   5.0666141262e+01    0.7718074    0.4653118  88.92   0.00319327    2.863    0.651
        92 -10.5454     51.7757     70.9537   9.0228010039e+01   5.6707521607e+01    0.2463698    0.1900871 -65.09   0.00116923    1.593    0.372
        93 -11.8114     21.0228     50.9333   9.6796280205e+01   6.3997130824e+01    0.6035505    0.3655801 -56.52  0.003395704    1.619    0.382
        94 -11.8462     29.1432     52.2075   9.3601002051e+01   6.3027999242e+01    0.7004569    0.3735318 -38.08  0.003691482    1.574    0.365
        95 -11.1934     42.5792     66.7880   9.2564258925e+01   5.8675815664e+01    0.4082003    0.1964618 -52.82  0.001422091    1.924    0.480
        96 -12.0364     41.9109     62.9848   9.1660830855e+01   5.9537874807e+01    0.6090868    0.4128827  35.88  0.002191562    1.729    0.422
        97 -12.4656     28.2023     60.6356   9.6625745163e+01   6.1409685349e+01    0.7167497    0.3905871  39.23  0.001522562    2.388    0.581
        98 -12.1727     34.3159     57.3483   9.3029106646e+01   6.1495459136e+01    0.4441608    0.3501077   5.67  0.002157071    1.295    0.228
        99 -11.9218    238.0238     64.7370   4.4161675069e+01   1.8555249075e+01    0.4439465    0.2527675 -77.09  0.002010436    2.513    0.602
       100 -10.1297     72.5688     58.2861   7.8221892803e+01   5.6172218654e+01     0.273697    0.1287581 -45.51  0.001151232    2.180    0.541
       101 -10.0697    197.4663     67.5483   5.0340799384e+01   2.7024334340e+01    0.3243479    0.1242757  53.69  0.001224253    2.613    0.617
       102 -11.3328      8.9688     55.6081   1.0350710468e+02   6.3891782936e+01    0.4456479    0.3255761 -61.49  0.002855208    1.344    0.256
       103 -10.3292     54.6051     54.8987   8.3837384238e+01   5.9535984099e+01    0.2569935    0.1666551 -55.18  0.001225622    1.907    0.476
       104 -10.0224    161.2860     53.4042   5.2647062713e+01   3.7798073764e+01    0.2034855    0.1364756  71.94 0.0009488093    1.633    0.388
       105 -10.9156    148.8278     51.2896   5.4453360247e+01   4.1118669120e+01    0.4378753    0.1749187  54.92  0.001208669    2.332    0.571
       106 -10.0122     92.3366     51.6586   6.9117619757e+01   5.3717581464e+01    0.1367434    0.1154381 -79.01 0.0007050474    1.762    0.433
       107 -11.6176      7.1402     42.7549   1.0067904550e+02   6.6598586289e+01    0.4879405    0.3025518  38.51  0.002866209    2.280    0.561
       108 -11.6240     72.4846     42.3881   7.2327919517e+01   5.8896588852e+01     0.553196    0.2942327  52.32  0.002426081    2.535    0.606
       109 -11.0839     36.9764     38.9623   8.5373285250e+01   6.4662400093e+01    0.3615404    0.2838199 -61.95  0.002138176    1.930    0.482
       110 -10.5038     73.7548     32.8705   6.8063289794e+01   6.0084713668e+01    0.2370661     0.182922  70.79  0.001246335    2.159    0.537
       111 -10.4593    109.2962     31.8895   5.6963012114e+01   5.2968869533e+01    0.2262064    0.1820369  62.89 0.0004650844    1.339    0.253
       112 -10.6215    103.5056     30.2113   5.7853283017e+01   5.4451177490e+01    0.4493884    0.1777619  55.93  0.001774975    2.510    0.602
       113 -10.8037    239.5895     20.7067   3.4437886140e+01   2.4018200191e+01    0.2205593    0.1737477 -74.56 0.0005638509    1.084    0.078
       114 -11.5317    203.6898     20.8998   3.7788993757e+01   3.1836118040e+01    0.2623487    0.1753821  82.26  0.001476118    1.414    0.293
       115 -11.5006    220.8217    248.6595   8.4957867316e+01  -7.9775806337e+00     0.508846    0.2223635  43.72  0.002392397    2.929    0.659
       116  -9.9066     32.7712    242.3790   1.2092536476e+02   1.9322601920e+01     0.140834   0.09918747  32.69 0.0006772102    1.608    0.378
       117 -10.0785     46.7965     16.5553   7.1317824392e+01   6.6741582357e+01    0.2037848     0.138233 -11.74   0.00107394    1.337    0.252
       118 -10.3919     89.4632     18.2558   5.7042429715e+01   5.8810270508e+01    0.2746354    0.1721273  60.95  0.001414196    1.785    0.440
       119 -10.7385     21.7021    239.5389   1.2276010069e+02   2.1044223399e+01    0.3109937    0.1119945 -72.90   0.00161446    2.576    0.612
       120 -11.1173      8.0755    240.7745   1.2523132159e+02   2.2161001480e+01    0.1641608    0.1523849  32.03  0.001349428    1.558    0.358
       121 -10.1386      2.4251    240.2153   1.2617752420e+02   2.2797431312e+01    0.1509192   0.07622673  81.18 0.0006976465    1.659    0.397
       122 -11.4529     96.2425    225.1294   1.0672508324e+02   1.4590871329e+01    0.4308423    0.2372074  50.38  0.002188123    1.696    0.410
       123 -10.4757    149.7735    223.9706   9.5113707387e+01   6.4792670743e+00    0.2027074    0.1554094  81.27  0.001078806    1.974    0.493
