#   1 NUMBER                 Running object number                                     
#   2 MAG_AUTO               Kron-like elliptical aperture magnitude                    [mag]
#   3 X_IMAGE                Object position along x                                    [pixel]
#   4 Y_IMAGE                Object position along y                                    [pixel]
#   5 X_WORLD                Barycenter position along world x axis                     [deg]
#   6 Y_WORLD                Barycenter position along world y axis                     [deg]
#   7 A_WORLD                Profile RMS along major axis (world units)                 [deg]
#   8 B_WORLD                Profile RMS along minor axis (world units)                 [deg]
#   9 THETA_WORLD            Position angle (CCW/world-x)                               [deg]
#  10 FWHM_WORLD             FWHM assuming a gaussian core                              [deg]
#  11 ELONGATION             A_IMAGE/B_IMAGE                                           
#  12 ELLIPTICITY            1 - B_IMAGE/A_IMAGE                                       
         1 -13.0180    188.9893     32.9682   6.3419701994e+01   3.4432916688e+01     0.929164    0.7701303 -78.67  0.003060136    1.097    0.089
         2 -13.5812    197.2430     21.9245   5.9868225709e+01   3.3858591019e+01    0.9135449    0.7359877 -27.01  0.001539357    1.615    0.381
         3 -14.6092    147.3252     12.2645   6.4123783682e+01   4.6397381278e+01      1.43562     1.179848  26.92  0.005942009    1.460    0.315
         4  -8.9738    114.5789      3.2822   6.7153026242e+01   5.4471447955e+01    0.1528458     0.111106   9.40 0.0009514377    1.654    0.395
         5 -10.4739     58.0001      2.4975   8.1349819537e+01   6.5456325661e+01    0.1765682   0.09269644  44.88  0.001043729    1.622    0.383
         6 -10.7880    182.6478    233.7935   1.0925937203e+02  -2.1898096626e+00    0.4245171    0.1951658  52.17  0.001627145    3.105    0.678
         7 -11.9534    237.9871    237.3232   9.9036139081e+01  -1.1253196246e+01    0.5129772    0.4137321  16.30  0.002290773    1.153    0.133
         8 -11.5079    219.9510    248.8232   1.0437406792e+02  -1.0439791065e+01    0.4800864    0.3608234  16.50  0.002128724    1.157    0.136
         9 -11.3143    248.6394    240.9635   9.7742477476e+01  -1.3208084833e+01    0.3643868    0.2955644  13.75  0.001642996    1.173    0.148
        10 -12.7208    241.8119    246.6871   9.9951204265e+01  -1.3130962703e+01    0.7097288    0.4647463  13.56      0.00256    1.423    0.297
        11 -13.0953    228.7646    243.5226   1.0181585514e+02  -1.0897615672e+01    0.7723216    0.6193444 -22.58  0.003248842    1.205    0.170
        12 -12.3603    217.7993    197.5820   9.5522562867e+01  -1.5190008285e+00    0.7279307    0.4719536 -51.75  0.003616502    1.751    0.429
        13 -10.0022     84.7440    200.6136   1.2589885345e+02   2.1688811227e+01     0.369641    0.1890119  65.06  0.001296276    2.668    0.625
        14 -10.2598     81.6428    195.5002   1.2590187048e+02   2.3396505485e+01    0.5690954    0.3127521 -43.89  0.002433056    2.302    0.566
        15 -11.8060    194.1340    193.7170   9.9531559720e+01   3.4035768351e+00    0.8238047    0.6403461 -72.68   0.00410876    1.772    0.436
        16  -9.5268    114.6021    198.7407   1.1852019005e+02   1.7146054434e+01     0.207821     0.138796 -71.94 0.0008564076    1.676    0.403
        17  -8.9654     77.8374    232.6549   1.3149335237e+02   1.5441496615e+01    0.1980258    0.1655001  27.00  0.001183292    1.498    0.332
        18  -9.0265    164.0000    231.9737   1.1286962080e+02   1.3050350153e+00    0.2106527   0.07881088 -48.94 0.0006178771    2.934    0.659
        19  -9.8185     65.6218    224.4318   1.3316512979e+02   1.9017362239e+01    0.3441753    0.1843374  78.21  0.001554433    2.271    0.560
        20 -10.4793    224.0363    184.2790   9.1700497496e+01  -1.1078788322e-01     0.262883     0.182283 -17.08  0.000991002    1.648    0.393
        21 -10.9981    208.2515    183.3225   9.4566766954e+01   2.8757349228e+00    0.5053565    0.3683643  -5.88   0.00197123    1.718    0.418
        22  -9.5353    211.3170    178.6653   9.3010479774e+01   3.2297887147e+00    0.2254014    0.1982009 -45.93  0.001104843    1.146    0.127
        23  -9.2711     99.5969    180.7944   1.1915494135e+02   2.4067945367e+01     0.240276     0.200502  30.81 0.0007306716    1.330    0.248
        24  -9.9598     70.3579    178.5399   1.2616415725e+02   2.9244418257e+01    0.2529563    0.1608957 -89.83  0.000839731    1.806    0.446
        25  -9.7182    197.9847    176.7094   9.5290574665e+01   6.1208679531e+00    0.2915037    0.2560452  -2.37 0.0009874363    1.207    0.171
        26 -10.5545    196.6972    172.1033   9.4594605646e+01   7.3161568506e+00    0.4690781    0.3459993 -50.24  0.001546597    1.363    0.266
        27 -10.5308    115.1878    173.8307   1.1394907237e+02   2.3005442026e+01    0.2215621    0.2081762  66.52  0.001184177    1.043    0.041
        28 -11.0831    103.4968    171.4404   1.1648567664e+02   2.5698466595e+01    0.6798398    0.3078492  50.57  0.002476799    2.480    0.597
        29  -9.6810    193.8154    165.4740   9.3785314210e+01   9.2638613902e+00     0.310951    0.1939128 -59.57  0.001315658    1.941    0.485
        30 -11.3479     95.0542    157.6854   1.1608978107e+02   3.0583547035e+01    0.6417443    0.4108027 -32.75  0.001482463    2.075    0.518
        31  -8.4613    140.3052    156.7383   1.0410630071e+02   2.2232404725e+01    0.1547512    0.1224436  78.33 0.0001735866    1.522    0.343
        32  -9.7929    235.0000    154.0075   8.3524861137e+01   3.6739529786e+00    0.2402034   0.07174245 -42.31 0.0008058081    2.966    0.663
        33 -10.9477    134.0829    144.8335   1.0301140365e+02   2.6332332690e+01     1.240847    0.2611782 -52.26  0.002797305    5.616    0.822
        34  -9.2386    174.6373    148.7988   9.4227427621e+01   1.6823240753e+01    0.2253311    0.1416996 -54.86 0.0003651382    1.668    0.400
        35 -19.4935     13.3714    139.3466   1.3554464548e+02   4.5257758883e+01     19.48042     3.813858 -71.21   0.05700992    5.010    0.800
        36 -11.6304     94.9694    142.1228   1.1292690958e+02   3.4465107284e+01    0.2964928    0.2711862 -30.55 0.0003689718    1.177    0.150
        37  -8.8987    142.0000    138.9857   9.9649467340e+01   2.6047270268e+01    0.2638155   0.08917874 -47.84 0.0007229379    2.911    0.657
        38 -10.5942    114.6156    131.2909   1.0500440604e+02   3.3468544871e+01    0.4212665    0.2655177 -40.88  0.001205364    1.648    0.393
        39 -11.1819    119.0091    126.7950   1.0271897712e+02   3.3655347522e+01    0.5277941    0.3146164 -45.78   0.00221053    1.650    0.394
        40 -10.3400    102.2043    127.7148   1.0762374137e+02   3.6671803219e+01    0.3216129    0.2465419 -31.17 0.0005467763    1.451    0.311
        41 -10.6931    135.2958    122.4649   9.7332929245e+01   3.1261547428e+01    0.7497594    0.1450032 -48.84  0.001695325    5.586    0.821
        42 -10.4114    107.1827    141.3961   1.0937679008e+02   3.2453211156e+01    0.5532758    0.3251379 -29.32  0.002055783    2.541    0.606
        43  -9.2834    161.3194    128.6488   9.2515063799e+01   2.4174976586e+01    0.1653874    0.1240503 -84.04 0.0007047788    1.742    0.426
        44 -10.2280    250.2028    122.3084   7.4557035131e+01   6.7727855438e+00    0.4482754     0.164532 -45.64  0.001793977    2.322    0.569
        45  -9.2725    109.9404    119.9961   1.0354766873e+02   3.7020956726e+01    0.2226334    0.2138897 -26.64 0.0003120468    1.059    0.056
        46 -10.5999    183.9909    215.5293   1.0579330562e+02   9.5658097817e-01    0.2604503    0.2038702 -63.15  0.000933031    1.608    0.378
        47  -9.6686    134.7888    112.4758   9.4912539517e+01   3.3580522270e+01    0.5263503    0.1455333 -44.61  0.001495414    3.605    0.723
        48 -10.0260    134.6225    103.6470   9.2626820461e+01   3.5496931182e+01    0.6069256    0.1475246 -45.45  0.001636105    4.146    0.759
        49  -9.3794    167.9565    112.5467   8.7051873860e+01   2.6113788947e+01    0.3030708      0.20919 -61.40 0.0008283186    1.614    0.380
        50 -10.5953    114.8405    111.7430   1.0006368639e+02   3.7922301960e+01    0.3986794    0.1101562 -49.37   0.00112362    3.732    0.732
        51  -9.7886    105.8781    130.8012   1.0731397979e+02   3.5255563085e+01    0.3464325    0.3006444 -81.92  0.001120984    1.257    0.205
        52  -8.9467    205.6848    110.0489   7.9011401348e+01   1.8091059515e+01    0.2092749    0.1785037 -53.50 0.0005831051    1.087    0.080
        53 -10.0985     62.0861    113.5022   1.1637695209e+02   4.6439171102e+01    0.1998394    0.1405102  29.53  0.001023055    1.560    0.359
        54 -11.6788    225.9648    202.2714   9.4863831883e+01  -3.7181035123e+00    0.7083964    0.4810936 -11.89  0.002572523    1.695    0.410
        55 -12.1221    219.3416     89.2369   7.2051043381e+01   1.8930242158e+01    0.7660804    0.6433632 -53.31  0.002883673    1.108    0.098
        56 -11.7891    115.4356     74.8412   8.9537671289e+01   4.5226865099e+01    0.7829105    0.4865727 -31.78   0.00361509    1.754    0.430
        57 -11.6840    119.8085     69.2050   8.6682367319e+01   4.5272508359e+01    0.5930762    0.3601238  48.08  0.002776271    1.570    0.363
        58 -11.8332    213.7558    206.4185   9.8013085696e+01  -2.4562336250e+00    0.6355097    0.5579626   1.45  0.002680019    1.061    0.058
        59  -8.9487     68.8298     71.8321   1.0297896774e+02   5.4314968834e+01    0.1645055    0.1594698  57.89 0.0002471109    1.295    0.228
        60  -9.9199    166.8519     67.1502   7.5555430412e+01   3.4799038126e+01    0.3774629    0.2357414 -86.91  0.000929021    2.345    0.574
        61  -8.9553    105.2049     61.3643   8.8226834495e+01   4.9623294220e+01    0.1925015    0.1261986  55.05 0.0005087472    1.631    0.387
        62 -12.5996    178.6909     41.6449   6.6980102074e+01   3.5730525119e+01    0.6806474    0.5515739   2.44  0.001050688    1.804    0.446
        63  -9.7207    170.0459    239.7486   1.1285084192e+02  -1.1513971186e+00    0.1894032     0.159899  29.81  0.000419474    1.057    0.054
        64 -10.1884    103.1637    238.6733   1.2686604567e+02   1.0246582417e+01    0.3585427    0.1897932 -42.90  0.001589172    2.684    0.627
        65  -9.4265    101.4443    235.5246   1.2683524788e+02   1.1177518193e+01    0.2111457     0.142638  68.43 5.607868e-05    1.555    0.357
        66 -10.9707     93.6180    237.5183   1.2873822131e+02   1.1998648125e+01    0.3663549    0.2291529  45.90 0.0005115488    1.409    0.291
