#   1 NUMBER                 Running object number                                     
#   2 MAG_AUTO               Kron-like elliptical aperture magnitude                    [mag]
#   3 X_IMAGE                Object position along x                                    [pixel]
#   4 Y_IMAGE                Object position along y                                    [pixel]
#   5 X_WORLD                Barycenter position along world x axis                     [deg]
#   6 Y_WORLD                Barycenter position along world y axis                     [deg]
#   7 A_WORLD                Profile RMS along major axis (world units)                 [deg]
#   8 B_WORLD                Profile RMS along minor axis (world units)                 [deg]
#   9 THETA_WORLD            Position angle (CCW/world-x)                               [deg]
#  10 FWHM_WORLD             FWHM assuming a gaussian core                              [deg]
#  11 ELONGATION             A_IMAGE/B_IMAGE                                           
#  12 ELLIPTICITY            1 - B_IMAGE/A_IMAGE                                       
         1  -8.7857     13.1748     30.1693   6.9854921276e+01   7.0791059961e+01    0.2756357    0.1856143 -71.05  0.001056792    1.671    0.401
         2  -8.1191     19.4445     21.2291   6.2273889729e+01   7.2081815406e+01    0.1671391    0.1121041 -59.62 0.0006624433    1.648    0.393
         3  -8.6301     96.4686     10.9968   2.2665082735e+01   5.9741617219e+01    0.3184993    0.1727036 -23.02 0.0007873771    1.945    0.486
         4  -7.8710     83.5648     10.7759   2.6203870941e+01   6.2798119934e+01    0.1816707    0.1241114 -36.35 0.0005301981    1.584    0.369
         5  -8.3090     55.8386     10.0451   3.6081573078e+01   6.8683898795e+01    0.1835359     0.173807 -33.39 0.0005177507    1.284    0.221
         6  -8.5723     90.9697      8.9636   2.3160579946e+01   6.1270785679e+01      0.21518    0.1629838 -63.49 0.0006057386    1.715    0.417
         7  -8.1760     28.2869      9.6560   5.0528483109e+01   7.3157683334e+01    0.1093012    0.0994686 -67.19 0.0002878919    1.647    0.393
         8  -7.5512    101.3325      7.6815   1.9921851088e+01   5.8890810988e+01    0.1406789    0.1042219 -65.49 0.0007048278    1.693    0.409
         9  -8.0983     70.0141      5.9632   2.8125617170e+01   6.6322153810e+01    0.1614421    0.1430128  17.10 0.0004825867    1.026    0.025
        10  -8.4884     33.4259      4.8596   4.4426862306e+01   7.3176355026e+01    0.2728913    0.1723892 -50.95 0.0009665257    2.280    0.561
        11  -8.6516     79.2596      3.8261   2.3928932991e+01   6.4506503826e+01    0.2991963    0.1794679 -42.78  0.001245435    1.995    0.499
        12  -7.8453     15.7683      3.0006   5.4949771030e+01   7.5728971493e+01    0.1532763   0.08594906 -41.25  0.000413085    1.589    0.371
        13  -7.8569    115.4904      2.0039   1.4463053862e+01   5.5832920899e+01    0.1953446   0.09614626 -47.06 0.0008084748    2.405    0.584
        14  -7.6804     44.5101      2.5429   3.6868778195e+01   7.1693499385e+01    0.1240515    0.1101577   4.33 0.0008070254    1.102    0.092
        15  -8.2304     62.6822      1.4341   2.8217842758e+01   6.8344050417e+01    0.2157765    0.1242598  59.33 0.0007053751    1.880    0.468
        16  -7.5460     39.4575      1.4659   3.8800312216e+01   7.2689349574e+01    0.1255228    0.1052244   3.75  1.99044e-05    1.008    0.008
        17  -8.4391    169.0783    243.1758   6.4265678466e+01   3.2441833571e+00    0.1766484    0.1431515  68.82 0.0006508149    1.949    0.487
        18  -9.5200    246.8881    227.5755   4.8567513110e+01  -5.2910648673e+00    0.5125422    0.2132227 -22.58  0.002800132    2.490    0.598
        19  -8.5747    248.5118    249.9850   5.1661826739e+01  -7.6981537786e+00    0.2236765    0.1166866   5.34  0.001432373    1.855    0.461
        20  -9.7165    248.7383    242.0600   5.0474963017e+01  -6.9695367747e+00    0.3276248    0.1697386 -33.02  0.002127015    2.206    0.547
        21  -9.2332    247.9702    234.9147   4.9525899730e+01  -6.1736675564e+00    0.2866616    0.1769982 -43.12  0.001666101    2.840    0.648
        22  -9.3195    243.0285    246.4263   5.2006736505e+01  -6.7300281310e+00    0.3960249    0.1652297 -17.06  0.002113496    2.956    0.662
        23  -9.0909    232.8909    247.0842   5.3718321046e+01  -5.5943812121e+00    0.2782733    0.1422487 -38.73  0.001723203    2.647    0.622
        24  -7.5220     86.5029    250.4763   8.0667055521e+01   1.3508758145e+01    0.1148752   0.08351891  47.96 0.0001939922    1.034    0.033
        25  -8.2198     67.4357    244.2605   8.3836348987e+01   1.6903728302e+01      0.14285   0.09358918  78.89 0.0005264066    1.613    0.380
        26  -8.4995      9.8129    243.6616   9.4457640968e+01   2.3254616579e+01    0.2334794    0.0664684  70.26   0.00108749    3.501    0.714
        27  -8.2899    201.9417    242.9771   5.8336050081e+01  -1.2290592595e+00    0.1484089    0.1271001  44.03 0.0005933625    1.632    0.387
        28  -8.8863     77.6844    242.7036   8.1753731416e+01   1.5887151040e+01    0.2153265    0.1123526  73.43 0.0009718548    2.469    0.595
        29  -8.8617     33.5668    242.6093   9.0118077469e+01   2.1057863385e+01    0.2423611   0.08997989  56.10  0.001332265    2.097    0.523
        30  -8.8955    194.4027    240.2720   5.9288254869e+01   1.0353146866e-01    0.2386586    0.1884764 -52.11  0.001332934    2.033    0.508
        31  -9.1419    183.1831    240.1549   6.1287372472e+01   1.6618686490e+00    0.3711795    0.2343331  58.71  0.001964504    3.020    0.669
        32  -9.1951    160.0475    240.0849   6.5559403047e+01   4.9317504817e+00    0.2520833    0.2027144  83.97  0.001395797    2.084    0.520
        33  -7.8778    153.4776    241.9788   6.7032286956e+01   5.6057624905e+00    0.1351798     0.100442  81.93 0.0008085643    2.419    0.587
        34  -7.9340     88.3310    242.1806   7.9646693238e+01   1.4601613103e+01    0.1417256   0.09770915  85.79 0.0005885133    1.731    0.422
        35  -9.2655    241.6269    238.0167   5.0994211893e+01  -5.7295412468e+00    0.4254892    0.1834983  -9.66  0.001933972    3.829    0.739
        36  -9.1849    230.9571    236.9776   5.2562892267e+01  -4.3132093520e+00    0.2224431    0.2070444  65.95  0.001577454    2.242    0.554
        37  -8.6074    209.1688    238.1944   5.6408590231e+01  -1.6379737406e+00     0.137905    0.1205443  22.18 0.0004995509    1.372    0.271
        38  -8.1187    135.1775    238.2590   7.0103714482e+01   8.7519914376e+00    0.1573875    0.1168082  52.60 0.0005684755    1.367    0.268
        39  -8.9073    216.9869    235.5103   5.4678961421e+01  -2.3632873591e+00     0.171517    0.1566913 -28.70 0.0009442643    1.656    0.396
        40  -9.2566    213.6487    231.6227   5.4675502442e+01  -1.4752148083e+00    0.2308764    0.2000192  51.70   0.00114007    1.865    0.464
        41  -9.0448    203.3238    234.7652   5.6933635933e+01  -4.5115667374e-01    0.2332871    0.2032802 -70.91  0.001209585    2.236    0.553
        42  -9.6895    175.7471    233.2504   6.1719271724e+01   3.6068647091e+00    0.3757083     0.213642 -53.01  0.002092288    2.698    0.629
        43  -7.6825    170.4370    235.5188   6.3017647543e+01   4.0652344542e+00    0.1177292   0.09259502  28.63 0.0002913054    1.050    0.048
        44  -8.7220    108.9835    234.3181   7.4843993005e+01   1.3086529225e+01    0.3635816    0.1648841  55.16  0.001307817    2.524    0.604
        45  -8.0336    122.9561    233.9796   7.2024490272e+01   1.1160122218e+01    0.1843864    0.1215258  58.62 0.0006843263    1.667    0.400
        46  -8.1060     99.8074    234.2163   7.6668120478e+01   1.4375689892e+01    0.2046334    0.0959554  60.42 0.0009482203    2.789    0.641
        47  -8.9396     68.3686    232.1742   8.2785587634e+01   1.8860007534e+01    0.4010777    0.1606762  61.01  0.001841666    2.899    0.655
        48  -8.5667    194.4815    232.6270   5.8198621232e+01   1.0294361265e+00    0.1952383    0.1712852  29.76 0.0007327655    1.332    0.249
        49  -8.2225    144.0140    232.3425   6.7675912706e+01   8.3562121644e+00    0.3091881    0.1329222  53.92  0.001230751    3.745    0.733
        50  -8.1727    139.9688    229.9334   6.8175926301e+01   9.3149333290e+00    0.2334293    0.1257978  52.22 0.0009035108    2.058    0.514
        51  -8.3757    132.8579    232.7313   6.9919202610e+01   9.9252700449e+00    0.2116438    0.1450962  72.35  0.001216874    2.175    0.540
        52  -8.0199     78.2818    233.6526   8.0923093403e+01   1.7342661936e+01    0.1211707   0.06995496  60.53 0.0007014213    1.644    0.392
        53  -9.4414    235.9254    230.7535   5.0813961706e+01  -4.2710416187e+00     0.339378    0.2345325   2.23  0.001539606    1.171    0.146
        54  -9.3810    186.3130    230.3934   5.9364250944e+01   2.4687028728e+00    0.2841103     0.236553 -82.74  0.001403692    2.321    0.569
        55  -7.9484     92.1513    231.1617   7.7919830314e+01   1.5935534822e+01    0.1680821    0.1132466  58.60 0.0005618109    1.375    0.273
        56  -8.9110      2.0414    230.6812   9.5467453526e+01   2.6239767980e+01    0.2641062   0.06314462  55.32  0.001302806    2.718    0.632
        57  -8.9633    151.4675    228.9699   6.5790279877e+01   7.7608767442e+00    0.2614514    0.1983332  80.88  0.001571383    2.170    0.539
        58  -9.4674    148.7926    224.4878   6.5732490852e+01   8.8354483748e+00    0.2912361     0.219706  68.16  0.001337066    1.857    0.461
        59  -8.0318    229.5148    228.5106   5.1522281250e+01  -3.2099069691e+00    0.1115905   0.08514601  12.00 -1.058281e-05    1.073    0.068
        60  -8.5882    162.2945    227.6000   6.3503281423e+01   6.3558631601e+00      0.28654    0.1713706  54.96  0.001520029    2.259    0.557
        61  -8.7359    127.8931    227.0407   7.0242026753e+01   1.1548530807e+01    0.2461825    0.1695356  66.50  0.001441407    1.868    0.465
        62  -8.1186    119.9949    227.9483   7.1944965669e+01   1.2556232309e+01    0.1931759    0.1270862  61.19  0.001124152    1.735    0.424
        63  -7.7958    222.8443    226.8175   5.2378680721e+01  -2.1454362134e+00     0.138213    0.1171303  16.29 0.0004425394    1.292    0.226
        64  -8.5065    206.1088    225.7902   5.5116363348e+01   2.5424579248e-01    0.1733795    0.1499818 -24.87  0.000667568    1.440    0.305
        65  -8.4938    200.1504    225.3982   5.6118878144e+01   1.1401342567e+00    0.2442578     0.151576 -26.92  0.001213854    1.747    0.428
        66  -8.7179     94.3262    224.1441   7.6804420391e+01   1.6856662176e+01     0.343674     0.148632  58.88  0.001354826    3.005    0.667
        67  -8.7646    216.3124    223.0125   5.2907032244e+01  -8.1820218908e-01    0.1934221    0.1689976 -36.91 0.0007573471    1.661    0.398
        68  -8.7975    180.3436    224.1052   5.9569434814e+01   4.1754881940e+00    0.2190935    0.1459861  38.34 0.0005912608    1.338    0.253
        69  -8.7541    104.8671    223.6403   7.4570906454e+01   1.5462006104e+01    0.2718692    0.1824236  80.04   0.00157366    1.949    0.487
        70  -7.8246     38.3043    224.6428   8.8286990215e+01   2.3757971032e+01    0.1246822   0.06089859  60.29 0.0007039765    1.719    0.418
        71  -8.4213    172.9683    222.6775   6.0762846656e+01   5.4697711384e+00    0.1991342    0.1616907 -66.99 0.0008079372    1.945    0.486
        72  -7.6590    113.5757    223.5335   7.2760195860e+01   1.4225504359e+01    0.1236082    0.0987427  46.16 0.0001011004    1.053    0.050
        73  -7.8561     59.6729    223.3610   8.3887627614e+01   2.1524929070e+01    0.1299774   0.06650098  60.09 0.0007041659    1.790    0.441
        74  -9.6323    239.0828    220.8164   4.8749224268e+01  -3.5872947316e+00    0.3104528    0.1549059 -21.28  0.001423972    1.996    0.499
        75  -9.2382    225.5442    221.6628   5.1120701130e+01  -1.9088715242e+00    0.2157073     0.182928  32.97  0.001098018    1.511    0.338
        76  -9.3362    192.5314    221.2715   5.6881706870e+01   2.7695489594e+00    0.2644467    0.2242091  59.01  0.001113923    1.776    0.437
        77  -9.0681    159.7476    220.7296   6.3054734599e+01   7.7484768207e+00    0.3882037    0.1888323  52.85  0.001725569    2.891    0.654
        78  -8.6954     82.7614    220.4417   7.8858469173e+01   1.9101393179e+01    0.2331735    0.1206655  64.06  0.001171649    2.226    0.551
        79  -7.7129     27.5219    220.9696   9.0235406418e+01   2.5590455708e+01    0.1428717   0.07782226 -54.08  0.000810226    2.613    0.617
        80  -8.0311    202.6391    219.8195   5.4821435793e+01   1.4961738434e+00    0.1401088     0.108135 -37.53 0.0004117612    1.621    0.383
        81  -9.1680    120.4542    219.0809   7.0818749702e+01   1.3970171430e+01    0.4317106    0.2054727  58.17  0.001842577    3.039    0.671
        82  -8.4627    210.0681    219.0446   5.3377753024e+01   5.3662959480e-01    0.1760137    0.1419353  12.51 0.0004817961    1.068    0.063
        83  -9.2179    248.2262    217.3301   4.6727673027e+01  -4.3642165039e+00     0.294552    0.2410106  73.56   0.00166691    3.944    0.746
        84  -9.2399    132.8837    215.8463   6.7831015366e+01   1.2636950045e+01    0.4505947    0.2705643  71.21  0.002021056    3.157    0.683
        85  -8.8915     51.7401    217.3071   8.5088980935e+01   2.3613536722e+01    0.2644406    0.1314742  79.03 0.0009605437    2.279    0.561
        86  -8.6687    169.3222    215.9430   6.0487608042e+01   6.9995550759e+00    0.2510975    0.2022178 -86.45 0.0009680593    2.145    0.534
        87  -8.5901    143.0606    216.4698   6.5817955724e+01   1.0969964790e+01    0.2395098    0.1791928  70.34   0.00118622    1.851    0.460
        88  -8.4279     61.8340    216.7611   8.2937558480e+01   2.2496987942e+01    0.2322204    0.1193811  69.01  0.001011753    2.114    0.527
        89  -8.6844    232.2569    214.2069   4.8801970771e+01  -1.9378012192e+00     0.216742    0.1720435 -34.86  0.001177732    1.671    0.402
        90  -8.0803    154.4630    214.9975   6.3299832365e+01   9.4403523536e+00    0.1602734     0.126243 -49.87  0.001009435    1.571    0.363
        91  -7.8685     41.2577    215.2831   8.7129667977e+01   2.5204331578e+01    0.1745461    0.0809869  83.97 0.0008888889    2.378    0.579
        92  -8.4737    185.3940    213.9186   5.7088748991e+01   4.8372428650e+00    0.1960179    0.1832999  70.42 0.0008950855    1.570    0.363
        93  -8.6637     92.7880    213.6803   7.6064237086e+01   1.8964694057e+01    0.2248364    0.1583515  81.74 0.0008759751    1.643    0.391
        94  -9.1553     72.2425    211.0686   8.0236695759e+01   2.2261009846e+01    0.4911562    0.1965252  63.00  0.001795204    3.613    0.723
        95  -9.3569    213.9291    212.0143   5.1574874928e+01   8.7446258332e-01    0.3039834    0.2452218  49.49  0.001697883    1.773    0.436
        96  -8.0303    224.7339    211.6003   4.9639079365e+01  -5.9851973760e-01    0.1915913   0.09320432 -32.82 0.0009821733    2.111    0.526
        97  -9.0848    204.2807    210.9005   5.3114021921e+01   2.4220441452e+00    0.2291197    0.1973958 -64.90 0.0007843955    2.008    0.502
        98  -9.4635    175.4613    209.9610   5.8384359435e+01   6.9388914648e+00    0.3720045    0.2481125  63.66  0.001810969    2.699    0.629
        99  -8.5511    161.5154    212.1930   6.1477902415e+01   8.7790473070e+00    0.1954955    0.1517641  48.89 0.0008548538    1.376    0.273
       100  -8.0398    106.7210    212.6104   7.2956315070e+01   1.7148473087e+01    0.1831691   0.09517428  44.78 0.0009355461    1.607    0.378
       101  -8.6224    148.0762    210.4927   6.3958822331e+01   1.1161370952e+01    0.2446252    0.1868385  73.44  0.001353698    1.888    0.470
       102  -8.8532    116.1688    210.0956   7.0627155400e+01   1.6188220373e+01     0.289623    0.1897808  70.60 0.0009251286    2.029    0.507
       103  -9.3132    236.5585    208.0949   4.7081706240e+01  -1.7974572159e+00    0.3188999    0.2199613 -41.45  0.001511332    2.007    0.502
       104  -8.1744    192.2172    210.2241   5.5224167110e+01   4.3202050815e+00    0.1508036    0.1371109  37.39   0.00048468    1.354    0.262
       105  -8.0555     32.4655    210.0011   8.8639165011e+01   2.7190574438e+01      0.17023   0.07028149  70.64 0.0006342469    2.530    0.605
       106  -9.1470      6.5413    208.8628   9.3896229182e+01   2.9930939571e+01    0.3293661   0.09718049  73.47  0.001399291    3.545    0.718
       107  -8.3703     85.4361    208.8665   7.7155984977e+01   2.0903147452e+01    0.2403393    0.1519128  74.52 0.0009477111    1.830    0.454
       108  -9.4106    246.4438    207.0009   4.5303220355e+01  -2.9837863275e+00    0.2717655    0.1743447 -23.92 0.0006892492    1.451    0.311
       109  -9.2619    250.2002    201.5723   4.3788719001e+01  -2.8524085399e+00    0.3468141    0.1423788 -29.14  0.001495621    2.266    0.559
       110  -8.3263    139.0083    207.9591   6.5486497426e+01   1.3015792017e+01    0.1979922    0.1436821  63.15 0.0008919942    1.701    0.412
       111  -9.0953     99.4929    206.0542   7.3765826214e+01   1.9429394852e+01    0.3299618    0.1930871  71.50  0.001334608    2.342    0.573
       112  -7.6079     12.2997    206.6907   9.2644436740e+01   2.9838991566e+01    0.1209246   0.05914097  59.88  0.000243783    1.599    0.375
       113  -8.9960    183.7635    203.7638   5.5789558246e+01   6.5581402433e+00    0.2713841    0.2150008  60.51  0.001231913    1.811    0.448
       114  -8.0937    109.2132    205.1627   7.1524032781e+01   1.8146563264e+01    0.1775916    0.1334213  62.24 0.0006744166    1.360    0.265
       115  -7.6061     92.6350    205.2914   7.5191250885e+01   2.0572288229e+01     0.136779   0.08081032  58.46 0.0006228613    1.706    0.414
       116  -7.4971     76.2934    205.3542   7.8812480372e+01   2.2837377714e+01    0.1134732   0.09666352 -22.39 0.0007030961    1.685    0.407
       117  -8.3861     56.4041    205.2614   8.3183459758e+01   2.5410017564e+01    0.2109218    0.1128791  55.38 0.0007013843    1.613    0.380
       118  -9.2747    194.7603    203.2758   5.3617848682e+01   4.9098597313e+00    0.2858551     0.256321  45.18  0.001307266    1.422    0.297
       119  -9.3761    192.4432    197.3105   5.3053225345e+01   6.1370777782e+00    0.3421413    0.2854244 -61.90  0.001468843    1.838    0.456
       120  -9.5975    163.7594    202.8405   5.9604055000e+01   9.8982013562e+00    0.4190715    0.2417288  52.84 0.0009397788    2.140    0.533
       121  -8.4284    131.2126    203.7094   6.6549524711e+01   1.4990810154e+01    0.2570181    0.1850676  71.04  0.001025144    1.848    0.459
       122  -8.0171     24.6940    204.3992   8.9958133393e+01   2.9106746525e+01    0.1314416   0.06084536  61.93 0.0006999199    1.839    0.456
       123  -9.1429    243.3124    200.6657   4.4723821127e+01  -1.8295411492e+00    0.2863042    0.1649997 -29.59 0.0009824119    1.669    0.401
       124  -8.6163    211.0595    201.7465   5.0377234760e+01   2.6368637038e+00    0.2122466    0.1856122 -63.96 0.0009999423    1.943    0.485
       125  -8.6527    140.6515    201.1620   6.4162090724e+01   1.3925118246e+01    0.3035393    0.2139122  68.11  0.001606507    1.973    0.493
       126  -8.4042     48.5011    201.9985   8.4662152472e+01   2.7012536059e+01    0.1785743   0.08107826  73.56 0.0008106863    2.606    0.616
       127  -7.8014     41.3082    202.6255   8.6283357462e+01   2.7706650094e+01    0.1333772   0.06780837  62.26 0.0007030977    1.775    0.437
       128  -8.3864     79.8375    200.8085   7.7562200936e+01   2.3256601876e+01    0.2368507    0.1376576  71.83 0.0009890138    2.035    0.509
       129  -9.4146    149.5114    198.4761   6.1876124039e+01   1.2945147934e+01    0.3766137    0.2683371  82.15  0.001395053    2.471    0.595
       130  -9.5751    122.8751    197.4166   6.7489221104e+01   1.7465846433e+01    0.4447711    0.2793092  84.66  0.001995266    2.872    0.652
       131  -9.1668    113.0633    198.4010   6.9805908046e+01   1.8829541004e+01    0.4440406    0.2318397  62.51   0.00186785    2.827    0.646
       132  -9.1804    237.0985    198.1450   4.5294798341e+01  -6.7208785751e-01    0.2666861    0.1449468 -33.29  0.001120536    1.848    0.459
       133  -8.1898    177.1335    198.7065   5.6257012995e+01   8.3857462834e+00    0.1898818    0.1750283 -48.76 0.0005378603    1.390    0.280
       134  -8.9270     88.7909    198.3991   7.5276337648e+01   2.2476382243e+01    0.3186867     0.186481  68.07  0.001310731    2.044    0.511
       135  -8.3647    202.4777    197.6463   5.1233734360e+01   4.5109453482e+00    0.2033893    0.1739596 -78.46 0.0009686763    2.115    0.527
       136  -8.9576     61.2358    196.7927   8.1377941382e+01   2.6533802054e+01    0.4019074    0.1793203  67.42  0.001711794    2.876    0.652
       137  -8.9113     12.8392    197.0273   9.2103762596e+01   3.1737273696e+01    0.2850354    0.0958432  71.67  0.001241567    3.074    0.675
       138  -9.3771    245.8156    193.3336   4.3044822314e+01  -1.2919000203e+00    0.3029267    0.2204333 -49.59  0.001714432    2.352    0.575
       139  -8.7356    215.8985    195.3186   4.8408952769e+01   2.7746195134e+00    0.2297332    0.1669906 -44.98 0.0009692514    1.838    0.456
       140  -7.7090     36.3056    196.6169   8.6970829856e+01   2.9491155196e+01    0.1346052   0.06774183  62.79 0.0007021815    1.791    0.442
       141  -8.6320    224.7905    194.1713   4.6660800031e+01   1.5987248753e+00    0.2409393    0.1581422 -44.01   0.00139339    2.016    0.504
       142  -7.6034    209.3105    195.6558   4.9643739036e+01   3.7330395667e+00    0.1081839    0.1015209  77.03 0.0007045408    1.702    0.412
       143  -8.9140    185.2419    194.8591   5.4019935826e+01   7.6625604921e+00    0.2200514    0.1966534  38.45 0.0006897667    1.260    0.206
       144  -8.8396    160.7630    194.1206   5.8825365072e+01   1.1821915059e+01    0.2588947      0.20704 -83.21  0.001101913    1.934    0.483
       145  -7.9806    132.8175    195.5831   6.5033181000e+01   1.6196995205e+01    0.1849036    0.1083358  46.41 0.0003902903    1.570    0.363
       146  -8.7873     44.3524    193.6981   8.4952889513e+01   2.9208613467e+01    0.3792886    0.1640175  64.08  0.001745561    2.439    0.590
       147  -8.0980    230.9769    194.2561   4.5627763383e+01   6.8413947198e-01       0.1673    0.1323531   6.10 0.0004855466    1.016    0.015
       148  -8.6895     76.9621    193.8454   7.7480098381e+01   2.5067256888e+01    0.2071354    0.1689124  82.00 0.0005729278    1.208    0.172
       149  -8.2232    199.0506    191.4663   5.0794931638e+01   5.9412842014e+00    0.1804332    0.1752249 -17.75 0.0007218157    1.349    0.259
       150  -8.3959    172.1784    191.6176   5.6063371978e+01   1.0328752149e+01    0.2006352    0.1800437 -51.11 0.0007005669    1.386    0.279
       151  -8.0090    179.3240    191.2545   5.4566143228e+01   9.1962575419e+00    0.1645412    0.1195778 -47.74 0.0004565405    1.674    0.402
       152  -9.0444    139.4884    190.2286   6.2751513649e+01   1.6072525425e+01    0.3199959    0.2305168  71.32  0.001115986    1.943    0.485
       153 -10.0924     92.0268    188.1087   7.3297405118e+01   2.4092713122e+01    0.8934303    0.4326986  53.14  0.002731389    2.096    0.523
       154  -8.9364    216.7970    187.9265   4.6935189013e+01   3.6479244708e+00    0.2602881    0.2370156  84.86  0.001172648    1.875    0.467
       155  -9.2591    156.0407    187.4555   5.8715946186e+01   1.3763519320e+01    0.3062121     0.223697 -61.68 0.0009699539    1.814    0.449
       156  -8.5943    148.2999    188.8654   6.0611568499e+01   1.4832306431e+01    0.2364095    0.1971611  77.05 0.0009546767    1.564    0.361
       157  -8.9401    129.3148    188.5361   6.4751142490e+01   1.8088456184e+01    0.2788022    0.1969682  68.02 0.0008072477    1.815    0.449
       158  -9.5192    120.7005    186.1956   6.6354682958e+01   1.9966278238e+01    0.4543258    0.2685573 -77.20   0.00199163    2.732    0.634
       159  -8.2604    237.2753    188.1153   4.3488311072e+01   5.5770172281e-01    0.1680654    0.1303145 -16.43 0.0008121197    1.179    0.152
       160  -8.9552    191.4082    187.0497   5.1462016720e+01   7.8488412872e+00    0.2776644    0.2171542 -67.69 0.0009871883    2.151    0.535
       161  -9.0895     54.8382    186.7185   8.1935416807e+01   2.9455516550e+01    0.4321174    0.1802809  66.42  0.001597216    3.184    0.686
       162  -8.7425     34.4191    187.9343   8.6793220193e+01   3.1525900487e+01     0.268972    0.1269398  69.17  0.001325959    2.120    0.528
       163  -8.4008    230.2729    186.6378   4.4381142932e+01   1.7753753145e+00    0.2212617    0.1493179 -27.57   0.00135543    1.418    0.295
       164  -8.6923    164.8633    186.6131   5.6712450660e+01   1.2399886617e+01    0.2271297    0.1985582 -57.35 0.0007428761    1.422    0.297
       165  -9.0970    109.7112    186.0019   6.8870046715e+01   2.1788549790e+01    0.3569308    0.2310172  71.41  0.001185089    2.040    0.510
       166  -9.1488    249.1299    185.2267   4.1071171802e+01  -7.6181701916e-01    0.2465974    0.1441157 -31.98  0.001125693    1.642    0.391
       167  -8.8355    210.0346    183.9909   4.7427156765e+01   5.2686623178e+00    0.2263628    0.1629316 -27.49 0.0005132073    1.373    0.272
       168  -8.8738    202.8877    184.3089   4.8795480377e+01   6.3768572971e+00    0.2455592    0.1724524 -42.31 0.0007959292    1.659    0.397
       169  -8.5320    183.1405    184.6419   5.2646453704e+01   9.6105243584e+00    0.2387878    0.2056499 -74.41 0.0009334136    1.742    0.426
       170  -9.0065     66.6453    184.3593   7.8894434629e+01   2.8462845742e+01    0.3696293    0.1775904  62.29 0.0008645116    2.378    0.579
       171  -7.9705     11.9800    184.9800   9.1711048150e+01   3.4334984573e+01    0.2636421   0.06243033  58.67  0.000954526    4.096    0.756
       172  -8.6128    224.1363    183.3686   4.4825245725e+01   3.1418795213e+00    0.2173756    0.1609492 -30.38 0.0005946912    1.382    0.276
       173  -7.7762    197.2748    183.4583   4.9692539059e+01   7.4267614328e+00    0.1950798    0.1596067 -57.99 0.0007424156    1.772    0.436
       174  -8.9565    174.2695    183.3812   5.4205306783e+01   1.1330340341e+01    0.2557334      0.22172 -64.03  0.000607625    1.545    0.353
       175  -8.1327    242.6836    183.3127   4.1740025704e+01   3.8897623974e-01    0.1018632    0.0955124 -42.34 0.0007034691    1.642    0.391
       176  -8.9205     44.8244    182.5488   8.3938562796e+01   3.1546411969e+01    0.3349334    0.1382587  53.89  0.001122236    2.236    0.553
       177  -8.0577      1.9231    183.5061   9.3880339019e+01   3.5492997344e+01     0.159115   0.09711295  38.03  0.001014796    1.548    0.354
       178  -7.9678    235.3595    181.2204   4.2541804829e+01   1.7308189111e+00    0.1614217    0.1023608 -35.88 0.0007026325    1.651    0.394
       179  -9.1425    147.4370    180.3560   5.9378804758e+01   1.6530727843e+01    0.2777287    0.2367674  83.35 0.0008638212    1.508    0.337
       180  -9.6566     25.7816    178.9914   8.8184839755e+01   3.4350437974e+01    0.5722796    0.1936466  71.25  0.002085657    3.995    0.750
       181  -8.5691    137.8734    179.2234   6.1326128125e+01   1.8411343785e+01    0.3029382    0.1980932  63.22  0.001063841    2.035    0.509
       182  -7.8237    240.5069    179.5258   4.1390277768e+01   1.1905292016e+00    0.1220675   0.09804904  -1.33 3.366248e-05    1.016    0.016
       183  -8.6001    205.2515    177.8221   4.7155524583e+01   6.9558303987e+00     0.262479    0.1477757 -39.95  0.001002716    1.894    0.472
       184  -9.2742    191.4995    178.2679   4.9841421099e+01   9.2040467771e+00    0.2628633     0.234283  57.80 0.0005923042    1.455    0.313
       185  -8.1995    169.4783    178.4883   5.4313448503e+01   1.2992466867e+01    0.2115412    0.1313429 -55.17 0.0008074111    2.136    0.532
       186  -9.0858    248.8978    177.1188   3.9616400875e+01   2.8092276241e-01    0.2222352    0.2080335  21.71 0.0009787257    1.465    0.317
       187  -8.5579    247.2933    173.6685   3.9218994615e+01   9.5223746777e-01    0.1881528    0.1274536 -24.37 0.0004477609    1.302    0.232
       188  -8.9385     36.0044    176.6240   8.5566648189e+01   3.3829099918e+01    0.4375791    0.1708349  71.95  0.001698493    3.372    0.703
       189  -8.5837    231.1192    176.5419   4.2369570729e+01   2.9973085691e+00    0.2529841    0.1462835 -35.41 0.0008546767    1.723    0.420
       190  -8.5513    217.3983    177.0233   4.4813804972e+01   5.0884717898e+00    0.1926313     0.180692  59.73 0.0007954249    1.543    0.352
       191  -9.1804    182.8164    175.9774   5.1124344999e+01   1.1075872034e+01    0.2720638    0.2395501  45.42 0.0007423759    1.270    0.212
       192  -8.3956    128.9016    177.0727   6.3025929499e+01   2.0384398921e+01    0.2120301    0.1785474  69.83 0.0006428528    1.326    0.246
       193  -8.7411     89.1850    176.7305   7.2500095877e+01   2.6926424125e+01     0.287734    0.1882036  65.99 0.0008645467    1.671    0.401
       194  -9.3356     58.3218    174.9787   7.9933165421e+01   3.1601065235e+01    0.4841686    0.2000068  66.98  0.001715772    3.782    0.736
       195  -9.1280     55.9830    170.7475   8.0070215133e+01   3.2848047438e+01    0.6940489    0.2814082  68.03  0.002343426    4.165    0.760
       196  -8.4995    211.0528    175.8108   4.5716124194e+01   6.2966301445e+00    0.1835345    0.1728317  35.15   0.00120526    1.338    0.253
       197  -9.2052    158.7902    174.8583   5.5924117836e+01   1.5530847380e+01     0.333237     0.251092  78.83  0.001031458    2.094    0.523
       198  -9.3408    104.0168    174.3218   6.8523262597e+01   2.5123242814e+01     0.486452    0.2413966  59.49  0.001777493    2.744    0.636
       199  -8.7766     12.7815    176.0112   9.1056169013e+01   3.6206319898e+01    0.2376972    0.1272656  72.66  0.001337915    1.619    0.382
       200 -10.4479     75.9440    170.8076   7.5022957444e+01   3.0173368958e+01     1.095297    0.4763352 -79.87  0.003859208    3.496    0.714
       201  -9.3352     74.9497    159.3053   7.3740972867e+01   3.2939722526e+01    0.5864115    0.3059796  17.16  0.002237272    3.257    0.693
       202  -8.4220    224.4804    174.0305   4.3014942917e+01   4.3814432600e+00    0.1829386    0.1132894 -31.70 0.0005825965    1.550    0.355
       203  -8.5111    250.5301    172.4619   3.8491148719e+01   6.3644595354e-01    0.2164152    0.1015804 -30.90 0.0005293784    1.899    0.473
       204  -9.4131    175.5197    172.1001   5.1876127892e+01   1.3020767106e+01    0.3085954    0.2344987 -42.16 0.0009774691    1.435    0.303
       205  -7.9800    143.0289    172.7750   5.9044566547e+01   1.8742355601e+01    0.2250078     0.150158  62.50 0.0007156773    1.962    0.490
       206  -8.3197    134.7112    171.5594   6.0741127311e+01   2.0461988065e+01     0.218557    0.1735728  87.07 0.0006901159    1.648    0.393
       207  -9.3856    121.3445    170.3429   6.3691342924e+01   2.3053858453e+01    0.3424428     0.249763 -88.93 0.0009327031    1.847    0.459
       208  -9.1839     45.3055    171.0210   8.2786565595e+01   3.4061640442e+01    0.3574576    0.1963408  75.24   0.00174958    1.917    0.478
       209  -8.3699    237.0389    169.3285   4.0019820916e+01   3.0635179660e+00    0.2010891    0.1622661 -41.63 0.0007585057    1.557    0.358
       210  -9.1272    230.4966    168.8056   4.0993147712e+01   4.1580479504e+00    0.3667828    0.2116011 -40.39   0.00193653    1.880    0.468
       211  -8.4994    205.8242    170.0968   4.5572026261e+01   8.0315867185e+00    0.1864462    0.1754366 -30.40 0.0006029163    1.289    0.224
       212  -8.3011    198.6389    170.1046   4.6917185900e+01   9.2658949609e+00     0.191364      0.16065 -45.81 0.0006701173    1.440    0.306
       213  -8.5073    149.8971    169.4290   5.6889632997e+01   1.8144645917e+01     0.244332    0.1988839 -77.87 0.0008660833    1.633    0.388
       214  -7.6734     68.3463    170.6644   7.6929642966e+01   3.1260070107e+01    0.1476423   0.08751432  63.93 0.0007048768    1.773    0.436
       215  -8.2232    244.4121    169.2658   3.8832177419e+01   1.9505832829e+00    0.1718207    0.1555422  57.22 0.0005888096    1.697    0.411
       216  -9.1812    166.9492    168.4011   5.2967379423e+01   1.5221576214e+01    0.3362595    0.2490751  62.01  0.001216191    1.759    0.432
       217  -8.0614     88.9413    168.9396   7.1480311095e+01   2.8670886900e+01    0.2258658    0.1483047  66.59 0.0007151518    1.694    0.410
       218  -8.6394    218.8285    168.1646   4.2859299321e+01   6.1376807103e+00    0.1817566    0.1692354 -14.98 0.0006465086    1.244    0.196
       219  -8.7705    111.6905    167.3077   6.5537115448e+01   2.5347348597e+01    0.2976199    0.2089745  69.44 0.0009882419    1.720    0.419
       220  -9.0088    191.8685    166.3296   4.7479663901e+01   1.1064544224e+01    0.2922011    0.1863511 -42.35 0.0007666445    1.688    0.407
       221  -8.7068    185.0542    166.4702   4.8852838794e+01   1.2264382648e+01    0.2405423     0.187475 -52.66 0.0006616369    1.590    0.371
       222  -9.5476    137.1670    164.4907   5.8900772915e+01   2.1432819393e+01    0.5901874    0.2597507  54.09  0.002065729    3.132    0.681
       223 -10.0073     94.9816    162.7203   6.9011088053e+01   2.9111338595e+01    0.8151886    0.4088004  70.58  0.002587083    4.385    0.772
       224  -8.9389     20.5877    165.9885   8.8553325875e+01   3.7753278218e+01    0.3089156    0.1283373  51.64  0.001267632    2.109    0.526
       225  -8.4318    234.1386    164.7420   3.9599450387e+01   4.1457864020e+00    0.2059448    0.1541048 -32.82 0.0006749147    1.354    0.261
       226  -9.8351     33.4988    163.0804   8.5061914013e+01   3.7168495362e+01    0.5758284    0.1775591  50.96  0.002251384    3.075    0.675
       227  -8.6681    212.8838    163.5271   4.2994381955e+01   7.8279307045e+00    0.2368189    0.1758587 -36.40 0.0005992491    1.396    0.284
       228  -8.5586    159.7553    164.1280   5.3699953802e+01   1.7330306193e+01    0.2074779    0.1913088  79.64 0.0007576325    1.309    0.236
       229  -9.1478     60.6463    160.7101   7.7717241156e+01   3.4567464103e+01    0.3684676    0.3269595 -83.86  0.002022955    1.112    0.101
       230  -9.0252    246.1499    162.6661   3.7284277162e+01   2.5612670078e+00    0.2475373    0.1484409 -38.39 0.0008687461    1.724    0.420
       231 -10.0310    249.8277    157.3186   3.5672443405e+01   2.7116442131e+00    0.3326557    0.2570822 -44.38  0.001253748    1.634    0.388
       232  -9.1654    243.0055    154.9340   3.6240335033e+01   4.0942521345e+00    0.1772311    0.1452318 -49.10 0.0004940585    1.638    0.390
       233  -8.5090    204.9621    162.5159   4.4232880090e+01   9.3573894063e+00     0.241406    0.1756269 -47.39  0.000639596    1.655    0.396
       234  -9.5536      3.1095    162.0887   9.2629063160e+01   4.0088436193e+01    0.4090137    0.1670259  54.00  0.002081141    2.088    0.521
       235  -8.7695    151.6766    160.8435   5.4862188740e+01   1.9464661895e+01    0.3105299     0.229065 -88.06  0.001332902    2.181    0.541
       236  -9.1097    177.4976    160.4361   4.9188307370e+01   1.4691117387e+01    0.2984347    0.2562422 -78.78  0.001109208    1.626    0.385
       237  -9.0580    241.8755    160.1281   3.7451078472e+01   3.5620803592e+00    0.1765727    0.1254968  -3.53 0.0006641771    1.329    0.248
       238  -8.7448    227.3102    158.8736   3.9562378833e+01   6.0850127416e+00    0.2684485    0.1816953 -48.52  0.000999002    1.925    0.481
       239  -8.3201    236.9839    158.6980   3.7942654240e+01   4.5327784610e+00     0.172167    0.1463614   0.97 0.0004784669    1.059    0.056
       240  -8.3316    127.9431    158.6171   6.0019882326e+01   2.4325325362e+01    0.2684125    0.1938907 -78.71  0.000747583    1.862    0.463
       241  -9.5488    105.7964    157.7281   6.5412015486e+01   2.8438112750e+01    0.4218277    0.2790857  73.20   0.00109239    2.010    0.503
       242  -8.6970    196.4844    157.7949   4.4870053406e+01   1.1633621729e+01    0.2349951    0.2163844  88.88 0.0007826491    1.496    0.332
       243  -8.2999    188.1126    157.6190   4.6465651700e+01   1.3203375752e+01    0.2238112    0.1843366 -43.99 0.0004828395    1.347    0.258
       244  -9.1112    167.7610    157.2505   5.0595347725e+01   1.7100227509e+01    0.3239186    0.2536996  82.42  0.001346329    1.947    0.486
       245  -8.6359    218.0218    156.5056   4.0668291690e+01   8.0078431888e+00     0.237738      0.16899 -44.14 0.0007257312    1.608    0.378
       246  -9.1885    157.8236    155.9303   5.2504327315e+01   1.9246062949e+01    0.3576393    0.2051571 -56.28  0.001255714    2.229    0.551
       247  -9.4076     49.8452    155.1965   7.9953828486e+01   3.7208125360e+01    0.4780203    0.1922871  58.20  0.001631563    2.999    0.667
       248  -9.2736    119.5922    155.0862   6.1430853254e+01   2.6595600191e+01    0.3768091    0.2811311  85.06  0.001400772    1.751    0.429
       249  -9.2945     81.8160    154.6474   7.1224207938e+01   3.3009895683e+01    0.4968445    0.2663763  64.00  0.001857802    2.446    0.591
       250  -8.1454    204.6779    155.2153   4.2796993903e+01   1.0565468365e+01    0.1970354    0.1604067 -43.02 0.0006364963    1.381    0.276
       251  -8.6926    144.4482    154.6234   5.5300392863e+01   2.2061492895e+01    0.2743974     0.239797  88.16 0.0009544765    1.381    0.276
       252  -9.1376     68.1716    153.7385   7.4786848791e+01   3.5199215124e+01    0.4412757    0.2022727  58.54  0.001336198    2.701    0.630
       253  -7.9350    232.7959    153.7906   3.7628526336e+01   5.9077256809e+00    0.1620363    0.1459971 -38.03 0.0007004412    1.351    0.260
       254  -9.5315    132.7179    152.7113   5.7725187404e+01   2.4679305286e+01    0.4374943    0.3052922  69.26   0.00115882    1.927    0.481
       255  -9.0514    133.5628    148.2311   5.6623872973e+01   2.5461848296e+01    0.3771267    0.2412118 -41.99   0.00173901    1.677    0.404
       256  -9.5464    237.3199    149.7114   3.6070345796e+01   5.7417107837e+00    0.2863384    0.1756761  28.71  0.001545352    1.726    0.421
       257  -8.1594    151.8326    152.7973   5.3221481138e+01   2.1007763149e+01    0.1954501    0.1706369  71.66 0.0006694703    1.347    0.257
       258  -9.7971     29.4889    150.3926   8.4983418732e+01   4.0551219968e+01     0.581562    0.2343103  66.14  0.002303033    3.026    0.670
       259  -9.2427     20.2928    152.2195   8.7612905784e+01   4.0969285845e+01    0.2471299    0.1150665  54.60   0.00086579    1.997    0.499
       260  -9.1333      2.9912    150.9025   9.2061120178e+01   4.2652060061e+01    0.3115225   0.08778561 -73.82  0.001305274    2.860    0.650
       261  -8.9890    189.5284    150.1705   4.4630813576e+01   1.4211229782e+01     0.287795    0.2219371 -54.09 0.0009444923    1.593    0.372
       262  -8.0611    182.4648    150.9684   4.6214274191e+01   1.5421688523e+01    0.2033097    0.1356317 -42.20  0.000860255    1.556    0.357
       263  -8.5507    162.6201    150.5992   5.0341386750e+01   1.9337755300e+01    0.2668743    0.2074073  86.05 0.0007278231    1.943    0.485
       264  -8.5539     98.1906    150.3781   6.6129546287e+01   3.1384199596e+01    0.2779091    0.1974798  67.59 0.0007491318    1.597    0.374
       265  -9.4082    248.9339    149.1013   3.4163684232e+01   3.9539708473e+00    0.2845532    0.1566427 -29.90 0.0007079838    1.575    0.365
       266  -8.8089    243.2672    149.5856   3.5119046524e+01   4.7900633431e+00    0.2444873    0.1483932 -30.54  0.001013542    1.455    0.313
       267  -8.4807    212.8961    149.6928   4.0156207641e+01   9.9587902988e+00    0.2198812    0.1665584 -18.67 0.0003918367    1.247    0.198
       268  -9.8699     40.1638    148.0258   8.1805846894e+01   4.0022912475e+01    0.5939469    0.2278769  57.95  0.001961278    3.132    0.681
       269  -8.4773    198.8427    148.9741   4.2577688927e+01   1.2655035692e+01    0.1978897    0.1827942 -52.70   0.00052613    1.312    0.238
       270  -9.9659     89.3775    146.2301   6.7796730200e+01   3.3797442702e+01    0.6800893    0.3771879  84.98  0.002395313    3.415    0.707
       271  -8.9044    233.7289    147.7077   3.6228147857e+01   6.6268984968e+00    0.2513731    0.1564189 -37.67 0.0007463741    1.564    0.360
       272 -10.0552     56.1108    135.2233   7.5565594801e+01   4.1278037719e+01    0.5199975    0.3057743  -1.55  0.002004805    3.514    0.715
       273  -8.3337    223.1719    146.8103   3.7773846395e+01   8.5753386048e+00    0.1848542    0.1682001 -20.82 0.0003791838    1.153    0.133
       274 -10.2469    148.7637    144.9086   5.2285364469e+01   2.3183481018e+01    0.5481576    0.3879668 -89.68  0.001545775    2.406    0.584
       275 -10.2074    106.7288    144.0779   6.2690835069e+01   3.1351953624e+01    0.7684208    0.4774564  81.99  0.002399218    2.742    0.635
       276  -9.1498     78.0264    147.1056   7.1083696613e+01   3.5356054898e+01    0.2684796    0.1787226  57.76  0.001146944    1.535    0.348
       277  -9.0803     13.4898    146.2195   8.8981207775e+01   4.2957449111e+01     0.373683    0.1623921  58.88  0.001416963    2.219    0.549
       278  -8.0076    206.4638    146.4828   4.0631134549e+01   1.1643119906e+01     0.136176    0.1233601  -5.51 3.143384e-05    1.032    0.031
       279  -8.3648    175.6435    146.0632   4.6572944449e+01   1.7628830454e+01    0.2169411    0.1750767 -55.54 0.0006334095    1.459    0.314
       280  -9.7864    138.9517    144.5853   5.4555355631e+01   2.5183887482e+01    0.4648118     0.286575 -66.06  0.001689249    2.288    0.563
       281 -10.5867    240.9464    144.2137   3.4371412969e+01   5.9207524875e+00    0.7114993    0.2769988 -28.22  0.003009486    2.501    0.600
       282  -9.8780    125.0436    141.8810   5.7455397043e+01   2.8458186367e+01    0.7120017    0.3993418 -62.14   0.00253481    2.217    0.549
       283  -9.1945    247.0551    143.7859   3.3359341316e+01   4.9813229292e+00    0.2142767     0.153131 -27.00   0.00051174    1.211    0.174
       284  -7.8189    194.4330    143.9214   4.2331010812e+01   1.4341604393e+01    0.1811376    0.1192548 -59.60 0.0006026236    2.281    0.562
       285  -8.9314    165.5299    143.8689   4.8262945335e+01   2.0045795418e+01    0.2660518    0.2248682  71.98 0.0007577416    1.472    0.321
       286  -9.1816      3.2147    142.0103   9.1477989514e+01   4.4712126044e+01    0.3658542    0.1359589  69.28  0.001563283    2.777    0.640
       287 -10.3941     54.7664    144.3301   7.7238909683e+01   3.9218709828e+01    0.7963146    0.3632286  66.63  0.002912244    3.255    0.693
       288  -8.5792    181.9536    141.3071   4.4228131573e+01   1.7241994822e+01    0.2446673    0.1998547 -62.62 0.0006578391    1.551    0.355
       289 -10.6250     69.7486    140.9374   7.2447799075e+01   3.8045767538e+01    0.4711009    0.3021399  68.27  0.001637702    1.777    0.437
       290  -8.3015    250.4830    140.9177   3.2264505245e+01   4.8232325961e+00    0.1897452    0.1059389 -31.14 0.0005925907    1.540    0.350
       291 -10.0585     23.3250    137.7004   8.5516214564e+01   4.4178514863e+01    0.5352186    0.2337173  65.95  0.001777942    2.601    0.616
       292  -7.8600    218.5224    138.4727   3.6776522662e+01   1.0688588833e+01    0.1340155    0.1209311 -15.55 0.0002274401    1.066    0.062
       293  -8.3602    207.7769    137.7166   3.8487824245e+01   1.2818117623e+01    0.2530048    0.1706511 -56.37  0.001064072    2.045    0.511
       294  -8.7510    197.5301    137.3119   4.0283010621e+01   1.4863619217e+01    0.2849945    0.2157756 -52.22 0.0008791312    1.559    0.359
       295  -8.5002    172.0741    137.9987   4.5548525073e+01   1.9835829622e+01    0.2194138    0.1812919 -84.38 0.0005875175    1.668    0.401
       296  -8.9103    248.5896    135.0917   3.1328275385e+01   5.9355326696e+00    0.2805367    0.1665492 -30.88 0.0008253608    1.447    0.309
       297  -8.9466    250.7223    129.6369   2.9875255016e+01   6.3398549183e+00    0.4181028    0.1038527 -32.15  0.001456112    3.559    0.719
       298  -7.6912    192.3163    136.6401   4.1128531867e+01   1.6006343016e+01     0.140942     0.114209 -73.50 0.0007043163    1.757    0.431
       299  -8.3106    162.6673    136.1794   4.7186103099e+01   2.2106471009e+01    0.2232679    0.1839295 -62.57 0.0006348916    1.434    0.303
       300  -8.8860    150.8497    135.6878   4.9773822512e+01   2.4631238794e+01     0.403629    0.1827414  35.82  0.001468574    2.461    0.594
       301  -9.2247     39.0825    135.9001   8.0716074233e+01   4.3092097302e+01     0.300238    0.1788695  53.99 0.0008251352    1.662    0.398
       302  -8.0674    188.0201    135.5155   4.1714370746e+01   1.7060742997e+01    0.1767309    0.1295329  76.49 0.0004744399    2.167    0.538
       303  -8.0600     95.8490    135.1386   6.3949670374e+01   3.5332191861e+01    0.2292013    0.1895884  75.32 0.0005839521    1.285    0.222
       304 -10.3912     83.5058    133.0589   6.7097357657e+01   3.7878505328e+01    0.5147622    0.3308395 -82.94  0.001321579    1.929    0.482
       305  -8.0656    231.2683    133.9973   3.3714329563e+01   9.0647813763e+00    0.1685337    0.1035703 -31.03 0.0003995903    1.456    0.313
       306  -8.6614    179.5410    133.7768   4.3026350121e+01   1.9093056822e+01    0.2703214    0.2129636 -66.55 0.0008048208    1.675    0.403
       307 -10.2114    132.4593    131.3218   5.3274143453e+01   2.9297399410e+01    0.5910818    0.4124859 -89.95  0.001622133    2.297    0.565
       308  -8.8955    133.7323    124.9917   5.1485941071e+01   3.0404690513e+01    0.3791573    0.2384232  17.31  0.001435189    2.573    0.611
       309  -8.9507    112.8848    133.1555   5.8822512001e+01   3.2718757422e+01    0.3612143    0.2450054  71.33 0.0007977627    2.000    0.500
       310  -7.6916    237.6646    133.3369   3.2579101677e+01   8.0366352395e+00    0.1263391   0.09905944 -58.35 0.0007051817    1.747    0.428
       311  -9.1045    142.9984    131.5533   5.0707254484e+01   2.7096753850e+01    0.2942965    0.2363306 -70.19 0.0006947312    1.495    0.331
       312 -10.1432     12.7721    128.5292   8.7768657558e+01   4.7266558556e+01       0.6151    0.2512845  81.12   0.00233075    2.721    0.633
       313  -8.5012    246.9712    129.8094   3.0445992124e+01   6.9449174827e+00    0.2231954    0.1582764 -29.32 0.0006761259    1.213    0.176
       314  -7.9448    204.6028    129.8888   3.7302878108e+01   1.4719556424e+01     0.198965    0.1222593 -45.74 0.0008539707    1.736    0.424
       315  -8.3252    192.8172    130.0713   3.9536341454e+01   1.7046210418e+01    0.2097344    0.1898243 -53.18 0.0004543708    1.247    0.198
       316  -9.1483    168.3316    129.4155   4.4381095810e+01   2.2234107300e+01    0.2897654    0.2433925 -74.30 0.0004906968    1.504    0.335
       317  -9.8286    153.0253    127.6307   4.7403510446e+01   2.5811662362e+01    0.7852461    0.2473984 -46.38  0.001861003    3.328    0.700
       318 -10.1549     99.3743    127.7831   6.1448529486e+01   3.6449711657e+01    0.6235554    0.3879285  85.04   0.00171344    2.766    0.639
       319 -10.0350     73.0535    128.8397   6.9425246188e+01   4.0518934531e+01    0.4326203    0.2610564 -79.33  0.001388107    1.941    0.485
       320  -8.2474    211.7227    128.9545   3.5831949348e+01   1.3480936365e+01    0.2181583    0.1490369 -56.32 0.0008909779    1.946    0.486
       321  -9.3146     50.0293    128.2757   7.6375853267e+01   4.3747880640e+01    0.4474714    0.2223412  74.66  0.001676467    3.058    0.673
       322 -10.5967     44.1331    122.9236   7.7424810489e+01   4.5765576986e+01    0.9664434    0.4385022  84.82  0.003156071    3.713    0.731
       323 -10.5281     60.2803    125.0312   7.2677279886e+01   4.3261494855e+01    0.7304575    0.3870483  75.18  0.002733764    3.001    0.667
       324  -9.7453    117.8197    125.1102   5.5703513062e+01   3.3595456673e+01      0.52825    0.3462603  71.53  0.001747002    2.247    0.555
       325  -8.2566    228.3702    125.1864   3.2235615486e+01   1.0914863871e+01    0.2016403    0.1095534 -41.22 0.0009527061    1.784    0.439
       326  -9.0290    179.2062    124.6306   4.0955828012e+01   2.0838801987e+01    0.2991764     0.243355  85.55 0.0007796753    1.679    0.404
       327 -10.4845     28.6457    122.3538   8.2253522726e+01   4.7481056581e+01    0.6896695    0.2946015  71.51  0.002532115    3.426    0.708
       328  -7.8124    244.0000    124.0315   2.9631993577e+01   8.2748027842e+00    0.2119696   0.06447206 -33.13 0.0006315855    2.849    0.649
       329  -7.8861    188.5918    123.8014   3.8885244517e+01   1.9016126729e+01    0.2005446     0.131794 -46.79 0.0004617183    1.604    0.377
       330  -8.5610     84.1054    122.7142   6.4893599754e+01   4.0287483658e+01    0.2645661    0.2135674  11.01  0.001077248    1.553    0.356
       331  -7.7996    203.0000    121.8977   3.5743108089e+01   1.6373057146e+01    0.2263931   0.07655486 -36.23 0.0004078243    2.797    0.642
       332  -7.7888    195.3458    122.1298   3.7199913453e+01   1.7903989406e+01    0.2033494    0.1237743 -45.81 0.0005116302    1.715    0.417
       333  -8.6714    171.9886    121.4209   4.1685683626e+01   2.2975845214e+01    0.2664827    0.2023116 -53.79 0.0004404307    1.462    0.316
       334  -9.4582    158.6430    121.2611   4.4576409265e+01   2.5887581443e+01    0.3448897    0.2593504 -78.76 0.0008327627    1.908    0.476
       335  -9.4528     71.3223    119.9761   6.8294696817e+01   4.2960138080e+01    0.3553144    0.2246813  83.58  0.001085868    2.145    0.534
       336  -9.9138    141.5238    117.7900   4.7779420152e+01   3.0294420243e+01    0.6009941    0.3232764 -52.22  0.001913651    2.043    0.511
       337  -9.8683    131.0587    118.6150   5.0638058090e+01   3.2342429249e+01    0.5479674     0.362108  76.17  0.001806315    2.463    0.594
       338 -10.5788      3.1872    115.7341   8.9616443299e+01   5.1024846130e+01    0.8558214    0.3038293 -85.12  0.003612384    2.547    0.607
       339  -7.9237    231.5235    117.4872   3.0022421678e+01   1.1489796445e+01     0.134285    0.1178284 -26.83 0.0008094445    1.056    0.053
       340  -8.0174    185.7730    115.7695   3.7494593015e+01   2.1043494524e+01    0.1976685    0.1698971 -63.21 0.0005084242    1.349    0.259
       341  -9.8634    109.4298    113.9148   5.5398529434e+01   3.7800934712e+01    0.5630334    0.3466543 -73.61  0.001638967    2.436    0.589
       342  -8.8155    109.2895    107.0374   5.3716153429e+01   3.9406199071e+01    0.3176827    0.2123962  21.48  0.001321284    2.018    0.504
       343  -9.1814    249.6821    114.0716   2.6671989592e+01   8.6942546326e+00    0.3828214    0.1780154 -48.13  0.001663103    2.618    0.618
       344  -9.8111    248.1251    107.8888   2.5519487336e+01   9.8420241350e+00    0.3100619    0.2456945 -52.11  0.001879102    1.411    0.291
       345 -10.0213    249.4800    103.0495   2.4267496249e+01   1.0279817677e+01    0.4472784    0.1804767 -27.32  0.001878607    2.387    0.581
       346  -8.1451    167.2423    114.2211   4.0917955411e+01   2.5379481688e+01    0.2044588    0.1788986 -73.72 0.0004402637    1.338    0.252
       347  -8.1462     59.9686    114.5012   7.0891745745e+01   4.5929552855e+01    0.1996985    0.1268539  -5.51 0.0008091098    2.769    0.639
       348  -8.0962    192.9861    114.9562   3.5916452059e+01   1.9642021758e+01     0.217745     0.172848 -66.07 0.0004171215    1.592    0.372
       349  -9.2591    159.2630    111.7703   4.2055873550e+01   2.7625749031e+01    0.3399545    0.2242467 -59.19 0.0008415501    1.880    0.468
       350  -9.8779    133.7657    109.4139   4.7607362499e+01   3.3747608724e+01    0.6406969    0.3243666 -53.82  0.001985658    2.261    0.558
       351  -9.6274    121.8378    112.2595   5.1509650172e+01   3.5665837771e+01    0.3995484    0.2999274  87.06 0.0006971565    1.821    0.451
       352  -8.6444    174.9499    111.5395   3.8611491265e+01   2.4179285975e+01    0.2883091    0.2004577 -54.06 0.0006642846    1.626    0.385
       353 -10.1218     66.6451    109.8326   6.7763457127e+01   4.6160309991e+01    0.5800717    0.3221771 -65.84  0.002229258    1.797    0.443
       354  -9.9865     14.5441    111.0826   8.5505505262e+01   5.1433112683e+01    0.4244996    0.1911411  63.69  0.001365444    2.612    0.617
       355  -8.0576    149.8423    109.8473   4.3737631899e+01   3.0110913290e+01    0.2130452    0.1823169 -69.65 0.0005659972    1.329    0.247
       356  -7.9947    183.1293    109.2146   3.6377860055e+01   2.2794338419e+01     0.203511    0.1719888 -59.38 0.0005578881    1.321    0.243
       357  -9.0957     43.2259    108.8995   7.5496930487e+01   4.9388073077e+01    0.3172044    0.1879063   1.84  0.001373338    2.689    0.628
       358  -8.1754    189.2547    107.7333   3.4827252089e+01   2.1709100305e+01    0.2599603    0.1685421 -39.05 0.0007018383    1.478    0.324
       359  -8.3403    107.6019     92.6005   5.0300105820e+01   4.3009428392e+01    0.3000544    0.2445218   7.97 0.0008408185    1.531    0.347
       360 -10.3680    108.5032     98.4033   5.1655181997e+01   4.1525031663e+01     1.058679    0.6116208  72.73 0.0008434815    3.824    0.738
       361 -10.5076     45.6189    102.0626   7.3435790225e+01   5.0836671353e+01    0.8050364    0.3998872  68.46  0.002870433    3.507    0.715
       362 -10.7753     22.7856    102.3926   8.1602289147e+01   5.2976620983e+01    0.7570546    0.3700736  69.98  0.002379597    2.677    0.626
       363  -9.6056    150.5666    102.9535   4.1738935082e+01   3.1335061871e+01    0.5000912    0.2844332 -58.00  0.001267197    2.312    0.567
       364  -9.3691    139.9454    104.1696   4.4645055686e+01   3.3488486917e+01    0.4282029    0.2910919 -58.32  0.001348778    1.694    0.410
       365  -8.4059     78.6511    104.6903   6.2652446734e+01   4.5571032898e+01    0.2380218    0.1759728 -22.76  0.001106613    1.780    0.438
       366  -8.4535    166.8093    104.1068   3.8400129632e+01   2.7402206350e+01    0.2324108    0.2035083 -66.42 0.0005670916    1.270    0.213
       367  -8.6500    239.6685    103.3082   2.5628886310e+01   1.2054443946e+01    0.1318722   0.09613145 -58.29 0.0004955275    1.666    0.400
       368  -9.6148    128.3835    101.7607   4.6978731410e+01   3.6560949841e+01    0.3708831    0.2724019 -62.83 0.0007279001    1.569    0.363
       369  -8.7897      6.8051    102.9614   8.7248492854e+01   5.3946686711e+01    0.2371237     0.149042  78.86 0.0007773811    1.525    0.344
       370  -7.9454    175.6247    101.8523   3.5972456481e+01   2.5811205221e+01    0.2145967    0.1339224 -47.58 0.0004595167    1.658    0.397
       371  -8.3311    159.8644    100.7538   3.9018519655e+01   2.9634298670e+01    0.2776073     0.190639 -64.03 0.0005374336    1.896    0.473
       372  -9.2190     82.3047     99.9511   6.0295899682e+01   4.6104413705e+01    0.3517711    0.2547682 -87.44 0.0008615704    1.785    0.440
       373  -9.1769     95.0350     96.7952   5.5349193898e+01   4.4551651896e+01    0.3595009    0.2351895 -61.06 0.0007054547    1.650    0.394
       374 -10.1701     64.0490     95.7596   6.5531762365e+01   5.0013319946e+01    0.5966393      0.36524  84.44  0.001711732    2.654    0.623
       375  -8.2909    151.2129     94.9243   3.9378789274e+01   3.2773614509e+01    0.2529668    0.1818474  -8.65 0.0008436922    1.933    0.483
       376  -8.2902    164.7894     93.8685   3.6065835251e+01   2.9792031138e+01    0.2750113    0.1973709 -43.95 0.0006564407    1.380    0.275
       377 -10.0784     92.6606    112.1302   5.9952892865e+01   4.1371883320e+01    0.5894279    0.3477424 -70.62  0.001248867    2.177    0.541
       378  -7.7665    188.6563     93.3235   3.1222643894e+01   2.4341231916e+01    0.1542275    0.1143734 -69.92 0.0007050503    1.733    0.423
       379  -8.0861    176.4778     92.9901   3.3435127416e+01   2.7213882392e+01     0.231024    0.1433999 -39.70 0.0006050034    1.555    0.357
       380  -8.6213    120.3217     92.9357   4.6707125298e+01   4.0222628562e+01    0.2270724     0.206864 -42.16  0.001091137    1.097    0.089
       381  -8.9889     46.0671     92.0644   7.1266094397e+01   5.3282322372e+01    0.3655097    0.2168877  -7.65   0.00150695    2.864    0.651
       382  -9.7493    124.5978     90.5910   4.4844662212e+01   3.9773301571e+01    0.4722587    0.3204054 -60.63   0.00117751    1.743    0.426
       383  -9.6409     34.8661     89.8042   7.5054133152e+01   5.5049456116e+01    0.4423381    0.2568205  86.56  0.001766162    2.212    0.548
       384  -9.5989      4.8057     91.5153   8.6712512989e+01   5.6879240562e+01    0.3183137    0.1880199  71.88  0.001015955    1.780    0.438
       385  -8.0374    157.8530     91.3759   3.6874079831e+01   3.1895067565e+01    0.2149303     0.186641 -54.07 0.0004247943    1.183    0.155
       386  -9.0803     22.7372     90.1308   7.9763023269e+01   5.6043331543e+01    0.3031003    0.2059534 -26.03  0.001302937    1.791    0.442
       387  -9.8967    116.1823    102.3944   5.0510388969e+01   3.9041205304e+01    0.5341009    0.4002217  79.54  0.002377874    1.780    0.438
       388  -8.0589    151.0269     88.9367   3.7718842398e+01   3.3977641997e+01    0.2423188    0.1883405 -77.00 0.0004501455    1.632    0.387
       389 -10.2206     86.5038     86.2396   5.5196803147e+01   4.8587725517e+01    0.7108763    0.4414807 -61.23  0.002278392    1.785    0.440
       390  -8.8858     89.8652     77.1516   5.1316865340e+01   5.0000178703e+01    0.3126123    0.2531845 -64.48  0.000315068    1.351    0.260
       391  -7.5260    174.2758     88.6138   3.2670211569e+01   2.8509452178e+01    0.1597036    0.1141634 -64.01  0.000675543    1.721    0.419
       392  -8.6655     65.9759     86.9925   6.2650473711e+01   5.1858157652e+01    0.3704504    0.2008641   6.88  0.001152342    4.499    0.778
       393  -9.7436     48.3477     83.7938   6.8522243538e+01   5.5048737168e+01    0.5797347     0.346262  77.66   0.00184296    2.755    0.637
       394  -9.4216    139.0262     91.5947   4.1367159546e+01   3.6273051390e+01    0.5327537    0.3175083 -43.58  0.001673737    1.673    0.402
       395  -8.6312    158.0721     83.5465   3.4579934373e+01   3.3303195556e+01    0.3330559     0.193261 -42.34 0.0005775598    1.698    0.411
       396  -9.6343    104.6483     82.8124   4.8301546634e+01   4.5774714042e+01    0.4488958    0.3078108 -64.21 0.0008465826    1.780    0.438
       397  -8.5619    105.6323     76.6969   4.6080803040e+01   4.6870668873e+01    0.2400447    0.1861111   0.61 0.0008465497    1.707    0.414
       398  -9.6537     24.6948     80.4603   7.7277456442e+01   5.8281824097e+01    0.4499823    0.2540193  83.72  0.001512639    2.304    0.566
       399  -9.0939     10.0051     80.8649   8.3313013027e+01   5.9209133668e+01    0.3878497    0.1589587  55.27  0.001221793    3.357    0.702
       400  -8.3496    150.3578     80.4471   3.5375754106e+01   3.5743307102e+01    0.2695825    0.1761483 -55.53 0.0007173805    1.749    0.428
       401  -8.7948    119.3281     80.0400   4.3113299538e+01   4.3151829552e+01     0.321884    0.2314362 -64.95 0.0008154038    1.713    0.416
       402  -8.8269     74.8352     80.3049   5.7554942788e+01   5.2018289865e+01    0.3206669    0.2046537 -67.42 0.0008646187    1.886    0.470
       403  -9.9012     78.8933    112.2664   6.4297168706e+01   4.3683597879e+01    0.5763861    0.3630891  77.37   0.00178209    2.395    0.582
       404  -7.9670    166.9209     79.5080   3.1556484165e+01   3.1883172030e+01    0.2191993    0.1512772  56.11 0.0003722436    1.478    0.323
       405  -7.6582    184.2251     77.9847   2.7859924782e+01   2.7962550713e+01    0.1993999    0.1187427 -34.92 0.0005903065    1.612    0.379
       406  -7.8401    174.6266     77.7741   2.9554426412e+01   3.0310358550e+01     0.215367    0.1335097 -44.23 0.0005607479    1.586    0.370
       407  -8.8709    140.9651     82.8221   3.8300041258e+01   3.7551605122e+01    0.3353391    0.2210839 -52.41 0.0007626264    1.641    0.391
       408  -9.5041    128.0220     74.6909   3.9052715574e+01   4.2205171751e+01    0.5068584    0.2869292 -47.16  0.001680396    1.828    0.453
       409  -8.4378    140.4792     75.0672   3.6037164888e+01   3.9145127509e+01    0.2353941    0.1516208 -40.29 0.0006219978    1.543    0.352
       410 -10.0051     63.2573     73.2494   5.9821287819e+01   5.5514953880e+01    0.5780218     0.295198 -61.58  0.001110843    2.174    0.540
       411  -9.6839     82.4378     72.5103   5.2412857548e+01   5.2431021407e+01    0.4178224    0.3047245 -82.14 0.0009761076    1.995    0.499
       412  -8.3317    163.4742     72.8237   3.0282749441e+01   3.3891339726e+01     0.299318    0.1392909 -40.66  0.001124864    2.081    0.520
       413  -8.3921    151.4053     73.2264   3.2948140266e+01   3.6804978619e+01    0.2167547    0.1412923 -46.69 0.0004720364    1.563    0.360
       414  -8.8386    115.7840     72.3422   4.1650012655e+01   4.5512118391e+01    0.4220058    0.1984481 -42.04   0.00140384    2.115    0.527
       415  -9.1992    106.1116     71.7464   4.4318213583e+01   4.7792671854e+01    0.3406454    0.2323158 -64.41 0.0008893499    1.897    0.473
       416  -8.3417     42.8388     72.7020   6.7970222351e+01   5.8386089828e+01    0.2623706    0.1735538  88.39  0.000977639    2.107    0.525
       417  -7.3896    175.6625     72.2882   2.7784481532e+01   3.0978540684e+01    0.1551449    0.1149742 -71.75 0.0004981639    1.636    0.389
       418  -9.4056     95.2953     71.0940   4.7538760835e+01   5.0220793899e+01    0.4132038    0.2727903 -64.90  0.001146144    2.001    0.500
       419  -9.4769     51.7096     69.5270   6.3376807654e+01   5.8032364552e+01    0.4634823    0.2757423 -78.49  0.001310953    2.541    0.606
       420  -8.7498     16.6331     69.8983   7.8645419136e+01   6.1467002681e+01    0.2431789    0.1720597  77.70 0.0007385937    1.628    0.386
       421  -8.7753    146.9867     68.0195   3.2303618848e+01   3.8824395568e+01    0.3538204     0.212095 -45.16 0.0007887718    1.694    0.410
       422  -8.3935     29.9789     69.5345   7.2698246264e+01   6.0483371009e+01    0.1817452    0.1033867 -19.83 0.0006578392    2.432    0.589
       423  -8.6149    138.6144     65.8497   3.3535970922e+01   4.1285929266e+01    0.2925067     0.216463 -62.34 0.0006322197    1.582    0.368
       424  -8.6607    121.6520     65.8209   3.7834791001e+01   4.5407879062e+01    0.2885436    0.2206439 -66.90 0.0007122241    1.593    0.372
       425  -8.6962     83.5468     65.1970   4.9569671905e+01   5.3796415335e+01    0.4198093    0.2491429   8.01  0.001356066    3.942    0.746
       426  -8.9698     37.5595     64.1036   6.7930289670e+01   6.1012072799e+01    0.2934229    0.2153911  86.93  0.001231057    1.770    0.435
       427  -8.9304    110.2379     63.4628   4.0252469922e+01   4.8511743937e+01    0.3322216    0.2458856 -62.68 0.0007511885    1.637    0.389
       428  -8.4542     64.2651     62.8548   5.6108643246e+01   5.7702352471e+01    0.2743123     0.187474  -0.50  0.001233319    2.095    0.523
       429  -8.3805    158.1086     61.8443   2.7997451110e+01   3.7081118677e+01    0.2341908    0.1997353 -68.71 0.0005969485    1.250    0.200
       430  -9.1006     97.5114     60.3326   4.3077361020e+01   5.1939114226e+01    0.2669121    0.2339667  55.32 0.0006761119    1.197    0.165
       431  -9.6263     73.3625     59.3290   5.1283177682e+01   5.6916791848e+01    0.4139819    0.2498342 -55.08  0.001046215    1.806    0.446
       432  -8.6822     88.7780     59.7732   4.5802029524e+01   5.3876902352e+01    0.2753671    0.1784497 -38.38  0.001039169    1.532    0.347
       433  -8.1504    147.0000     58.9385   2.9372212888e+01   4.0374029541e+01    0.2455946   0.08706076 -33.86 0.0005193947    2.840    0.648
       434  -8.4747    130.7379     57.3721   3.2589932071e+01   4.4720676207e+01    0.2742297    0.1785422 -47.27  0.000573937    1.611    0.379
       435  -9.7438     23.4381     56.1817   7.2342025688e+01   6.4214305647e+01    0.4460385    0.2697156  83.36  0.001963971    2.575    0.612
       436  -9.3040      7.5157     57.0025   8.0276506752e+01   6.5099164614e+01    0.2871658    0.1844731  76.48  0.001020077    1.920    0.479
       437  -8.5453    140.0009     56.5264   3.0116743264e+01   4.2544536805e+01    0.2925051    0.1990647 -48.78 0.0008257589    1.544    0.352
       438  -9.0410    119.2337     55.1480   3.4761639520e+01   4.7921623076e+01    0.4404896    0.2502892 -45.47  0.001324022    1.844    0.458
       439  -8.6637     44.0876     55.2646   6.2260912033e+01   6.2270292953e+01    0.2879393     0.181021 -63.86 0.0009934739    1.724    0.420
       440  -9.1780     62.9094     54.3945   5.3680194119e+01   5.9738537455e+01    0.3258431    0.1973365 -54.96  0.000671515    1.751    0.429
       441  -8.6006    105.8379     53.0467   3.7792448000e+01   5.1450660334e+01    0.2318233    0.2017066 -70.54 0.0005871942    1.332    0.249
       442  -9.4143     92.5411     50.3492   4.0969799878e+01   5.4897390787e+01    0.4206946    0.2445348 -50.03  0.001172623    1.934    0.483
       443  -8.5250     74.2223     51.9450   4.8199218104e+01   5.8266552431e+01    0.2414643      0.16043 -17.00   0.00106961    1.976    0.494
       444  -8.1428    144.6647     48.8172   2.6488133475e+01   4.2588802405e+01     0.218583    0.1314249 -41.94 0.0005898213    1.673    0.402
       445  -8.8996     54.2590     53.7812   5.7165265981e+01   6.1209455760e+01     0.372317    0.2325491 -72.81  0.001300211    2.555    0.609
       446  -8.2489    120.8367     47.1827   3.1428390955e+01   4.8870990390e+01     0.225012     0.203884 -65.34 0.0006116228    1.191    0.160
       447  -8.2292    112.1612     46.7029   3.3564524216e+01   5.1059644407e+01     0.257859    0.1937653 -47.35 0.0006518178    1.412    0.292
       448  -8.9079     82.3030     46.4815   4.2999215311e+01   5.7743721353e+01    0.2858116    0.2360195 -63.65 0.0007143413    1.476    0.323
       449  -8.5107     45.0566     44.5485   5.7962559229e+01   6.4454326010e+01    0.2441521    0.1832931 -65.58 0.0007591489    1.594    0.373
       450  -9.1560     16.6182     44.4353   7.2530193045e+01   6.7430546478e+01    0.2600774    0.2020767 -73.32 0.0008983572    1.347    0.258
       451  -8.2528    129.8878     49.1269   2.9896178164e+01   4.6302861481e+01    0.2309663    0.2042069 -67.25  0.000539108    1.220    0.181
       452  -8.3904    132.5381     42.9997   2.7075853805e+01   4.6583039462e+01    0.2235382    0.1479653 -32.76 0.0003951505    1.541    0.351
       453  -8.1917     92.6660     42.6345   3.7843149282e+01   5.6233628804e+01    0.2346008    0.1717049  13.38  0.001036014    1.688    0.407
       454  -9.4888     69.6168     41.2999   4.5709143865e+01   6.1155712621e+01    0.3811449     0.268437 -60.84  0.001222673    1.898    0.473
       455  -8.8472     57.9955     42.2926   5.1059411803e+01   6.2988075411e+01    0.2914183    0.1929224 -59.71 0.0009730213    1.913    0.477
       456  -9.6770      5.2562     41.7541   7.7994949384e+01   6.8735818055e+01    0.3640473    0.2052266 -84.89  0.001712673    2.120    0.528
       457  -9.0776    105.9282     41.1086   3.3141036082e+01   5.3453113083e+01    0.3457082    0.1935741 -44.71 0.0008227262    1.924    0.480
       458  -8.5276     36.9888     40.5589   6.0427659017e+01   6.6310286561e+01    0.2363943    0.1809182 -68.24 0.0007709702    1.584    0.369
       459  -8.9474     95.2614     37.6576   3.4939759227e+01   5.6474331605e+01    0.3593216    0.2073851 -48.09  0.001064413    2.004    0.501
       460  -7.9329     80.5678     36.5050   3.9423807705e+01   5.9850225362e+01    0.1402587    0.1342731  -4.88 8.048067e-05    1.050    0.048
       461  -9.2435     26.1708     35.1444   6.4125266672e+01   6.8626139746e+01    0.3056116    0.2061358 -67.84 0.0009353883    1.764    0.433
       462  -8.0423    125.9775     35.2858   2.5704414271e+01   4.9379045862e+01    0.2054794    0.1898351  55.62 0.0004793997    1.042    0.040
       463  -8.5218    111.8577     34.2110   2.8737139228e+01   5.3070417409e+01    0.2180897    0.1976316 -76.79 0.0005241765    1.234    0.190
       464  -8.8601     48.6284     33.1386   5.1447300033e+01   6.6203662895e+01    0.2585936    0.2129783 -67.67 0.0006067916    1.637    0.389
       465  -8.4996    119.2219     33.1864   2.6478237858e+01   5.1384301418e+01     0.204737    0.1705991 -62.22 0.0005101708    1.349    0.259
       466  -8.7121     60.8547     32.5446   4.5513239346e+01   6.4310010745e+01    0.2509687    0.1912162 -44.94 0.0006299923    1.382    0.276
       467  -9.1662     72.1650     30.3765   3.9816935141e+01   6.2557721555e+01    0.4151377    0.2029289 -46.23   0.00109755    2.361    0.577
       468  -8.1360    191.7474    249.5793   6.1009040881e+01  -6.3883863793e-01    0.1559609   0.08310585  40.09 0.0007004506    1.688    0.408
       469  -7.8406     42.0020     29.7543   5.3232337132e+01   6.7799858762e+01    0.1615991     0.108662  29.89 0.0005251574    1.548    0.354
       470  -8.8041     81.5113     27.2001   3.4874137860e+01   6.1118484872e+01    0.2980602    0.2070565 -54.45 0.0008267896    1.868    0.465
       471  -8.6691      3.5002     27.4872   7.4964402605e+01   7.1962816164e+01    0.1872405    0.1525259  72.07  0.000762512    1.636    0.389
       472  -8.9141     91.9066     26.2528   3.1016132202e+01   5.8944925436e+01    0.2997945    0.1863527 -45.65 0.0008380041    1.837    0.456
       473  -8.2528    104.5831     22.7987   2.5867502181e+01   5.6398370817e+01    0.1965555    0.1291759 -40.46 0.0004674174    1.628    0.386
       474  -8.9369     63.6835     20.9709   3.8641567981e+01   6.5668076885e+01    0.2888301    0.2105203 -47.79 0.0008173542    1.640    0.390
       475  -8.8708     48.5472     21.4368   4.5797430437e+01   6.8274790812e+01    0.2366572    0.2235912 -50.19 0.0007148876    1.337    0.252
       476  -8.0605     34.3345     22.6686   5.3990745127e+01   7.0137049656e+01    0.1175843    0.1041086  85.22 0.0007052191    1.730    0.422
       477  -8.7616    132.2515    247.7327   7.1711600791e+01   7.7790764602e+00    0.2418413    0.1626539  66.70 0.0008766648    2.063    0.515
       478  -8.1371    101.6996     29.1770   2.9406145110e+01   5.6245654308e+01    0.2209806    0.1751084 -49.11 0.0005340067    1.409    0.290
       479  -8.3386     87.8741     17.3459   2.8111556410e+01   6.1040724476e+01    0.2331368    0.1800508 -37.19 0.0005310188    1.392    0.282
       480  -8.0859     38.9661     18.0108   4.8986041849e+01   7.0313913033e+01    0.1791112    0.1597457 -70.47 0.0007245176    1.639    0.390
       481  -7.5179    112.5662     16.5310   2.1231001563e+01   5.5158038933e+01    0.1398848    0.1337409  60.47 9.011963e-05    1.043    0.041
       482  -7.9060     30.3861     16.1412   5.2912665566e+01   7.1800858968e+01    0.1658544    0.1113525 -49.78 0.0006284006    1.639    0.390
       483  -8.3027     97.2935     14.6583   2.4151216673e+01   5.9141567177e+01    0.2097132     0.174424 -23.31 0.0007961839    1.258    0.205
       484  -7.8697     93.8098    249.1982   7.9177542192e+01   1.2764209242e+01    0.1965683   0.08683784  59.75  0.000947247    2.835    0.647
       485  -8.0683      7.6842     15.3291   6.7496114762e+01   7.4207142908e+01    0.1066457   0.09270608  72.87 0.0007045536    1.678    0.404
       486  -9.0742     74.1657     19.2300   3.3641944543e+01   6.3811834961e+01    0.3088529    0.2187437 -48.47 0.0008340059    1.722    0.419
       487  -8.8752    218.5140    247.1291   5.6086577726e+01  -3.8305736978e+00    0.2373422   0.09973729 -34.48  0.001355469    2.708    0.631
       488  -9.1991    210.7849    246.3088   5.7275273680e+01  -2.7596297360e+00    0.2221042    0.1826608 -57.71  0.001188097    2.412    0.585
       489  -8.9342    175.6292    247.3658   6.3599470230e+01   1.8030892615e+00    0.2444083    0.1838878  63.76  0.001182137    2.227    0.551
       490  -8.7979    156.3109    247.8282   6.7201616632e+01   4.4149685810e+00    0.1957443    0.1543371  56.86  0.000779568    1.582    0.368
       491  -7.9984    112.8775    248.3270   7.5461986605e+01   1.0355249605e+01    0.1466037    0.1225079  57.51 0.0007592656    1.222    0.182
       492  -8.9364    103.7876    246.2275   7.7008841538e+01   1.1904502480e+01    0.3595425    0.1885625 -85.07  0.001786004    3.561    0.719
       493 -10.1171    223.8280    243.7458   5.4724177735e+01  -4.1386102955e+00    0.3597032    0.2179598 -40.88  0.002348546    2.369    0.578
       494  -7.6583    169.3526    247.2982   6.4733384064e+01   2.6752589185e+00    0.1167082   0.07385461  13.22 0.0007035767    1.693    0.409
       495  -8.9036    146.8478    245.7498   6.8729580464e+01   6.0197118914e+00    0.2441283     0.156743  57.31  0.001135599    1.978    0.495
       496  -8.6834    146.8800    240.1590   6.8068299961e+01   6.8006521086e+00    0.3396894    0.2177753  77.94  0.001300613    3.707    0.730
       497  -9.0778    120.0383    245.1020   7.3772159993e+01   9.8587912252e+00    0.3304343    0.1883803  62.71  0.001811083    2.370    0.578
       498  -8.5266    139.4349    244.1671   6.9954629928e+01   7.2848243603e+00    0.2108155    0.1166236 -66.42  0.001108575    3.125    0.680
