#   1 NUMBER                 Running object number                                     
#   2 MAG_AUTO               Kron-like elliptical aperture magnitude                    [mag]
#   3 X_IMAGE                Object position along x                                    [pixel]
#   4 Y_IMAGE                Object position along y                                    [pixel]
#   5 X_WORLD                Barycenter position along world x axis                     [deg]
#   6 Y_WORLD                Barycenter position along world y axis                     [deg]
#   7 A_WORLD                Profile RMS along major axis (world units)                 [deg]
#   8 B_WORLD                Profile RMS along minor axis (world units)                 [deg]
#   9 THETA_WORLD            Position angle (CCW/world-x)                               [deg]
#  10 FWHM_WORLD             FWHM assuming a gaussian core                              [deg]
#  11 ELONGATION             A_IMAGE/B_IMAGE                                           
#  12 ELLIPTICITY            1 - B_IMAGE/A_IMAGE                                       
         1 -12.2428    220.1873     37.5576   3.4517118306e+01   2.6775873088e+01     1.103477    0.8599437  49.08  0.007011087    1.723    0.420
         2  -9.4234      2.0000     19.9768   8.8371628244e+01   7.1921583887e+01     0.432377          nan -46.76  0.001156651    8.389    0.881
         3 -11.5288    245.6099     17.8871   2.8622129367e+01   2.4168950721e+01    0.6431924     0.408189 -62.09  0.002757734    1.213    0.176
         4 -11.2059    227.8579     32.5619   3.2792345134e+01   2.5849997044e+01     0.457994    0.4392863 -12.82   0.00176827    1.544    0.352
         5  -9.4212      1.8680     11.6784   8.4788503259e+01   7.3207604038e+01    0.1991059     0.116911 -28.99 0.0009373065    1.400    0.286
         6  -9.5702      1.8849      4.8149   8.1432558974e+01   7.4177425487e+01     0.390917    0.1185814 -38.61  0.001904986    2.891    0.654
         7 -10.0049    129.4232    231.8646   9.2919138813e+01   7.0724898708e+00     0.293829     0.176984 -56.31  0.001457036    1.890    0.471
         8 -11.9589     80.7212    236.3648   1.0451526722e+02   1.3360761438e+01    0.9610091    0.4996435  18.31  0.004015969    2.864    0.651
         9 -13.3789      2.6060    130.7945   1.1309910481e+02   4.7751053833e+01     7.402041     1.594669 -78.43   0.01931605    6.115    0.836
        10 -11.4605     55.8808    240.5224   1.1038771404e+02   1.5781370364e+01    0.6340445    0.5766891 -29.70  0.001434957    1.476    0.323
        11  -8.5016     74.5314    220.5249   1.0416505765e+02   1.7685743841e+01    0.1371908    0.1194185  61.42 1.268176e-05    1.033    0.032
        12  -9.7257     82.9039    215.8872   1.0161745276e+02   1.7551085581e+01    0.4041474    0.2551731 -88.34  0.001910974    1.964    0.491
        13 -12.3023     10.3179    206.8047   1.1776214835e+02   2.8378813207e+01    0.9742418    0.8642123  15.97  0.004589255    1.475    0.322
        14 -10.8986     53.1292    207.3690   1.0781173019e+02   2.3586794711e+01    0.8046128    0.3364516  51.48  0.003301866    2.430    0.588
        15  -7.2125     69.3037    208.2830   1.0397835664e+02   2.1240769440e+01     0.129237    0.1075079 -25.74 0.0002834454    1.556    0.357
        16  -7.7210     74.3526    207.1349   1.0259761129e+02   2.0809196388e+01    0.1950759    0.1261928 -82.41 0.0007765712    1.717    0.418
        17 -10.4185      6.2977    187.8558   1.1734803966e+02   3.3235799562e+01    0.3543927    0.2837635  42.67  0.001525501    1.328    0.247
        18 -10.8726      2.0583    185.0316   1.1815636555e+02   3.4263407141e+01    0.8808439     0.146513 -76.27  0.002634474    4.990    0.800
        19 -10.0801     56.9529    170.8073   1.0228360342e+02   3.2215650361e+01    0.3408342    0.2833073 -25.50 0.0005267362    1.464    0.317
        20 -10.2764     50.2565    176.5512   1.0491437973e+02   3.1580789558e+01    0.4533295    0.2971297 -34.33  0.001636092    2.001    0.500
        21  -7.5490    110.5241    167.4893   8.6850134004e+01   2.4770542671e+01    0.1552707    0.1465196  75.99 0.0005962514    1.090    0.083
        22  -8.3739     83.3144    166.6517   9.4207175278e+01   2.9526336339e+01     0.160312    0.1134055  72.22 0.0007047075    1.722    0.419
        23 -10.3714      3.5771    164.6077   1.1617651571e+02   3.9176983052e+01    0.3259047    0.2271284  80.02  0.001470567    1.307    0.235
        24  -9.7863     68.5167    161.5914   9.7567520098e+01   3.3037347740e+01    0.3058952     0.288102  15.90 0.0005882987    1.176    0.149
        25 -11.6588     54.3395    157.6317   1.0106283247e+02   3.5970887126e+01    0.5652388    0.3533948 -33.09  0.001397672    2.060    0.515
        26 -11.0849     76.5115    155.1648   9.4114381981e+01   3.3531616866e+01    0.7143483    0.5133777 -42.79  0.001989531    1.461    0.316
        27 -11.6597     68.2686    144.4990   9.4611477838e+01   3.7516509752e+01    0.9390386    0.6289771  85.82  0.004067308    1.981    0.495
        28 -11.2368     18.2628    202.9725   1.1567856517e+02   2.8526898515e+01    0.3694767    0.3113554 -57.50  0.001105971    1.366    0.268
        29 -11.7344    109.4224    230.5780   9.7293787973e+01   1.0394502656e+01    0.9630553    0.2967085  39.20  0.003538504    2.757    0.637
        30 -12.8968     18.1420    247.5163   1.1865460440e+02   1.8677149675e+01     3.608132    0.8810633  30.38   0.01422681    3.933    0.746
        31  -9.7024     13.8420    144.7850   1.1131299997e+02   4.3429715498e+01    0.2820805    0.2121558  66.19 0.0006979922    1.390    0.280
        32  -9.0136     92.7487    142.0497   8.6701640603e+01   3.4270137408e+01    0.2995969    0.2583798  61.69  0.001038975    1.248    0.199
        33 -10.4824     80.3021    139.9638   9.0018370339e+01   3.6863872705e+01    0.3426521    0.2808652 -40.65 0.0005130976    1.240    0.194
        34  -8.4212     96.1798    138.8414   8.4986752710e+01   3.4480522856e+01    0.2140455    0.1833985 -12.49 0.0004856148    1.342    0.255
        35 -10.9724     58.6162    134.5564   9.5747080242e+01   4.1429291458e+01     1.323123    0.5207114 -76.23   0.00314132    6.456    0.845
        36  -9.2835     92.4316    127.0433   8.3430427439e+01   3.8081551016e+01    0.3031409    0.2542086 -19.99 0.0005852829    1.337    0.252
        37  -7.9054    104.0750    119.2943   7.8016216081e+01   3.7809041054e+01    0.2140209    0.1906177  35.28 0.0004933811    1.146    0.127
        38  -9.1773    105.9397    131.0732   8.0338975029e+01   3.4619673610e+01    0.3621751    0.3377311   9.86 0.0009806132    1.137    0.120
        39 -10.2912    127.8797    226.3089   9.2462169995e+01   8.4301797219e+00    0.4206938    0.2410032 -36.98  0.001931287    2.136    0.532
        40  -8.0453     41.4075     92.1991   9.2566420563e+01   5.4038925460e+01    0.1866815    0.1288015 -67.27 0.0006685433    1.588    0.370
        41  -9.1985     13.1718     60.9056   9.6348661051e+01   6.3560295840e+01    0.3421858    0.1196467 -57.38  0.001476238    2.496    0.599
        42  -8.0577     45.5752    222.7976   1.1108923764e+02   2.0931134859e+01    0.1848578    0.1110932  87.57 0.0009495704    1.715    0.417
        43  -9.9709     87.4806    225.9734   1.0177927421e+02   1.4634354441e+01    0.2930696    0.1629342  47.68   0.00139949    1.672    0.402
        44  -7.9856     19.3136     47.6657   8.9353795858e+01   6.5680056398e+01    0.1093512    0.0984726  64.37  0.000704591    1.685    0.407
        45  -9.9990      2.0000     31.4551   9.2817136297e+01   6.9988984860e+01    0.4821953   0.05662811 -55.26  0.001327474    7.769    0.871
        46  -8.9808    122.2368     30.3236   4.6538017433e+01   4.9998933116e+01    0.2457584    0.1976703 -72.35 0.0003770017    1.436    0.304
        47 -11.7769     10.0799    230.5192   1.1929240458e+02   2.3071120972e+01     1.523803    0.5666748  69.59  0.006044998    2.929    0.659
        48  -8.2736     58.1295    223.7175   1.0831928097e+02   1.9160753662e+01    0.2361519    0.1064864  62.26 0.0006372888    2.749    0.636
        49 -13.4768     29.0192    193.5712   1.1231191766e+02   2.9709399505e+01     2.509616     1.563049  87.63   0.01209167    1.535    0.349
        50  -9.5438     64.8435    235.3061   1.0794723093e+02   1.5737456903e+01    0.2927523     0.195242 -56.39  0.001235767    1.689    0.408
