#   1 NUMBER                 Running object number                                     
#   2 MAG_AUTO               Kron-like elliptical aperture magnitude                    [mag]
#   3 X_IMAGE                Object position along x                                    [pixel]
#   4 Y_IMAGE                Object position along y                                    [pixel]
#   5 X_WORLD                Barycenter position along world x axis                     [deg]
#   6 Y_WORLD                Barycenter position along world y axis                     [deg]
#   7 A_WORLD                Profile RMS along major axis (world units)                 [deg]
#   8 B_WORLD                Profile RMS along minor axis (world units)                 [deg]
#   9 THETA_WORLD            Position angle (CCW/world-x)                               [deg]
#  10 FWHM_WORLD             FWHM assuming a gaussian core                              [deg]
#  11 ELONGATION             A_IMAGE/B_IMAGE                                           
#  12 ELLIPTICITY            1 - B_IMAGE/A_IMAGE                                       
         1 -14.3095    224.7772      5.4597   3.6186994508e+01   2.8432899722e+01     2.174414     1.290904  49.10  0.008563893    2.103    0.525
         2 -13.9933    181.9389     49.8516   5.2919238422e+01   3.3415998779e+01     1.894308     1.284305  27.24 0.0008233802    2.028    0.507
         3 -14.0331    193.3804     40.4072   4.8495021169e+01   3.1860475428e+01     1.280684     1.045307 -49.03  0.003362031    1.195    0.163
         4 -14.3828    201.4253     31.6779   4.5060924214e+01   3.0999850142e+01     1.289968     1.151611  30.11  0.001332296    1.366    0.268
         5 -10.1821    189.7612     15.0276   4.1991609160e+01   3.5843548196e+01    0.2345413    0.1835511  80.42 0.0006715251    1.158    0.136
         6 -12.9008     59.3559      3.3709   6.5455677431e+01   6.7056562779e+01    0.8479081    0.2614158  38.68  0.003465522    3.023    0.669
         7 -11.2675     59.3887    230.7731   1.1896641866e+02   1.9321959278e+01    0.2022019    0.1569611  78.69  0.000530838    1.117    0.105
         8 -16.8359     70.8020    147.0120   1.0659011458e+02   3.6416432474e+01      16.5976     8.444759  82.12   0.02484515    4.086    0.755
         9 -10.4824     44.8560    198.0325   1.1909169977e+02   2.7837098584e+01    0.2682093    0.2538145  58.84 0.0009419805    1.326    0.246
        10 -11.8882     74.4039    188.9989   1.1167183785e+02   2.6008084030e+01    0.4600955    0.2418615  69.74  0.001873717    2.391    0.582
        11 -13.5075     62.7804    186.2413   1.1398263244e+02   2.8217774022e+01    0.9930304    0.7592599 -74.05  0.005993283    1.235    0.190
        12 -10.7203     57.3279    207.7505   1.1737993925e+02   2.4226762769e+01    0.9744377    0.4603912  66.88  0.004588382    2.339    0.572
        13 -11.7726     65.4287    205.0901   1.1543141383e+02   2.3731116380e+01    0.4503734    0.2166039 -70.14  0.000760452    2.051    0.512
        14 -13.5759     52.4921    199.1821   1.1758643003e+02   2.6665875668e+01    0.4028785    0.3522615 -53.45  0.001294997    1.476    0.323
        15 -11.2507     42.2708    208.5437   1.2051093829e+02   2.5899361437e+01     0.302123    0.1552227  67.10  0.001111957    1.836    0.455
        16 -10.7112     35.7896    208.5536   1.2180174391e+02   2.6638071433e+01    0.1909999    0.1199524  67.96 0.0004880713    1.332    0.249
        17 -18.1586     17.5406    242.4948   1.2718114758e+02   2.1968762112e+01     5.798065      4.26103  64.47   0.04552397    1.108    0.097
        18 -11.9946    194.1697    196.9390   8.6545188558e+01   3.7794990052e+00     1.149691    0.6626514 -63.24  0.004344503    3.876    0.742
        19 -12.0386    203.7913    198.6220   8.4949829399e+01   1.8067763336e+00    0.5043541    0.3617797 -38.50  0.002799891    1.493    0.330
        20 -10.9680     26.4220    203.4073   1.2328030844e+02   2.8731320491e+01    0.3895181    0.1044034  48.77  0.001699911    3.003    0.667
        21 -10.8109     38.9540    199.7412   1.2046707137e+02   2.8149300207e+01    0.2254424    0.1735167  67.37  0.001045582    1.086    0.079
        22 -11.3428    133.8955    196.4693   9.9290069461e+01   1.4773383466e+01    0.2544245    0.2341849 -85.51 0.0005504531    1.163    0.140
        23 -12.2240    128.1003    194.3704   1.0024602695e+02   1.6224171466e+01    0.4480913    0.2804167 -79.46  0.001656829    2.374    0.579
        24 -10.8484    151.3394    195.3591   9.5264541777e+01   1.1855317955e+01    0.3178491    0.1565056  45.62  0.001363998    1.906    0.475
        25 -11.8039     34.5768    228.1848   1.2340082231e+02   2.2819026248e+01    0.1963382    0.1407086  56.96 0.0003310129    1.166    0.142
        26 -18.5010      2.0019    100.4430   1.1956061685e+02   5.4354841678e+01     16.24176    0.5558485 -72.18   0.02375929   21.679    0.954
        27  -9.7472    156.6145    190.2177   9.3208670850e+01   1.1886678457e+01    0.1822712    0.1330907 -34.01 0.0002513299    1.547    0.354
        28 -10.7340     50.3512    224.6909   1.2020471848e+02   2.1644131506e+01     0.204721    0.1133463  84.72 0.0009560107    1.773    0.436
        29 -10.5173    150.6084    187.7567   9.4093451036e+01   1.3489932487e+01    0.1916914    0.1379682 -61.99 0.0006766762    1.643    0.391
        30  -9.9089     81.8401    194.8018   1.1071104047e+02   2.3650914156e+01    0.2627846    0.1897832 -71.73  0.001491854    1.370    0.270
        31 -11.2964     40.3631    224.2582   1.2206389439e+02   2.2924788171e+01     0.237457    0.1369555  77.09 0.0006248745    1.538    0.350
        32 -11.1990     54.8803    222.5277   1.1916036439e+02   2.1509719640e+01    0.2514166    0.1355152  55.90 0.0009823181    1.557    0.358
        33 -11.6821     98.9504    181.2107   1.0491089624e+02   2.4027847102e+01    0.3909899     0.308077 -14.02  0.001935056    1.918    0.479
        34 -11.5352    150.8494    179.5845   9.2542782090e+01   1.5101553266e+01    0.4587552     0.307584 -76.09   0.00198817    2.301    0.565
        35 -12.2912    144.3364    179.3947   9.3989249340e+01   1.6376244195e+01    0.5465381    0.3903758 -71.38  0.002266644    1.788    0.441
        36 -11.5503    139.4990    171.7755   9.3682763213e+01   1.8912302089e+01    0.4653651    0.3181902  51.96  0.001329781    1.479    0.324
        37 -10.0158    188.8607    178.0965   8.3983794746e+01   8.0886726080e+00    0.3332837    0.2215182  59.86  0.001220174    2.039    0.509
        38 -10.7652    187.7435    173.1602   8.3212865647e+01   9.2196576005e+00    0.4744091     0.282786 -61.66  0.001843524    2.756    0.637
        39  -9.1284     43.3076    179.7213   1.1769431058e+02   3.2098867726e+01    0.1304393   0.07998902  67.92 0.0002983184    1.556    0.357
        40 -10.9915     47.3357    173.1896   1.1607678890e+02   3.3139866929e+01    0.4240375    0.3130546 -42.94  0.001648135    1.757    0.431
        41 -11.0980     53.6231    172.8691   1.1455838322e+02   3.2460526677e+01    0.3224126    0.2097977  65.76 0.0006696585    1.503    0.335
        42 -10.6527    230.5099    167.4954   7.3681068196e+01   2.1976562639e+00    0.2558737    0.1173942 -45.96  0.001040002    2.525    0.604
        43 -11.1714     56.1083    166.3166   1.1316332393e+02   3.3695275084e+01    0.4516935     0.235112 -49.27  0.002101489    2.194    0.544
        44 -12.4417     93.1930    152.6909   1.0163015621e+02   3.1632258084e+01    0.6931952    0.5289202 -15.97  0.003343349    1.922    0.480
        45 -10.0899    187.4048    152.1528   7.8768725955e+01   1.3318481477e+01    0.2132055    0.1395193 -51.04 0.0008366436    1.693    0.409
        46 -10.5635    174.2879    148.6955   8.0825702032e+01   1.6756261390e+01    0.3533837    0.2825664 -71.59  0.001267515    1.596    0.373
        47 -11.5972    133.8418    145.4829   8.9680113981e+01   2.5874194690e+01     1.224189    0.3293605 -54.73  0.003014862    5.192    0.807
        48 -10.7842    144.0211    146.2533   8.7329208594e+01   2.3628644230e+01    0.3806745    0.2155517 -63.96  0.001411313    2.459    0.593
        49 -11.3283    105.4865    138.3981   9.5551353273e+01   3.2961433923e+01    0.5694884    0.3442943 -32.93  0.002301239    2.236    0.553
        50 -12.4173     93.2027    138.4003   9.8904924683e+01   3.5090061927e+01    0.2889669    0.2576384 -43.90 0.0004404327    1.179    0.152
        51 -11.0912    105.8975    130.7937   9.3784641542e+01   3.4710102000e+01    0.3860365    0.3187558 -65.27  0.001129436    1.209    0.173
        52 -11.3438    135.6217    127.6445   8.5091637137e+01   2.9571862875e+01     0.773123    0.2008481 -47.57  0.002112739    3.836    0.739
        53 -10.6157    135.0000    120.4192   8.3451957540e+01   3.1336720967e+01    0.4635709    0.1067994 -46.84  0.001175766    4.314    0.768
        54 -10.8850    113.7133    129.4801   9.1340337518e+01   3.3561042825e+01    0.3491094    0.3025765   6.16 0.0007148937    1.377    0.274
        55 -11.7064    119.8429    123.1234   8.8159028465e+01   3.3854994674e+01    0.7426003    0.4238349 -26.28  0.002588878    2.886    0.654
        56 -10.4606    160.6297    127.9143   7.9006952596e+01   2.4078757096e+01     0.370181    0.2825104 -49.78  0.001567959    1.331    0.249
        57 -11.1229    100.9585    125.4584   9.3960358971e+01   3.6882880320e+01    0.3009057    0.2560165 -10.91  0.001039835    1.433    0.302
        58 -10.1767    109.2167    118.7001   9.0020615972e+01   3.6966024585e+01    0.2395095    0.2184952 -83.87  0.000299547    1.157    0.136
        59  -9.8941    168.0094    112.9721   7.3483675344e+01   2.5536277262e+01    0.3790045    0.2586338 -78.90  0.001456223    2.396    0.583
        60 -10.7058    134.5678    104.1754   7.9253668964e+01   3.5028331071e+01    0.6201771    0.1806777 -44.52  0.001784559    3.377    0.704
        61 -11.9639    118.2802    110.1537   8.5292532168e+01   3.7161614181e+01    0.6533108      0.46821  58.94  0.002399846    1.611    0.379
        62 -10.4044    205.2761    110.3565   6.5171325994e+01   1.7464717723e+01    0.3376454    0.2701425  31.43   0.00102153    1.394    0.283
        63 -11.0781     56.3096    217.9000   1.1849210709e+02   2.2258925171e+01     0.291703    0.1489304  74.80  0.001102801    2.112    0.527
        64 -10.1064     61.2958    220.0119   1.1768877010e+02   2.1191743216e+01    0.1631491    0.1609826  41.26 0.0006450853    1.433    0.302
        65  -9.5377     48.7792    217.5462   1.1994514554e+02   2.3266940880e+01    0.2754222    0.1806156  20.88  0.001557683    2.337    0.572
        66  -8.9866    161.6434     89.2655   6.8398237160e+01   3.1783810327e+01    0.1587158    0.1242859 -85.79 0.0005261151    1.631    0.387
        67  -9.9754    156.3306     81.9112   6.7455397886e+01   3.4473822277e+01    0.2211654    0.2016111 -28.36 0.0006067032    1.116    0.104
        68  -9.5759    184.5024     77.0298   6.0209012645e+01   2.8416386800e+01    0.2340891    0.1483624 -35.80 0.0005432068    1.557    0.358
        69  -9.8071     63.9040     69.9847   9.1109206360e+01   5.5624804524e+01    0.2086955    0.1843766 -33.48 0.0004454622    1.021    0.021
        70 -11.2091    249.6992    246.8203   8.4951290759e+01  -1.1671986795e+01    0.4299246    0.0913282 -35.02  0.001673441    4.933    0.797
        71  -9.3463    168.1644    248.1575   9.9894928651e+01   4.4580289601e-02     0.153743    0.1218825  48.22  0.001008857    1.267    0.211
        72  -9.6240     76.1962    243.8249   1.1689705046e+02   1.4660884141e+01    0.1359811    0.1249219  66.89 0.0004085632    1.277    0.217
        73 -10.8168    158.3082    236.0133   1.0012344203e+02   3.4619278279e+00    0.2491728    0.1907431  26.89   0.00101804    1.219    0.180
        74 -11.2021    152.6830     55.8544   6.0248550240e+01   3.9903573053e+01    0.3846526    0.2844201 -78.01  0.001309611    1.748    0.428
        75 -10.7660     30.0560     36.3188   9.3496519115e+01   6.6315852732e+01    0.1704434     0.142162 -13.24   0.00115344    1.110    0.099
        76  -9.2868    168.9879    234.7554   9.7851854857e+01   1.9222389653e+00    0.1707475    0.1389305  32.27 0.0002682834    1.019    0.018
