#   1 NUMBER                 Running object number                                     
#   2 MAG_AUTO               Kron-like elliptical aperture magnitude                    [mag]
#   3 X_IMAGE                Object position along x                                    [pixel]
#   4 Y_IMAGE                Object position along y                                    [pixel]
#   5 X_WORLD                Barycenter position along world x axis                     [deg]
#   6 Y_WORLD                Barycenter position along world y axis                     [deg]
#   7 A_WORLD                Profile RMS along major axis (world units)                 [deg]
#   8 B_WORLD                Profile RMS along minor axis (world units)                 [deg]
#   9 THETA_WORLD            Position angle (CCW/world-x)                               [deg]
#  10 FWHM_WORLD             FWHM assuming a gaussian core                              [deg]
#  11 ELONGATION             A_IMAGE/B_IMAGE                                           
#  12 ELLIPTICITY            1 - B_IMAGE/A_IMAGE                                       
         1 -13.0521    142.2986     63.1857   6.6316755335e+01   4.1137845450e+01     1.648038      1.08292 -28.63  0.005928621    1.590    0.371
         2 -11.2120    149.5391     27.1229   5.2778304460e+01   4.4558024359e+01    0.4359429    0.4008672  43.45 0.0005934259    1.057    0.054
         3 -11.6135    156.3867     13.1095   4.7011756339e+01   4.4344515833e+01    0.7523708    0.5410471  49.89  0.002766469    1.314    0.239
         4 -11.2092    158.9061      2.9352   4.3409823356e+01   4.4647820693e+01    0.9219836    0.4260581  71.98   0.00405718    2.002    0.500
         5  -9.0115    116.3283     12.3367   5.4161988953e+01   5.4251624283e+01    0.2781277    0.1825554  36.41  0.001443599    1.447    0.309
         6 -10.2691    120.3535      8.8630   5.1959790885e+01   5.3631194475e+01    0.4735974    0.3423502  42.49  0.001225407    1.242    0.195
         7  -8.3533     56.9560      6.2437   6.9002865137e+01   6.6936503245e+01    0.1574371    0.0945827  41.29 0.0008879193    1.616    0.381
         8  -9.4605    133.2467     15.3444   5.1778752183e+01   4.9900072943e+01    0.3185759    0.1985631  -7.44 0.0008791772    1.913    0.477
         9  -8.1125    238.8401      1.3271   3.5123954832e+01   2.5442621347e+01    0.1624069   0.09836887  68.63            0    1.630    0.387
        10  -9.7820    190.0094      2.8357   3.9687266936e+01   3.6851696910e+01    0.3064435     0.227713  32.22   0.00171041    1.673    0.402
        11  -7.6391    184.3050    160.2670   8.2741822003e+01   1.2462868508e+01    0.1463378    0.1119818   7.99   0.00027418    1.530    0.346
        12 -10.4340    249.2395    249.6801   8.7081578428e+01  -1.1596348352e+01    0.3868591    0.2141804  27.69  0.002469539    1.444    0.307
        13 -15.2881     81.8653    164.2040   1.0752940110e+02   3.0624544592e+01     1.829376     1.480059 -22.30  0.004840508    1.742    0.426
        14 -15.5602    100.4373    217.0124   1.1047703063e+02   1.6461231370e+01    0.9196979    0.4099303  50.38  0.003403586    2.028    0.507
        15 -15.5883    120.3667    168.1270   9.8862410900e+01   2.3351656494e+01     1.616927    0.5345091  43.65  0.005569615    2.889    0.654
        16 -18.9868    108.2791    192.7915   1.0564572673e+02   2.0097305996e+01     5.222216     4.838489  47.45   0.02400686    1.130    0.115
        17  -9.4695     32.8132    158.6557   1.1869132606e+02   3.8041102424e+01    0.4013819    0.1606679 -65.63  0.001132809    2.065    0.516
        18  -9.1950    203.1891    156.8876   7.8131271949e+01   9.2845933102e+00    0.2031962    0.1789414 -20.11 0.0003843825    1.085    0.078
        19  -8.9527    184.6206    228.4108   9.5293598977e+01   7.0456404992e-01    0.2683319    0.2349914  58.01  0.001758574    1.412    0.292
        20 -10.7361     11.2247    219.6324   1.2770414918e+02   2.7121304143e+01     1.070367    0.3202381 -88.42  0.004705129    3.558    0.719
        21  -9.5674     38.1100    151.6663   1.1661602083e+02   3.9138625163e+01    0.2453065    0.1962291  87.82 0.0009988735    1.082    0.076
        22 -11.6198     24.5354    201.2056   1.2415153229e+02   2.9487356409e+01     0.619426    0.4788741 -55.01  0.004311973    1.696    0.410
        23  -9.7829     12.7115    195.3623   1.2604242192e+02   3.1854401984e+01    0.2948457    0.2146401 -81.76  0.001774914    1.221    0.181
        24  -9.4966      2.4183    212.6941   1.2889015502e+02   2.9289724603e+01    0.1986794    0.1641311 -89.19 0.0005722566    1.304    0.233
        25 -10.9426     11.7846    207.0006   1.2691565574e+02   2.9556792448e+01    0.4854512    0.2808594  49.59  0.002779246    1.524    0.344
        26  -9.6791     21.2889    230.3365   1.2653958198e+02   2.4076174189e+01    0.3157067    0.1908751  59.88  0.001965635    1.263    0.208
        27  -9.6776    173.4750    149.8067   8.2764971274e+01   1.6755953207e+01    0.3965818    0.2402921  31.11  0.001568198    1.869    0.465
        28  -8.3239    200.1730    147.2422   7.6566112840e+01   1.1668271744e+01    0.2844815    0.1914005 -61.52  0.001225535    2.136    0.532
        29  -9.0437    249.5323    143.9263   6.6894299688e+01   2.6130518762e+00    0.3070879    0.1113239 -40.18  0.001185665    2.560    0.609
        30 -10.9771    248.0480    221.6538   8.2604140616e+01  -8.2389861838e+00    0.4194734    0.3626069  27.21  0.002979536    1.418    0.295
        31  -9.1764    174.9195    220.5843   9.5945192527e+01   3.5233974757e+00     0.342444    0.2049795 -31.99  0.001782211    2.025    0.506
        32 -10.6242    180.5153    142.8406   7.9632556015e+01   1.6658634748e+01    0.4968519    0.3325157   2.21   0.00174426    2.342    0.573
        33  -8.4161    192.5316    144.2323   7.7424712217e+01   1.3832452961e+01     0.259756    0.1825641  56.78 0.0005685657    1.650    0.394
        34  -8.8434     23.8051    142.3106   1.1910346989e+02   4.2719355628e+01    0.2394033    0.1189255 -52.19  0.001211619    2.019    0.505
        35  -9.0721     31.7954    237.3915   1.2514520873e+02   2.1640585101e+01    0.1989737    0.1908929 -45.95  0.001629582    1.724    0.420
        36  -9.2808     42.9503    137.0498   1.1345521286e+02   4.2120025540e+01    0.2067182    0.1710571 -83.64 0.0005120068    1.056    0.053
        37  -8.8499     24.5567    132.2844   1.1772662002e+02   4.5029249023e+01    0.2589909    0.1070355 -77.80  0.001138601    2.256    0.557
        38  -9.4985     24.8442    222.2909   1.2545876345e+02   2.5232560711e+01     0.288173    0.1731125  35.22  0.001876288    1.872    0.466
        39  -8.9690     21.2238    219.9983   1.2596623405e+02   2.6053627921e+01    0.1991349    0.1320788 -89.54 0.0009003283    1.252    0.201
        40  -8.2009     34.2979    132.4112   1.1513165046e+02   4.4113494887e+01    0.1567194    0.1150784  50.18 0.0005141373    1.477    0.323
        41  -9.0260    238.0702    129.6013   6.5548076469e+01   7.0974111172e+00    0.3404458    0.1862505 -37.62 0.0009821395    1.648    0.393
        42  -7.9070    245.6482    130.3306   6.4484268740e+01   5.5155974101e+00    0.1387667    0.1057648 -63.29 0.0007047187    1.774    0.436
        43  -8.9176    184.6424    221.2960   9.4161074846e+01   1.7736501930e+00    0.2467161    0.1990087 -27.41   0.00106708    1.374    0.272
        44  -9.7093      5.7911    208.4153   1.2807818042e+02   2.9829280672e+01    0.2036725    0.1744608  75.51 0.0008732728    1.282    0.220
        45  -8.8368    181.1760    122.9313   7.4656883123e+01   2.0478160152e+01    0.2333499    0.2100342 -66.40 0.0003840387    1.236    0.191
        46  -9.6932     31.4547    122.4121   1.1449911168e+02   4.6781613599e+01    0.3506616    0.2208148 -35.65  0.001542305    1.962    0.490
        47  -8.9205     34.3730    117.8289   1.1296239773e+02   4.7613940765e+01    0.2239236    0.1503962 -50.46 0.0008234117    1.399    0.285
        48 -10.0214    215.0576    197.6026   8.4147911089e+01   2.4535187323e-01    0.3418419    0.2957803  68.24  0.001238736    1.730    0.422
        49 -10.7811    205.9404    200.0468   8.6343093556e+01   1.4367395301e+00    0.6961809    0.4075348  16.35  0.003232189    2.143    0.533
        50 -11.1139    102.0897    113.7584   9.2136924208e+01   3.9295089782e+01    0.5215982    0.3544751  56.66  0.002364355    1.727    0.421
        51 -11.0543    168.3114    114.1073   7.5202168866e+01   2.5188254837e+01    0.5433869    0.4261866  75.47  0.001115423    1.603    0.376
        52  -9.7034    206.5225    194.1080   8.5116261732e+01   2.2759759327e+00     0.376684    0.2708744  23.32  0.002076105    1.315    0.239
        53 -10.1143     27.2248    233.5621   1.2570432321e+02   2.2845838482e+01    0.5058014    0.1139793  51.86  0.002226516    3.241    0.691
        54  -9.3186    237.4422    199.5810   8.0425806513e+01  -3.7413109225e+00    0.3331545     0.195728   5.23 0.0009539733    2.088    0.521
        55  -8.9280    207.3318    111.1742   6.6471547732e+01   1.6798524522e+01    0.4052982    0.2524651 -22.97  0.001430209    1.825    0.452
        56  -8.9578    203.7648    111.2538   6.7155270603e+01   1.7588150934e+01    0.3236532    0.2641457  18.72 0.0008803832    1.401    0.286
        57 -10.8624    109.8124    109.4739   8.8853008419e+01   3.8843120852e+01    0.5540537    0.3503096 -16.42  0.002054214    2.762    0.638
        58 -10.8742    106.0021    108.0832   8.9576190964e+01   3.9887082775e+01    0.4867256    0.3412781 -46.23  0.001432182    1.359    0.264
        59 -10.7687     71.6604    108.0721   9.9818026038e+01   4.5591086042e+01    0.6540264     0.390233  14.30  0.002648968    2.541    0.607
        60  -9.6631     64.5301    107.9341   1.0198468216e+02   4.6606003916e+01    0.2875001    0.2478237 -70.30 0.0008449036    1.116    0.104
        61  -9.8226     57.1053    236.6650   1.2066616758e+02   1.8781079223e+01    0.3128501    0.1786548  58.29 0.0009671832    1.406    0.289
        62 -10.2231    213.2296    191.9720   8.3420245973e+01   1.4370028598e+00    0.3767813    0.1753373  35.39  0.001669747    2.067    0.516
        63  -8.6386      2.1115    106.1191   1.2074905412e+02   5.2768298520e+01    0.1896104    0.1262279 -57.32  0.000666715    1.279    0.218
        64  -9.8820     18.3235    196.2927   1.2501834903e+02   3.1128815540e+01    0.3626143    0.1710854  85.43  0.001980133    1.924    0.480
        65 -14.9643    127.2875    202.5378   1.0294434242e+02   1.4929979642e+01    0.5161215    0.4354444  59.12  0.001582012    1.112    0.101
        66  -9.2626     12.8177    186.0766   1.2541398791e+02   3.3806395122e+01     0.251585    0.1172116 -71.46 0.0009061203    1.810    0.448
        67  -8.7820    216.3996    232.6082   9.0045837118e+01  -4.9284511065e+00    0.2149784     0.154876  31.36 0.0006297036    1.198    0.165
        68  -8.7133    242.1967    185.2294   7.6804739637e+01  -2.4517238572e+00    0.1582807     0.147543 -12.94 0.0004138537    1.288    0.223
        69 -10.2662     98.6387    109.7417   9.2129479112e+01   4.0854174801e+01    0.3102548    0.2777897 -58.61 0.0008029268    1.081    0.075
        70  -9.9397     60.2345    232.1301   1.1974772583e+02   1.9223797409e+01    0.2827403    0.1504974  43.92 0.0008610415    1.609    0.378
        71  -9.1049     23.1688    182.8707   1.2306636721e+02   3.3527844921e+01    0.2448671    0.1573305  70.81 0.0007357335    1.336    0.251
        72 -10.4247    114.0371     94.8125   8.3636458354e+01   4.1288129036e+01    0.3841501     0.373005 -46.70  0.001700506    1.041    0.040
        73 -11.9067    130.8718     92.2032   7.8243100481e+01   3.8266741821e+01     1.464886    0.4978673  41.18  0.004468407    3.275    0.695
        74  -9.6640    221.1582    179.6270   7.9480069457e+01   2.0002384422e+00    0.3773426    0.2032393 -35.92  0.001434941    1.828    0.453
        75  -7.6813    180.2659    242.6118   9.8236781103e+01  -6.3969172225e-01    0.1108272   0.09121305  68.42  0.000698307    1.702    0.413
        76  -9.4722     15.4189    177.8276   1.2429426340e+02   3.5357959218e+01    0.2702586    0.1549331 -65.63  0.001176324    1.618    0.382
        77  -9.9047     33.5129    173.6992   1.2004850287e+02   3.4521842124e+01    0.3947283    0.2806589  71.91   0.00153936    1.240    0.194
        78  -8.8051    175.0515    231.7205   9.7630300982e+01   1.7789392988e+00     0.183349    0.1583494  31.23 0.0002970569    1.056    0.053
        79 -12.2972    142.7518     45.7954   6.0444486791e+01   4.3786946541e+01     1.303726     0.663884  51.00  0.005410332    1.853    0.460
        80 -12.4614    131.4104     80.7021   7.4625740627e+01   4.0473345945e+01     1.199168    0.6619198 -30.89  0.004716122    1.995    0.499
        81 -12.4412    138.7402     74.9868   7.0960923048e+01   3.9875271603e+01    0.9853178    0.8064157 -34.83  0.004045593    1.212    0.175
        82 -10.6203     19.2492    172.3639   1.2305254453e+02   3.6217339632e+01    0.5202147    0.2414776  73.81  0.002587328    2.239    0.553
        83 -10.1166    234.5780     79.1415   5.4019281177e+01   1.6136532855e+01    0.4417905    0.2381694  53.50  0.001558922    2.012    0.503
        84 -10.5269    245.5854     77.3767   5.2117652476e+01   1.4025746039e+01    0.4089052    0.2551632 -13.55  0.001845889    2.216    0.549
        85  -8.5677    122.6153     77.3406   7.5932481453e+01   4.3097007097e+01    0.3037756    0.2145964   2.94 0.0009005555    2.005    0.501
        86 -10.2815    109.9439     75.7263   7.9015499957e+01   4.6115452806e+01     0.319861    0.2749588 -45.33 0.0002761027    1.172    0.147
        87  -9.6584    205.8220     69.7304   5.5882390122e+01   2.4308970878e+01    0.4637304    0.2789087 -16.38  0.001899335    2.242    0.554
        88  -9.4341    230.5920     64.7466   5.1005348666e+01   1.9251667321e+01    0.2093139    0.1159922 -43.45 0.0009529261    1.629    0.386
        89  -9.6044     19.3376    166.9771   1.2258150247e+02   3.7417231658e+01    0.3060948    0.1856261  40.85   0.00162475    1.733    0.423
        90 -10.2195    225.8885     59.2398   5.0245214966e+01   2.1154780841e+01    0.4041446    0.3685167  47.28  0.001567123    1.241    0.194
        91  -9.4120    178.0779    227.0486   9.6339341311e+01   1.9880279621e+00     0.378951    0.2381482 -10.82  0.001303314    2.454    0.593
        92 -10.3254    203.6484    169.4692   8.0749888258e+01   6.9490314526e+00    0.6828436    0.3017141 -28.72  0.002525814    2.826    0.646
        93  -9.9432    154.9809     48.2106   5.8662139617e+01   4.0383486483e+01    0.2559568    0.2182751 -31.67 0.0005303125    1.203    0.169
        94 -10.4530    245.7902    240.4490   8.6175990403e+01  -1.0129647911e+01    0.1799242    0.1200337 -13.33  0.001197386    1.400    0.285
        95  -9.2083    221.8429     40.1381   4.5926213634e+01   2.4792875988e+01    0.2176225    0.1661933 -62.30 0.0005387017    1.246    0.197
        96 -10.0903    150.9615     32.6935   5.4367977215e+01   4.3519474553e+01    0.2936243      0.21428  72.22  0.001001831    1.419    0.295
        97  -9.1592    133.6474    248.2619   1.0768319358e+02   5.8595190899e+00    0.3277543    0.1578271  51.61  0.001221739    1.936    0.483
        98  -8.9036     27.9062     33.7716   9.4404565855e+01   6.6669124144e+01    0.1713875    0.1401686  54.22  0.001086136    1.969    0.492
        99 -10.2846    233.5898     26.4818   4.1331274030e+01   2.3796903459e+01    0.4133621    0.3030054 -59.22  0.002321468    1.224    0.183
       100  -9.0863    135.2115     27.8490   5.5850427182e+01   4.8036542550e+01    0.2010953    0.1558642  31.31 0.0005115536    1.314    0.239
       101  -9.4525    214.3041     24.3782   4.2776749427e+01   2.8587647150e+01    0.3857733    0.1789725 -44.43  0.001724814    2.000    0.500
       102  -8.7470    236.0401     20.9978   3.9815112292e+01   2.3897199393e+01    0.2044975    0.1729149 -65.92 0.0007913801    1.009    0.009
       103  -8.5277    165.9869     18.6611   4.7308694365e+01   4.1334673907e+01    0.1925216    0.1631053  68.73 0.0003514623    1.088    0.081
       104  -9.4123    139.9084    248.0598   1.0649443895e+02   4.9205760365e+00    0.3778858     0.198537  39.02  0.001207121    1.551    0.355
       105  -9.6716     57.2448    245.5816   1.2129309026e+02   1.7160331156e+01    0.3892127    0.1688099 -65.11  0.002208092    2.475    0.596
       106 -10.5766    191.7687    153.7531   7.9748437672e+01   1.2179715971e+01    0.9742445    0.2713362 -45.58  0.002840261    4.010    0.751
       107  -8.7491    165.2923    243.0571   1.0110012815e+02   1.6708387586e+00    0.3156584    0.1585016  47.34  0.001438979    1.826    0.452
       108  -8.6255    170.2285    245.3899   1.0049500099e+02   5.5222066902e-01    0.2008586    0.1529085  73.20 0.0009876291    1.976    0.494
       109  -8.3187    169.8065    241.7912   1.0007769311e+02   1.1368493152e+00    0.3062567    0.1767689  15.72  0.001475595    2.565    0.610
       110 -10.4674    188.0111    152.4827   8.0245771465e+01   1.3196381080e+01    0.4991465    0.3478187 -52.74  0.001599241    1.646    0.392
