#   1 NUMBER                 Running object number                                     
#   2 MAG_AUTO               Kron-like elliptical aperture magnitude                    [mag]
#   3 X_IMAGE                Object position along x                                    [pixel]
#   4 Y_IMAGE                Object position along y                                    [pixel]
#   5 X_WORLD                Barycenter position along world x axis                     [deg]
#   6 Y_WORLD                Barycenter position along world y axis                     [deg]
#   7 A_WORLD                Profile RMS along major axis (world units)                 [deg]
#   8 B_WORLD                Profile RMS along minor axis (world units)                 [deg]
#   9 THETA_WORLD            Position angle (CCW/world-x)                               [deg]
#  10 FWHM_WORLD             FWHM assuming a gaussian core                              [deg]
#  11 ELONGATION             A_IMAGE/B_IMAGE                                           
#  12 ELLIPTICITY            1 - B_IMAGE/A_IMAGE                                       
         1 -14.6593    147.7576     62.3503   8.9528667025e+01   3.9908361166e+01     1.534821     1.196283   9.09  0.003836299    1.388    0.280
         2 -14.6759    158.2294     47.4196   8.2035982707e+01   3.9716663118e+01     1.284097     1.067994 -17.64  0.003597942    1.170    0.145
         3 -14.7982    170.1120     16.8883   6.8863070653e+01   4.0465322014e+01     1.092273     1.033698  34.86  0.003507694    1.034    0.033
         4 -14.1631    188.1862     13.6345   6.5007784937e+01   3.5945111101e+01    0.9703726    0.6362901 -74.51  0.003783656    2.006    0.502
         5 -13.1411    197.8143      7.2157   6.1673315115e+01   3.3976182792e+01    0.5027929    0.3433079 -46.13  0.002283959    1.562    0.360
         6 -13.1923    204.3678    175.3470   1.0520537402e+02   9.8598639444e+00    0.5151159    0.3984067  25.15  0.001392258    1.041    0.039
         7 -11.2133    139.4881    249.9726   1.2669305803e+02   1.0718424062e+01    0.1864823    0.1640731 -71.17   0.00121231    1.583    0.368
         8 -11.0595    139.6286    245.5326   1.2625291792e+02   1.1216789460e+01    0.2251338    0.1269375  52.60 0.0008163625    1.591    0.371
         9 -11.3085    140.3809    240.7008   1.2566137105e+02   1.1689506046e+01    0.1793649    0.1434094 -26.43 0.0008058102    1.813    0.448
        10 -13.2692    135.6563    238.3788   1.2621487869e+02   1.2621960923e+01    0.3148798    0.2488724  56.14   0.00114367    1.237    0.192
        11 -11.0570    126.7183    248.6737   1.2862157587e+02   1.2567463237e+01    0.1786223     0.127407  20.55   0.00134122    1.788    0.441
        12 -12.1965    128.2398    245.1820   1.2806793815e+02   1.2788889989e+01    0.2118177     0.185917  35.88  0.001298632    1.272    0.214
        13 -19.9012     89.4824    222.5199   1.3259490681e+02   2.0849390118e+01     6.481942     4.626685  58.64   0.04685681    1.139    0.122
        14 -12.6063    202.0416    166.4687   1.0398645169e+02   1.1436098997e+01    0.5932138    0.4156152  10.46  0.002988427    1.447    0.309
        15 -12.3191    196.9514    176.5358   1.0678829789e+02   1.1009096684e+01    0.3515016    0.2365968  36.01  0.000898994    1.237    0.192
        16 -14.1408    192.5118    163.9163   1.0530590395e+02   1.3523715388e+01     1.218959    0.5325855 -46.38  0.002108396    3.290    0.696
        17  99.0000     32.1743    222.4205   1.4208134111e+02   2.7146117930e+01    0.2432355    0.1688374 -37.58  0.001744454    3.086    0.676
        18 -13.0716    230.1575    168.0820   9.9237098440e+01   6.2215735991e+00    0.4241274    0.2604796 -23.87  0.002082073    1.673    0.402
        19 -10.6502    152.0645    235.2764   1.2315903370e+02   1.0704819956e+01    0.2387079    0.1043098  51.54  0.001034849    2.304    0.566
        20 -10.5838    145.0627    232.3218   1.2402118025e+02   1.2058819654e+01    0.2056219    0.1303905 -49.19  0.001443806    2.126    0.530
        21 -11.5761     24.5731    215.4885   1.4299201275e+02   2.8922234109e+01     0.137337   0.09688379  55.83  0.001188115    1.130    0.115
        22 -14.4573    134.4871    147.1852   1.1422697445e+02   2.6809848138e+01     1.487437    0.4970268 -56.54  0.004728538    4.864    0.794
        23 -15.0009    143.8185    144.3362   1.1161870400e+02   2.5663783948e+01     1.078854    0.6853393 -59.04  0.005163353    2.013    0.503
        24 -12.7394    134.6173    109.0072   1.0618888121e+02   3.4061557006e+01     1.201074    0.1624149 -44.72  0.002607503    7.549    0.868
        25 -10.9577     23.0291    156.0438   1.4010025379e+02   3.9470374789e+01    0.1587099    0.1262278  79.19  0.000409635    1.030    0.029
        26 -11.1774    176.9515    154.9588   1.0664946959e+02   1.7733874720e+01    0.2015738    0.1786011  31.09 0.0004892528    1.078    0.072
        27 -13.7623    161.2666    152.9176   1.0948932027e+02   2.0983023157e+01    0.5023865    0.3984196  41.83   0.00183256    1.155    0.134
        28 -11.7664     18.4823    153.5214   1.4087532201e+02   4.0331141122e+01    0.2132288    0.1596361 -56.11 0.0009921149    1.608    0.378
        29 -11.6193     17.7139    150.6538   1.4085112205e+02   4.0951742484e+01    0.2896721     0.134395 -60.54  0.001550119    2.176    0.540
        30 -13.2738     11.6380    205.7477   1.4469459290e+02   3.1597994747e+01    0.3412687    0.2450655  25.24  0.002722846    1.920    0.479
        31 -12.8673    174.0231    148.5082   1.0597216447e+02   1.9300847893e+01    0.3698265    0.3264306 -53.25  0.001167342    1.417    0.294
        32 -13.0096    138.3483    199.6446   1.2141798862e+02   1.7478745264e+01    0.7733113      0.33387  37.21  0.003915085    1.999    0.500
        33 -11.5886      8.0000    149.4136   1.4279628770e+02   4.1922127675e+01    0.2031562    0.1247016 -85.13 0.0006425256    1.316    0.240
        34 -10.5909     24.8092    202.6931   1.4238042730e+02   3.0952888408e+01    0.1350883    0.1000609  88.12 0.0003172318    1.245    0.197
        35 -12.3112    172.2000    138.3266   1.0424410203e+02   2.1305348937e+01    0.2464872    0.2349746   5.27 0.0007028187    1.114    0.102
        36 -10.6356     14.1277    241.5082   1.4552102824e+02   2.5994327340e+01    0.2403374   0.07771921  82.45  0.001456851    3.248    0.692
        37 -13.0147    153.6898    186.5568   1.1668535654e+02   1.6996144756e+01    0.4085093    0.3042552  63.18  0.002010837    1.620    0.383
        38 -12.0520    150.8715    180.6681   1.1635116465e+02   1.8356185186e+01    0.2268278    0.1876358 -67.08 0.0005935732    1.567    0.362
        39 -13.3795    160.7493    128.1255   1.0449462463e+02   2.5316695323e+01    0.4537376    0.4300416  73.04  0.001685303    1.248    0.199
        40 -11.6821    152.2213    197.0928   1.1847116114e+02   1.5690403570e+01    0.3062261    0.2412484  42.98  0.001336145    1.075    0.070
        41 -14.0714    135.7478    127.9469   1.1017971893e+02   3.0181787794e+01     1.708789    0.3288067 -49.32  0.004279693    6.485    0.846
        42 -11.5875    140.3288    120.4843   1.0747205320e+02   3.0737272010e+01    0.2935508    0.2194543  72.13 0.0007959028    1.840    0.457
        43 -11.9813    152.6645    192.3858   1.1772888652e+02   1.6301031902e+01    0.3365255    0.2287208  45.46  0.001329499    1.260    0.206
        44 -11.9422     26.9067    194.7747   1.4163037035e+02   3.2085776264e+01     0.173133    0.1357618  59.06 0.0005867009    1.152    0.132
        45 -11.2229    167.7525    112.8635   9.9352194953e+01   2.6541694311e+01    0.3533967    0.2663581 -82.09  0.001303085    2.280    0.561
        46 -11.5977      3.9382    112.5584   1.4135278766e+02   4.9683424831e+01     0.289531    0.1773827  14.58  0.001920532    2.244    0.554
        47 -10.9027    205.4447    110.1619   9.0921282013e+01   1.8802114611e+01    0.3248926    0.1934856  37.40  0.001036295    1.603    0.376
        48 -10.7761     21.4609    194.2919   1.4255700668e+02   3.2653807680e+01    0.1145013   0.07764415  87.97 0.0005666016    1.268    0.212
        49 -12.0133     31.5668    104.4486   1.3329866282e+02   4.9523601454e+01    0.2947966    0.2113051  -0.22  0.001841101    2.012    0.503
        50 -10.3932     28.2862    233.4058   1.4314954335e+02   2.5877846382e+01   0.08512804   0.06044589  68.27 0.0001054287    1.094    0.086
        51 -11.4390    124.8048     95.7955   1.0538987220e+02   3.8593404017e+01    0.2260707    0.1990958  -1.36 0.0009618977    1.209    0.173
        52 -12.6530     51.4737     91.7570   1.2560023279e+02   5.0517210384e+01    0.2973312    0.2721602  -2.48 0.0007248364    1.318    0.241
        53 -12.4299    145.8513    190.0250   1.1870218164e+02   1.7743810536e+01    0.3554735    0.2559999 -24.37  0.001850464    1.880    0.468
        54 -10.1150     22.4157     83.7681   1.3321465646e+02   5.4822699614e+01    0.1648022   0.08659639 -61.55 0.0002972563    1.514    0.339
        55 -11.0489    142.7892     81.5231   9.6765769473e+01   3.7633921695e+01    0.2834576    0.2080609 -34.15 0.0006043683    1.345    0.257
        56 -10.3413    104.5437     82.0220   1.0731037599e+02   4.5193988978e+01    0.2054998     0.189544  30.03 4.071459e-05    1.128    0.113
        57 -19.1145     76.4737     94.6508   1.1870000242e+02   4.6867329059e+01      17.0301    0.7817643 -56.57   0.02472181   18.819    0.947
        58 -11.3684    151.9536    249.0206   1.2460107514e+02   9.1351814275e+00    0.2254181    0.1072303  35.89  0.001210015    1.631    0.387
        59 -13.3708    162.4462     38.6267   7.8060953281e+01   3.9884388988e+01    0.5200448    0.4911563 -12.85 0.0008815223    1.083    0.076
        60 -11.0904     13.3696     59.8770   1.3253821306e+02   6.0740131477e+01    0.1684398    0.1509977  80.65 0.0004446505    1.260    0.206
        61 -12.6486    116.1880    247.1301   1.3017754604e+02   1.4125345199e+01    0.2878065    0.2019912 -30.82  0.002111123    2.532    0.605
        62 -11.1391    168.0134    235.5150   1.2051958425e+02   8.3868924640e+00    0.1607424    0.1414427  20.63  0.001328237    1.255    0.203
