#   1 NUMBER                 Running object number                                     
#   2 MAG_AUTO               Kron-like elliptical aperture magnitude                    [mag]
#   3 X_IMAGE                Object position along x                                    [pixel]
#   4 Y_IMAGE                Object position along y                                    [pixel]
#   5 X_WORLD                Barycenter position along world x axis                     [deg]
#   6 Y_WORLD                Barycenter position along world y axis                     [deg]
#   7 A_WORLD                Profile RMS along major axis (world units)                 [deg]
#   8 B_WORLD                Profile RMS along minor axis (world units)                 [deg]
#   9 THETA_WORLD            Position angle (CCW/world-x)                               [deg]
#  10 FWHM_WORLD             FWHM assuming a gaussian core                              [deg]
#  11 ELONGATION             A_IMAGE/B_IMAGE                                           
#  12 ELLIPTICITY            1 - B_IMAGE/A_IMAGE                                       
         1 -16.9424      6.9735    158.7939   1.2158430232e+02   4.1431807030e+01      2.96787     0.961919 -86.09   0.01549413    2.686    0.628
         2 -16.4170    131.7937     14.4770   5.4003355840e+01   5.0800566399e+01     9.426882     3.761491 -33.08   0.03435769    2.307    0.566
         3 -14.2622    188.6058    104.2788   7.2417258055e+01   2.3234530687e+01     3.353163    0.8879706 -42.36  0.009861585    4.502    0.778
         4 -12.8745    184.5568     67.1030   6.2989829255e+01   2.9744402685e+01    0.9115365    0.2908261 -44.07  0.002688797    3.790    0.736
         5 -14.2677    193.9032     72.4716   6.2956046987e+01   2.6696326188e+01     1.097093    0.9670891  63.62  0.005942586    1.240    0.194
         6 -18.3778    239.2423     51.4278   5.0681894450e+01   1.8646257917e+01     8.150461     3.837321 -21.05   0.03511284    1.917    0.478
         7 -12.9649    157.2258      7.0225   4.6586879332e+01   4.4697529462e+01    0.8412004    0.4164853  -1.43  0.001554357    2.559    0.609
         8 -11.5780    224.1538     10.9859   4.0613030294e+01   2.6375106042e+01    0.3276032    0.2350904   8.05  0.001654149    1.543    0.352
         9  -9.6850     79.4994      9.5504   6.5290936850e+01   6.4036258527e+01    0.1411102    0.1271137 -11.49 0.0001564635    1.008    0.008
        10 -10.1348    215.8398      2.1788   3.8628792829e+01   2.9257719164e+01    0.3724487    0.1589938  16.71  0.001140817    4.294    0.767
        11 -10.3010    132.3148    138.6647   9.1399700327e+01   2.8886203831e+01    0.2083038    0.1362007 -55.23 0.0008794406    1.703    0.413
        12 -13.2158      6.6506    249.8318   1.2426900163e+02   2.6803388427e+01     0.505087    0.1377135  40.47  0.002933619    2.260    0.557
        13 -14.7824      4.8975    236.8098   1.2425956684e+02   2.8738468237e+01     0.768045    0.3743241  71.81  0.005828699    1.551    0.355
        14 -12.3162    218.1051    181.4456   8.2991177136e+01   7.7690444367e+00    0.2580776    0.1683426  29.00  0.000516716    1.244    0.196
        15 -11.2044    202.1463    248.1496   9.4551589232e+01   3.8746385170e+00    0.1490454     0.095121  27.83 0.0003999342    1.188    0.158
        16 -11.2072    214.7304    147.4266   7.7395130529e+01   1.2158654787e+01    0.2311991    0.1139158  49.75  0.001019623    2.037    0.509
        17 -10.6270    198.6851    144.2698   7.9491087654e+01   1.5521265707e+01    0.2269132    0.1948085  68.81  0.001390839    1.545    0.353
        18 -11.4078    215.1493    142.2682   7.6296776734e+01   1.2705167969e+01    0.2187786    0.1603503  -3.93 0.0008518202    1.366    0.268
        19 -10.8015    193.0364    140.7663   7.9787548214e+01   1.7061961519e+01    0.1848446     0.153942  32.25 0.0002954846    1.065    0.061
        20 -13.4966    177.8217    139.0664   8.2240496655e+01   2.0229323449e+01    0.4846241    0.4131416  65.05  0.002920104    1.378    0.275
        21 -12.3414    188.1592    137.7380   8.0052700860e+01   1.8422134035e+01    0.3216384     0.228025  52.67  0.001777102    1.458    0.314
        22 -12.1860    167.8707    135.0245   8.3340205025e+01   2.2779233637e+01    0.5176761    0.2058296  57.10  0.001773791    3.710    0.730
        23  -9.8231    189.6465    148.3334   8.1885838625e+01   1.6666899580e+01    0.1227365    0.1023048  84.22 0.0007045231    1.787    0.440
        24 -12.4658    160.9204    127.7559   8.3223932619e+01   2.5320434179e+01    0.3978719    0.3181251 -27.21  0.002252017    1.376    0.273
        25 -11.5144    189.0512    123.5002   7.6850864334e+01   2.0293357150e+01    0.3089578    0.2201252  39.16 0.0007428744    1.305    0.234
        26 -12.6094    183.1740    123.8191   7.8012843475e+01   2.1444919939e+01    0.3319113    0.3045299   8.92  0.001445983    1.053    0.050
        27 -12.9231    185.1490    119.1001   7.6582586728e+01   2.1746382135e+01    0.4953661    0.3451056 -46.73  0.002136379    1.667    0.400
        28 -11.8149    134.9992    121.1895   8.7388550511e+01   3.1574312034e+01    0.4552291    0.1771801 -46.26  0.001707704    2.717    0.632
        29 -12.5831    134.5580    108.3661   8.4654824126e+01   3.4068813766e+01     1.117454    0.2167737 -45.92  0.002977522    5.366    0.814
        30 -13.3963    167.5923    113.9430   7.8800917903e+01   2.6231416325e+01    0.5816128     0.475532   3.66  0.001043259    1.386    0.278
        31 -15.8475    233.1039    160.2686   7.6931003319e+01   7.5148663046e+00     2.049825     1.407429   9.28  0.008030914    1.348    0.258
        32 -12.2234    156.0894    111.8247   8.0684480039e+01   2.9005886079e+01    0.3511038    0.2621795 -63.62 0.0006106117    1.683    0.406
        33 -10.9017    196.0970     62.3341   5.9632272874e+01   2.7575856952e+01    0.2676304    0.2024297 -25.27 0.0001740934    1.259    0.206
        34 -12.1382    206.3032     75.2119   6.1710198341e+01   2.3374908152e+01    0.4247543    0.2661644 -14.27 0.0008067127    1.677    0.404
        35 -10.7867     59.6482    217.1275   1.1465615719e+02   2.6154998657e+01    0.1852957   0.09674986  50.65 0.0009284518    1.356    0.262
        36 -13.3486    192.7199     93.1089   6.8827842368e+01   2.3979616532e+01    0.7506573    0.6879725 -70.03  0.003347939    1.315    0.239
        37 -12.7904      1.8386    212.0227   1.2419337562e+02   3.2668528022e+01    0.4996982    0.1191195 -86.23  0.002629534    3.972    0.748
        38 -13.7759    198.2947     79.2401   6.4127153159e+01   2.4695619233e+01     1.341272    0.7356512  28.32  0.004573102    2.390    0.582
        39 -10.9930    230.6032    201.7526   8.4275093747e+01   3.8975009329e+00    0.3718837    0.1519441  24.22  0.001787091    2.977    0.664
        40 -11.9680    204.4051    100.6850   6.8737542181e+01   2.0309247092e+01    0.3002202    0.2970458 -53.70   0.00107153    1.198    0.165
        41 -11.8390    112.2325    104.7047   8.9233480201e+01   3.9132192235e+01    0.3744603    0.1913293 -57.23  0.001601655    2.116    0.527
        42 -10.9786    127.2933    104.6196   8.5493839125e+01   3.6244937832e+01    0.2574445    0.1717118 -57.65  0.001015479    1.633    0.388
        43 -11.4492    164.2967    102.4357   7.6689303488e+01   2.8855199140e+01    0.2471182    0.1729105 -57.43 0.0008649144    1.773    0.436
        44 -12.4450    153.0705     97.4515   7.7799358679e+01   3.2176484679e+01    0.4157863    0.3836047  21.57  0.002337464    1.111    0.100
        45 -11.0013    144.6031    102.4030   8.0926611626e+01   3.3106753348e+01    0.2638074    0.2357868  21.94 0.0005337102    1.198    0.166
        46 -15.4320    236.7145     68.5848   5.5597240713e+01   1.7279376598e+01    0.7870911    0.5976772 -33.01  0.003546013    1.265    0.209
        47 -10.7341    131.7520     97.9217   8.2793320140e+01   3.6641276284e+01    0.2628689    0.2034903  59.19 0.0006049432    1.334    0.250
        48 -11.4574    159.8681     97.8889   7.6455763583e+01   3.0603626469e+01    0.2249688    0.1955832  16.38 0.0004583263    1.228    0.186
        49 -10.1755    113.1923     94.8587   8.6661046577e+01   4.0970628883e+01    0.1852173    0.1696238 -13.16 0.0003354509    1.290    0.225
        50 -12.3610     15.6543    201.4846   1.2154548192e+02   3.3133858302e+01    0.1795578    0.1121347  68.96 0.0006595665    1.163    0.140
        51 -13.1199    151.6834     76.8355   7.2395471360e+01   3.6133585506e+01     1.008479    0.3257401  43.37  0.003057346    3.558    0.719
        52 -13.4107    162.5764     75.8454   6.9787265075e+01   3.3724053290e+01    0.5023788    0.4108986  15.61  0.001321715    1.372    0.271
        53 -11.3775    165.6282     67.8963   6.6770037275e+01   3.4282793408e+01    0.4305058    0.2619478 -19.07  0.001593271    1.891    0.471
        54 -12.1699    164.1235     83.7359   7.1747180409e+01   3.2043095103e+01    0.6174641    0.3421299  51.55  0.002631834    1.793    0.442
        55 -12.5703    166.5559     88.8092   7.2656931803e+01   3.0633732509e+01    0.6143216    0.4900452  14.65  0.001356151    1.429    0.300
        56 -11.5767    160.4350     86.7149   7.3346725694e+01   3.2393399210e+01    0.3695004    0.2439609 -45.80  0.001610066    1.588    0.370
        57 -11.3093    137.6454     92.4508   7.9983963784e+01   3.6443494349e+01    0.3204989    0.2546192  66.47 0.0007543925    1.380    0.275
        58 -10.2726    206.9897     91.2962   6.5917542618e+01   2.1032511898e+01    0.1903534    0.1709438  36.00 0.0002132271    1.118    0.105
        59 -12.4563    150.1586     87.9862   7.5917618980e+01   3.4510142434e+01    0.3094976    0.2484826 -39.41 0.0006465319    1.251    0.201
        60 -11.7765    172.3472     84.8971   7.0419249680e+01   2.9933408173e+01    0.2551283    0.2338113  35.15 0.0002307032    1.075    0.070
        61 -10.8016    177.7836    109.2128   7.5664330224e+01   2.4822461459e+01    0.3445386    0.1887531 -37.75  0.001431759    1.873    0.466
        62 -13.1850     86.6237     75.8955   8.9223950044e+01   4.9892182225e+01    0.9064929    0.5438573 -76.87  0.003752226    2.490    0.598
        63 -13.6959     60.5036    155.9895   1.0982583341e+02   3.6546979199e+01    0.5991631    0.4125446  69.25  0.002760533    1.253    0.202
        64 -14.7619     67.4014    150.5887   1.0772137418e+02   3.6736326674e+01     1.172345    0.9994783 -62.40  0.004354456    1.390    0.281
        65 -11.0493    116.5132    108.4989   8.9009826833e+01   3.7561182460e+01    0.1382473    0.1305145  77.79 0.0001555742    1.006    0.006
        66 -13.0436     98.4277     64.0209   8.2119802324e+01   5.0251165821e+01       1.0847     0.423969  59.21  0.002982644    5.289    0.811
        67 -10.8772    133.7464    146.6175   9.2498505135e+01   2.7227670417e+01    0.3237911    0.1115466 -54.30  0.001209873    3.705    0.730
        68 -12.4056    199.2708    105.8173   7.0886830903e+01   2.0699462021e+01    0.4266082    0.2612874  35.01  0.001947417    1.664    0.399
        69 -10.6364    161.6947     45.3960   6.0171857908e+01   3.8740850986e+01    0.3402205    0.2473255  50.88 0.0008327938    1.387    0.279
        70 -14.3801    182.4511     78.7913   6.6778979762e+01   2.8507355177e+01     1.031716    0.8566706  22.09  0.005376092    1.253    0.202
        71 -10.5232    201.0625     31.2115   4.9282004629e+01   3.0226381376e+01    0.2371974    0.1269847 -26.07  0.000487575    1.719    0.418
        72 -10.3668    206.0575     27.6249   4.7537475959e+01   2.9328762376e+01    0.3205879    0.1697358 -33.90  0.001361541    1.719    0.418
        73 -12.0046    153.9182    170.0626   9.2295506258e+01   1.9956409835e+01    0.2508938    0.2255306  57.65  0.001336911    1.161    0.139
        74 -12.4733    200.4144     23.9805   4.7039850221e+01   3.1192337331e+01    0.3114415    0.2807208  43.62  0.001136823    1.154    0.133
        75 -10.5095     38.8050     19.2325   8.7879488606e+01   6.9265177380e+01    0.1808291    0.1324818 -32.10  0.001051817    1.308    0.235
        76 -12.4040    192.3153    194.2801   8.9173851215e+01   1.0494640929e+01    0.6595818    0.3694589 -61.12  0.002612346    6.394    0.844
        77 -13.4458     18.8128    135.7426   1.1771785829e+02   4.5017555435e+01    0.6620928    0.4660574  52.00  0.002788865    1.295    0.228
        78 -12.3141     90.4074    167.6290   1.0465681031e+02   3.0404434540e+01    0.3257487    0.2592371  60.55  0.001257826    1.035    0.033
        79 -13.6470     54.0682    159.9228   1.1160000108e+02   3.6558195398e+01    0.5107571    0.4092311 -76.41  0.000955961    1.318    0.241
        80 -11.5549    248.6848    249.2338   8.8176335709e+01  -2.1323636814e+00    0.2082591   0.08643452  32.53  0.001446749    1.625    0.385
        81 -15.3342     27.5294    176.0756   1.1823340374e+02   3.6379020603e+01     1.289593    0.5509065  67.61  0.006206493    2.037    0.509
