#   1 NUMBER                 Running object number                                     
#   2 MAG_AUTO               Kron-like elliptical aperture magnitude                    [mag]
#   3 X_IMAGE                Object position along x                                    [pixel]
#   4 Y_IMAGE                Object position along y                                    [pixel]
#   5 X_WORLD                Barycenter position along world x axis                     [deg]
#   6 Y_WORLD                Barycenter position along world y axis                     [deg]
#   7 A_WORLD                Profile RMS along major axis (world units)                 [deg]
#   8 B_WORLD                Profile RMS along minor axis (world units)                 [deg]
#   9 THETA_WORLD            Position angle (CCW/world-x)                               [deg]
#  10 FWHM_WORLD             FWHM assuming a gaussian core                              [deg]
#  11 ELONGATION             A_IMAGE/B_IMAGE                                           
#  12 ELLIPTICITY            1 - B_IMAGE/A_IMAGE                                       
         1 -14.5903    155.1318     58.5299   7.9645648176e+01   3.8435340706e+01     1.514894     1.294898  42.78  0.001053805    1.215    0.177
         2 -15.0222    167.2047     43.6836   7.2567245485e+01   3.7494914713e+01     1.378006     1.164417  -9.48  0.004091716    1.361    0.265
         3 -15.2061    187.3070     10.2126   5.9608761476e+01   3.6199041291e+01      2.79592      1.25387  71.63  0.008455595    2.091    0.522
         4 -12.3302    125.0809    241.4865   1.2487823421e+02   9.7737147151e+00    0.4092421    0.1574412 -53.93  0.002036072    3.455    0.711
         5 -14.8998    100.7538    243.0404   1.3005992327e+02   1.2749412607e+01    0.6551156    0.5397434 -45.42  0.004769706    1.652    0.395
         6 -19.9283     64.7049    167.4397   1.3134420785e+02   3.2299972668e+01     17.29867     7.631356 -73.20   0.07286805    2.500    0.600
         7 -12.5509    155.0805    187.5065   1.1121268595e+02   1.3999119599e+01    0.3412195    0.3124409  89.17  0.001143819    1.516    0.341
         8 -11.6761    151.2211    183.2174   1.1137136886e+02   1.5395372326e+01    0.3021294     0.257479 -86.94  0.000369716    1.715    0.417
         9 -13.8704    145.1135    174.1706   1.1124368153e+02   1.8100225229e+01     1.044378    0.6837162 -46.36  0.004657242    1.730    0.422
        10 -13.6678    137.9372    171.3610   1.1247824927e+02   1.9893962528e+01    0.6684653    0.4775433  41.74  0.002116301    1.280    0.219
        11 -10.7492    109.1077    239.8680   1.2803336996e+02   1.2152147577e+01    0.1634992    0.1183937  43.15 0.0002909861    1.150    0.131
        12 -10.4623    112.7254    196.3413   1.2240347174e+02   1.9182540662e+01    0.3840549     0.230443  -1.31  0.001527908    3.383    0.704
        13 -13.3059    164.2696    186.4288   1.0900306555e+02   1.2662473392e+01    0.5007358    0.4246978 -38.30  0.001979705    1.380    0.276
        14  -9.7924    242.4079    184.5358   9.3880669792e+01   1.0247196893e+00    0.1191899   0.08874326  -1.52 6.875069e-05    1.019    0.019
        15 -10.7291     28.5404    238.5362   1.4468776296e+02   2.1864500048e+01    0.1548721    0.1031218  78.82  0.001100983    1.485    0.327
        16 -12.3756    188.5696    176.2376   1.0207774972e+02   1.0278828256e+01    0.5188318    0.2896554 -53.78  0.002262075    3.031    0.670
        17 -11.4742      3.5766    179.9371   1.4832749109e+02   3.5618691177e+01    0.2720945     0.162948  48.98   0.00113134    1.315    0.240
        18 -10.2611    135.3041    179.8528   1.1454591534e+02   1.8705869667e+01    0.2603361    0.1620618  42.42 0.0007520507    1.451    0.311
        19 -12.7892    204.3757    175.5389   9.8859546846e+01   7.8100395600e+00    0.4261834    0.3756974  10.01  0.001232816    1.169    0.144
        20 -12.7208    196.5440    176.0274   1.0045545777e+02   9.0001395680e+00    0.5700172    0.3934253 -55.40  0.002184762    2.370    0.578
        21 -12.5721    189.4084    155.5258   9.7860938236e+01   1.3474151360e+01    0.4948678    0.4075914   7.68  0.001587922    1.113    0.101
        22 -12.4512    192.9780    165.0648   9.9060166527e+01   1.1297849446e+01    0.3614466    0.2904907 -21.56 0.0009714428    1.216    0.178
        23 -12.0737    189.9732    160.9960   9.8855680272e+01   1.2475272657e+01    0.3476907    0.3026459  49.52  0.001402783    1.425    0.298
        24 -11.1417     21.5562    237.2976   1.4604460296e+02   2.2758007628e+01    0.1131309    0.0940093  79.87 0.0008895182    1.343    0.256
        25 -12.2865    125.1960    172.0321   1.1575178233e+02   2.1969755413e+01    0.4604514    0.2780033  42.54 0.0008662353    1.487    0.328
        26 -11.2412     10.8430    174.5435   1.4635062670e+02   3.6253247507e+01    0.1814756    0.1419844  80.91 0.0003017198    1.156    0.135
        27 -12.1072    176.8572    169.1090   1.0316297423e+02   1.3433137320e+01    0.2676021    0.1940205 -50.23  0.001275476    1.752    0.429
        28 -11.6678    131.0356    234.7827   1.2292699593e+02   9.9627896686e+00    0.1635473    0.1518389  27.14 0.0006189165    1.250    0.200
        29 -10.9800    138.4701    250.6082   1.2312483830e+02   6.7036465882e+00    0.1797152   0.09556026  26.73            0    1.485    0.326
        30 -10.4118     24.3925    165.2676   1.4234605772e+02   3.7239623641e+01    0.1946522    0.1645911  24.82 0.0009340481    1.331    0.249
        31 -10.7749     14.3080    163.6149   1.4499411989e+02   3.8475068773e+01    0.3597186    0.1879945  27.15  0.001477837    1.865    0.464
        32 -10.1978      2.9603    163.9673   1.4802248891e+02   3.9231379749e+01     0.135342    0.1078463  62.66 0.0003608838    1.029    0.028
        33 -11.0037     35.8075    168.4310   1.3943661585e+02   3.5411840370e+01    0.2484264    0.1918443  70.30 0.0008262204    1.134    0.118
        34  -9.5957    135.2534    198.2941   1.1738078602e+02   1.5316910667e+01    0.1244457   0.09540265   2.08  0.000244328    1.489    0.329
        35 -10.7169    141.5248    229.8784   1.2017081909e+02   9.2343361064e+00     0.220368    0.1551991  39.57 0.0006446826    1.244    0.196
        36 -12.5304    166.3811    154.8589   1.0264281043e+02   1.7840807460e+01    0.4426357    0.3145506  65.07  0.002028948    2.147    0.534
        37 -11.1616     16.7907    225.6627   1.4666639785e+02   2.5293473090e+01   0.08888065   0.07832704 -73.50 0.0005500725    1.514    0.339
        38 -11.5922    174.1493    148.4934   9.9595502323e+01   1.7524030057e+01    0.3836587    0.2978026 -52.26  0.001406035    1.573    0.364
        39 -10.7662     25.9020    223.2343   1.4468004032e+02   2.4882696117e+01    0.2078696    0.1143525 -65.48  0.001258489    2.245    0.555
        40 -12.7646      5.9318    137.4367   1.4619465468e+02   4.5349565411e+01    0.4800187    0.3460286  83.94  0.001352653    1.183    0.154
        41 -11.9093     12.7615    137.4894   1.4410755088e+02   4.4891226395e+01    0.3710591    0.2300326  -8.92  0.001709809    2.295    0.564
        42 -12.5738      2.3384    126.1355   1.4680901523e+02   4.8359050985e+01    0.3972172    0.2672072 -86.20  0.001954775    1.283    0.221
        43 -12.5981    160.3301    127.8320   9.8087341660e+01   2.4191617614e+01    0.4820905    0.3446393 -51.51  0.001524981    1.583    0.368
        44 -11.2806     22.3533    221.4801   1.4536937625e+02   2.5552231541e+01     0.154791    0.1086655 -75.37  0.000773183    1.670    0.401
        45 -10.7591    218.2968    219.5627   1.0382514753e+02   3.3359516701e-02     0.179111   0.09314875 -29.89 0.0007099913    1.990    0.497
        46 -12.1167      5.9398    120.0352   1.4532361233e+02   4.9705013825e+01    0.4529849    0.2109022 -13.22  0.001907249    3.361    0.702
        47 -10.8453    168.0507    112.9175   9.2653590858e+01   2.5401423395e+01    0.3473028    0.2611226 -82.20  0.001392088    2.057    0.514
        48 -11.8519      2.6685    112.6702   1.4604641777e+02   5.1743948933e+01    0.3035739    0.1985636 -67.06  0.001256859    1.420    0.296
        49 -12.2355      7.0027    110.9983   1.4441745710e+02   5.1960032142e+01    0.4072148    0.2067266 -61.20  0.001517826    1.839    0.456
        50 -11.0340    204.8205    110.3960   8.4776053334e+01   1.7954775146e+01    0.3683215    0.2248006  38.59  0.001293107    1.753    0.429
        51 -12.1065     18.5371    108.7179   1.4002343620e+02   5.1871394924e+01    0.3721312    0.2197338 -15.40  0.001759323    2.308    0.567
        52 -11.3424      6.6651    101.9966   1.4393348271e+02   5.4302237045e+01    0.2510884    0.1970179  10.55 0.0008137224    1.497    0.332
        53 -11.5500     12.9234    240.8319   1.4783546381e+02   2.2945711217e+01    0.1621409    0.1377761 -51.37  0.001289298    1.815    0.449
        54 -11.6085    106.4035    206.2471   1.2512010530e+02   1.8259351834e+01    0.2490215    0.2403295 -33.73  0.001135797    1.275    0.215
        55 -12.5067    104.3479    202.4841   1.2516439983e+02   1.9265713600e+01    0.3525265    0.2185187  25.81  0.000665576    1.536    0.349
        56 -10.9014    146.0484     81.3166   8.8961730260e+01   3.6690771764e+01    0.2271213    0.2052768  53.41 0.0004571225    1.094    0.086
        57 -13.1046     11.9020    205.8092   1.4713106186e+02   2.9540411160e+01    0.4417365    0.2829156  13.46  0.002722216    1.996    0.499
        58 -12.4002    141.0490    164.0168   1.1040063195e+02   2.0783585527e+01    0.3976364    0.3058783 -65.65  0.000339224    1.689    0.408
        59 -10.9266    151.7604    196.9242   1.1345443001e+02   1.2933459334e+01    0.2880991    0.2167656  30.94  0.000724644    1.104    0.094
        60 -12.9983    171.4570     36.2047   6.9500235700e+01   3.7380274053e+01    0.4110235    0.3739735   8.71 0.0009660912    1.279    0.218
        61 -12.3813    151.8078    191.2181   1.1254824201e+02   1.3896653608e+01    0.6055461    0.4298925  70.86  0.002945633    2.496    0.599
        62 -10.9830     13.6511     60.1050   1.3603797654e+02   6.4875234507e+01    0.2557107    0.2023259  64.96 0.0007867456    1.400    0.285
