#   1 NUMBER                 Running object number                                     
#   2 MAG_AUTO               Kron-like elliptical aperture magnitude                    [mag]
#   3 X_IMAGE                Object position along x                                    [pixel]
#   4 Y_IMAGE                Object position along y                                    [pixel]
#   5 X_WORLD                Barycenter position along world x axis                     [deg]
#   6 Y_WORLD                Barycenter position along world y axis                     [deg]
#   7 A_WORLD                Profile RMS along major axis (world units)                 [deg]
#   8 B_WORLD                Profile RMS along minor axis (world units)                 [deg]
#   9 THETA_WORLD            Position angle (CCW/world-x)                               [deg]
#  10 FWHM_WORLD             FWHM assuming a gaussian core                              [deg]
#  11 ELONGATION             A_IMAGE/B_IMAGE                                           
#  12 ELLIPTICITY            1 - B_IMAGE/A_IMAGE                                       
         1 -16.3255    142.3848     84.4731   7.7919748244e+01   3.7226018239e+01     3.237319     2.942557 -16.55   0.01498427    1.144    0.126
         2 -19.5063    176.8311    142.2933   8.5236402555e+01   1.8129157440e+01     8.632051     7.069854  -2.83   0.04512982    1.373    0.272
         3 -16.7041    138.5132    108.2321   8.5645768624e+01   3.3191537871e+01     3.762525     2.623147  64.39   0.01196377    1.725    0.420
         4 -11.0767     69.4146     32.1242   8.0772414360e+01   6.2374995120e+01    0.2714488    0.1608833 -48.10 0.0008373247    1.862    0.463
         5 -11.4989    174.7444     22.2672   5.0844456395e+01   3.8805932310e+01    0.2721556    0.2458972  84.35 0.0004088381    1.094    0.086
         6 -12.0028    238.4818     15.9697   4.2155603187e+01   2.3360884889e+01    0.3294892    0.2262182 -46.21  0.001062359    1.267    0.210
         7 -10.2863     90.0000     14.4435   6.5247959661e+01   6.0946350280e+01    0.2992969   0.07464856 -26.89 0.0009297538    3.895    0.743
         8  -9.5045     76.7361     11.9625   6.8238873006e+01   6.4001850376e+01    0.1646078     0.107951 -21.33 0.0003603556    1.431    0.301
         9 -10.2930    196.5434      9.1030   4.4039058873e+01   3.4466934578e+01    0.2116031    0.1334429 -26.85  0.001024082    1.579    0.367
        10 -11.9504    125.0602      8.5616   5.3988565900e+01   5.3299274394e+01    0.2510678     0.246288 -83.30 0.0002767536    1.111    0.100
        11 -10.5060    158.4859      6.3604   4.7636095807e+01   4.4788956454e+01    0.4285021    0.1565475  42.84  0.001452094    3.184    0.686
        12  -9.8639    134.4447      7.5126   5.1812779729e+01   5.1000893125e+01    0.1410073    0.1334722  42.50  9.16062e-05    1.006    0.006
        13 -10.4429     26.6897      6.9750   8.7716524790e+01   7.2655431133e+01    0.1687623    0.1287228 -26.21 0.0004447586    1.061    0.057
        14 -10.5648    178.5052      6.0332   4.5021458409e+01   3.9498996132e+01    0.2109851    0.1371523 -25.35  0.000642286    1.570    0.363
        15 -11.2461     22.9338      7.4548   9.0128767025e+01   7.2991034180e+01    0.2087623    0.1472878 -46.95 0.0005998757    1.503    0.335
        16 -11.7088    237.9817      4.4547   3.9268305709e+01   2.4687196186e+01     0.232621    0.1830941  -1.91 0.0007178177    1.581    0.368
        17 -11.5746    212.2711      4.8201   4.1337261630e+01   3.0875025729e+01    0.3721275    0.2247765  56.59  0.001250054    1.735    0.424
        18 -10.5352    107.3653      4.6573   5.6005501093e+01   5.8025897432e+01    0.2744492    0.1901773  29.89  0.000734177    1.417    0.294
        19 -10.4002      7.3142      4.8665   9.8294667137e+01   7.4845253492e+01     0.191759    0.1412512  -8.02 0.0006043922    1.339    0.253
        20 -10.9764     40.4499      2.7660   7.7918116828e+01   7.1479811018e+01    0.2243367    0.1869208  44.01 0.0005440491    1.600    0.375
        21 -11.4687    206.3563      1.7736   4.0979695860e+01   3.2658083038e+01     0.367752    0.1886837  79.89  0.001665625    1.933    0.483
        22 -10.3335    141.7146      1.7996   4.8367607371e+01   4.9618140643e+01    0.2678488    0.1665495 -71.17   0.00119971    2.034    0.508
        23  -9.7581     66.8852      1.8840   6.6192584966e+01   6.7093760213e+01    0.1609195    0.1476008 -23.72 0.0004132026    1.277    0.217
        24  -9.4589    116.3009      1.3362   5.2599510889e+01   5.6145049693e+01    0.1505266   0.09269302  31.37 0.0004937405    1.660    0.398
        25  -9.8226    245.4341    233.7090   8.9765734959e+01  -6.4435117268e+00    0.1347916   0.08685353  -4.57 0.0005102703    1.464    0.317
        26 -10.8813    219.1097    249.3320   9.6239388722e+01  -4.3553669769e+00    0.1968606    0.1535754  35.48 0.0007718708    1.316    0.240
        27 -12.1334    193.1468    249.0386   1.0044870622e+02  -6.3788274498e-01    0.2936633    0.1859704  30.19  0.001198223    1.234    0.189
        28  -9.8179    135.7383    250.6814   1.1035869648e+02   7.5460519817e+00    0.1522222   0.07545896  45.65 0.0003707211    1.527    0.345
        29  -9.2984    113.2313    249.9969   1.1413573804e+02   1.0841585062e+01    0.1106132   0.08901796 -75.31 0.0002981798    1.527    0.345
        30 -11.9046    201.1770    233.0464   9.6924592945e+01  -2.3347808735e-04    0.2041236    0.1703884  23.15  0.001515891    1.111    0.100
        31 -10.1652    125.5124    249.0019   1.1194176266e+02   9.2460492212e+00    0.1346477    0.1093774 -61.73  0.001029202    1.592    0.372
        32 -16.1495    187.9280    210.8325   9.5935586074e+01   4.9140935998e+00     3.157064     1.548484  38.98   0.01641156    1.711    0.416
        33 -16.1960    207.5394    180.1790   8.7047885229e+01   5.9201708910e+00     1.987407     1.533311   0.63   0.00786017    1.301    0.231
        34 -16.5423    124.8717    154.5245   9.9299228522e+01   2.5985565074e+01     3.367146     1.654816  50.42   0.01342508    2.060    0.515
        35 -16.1400    212.1649    122.5601   7.3725809912e+01   1.4100398466e+01     2.509588    0.8441965  52.24  0.008483727    3.284    0.696
        36 -16.5505    211.5873    136.3627   7.7100142508e+01   1.1957320401e+01     2.273676     1.211125  48.51   0.01008115    1.952    0.488
        37 -16.6986    190.1167    172.4396   8.8839428775e+01   1.0284107374e+01     1.881363     1.392187 -26.31  0.009900587    1.432    0.302
        38  -9.8352    132.4861    246.4525   1.1048535209e+02   8.5956565882e+00    0.1134795   0.08401541  48.92 5.328964e-05    1.066    0.062
        39 -10.9602    233.3015    203.6641   8.6813683061e+01  -1.4557260805e+00     0.238855    0.1849926 -39.68  0.001128407    1.735    0.424
        40 -11.2997     69.5027    203.2102   1.1789483866e+02   2.4694592559e+01    0.2061748     0.174531  61.17 -0.000515908    1.147    0.128
        41 -10.4758     45.3523    201.5416   1.2245903324e+02   2.7988596162e+01    0.2107161    0.1513185  77.34   0.00147276    1.120    0.107
        42 -12.6604    156.6375    222.5815   1.0336934997e+02   8.3225042985e+00    0.2892793    0.2587856   7.96  0.001333698    1.271    0.213
        43 -11.1423    230.4802    219.9947   9.0013573542e+01  -2.8995848254e+00    0.2502265    0.1880892  39.44  0.001071338    1.426    0.299
        44 -10.7724     46.9090    195.0886   1.2167098530e+02   2.9073908056e+01    0.1792868    0.1441252 -86.00  0.001283773    1.222    0.182
        45 -10.4077     69.3527    194.7363   1.1713307611e+02   2.6360515514e+01    0.2256698    0.1566921  33.61  0.000945463    1.640    0.390
        46 -10.0751     36.3092    195.3109   1.2376989978e+02   3.0220486868e+01   0.09786083   0.08379404 -57.26 0.0002632574    1.622    0.384
        47  -9.8378     76.9624    192.3414   1.1533424418e+02   2.5809849794e+01    0.1679508    0.1305158  60.06 0.0003976914    1.082    0.076
        48 -11.1468     52.9463    191.9040   1.2020419052e+02   2.8996140486e+01    0.1848587    0.1459882  72.98            0    1.019    0.019
        49 -11.2555    105.9783    190.2828   1.0905552851e+02   2.1938772630e+01    0.3151665    0.1706618  44.43  0.001149873    1.620    0.383
        50 -10.3272     81.2136    187.8713   1.1396492397e+02   2.6110883171e+01    0.2438971    0.1429143  45.54  0.001355255    1.514    0.340
        51 -10.3480    248.0201    185.5162   8.1104695263e+01  -1.5783939494e+00    0.1763564    0.1071248  36.43 0.0009419034    1.551    0.355
        52 -14.0892    238.5462    222.7947   8.9147076286e+01  -4.3772459185e+00    0.4521936    0.3992955  73.33  0.002214537    2.272    0.560
        53 -13.0871    244.6029    220.4423   8.7793939986e+01  -4.9949362177e+00     0.323973    0.2586033  26.66 0.0008475671    1.277    0.217
        54 -10.2381     17.4764    184.5229   1.2677848218e+02   3.4295994327e+01    0.1130702    0.0830325  76.18 3.668619e-05    1.007    0.006
        55  -9.2388     37.6592    183.2728   1.2262465223e+02   3.2509396120e+01    0.1237189   0.06675125  63.93 0.0002843678    1.611    0.379
        56 -10.9369     25.0103    181.9652   1.2511301992e+02   3.4092775956e+01    0.1699547    0.1274826  76.66  0.001211987    1.007    0.007
        57 -10.5068     85.0263    180.4860   1.1228764118e+02   2.7069417806e+01    0.1930934    0.1125479  43.28  0.001027074    1.578    0.366
        58 -10.6387     51.3201    179.9606   1.1948856980e+02   3.1643491749e+01    0.1982109    0.1604192  48.76 0.0003799666    1.284    0.221
        59 -13.1890     94.4060    176.5084   1.0972666584e+02   2.6491034483e+01    0.7973172    0.4641665 -83.31   0.00370184    2.132    0.531
        60 -12.0877     89.1972    174.5806   1.1062411640e+02   2.7682190309e+01    0.3823252     0.321243  26.26  0.002340177    1.484    0.326
        61  -9.4552     42.3186    177.2997   1.2116649136e+02   3.3243756584e+01    0.1055097   0.08838218 -50.84 0.0002686028    1.619    0.382
        62 -11.8840    149.8287    227.9311   1.0530234256e+02   8.6164412934e+00    0.2787457    0.1377567  45.16  0.001520657    1.646    0.392
        63 -10.1841     68.7435    175.0357   1.1521206662e+02   3.0484723833e+01     0.167667    0.1397599  88.09  0.001088464    1.085    0.078
        64 -12.1357    100.5511    171.9936   1.0773362411e+02   2.6470152826e+01    0.4462643    0.3054689  86.13  0.001037425    1.677    0.404
        65 -11.7542     98.5032    166.9632   1.0746274417e+02   2.7855496275e+01    0.3662479    0.2258217  44.10   0.00132808    1.526    0.345
        66 -10.5660     79.3255    170.9769   1.1236913568e+02   2.9890729050e+01    0.2379748    0.1788418  63.44 0.0002978073    1.194    0.163
        67  -9.8105     76.7934    168.0393   1.1257133986e+02   3.0882871005e+01       0.1812    0.1336357  81.71 0.0005629113    1.282    0.220
        68 -10.4432     55.5177    170.1110   1.1761262215e+02   3.3236576473e+01    0.3206918    0.1076813 -68.96  0.001366421    2.752    0.637
        69 -10.6628    219.4417    225.9492   9.2785087672e+01  -1.9247541647e+00    0.2177369    0.1293726  30.23 0.0004829513    1.351    0.260
        70 -15.7841    230.8751    167.9331   8.0516264107e+01   3.5382009830e+00     1.787682     1.384923 -12.25  0.007579469    1.185    0.156
        71 -12.4650     86.2600    165.4512   1.1005694723e+02   3.0069356226e+01     0.472052    0.3593554   9.07  0.001337474    2.085    0.520
        72 -11.7072     91.6517    165.8963   1.0887805530e+02   2.9155561000e+01    0.2398943    0.2171924 -86.23  0.000379949    1.100    0.091
        73 -10.8108     66.2396    165.2063   1.1463800403e+02   3.2942607228e+01    0.3135823    0.2178619  84.34  0.001799503    1.358    0.264
        74 -11.5891     42.2787    161.3877   1.1972240071e+02   3.6694049572e+01    0.5909027    0.1739899 -78.17  0.002129752    3.877    0.742
        75 -12.6346    165.7162    224.2101   1.0193002924e+02   6.6454468762e+00     0.493889    0.2439817  30.31  0.002438261    2.092    0.522
        76 -10.8379     99.1364    160.8799   1.0639267446e+02   2.9060007431e+01    0.2107952    0.1684251  73.02 0.0005831551    1.215    0.177
        77 -12.6627     77.0779    159.2052   1.1134129134e+02   3.2782894561e+01    0.4771651    0.4372961  46.19  0.001073627    1.246    0.197
        78 -12.1932     80.7937    149.3277   1.0901311211e+02   3.4468656649e+01    0.3812929    0.2206189 -61.21  0.001373319    1.648    0.393
        79 -10.8253     83.4750    152.4970   1.0883871669e+02   3.3352250771e+01    0.2758749    0.2079805 -81.34  0.001549811    1.275    0.216
        80 -10.3234     56.8934    158.1266   1.1597694341e+02   3.5711703840e+01    0.1958029    0.1421199  76.00 0.0005070876    1.239    0.193
        81 -10.0444     62.6939    157.0167   1.1446956084e+02   3.5227673062e+01    0.1765844    0.1436625 -88.47 0.0002213381    1.069    0.064
        82 -17.3090    197.6475    155.8096   8.4021180938e+01   1.1556900137e+01     3.009593     1.489634  39.36   0.01313129    1.969    0.492
        83 -10.9258     14.8168    152.0100   1.2520322295e+02   4.1457647244e+01     0.241046    0.1603772  -7.16  0.001369098    2.889    0.654
        84 -11.3604     13.5086    149.0123   1.2528028512e+02   4.2234125856e+01    0.2781242   0.09420519 -85.43  0.001209333    2.728    0.633
        85 -10.2716    107.1889    230.6604   1.1337865272e+02   1.4630260817e+01    0.2037232    0.1209859  36.66 0.0007753899    1.574    0.365
        86 -10.2712    216.1267    221.9237   9.2719216282e+01  -9.6505677923e-01    0.1803945    0.1383212  20.40 0.0007376138    1.030    0.029
        87 -11.1881     73.0017    146.9872   1.1059512910e+02   3.6124997998e+01    0.2313962    0.1747652 -73.55 0.0003379521    1.216    0.177
        88 -12.7640     72.6409    140.4422   1.0969258967e+02   3.7691848843e+01    0.6421137     0.359468  82.53   0.00120848    2.459    0.593
        89  -9.6969     36.5686    141.2357   1.1899535460e+02   4.1879041608e+01    0.1650509   0.09973372 -66.54 0.0003298919    1.461    0.315
        90 -11.3252     16.5443    161.1998   1.2548063249e+02   3.9289205737e+01    0.1922298     0.145495  50.56 0.0006562534    1.346    0.257
        91 -10.1801     23.2258    138.1452   1.2201600348e+02   4.3869024204e+01    0.2348042    0.1326683  82.51  0.001021613    1.615    0.381
        92 -11.2811     94.5653    135.3409   1.0314949049e+02   3.5534222777e+01    0.2417898    0.2105207 -75.97 0.0004366602    1.078    0.072
        93  -9.9997     55.5571    135.9281   1.1345425082e+02   4.0994553219e+01    0.1934679    0.1136613 -68.77 0.0003041106    1.501    0.334
        94 -11.2006     78.0429    131.9354   1.0687031845e+02   3.8910421767e+01     0.262142    0.2098334 -80.91 0.0002886368    1.167    0.143
        95 -11.7056     77.7388    127.5728   1.0617270282e+02   3.9986899599e+01    0.3800548    0.2721725  32.41  0.001995552    1.610    0.379
        96 -11.5580     68.4096    131.0927   1.0930308248e+02   4.0478414846e+01    0.2408319    0.1877477  54.56 0.0004598738    1.297    0.229
        97 -10.6901     69.8750    230.3907   1.2005996256e+02   1.9752926744e+01    0.2999078    0.1128988  47.61  0.001285495    1.988    0.497
        98 -10.6518    108.2566    219.5671   1.1204495070e+02   1.6297002872e+01    0.1824933    0.1537834 -78.48 0.0005803171    1.331    0.249
        99 -11.5056     63.5581    127.2245   1.0997971712e+02   4.2049179846e+01    0.2983277    0.2135312 -57.21 0.0006202903    1.336    0.252
       100 -11.2253     69.9870    121.6901   1.0723795415e+02   4.2503394058e+01    0.2466127    0.1766702  85.10 0.0008434717    1.511    0.338
       101  -9.8368     30.1440    121.6459   1.1838574981e+02   4.7113828803e+01    0.1418531    0.1222949   3.10  0.000154286    1.612    0.379
       102  -9.9278    249.8279    114.5648   6.5697172287e+01   7.6480066173e+00    0.3809212    0.1716226 -23.68  0.001570862    2.230    0.552
       103 -11.5299     67.3152    114.1084   1.0657762840e+02   4.4694281097e+01    0.3361869    0.1578774 -68.91  0.001103308    2.191    0.544
       104 -11.4590      6.1052    114.6813   1.2426098549e+02   5.0645712610e+01    0.2159429    0.1298116 -89.88 0.0006164687    1.360    0.264
       105 -10.3225     73.5551    218.6689   1.1846586111e+02   2.1312009335e+01    0.2401124    0.1055323 -73.08  0.001276283    2.507    0.601
       106 -11.0869     73.4037    110.4270   1.0405748807e+02   4.4719785511e+01    0.2676047     0.201985 -57.74  0.001071514    1.206    0.171
       107 -10.4723     33.2085    109.5367   1.1586207731e+02   4.9729302738e+01    0.2307525    0.1489116 -70.88  0.000545389    1.269    0.212
       108 -10.1744    132.5923    230.1411   1.0870314054e+02   1.0944726446e+01    0.1948298    0.1244619  48.49 0.0003163867    1.269    0.212
       109 -10.4647     23.8850    108.7647   1.1851511950e+02   5.0736299825e+01    0.1993569    0.1626396  56.07   0.00130761    1.334    0.251
       110 -11.1630     84.8591    107.5850   1.0007407936e+02   4.3641928608e+01    0.2871236    0.2269248 -53.43 0.0004022118    1.184    0.156
       111  -9.5346     31.3556    115.3029   1.1721935279e+02   4.8516685196e+01    0.1273485   0.08525871 -44.69 0.0007039257    1.711    0.416
       112 -11.5305     84.8910    100.2453   9.8328575531e+01   4.5372281567e+01    0.3135308    0.1902451 -50.98 0.0006683018    1.515    0.340
       113 -12.6106     92.5036     93.6407   9.4340522135e+01   4.5620377901e+01    0.6372517    0.3530042 -59.16   0.00268258    1.863    0.463
       114 -11.4194     99.0424     91.8575   9.1898224768e+01   4.4845335127e+01     0.344252    0.2915018   9.54  0.000864648    1.443    0.307
       115 -11.6207    101.5012     98.5422   9.2991554765e+01   4.2865411840e+01    0.3177297      0.21962  38.10 0.0007437757    1.573    0.364
       116 -11.9449     97.1862     96.1439   9.3613869286e+01   4.4207418097e+01    0.4064665    0.2864255 -79.14   0.00167289    1.857    0.462
       117 -12.9007     72.7550     97.2326   1.0132202951e+02   4.7972905181e+01     0.546596    0.4051402 -58.79  0.002144967    1.206    0.171
       118  -9.9689     60.8411     97.4001   1.0511163197e+02   4.9586857472e+01    0.1691971    0.1370159  11.76 0.0004808966    1.591    0.371
       119  -9.8623     64.7617     96.3889   1.0364212920e+02   4.9307337450e+01    0.1704018    0.1377347  14.48 0.0003999326    1.570    0.363
       120 -11.6668    103.4657     94.4730   9.1324807081e+01   4.3421920979e+01     0.364446    0.2382374 -53.91  0.000949828    1.478    0.323
       121 -10.8198     46.2090     93.1494   1.0893464021e+02   5.2367976222e+01    0.3727152    0.1527313 -52.96 0.0007736718    2.075    0.518
       122 -11.1069     66.6299     90.4665   1.0164461173e+02   5.0462007284e+01    0.3046061    0.2154902 -54.06 0.0009463176    1.247    0.198
       123 -12.9083     88.7325     88.1852   9.4004060065e+01   4.7532820595e+01    0.7482543    0.4312775 -26.34  0.002826112    2.809    0.644
       124 -12.8915    105.8619     85.1958   8.7966676501e+01   4.5025965237e+01    0.5435602    0.5128694 -81.10  0.002972321    1.118    0.105
       125 -12.6575    248.4938     87.8135   5.9418565576e+01   1.1768851120e+01    0.2897562    0.2303211 -21.65 0.0004514833    1.136    0.120
       126 -12.5166    239.9698     86.0033   6.0120290386e+01   1.3834288499e+01    0.3092634    0.2619886 -38.14 0.0004265283    1.102    0.093
       127 -11.0683    239.3276     81.7007   5.9113897484e+01   1.4603175654e+01    0.2572738    0.2065597 -46.38 0.0005613795    1.224    0.183
       128 -11.5154    125.6748    205.0503   1.0696743413e+02   1.6098273950e+01    0.3134409    0.1914609  52.42 0.0003337389    1.469    0.319
       129 -11.4541     72.7668     81.5540   9.7294904629e+01   5.1655858471e+01    0.3287666    0.2225156 -18.04  0.001491549    2.165    0.538
       130  -9.5291      8.6703     81.3176   1.1950802977e+02   5.8341816258e+01    0.1223513    0.0796176  73.17 0.0005930414    1.684    0.406
       131 -10.6269    247.8861     78.0304   5.7061204671e+01   1.3289409203e+01    0.2226316    0.1985481  12.92 0.0005977682    1.230    0.187
       132 -11.6587     98.7310     77.5539   8.7767980913e+01   4.8082809726e+01    0.3168213    0.2322606 -62.96 0.0008115525    1.527    0.345
       133 -10.1494    230.7890     74.7729   5.8487357046e+01   1.7520168996e+01    0.3174495    0.2174641 -13.97  0.001241079    1.593    0.372
       134 -13.3628    123.3327    214.9311   1.0865470447e+02   1.4785928461e+01    0.5068011    0.3915776  77.08  0.001496201    1.420    0.296
       135 -10.9678    236.0287     71.9614   5.7042834980e+01   1.6745951681e+01    0.2115511    0.1898336 -32.80 0.0003136987    1.007    0.007
       136 -12.1388     24.0863     71.4361   1.1217941472e+02   5.9619846959e+01    0.2297044    0.1889255 -62.55 0.0003056141    1.030    0.029
       137 -12.6879    128.3749    211.1714   1.0722228733e+02   1.4622660410e+01      0.46111    0.3444738 -46.57   0.00180553    1.648    0.393
       138 -10.9078     53.1474     69.8351   1.0088797313e+02   5.7063715296e+01    0.2899168    0.1574994 -46.34 0.0009345252    1.620    0.383
       139 -12.1558     85.6154     68.3736   8.8994852229e+01   5.2486828256e+01    0.3588246    0.2770541  55.49 0.0008778751    1.526    0.345
       140 -11.8200     93.3075     71.3822   8.7486396976e+01   5.0440172544e+01    0.2682381    0.2386661 -47.46 0.0003188991    1.064    0.060
       141  -9.9987     43.9720     68.2909   1.0389315207e+02   5.8490440908e+01    0.1857232    0.1568329 -53.82 0.0007163656    1.009    0.009
       142 -11.0508    241.5535     64.0071   5.4280390770e+01   1.6634574017e+01    0.4777038    0.2387184 -52.85 0.0009819936    2.302    0.566
       143 -10.3153    176.1572    244.8072   1.0277324713e+02   2.3485031136e+00    0.1713294    0.1263904  44.11  0.000866494    1.209    0.173
       144 -12.1586     95.9538    213.3786   1.1373771062e+02   1.9167170046e+01    0.4580031    0.3378315  19.32  0.002783913    1.985    0.496
       145 -11.9135     98.8026     65.8351   8.3894006791e+01   5.0541751084e+01    0.3452005    0.3149103  -0.20 0.0009512871    1.155    0.135
       146 -11.3029     94.6830     66.2870   8.5345954226e+01   5.1252232197e+01    0.2224449    0.2115532 -60.82 0.0006769011    1.118    0.105
       147 -10.6039     29.7758     62.8458   1.0798093405e+02   6.1141517574e+01    0.1963335    0.1785639  87.70 0.0004379811    1.257    0.204
       148 -11.0720     60.0972    215.7222   1.2072777739e+02   2.3559037910e+01    0.2638081    0.2111935 -70.67   0.00194325    1.470    0.320
       149 -10.6213    210.4116     60.1563   5.7370200647e+01   2.4513372504e+01    0.2943745    0.1973061 -86.25  0.001124326    1.979    0.495
       150 -12.3195    137.8374     58.5167   7.0531384063e+01   4.3193567157e+01    0.4981832    0.3207529  36.20 0.0008757928    1.754    0.430
       151 -10.2492     10.0041     59.7572   1.1523055151e+02   6.3282105899e+01    0.1687911    0.1337679 -57.63 0.0004270739    1.063    0.059
       152 -11.2164     13.5154    216.4255   1.2910371368e+02   2.8544601689e+01    0.1804932    0.1256854  70.37 0.0001333665    1.017    0.016
       153 -10.4881     35.3785     56.7183   1.0403986351e+02   6.2009660489e+01    0.3224714    0.1747281 -39.05  0.001618176    1.779    0.438
       154  -9.6187      1.2956     57.6705   1.1836111223e+02   6.4205905940e+01    0.1146863   0.07946405  79.09 0.0004158453    1.634    0.388
       155 -10.7677     82.4315    230.2156   1.1780786740e+02   1.8144107366e+01    0.2522158    0.1108132  38.92  0.001090889    1.990    0.498
       156 -10.3680    114.2932     56.3396   7.5893975488e+01   4.9117558931e+01    0.2455092    0.1871047 -16.40 0.0007339409    1.439    0.305
       157 -10.3225    111.1280     55.1327   7.6351156260e+01   5.0041686207e+01    0.2807899    0.2220394  59.24 0.0003572784    1.421    0.296
       158 -10.5270    236.8879    213.7115   8.7931212957e+01  -3.1515887289e+00    0.1949338    0.1453241  21.17 0.0008297191    1.071    0.067
       159 -11.3244    210.3081     54.2776   5.5704314512e+01   2.5390395798e+01    0.3291215    0.2622499 -78.02  0.001014198    1.403    0.287
       160 -13.1613    201.2790     52.0377   5.6347224875e+01   2.7978663941e+01    0.4368723    0.3299102  46.42 0.0007013343    1.423    0.297
       161 -11.6891    206.4845     50.0632   5.5020875356e+01   2.6942984867e+01    0.3610869     0.222688 -40.27 0.0008932222    1.506    0.336
       162 -11.7179    184.4503     51.3823   5.8772852461e+01   3.2400025153e+01    0.4853095    0.2510927 -29.95 0.0009862003    1.872    0.466
       163 -10.9191     92.8524     52.2196   8.0847658194e+01   5.4407161523e+01    0.2666306    0.1745577 -19.69 0.0008880013    1.818    0.450
       164 -10.8463    249.3133     53.2410   5.0645438696e+01   1.6372164068e+01    0.2421402    0.1891293 -46.56 0.0003279798    1.154    0.134
       165 -12.1100    118.9120     50.3319   7.2382307170e+01   4.9136095757e+01     0.428313    0.3387295 -56.07  0.000269761    1.436    0.303
       166 -10.3687    114.3061     47.9028   7.2717352490e+01   5.0612341567e+01    0.2753135    0.2426296  26.19 0.0006685146    1.158    0.137
       167 -11.7931    124.6450     51.6353   7.1352191101e+01   4.7567675012e+01    0.5427726    0.3680569 -11.12   0.00234658    1.835    0.455
       168 -11.3547    129.8199     50.5100   6.9621466800e+01   4.6517704222e+01    0.4426785    0.2497652 -58.53 0.0008917811    2.653    0.623
       169 -10.2060     58.0439     52.5528   9.3512865897e+01   6.0225763694e+01     0.185359    0.1356306  30.99 0.0003666119    1.548    0.354
       170 -11.5800    171.8027     49.1801   6.0246218638e+01   3.6025342623e+01    0.3476176    0.2293869 -20.02  0.001297241    1.637    0.389
       171 -11.4240    173.5155     44.9855   5.8568993534e+01   3.6190778849e+01     0.375015    0.2152242  40.57  0.001278949    1.993    0.498
       172 -12.7297    147.3701     46.4710   6.4103551875e+01   4.2782169314e+01    0.5472147    0.4070363 -26.51 0.0008688373    1.348    0.258
       173 -10.0667     65.9996     50.7646   8.9779020728e+01   5.9426723638e+01    0.1902011    0.1724121 -27.06 0.0004651266    1.046    0.044
       174 -11.7146    140.1697     49.1243   6.6646696662e+01   4.4190638356e+01    0.3334197    0.2529271  44.45 0.0008223249    1.337    0.252
       175 -11.2968     29.7208     49.0357   1.0413153787e+02   6.4242929156e+01    0.2959264    0.1967757 -73.53  0.001627841    1.718    0.418
       176 -11.3995    241.6579     48.0892   5.0150773509e+01   1.8756869883e+01    0.4099889    0.2811013 -89.78  0.001579752    1.743    0.426
       177 -10.7205     30.6578    213.9966   1.2598040088e+02   2.7258780318e+01    0.1516696    0.1096219  75.40 0.0005044465    1.076    0.071
       178 -10.8058    160.6217     44.8068   6.0846991813e+01   3.9599417076e+01    0.3022317    0.2194986  50.47 0.0005154262    1.381    0.276
       179 -11.9216    155.8685     43.3134   6.1248468318e+01   4.1059913779e+01    0.4435373    0.3549416 -27.22  0.000930507    1.246    0.197
       180 -13.0918    191.8179     43.3168   5.5109276684e+01   3.1635379576e+01    0.5725779    0.3304787 -30.90  0.001407907    1.653    0.395
       181 -10.6596    186.5137     44.0338   5.6136639502e+01   3.2917707143e+01    0.2829189    0.2088944 -88.44 0.0006897192    1.564    0.361
       182 -10.1862    104.9407    211.8342   1.1183990011e+02   1.8121617952e+01    0.2593605    0.1507324 -89.11 0.0004748858    2.412    0.585
       183 -10.9309    130.3857     44.4396   6.7220022890e+01   4.7366960104e+01     0.310332     0.265612  53.13 0.0009003019    1.189    0.159
       184 -11.6803    119.2995     43.5204   6.9667560907e+01   5.0183246023e+01    0.4582175     0.267121 -12.12  0.001775479    2.362    0.577
       185 -11.9157    124.3295     41.0588   6.7416726705e+01   4.9371943543e+01    0.5677378    0.2363534 -40.03  0.002066762    2.390    0.582
       186 -11.5552     88.8367     43.5545   7.8744363748e+01   5.6793269608e+01    0.4102618    0.2101687  34.18  0.001280253    2.315    0.568
       187 -10.9826     18.1724     42.5675   1.0735759286e+02   6.6595302262e+01    0.3546821    0.1276369 -56.10  0.001557951    2.035    0.509
       188 -11.3387    175.0647     39.7757   5.6596261181e+01   3.6514295046e+01    0.3534323    0.2363713  62.50  0.001497914    1.498    0.332
       189 -10.3176    177.5115     37.4855   5.5450861504e+01   3.6178334598e+01    0.2667797    0.1889036  53.17 0.0006154846    1.421    0.296
       190 -10.5737    115.2708     41.9755   7.0136410155e+01   5.1374502046e+01    0.2136088    0.1942655 -20.63  0.000583461    1.058    0.055
       191 -11.9228    105.1065    205.9263   1.1114218303e+02   1.9150042625e+01    0.4210248     0.291683  17.05  0.002253517    2.284    0.562
       192 -11.7876     95.9488     48.3019   7.8333591640e+01   5.4514472734e+01    0.4044959    0.2457664  56.60 0.0008735034    2.003    0.501
       193 -11.8872    134.5672     37.6904   6.3680215238e+01   4.7350754208e+01    0.4168319    0.2713624 -42.97  0.001876328    1.593    0.372
       194 -10.1633     11.9889     40.0010   1.0950581571e+02   6.7570108840e+01    0.1834786    0.1406677 -53.98 0.0003473043    1.033    0.032
       195 -11.1484    165.1764     38.1151   5.7720381717e+01   3.9353598262e+01    0.3251033    0.2713811 -87.81 0.0006747114    1.310    0.237
       196 -10.5176     55.3140     38.9305   8.9395640570e+01   6.3357255518e+01    0.1930138    0.1488843 -35.97 0.0002675492    1.113    0.101
       197 -10.5258    152.2533     38.5741   6.0280911658e+01   4.2684669249e+01    0.2208614    0.1343438  48.54 0.0009435746    1.641    0.390
       198 -10.2117    155.7020     36.9472   5.9038450690e+01   4.2009211009e+01    0.2147251    0.1909638 -34.50 0.0004733303    1.120    0.107
       199 -11.0105      2.9729    211.6800   1.3071971770e+02   3.0383374822e+01    0.1618668     0.101704  82.03 0.0005780334    1.208    0.172
       200 -10.9857    187.9525     33.2111   5.2519157549e+01   3.3983497284e+01    0.2348494    0.2023904 -37.30 0.0003602604    1.128    0.113
       201 -11.4161    199.6913     32.7199   5.0792374076e+01   3.0986185519e+01    0.2748957    0.2350342 -53.70 0.0006724868    1.123    0.109
       202 -11.0729     92.8923     38.6713   7.5387962803e+01   5.6823772551e+01     0.375409    0.2145281 -46.60  0.001444146    1.916    0.478
       203  -9.9334     85.5012     33.4950   7.5587698540e+01   5.9166988457e+01    0.1414334    0.1288549 -14.71 -0.0001120543    1.038    0.037
       204 -10.4752    155.5015    245.5046   1.0640282381e+02   5.3349887053e+00    0.2252008   0.08650851  40.60  0.000712657    1.984    0.496
       205 -11.8239    216.4607     25.4302   4.6724109563e+01   2.7608434855e+01    0.4045044    0.2333474 -48.16 0.0009537595    1.639    0.390
       206 -11.8481    166.0280     31.1372   5.5183724969e+01   4.0051488396e+01    0.3170804    0.2752155  44.93 0.0004062078    1.173    0.147
       207 -10.5621     99.7849     31.7615   7.0294102134e+01   5.6461217288e+01    0.1865674    0.1693176 -61.31 0.0003679475    1.320    0.242
       208 -10.5554    194.2900     31.3372   5.1073219591e+01   3.2560411843e+01    0.2342268    0.1848356  -2.23 0.0005942011    1.471    0.320
       209 -10.6348    195.2538     28.3744   5.0040096110e+01   3.2672830279e+01    0.2161646     0.206244  36.24  0.001226005    1.137    0.120
       210  -9.9268    106.6139     27.7920   6.6617967485e+01   5.5506697625e+01     0.202437    0.1268546 -38.04 0.0004179841    1.618    0.382
       211 -10.8197    141.6948     26.6888   5.7969631213e+01   4.7017466315e+01    0.2965354    0.1796061 -28.23  0.000741691    1.643    0.391
       212 -10.8936    209.7090     25.1709   4.7375913094e+01   2.9336102301e+01    0.3075795    0.1897051  66.11 0.0007205879    1.634    0.388
       213 -10.9630     32.3983     24.8403   9.3784522670e+01   6.8916466698e+01    0.2476648    0.2125559  44.26 0.0006579862    1.587    0.370
       214 -11.9266    201.7499     23.0218   4.7639847728e+01   3.1620805331e+01    0.3635258    0.2830514 -16.99  0.001522998    1.375    0.273
       215 -12.3905    214.9836     31.3028   4.8543478927e+01   2.7273192066e+01    0.5876698    0.2823703  64.49  0.002499748    2.097    0.523
       216 -10.5835    121.7443    244.0294   1.1210644598e+02   1.0494090850e+01    0.2019933    0.1296719  45.84 0.0008852019    1.183    0.154
       217 -10.1387     44.5227    209.0202   1.2314117962e+02   2.6656958174e+01    0.1642503    0.1207864  58.56 0.0004044084    1.124    0.110
       218 -10.6417     49.4692     20.3431   8.3449432672e+01   6.7527480503e+01    0.3038607    0.1812904 -13.27  0.001493362    2.021    0.505
       219 -10.3288     33.4461    242.7122   1.2697345575e+02   2.1976073625e+01    0.1207956   0.08248957 -77.59  0.000944317    1.608    0.378
       220 -10.6029    222.9683     21.6596   4.5025237766e+01   2.6435764773e+01    0.2277842    0.1894509  18.24  0.000575837    1.483    0.326
       221 -10.7087     11.8102    208.1769   1.2904109363e+02   3.0221301280e+01    0.1532428    0.1276188  63.21 0.0005943508    1.305    0.234
       222 -10.1012     12.4763     16.4781   1.0075665599e+02   7.2332879862e+01    0.2567247   0.09170702 -52.59  0.001218116    2.199    0.545
       223 -12.4486     12.2333    202.7799   1.2872044783e+02   3.1197435481e+01    0.4977824    0.1665707  71.90  0.002418819    2.899    0.655
       224 -10.1861     49.6922     15.1107   8.0628663782e+01   6.8325918416e+01    0.1973314    0.1758842  34.40 0.0008463948    1.377    0.274
       225 -10.5026    189.9569    241.3597   9.9979965690e+01   7.0618190472e-01    0.1727974    0.1181614  26.08 0.0004451566    1.237    0.192
       226 -11.7348    193.4777    237.1961   9.8818531232e+01   6.6982765910e-01    0.2919598    0.1851791 -25.26  0.001751847    1.941    0.485
       227 -10.2503    151.0651    240.4646   1.0659159500e+02   6.6677336848e+00    0.1568578    0.1384208  45.49 0.0005229422    1.151    0.131
       228 -10.9306    113.8291    241.0793   1.1320428702e+02   1.2063728369e+01    0.3155977    0.1314168  35.57  0.001606412    2.299    0.565
       229 -11.5245    182.7678    237.9416   1.0075582871e+02   2.1947267446e+00    0.3836225    0.1856496  35.14  0.001446705    1.674    0.403
       230 -11.9228    126.1536    236.2637   1.1053611302e+02   1.0991325952e+01     0.343787    0.2437705 -79.06  0.001486646    1.839    0.456
       231 -12.7478    232.3345    236.0706   9.2207516755e+01  -4.8684345188e+00    0.3051662    0.2059095   8.83  0.001030419    1.317    0.240
       232 -10.9407    103.3228    236.8725   1.1466341466e+02   1.4197506260e+01    0.3122309    0.1788718  63.60  0.001902578    1.750    0.428
       233 -10.3083     42.9006    235.8518   1.2506903097e+02   2.2069533748e+01    0.1435174       0.1174  70.71 0.0005335706    1.229    0.186
       234 -10.5837     32.9632    235.7082   1.2671631115e+02   2.3188932718e+01    0.1920274    0.1186671  78.57  0.001395618    1.321    0.243
       235 -10.2987    164.3319    235.2674   1.0362598358e+02   5.3494821439e+00    0.2038142    0.1416265  38.98 0.0005121223    1.125    0.111
       236 -12.0487    165.0280    230.8586   1.0293699375e+02   5.8352591690e+00    0.2804326     0.213491  55.43 0.0007806314    1.392    0.282
       237 -11.8106    139.5721    223.8952   1.0668489336e+02   1.0819189553e+01    0.2753754     0.202153 -86.74  0.001121863    1.882    0.469
       238 -11.0957     97.6713    230.9509   1.1512924969e+02   1.5935962271e+01    0.2447601    0.1857946  69.72  0.001751887    1.208    0.172
       239 -12.2672    143.2464    229.7373   1.0671945442e+02   9.3734946965e+00    0.4731904    0.2737005  54.16  0.002753766    1.677    0.404
       240 -10.9252    149.0612    234.0425   1.0618823104e+02   7.8601581735e+00     0.209864    0.1355857  37.76 0.0003162694    1.262    0.207
       241 -10.0762    145.6855    234.3473   1.0682813844e+02   8.3328200342e+00    0.1520295     0.113927 -62.92  0.001031586    1.747    0.428
       242 -11.1876    118.3838    234.8858   1.1178321079e+02   1.2342833699e+01     0.222757    0.1529076  47.75 0.0007014608    1.131    0.116
