#   1 NUMBER                 Running object number                                     
#   2 MAG_AUTO               Kron-like elliptical aperture magnitude                    [mag]
#   3 X_IMAGE                Object position along x                                    [pixel]
#   4 Y_IMAGE                Object position along y                                    [pixel]
#   5 X_WORLD                Barycenter position along world x axis                     [deg]
#   6 Y_WORLD                Barycenter position along world y axis                     [deg]
#   7 A_WORLD                Profile RMS along major axis (world units)                 [deg]
#   8 B_WORLD                Profile RMS along minor axis (world units)                 [deg]
#   9 THETA_WORLD            Position angle (CCW/world-x)                               [deg]
#  10 FWHM_WORLD             FWHM assuming a gaussian core                              [deg]
#  11 ELONGATION             A_IMAGE/B_IMAGE                                           
#  12 ELLIPTICITY            1 - B_IMAGE/A_IMAGE                                       
         1 -14.3826    162.4182     48.9273   7.9381670221e+01   3.8694242431e+01     2.014193     1.490074  17.82  0.006832454    1.739    0.425
         2 -13.5580    179.5909     25.9062   6.9367606093e+01   3.7251483399e+01    0.5692618    0.5599815 -44.55  0.001219482    1.118    0.105
         3 -14.2275    175.7861     33.0193   7.2088396257e+01   3.7379156797e+01    0.9754419    0.8946181 -49.32  0.003311642    1.123    0.109
         4 -13.3965    189.8484     14.0144   6.4558818269e+01   3.5909041624e+01     1.186621    0.5461662 -83.15   0.00428934    3.144    0.682
         5 -13.8459    193.1790      3.6825   6.1305540012e+01   3.6089330688e+01     1.322012    0.5869225  67.77  0.003953927    1.960    0.490
         6 -10.8318    182.3107    233.9575   1.1784827477e+02   1.2794688358e+00    0.1676755    0.1465513  26.54 0.0007281112    1.104    0.094
         7 -19.8010     52.4493    167.0171   1.3616489215e+02   3.4912603263e+01     18.72352     5.530046 -71.67   0.06882663    3.465    0.711
         8 -11.1362    179.7503    192.8456   1.1170715089e+02   8.1111084617e+00    0.5439912     0.324752 -64.18  0.002321611    2.926    0.658
         9 -11.1083    157.5902    192.6487   1.1623223493e+02   1.2314990165e+01    0.2463344    0.2127831  64.93 0.0004757456    1.222    0.181
        10  -9.8617    182.2156    189.2389   1.1055775896e+02   8.2603424611e+00     0.182809    0.1614604  74.72  0.001056602    1.393    0.282
        11 -12.3321    207.5905    183.7562   1.0453699463e+02   4.3766206997e+00    0.4146261    0.3605927 -58.58  0.001249166    1.500    0.333
        12 -12.0967    210.7876    181.2405   1.0344008758e+02   4.1794582960e+00    0.4308901    0.2997296 -18.27   0.00163686    1.579    0.367
        13 -11.5089    197.9713    175.9032   1.0486246052e+02   7.4990713230e+00    0.3836184    0.3004589 -52.20  0.001095182    1.535    0.348
        14 -10.7752    145.3374    178.1617   1.1634463504e+02   1.7403848250e+01    0.2087131    0.1823563 -24.75 0.0005266332    1.363    0.266
        15  -9.7252    168.3923    175.7286   1.1089305008e+02   1.3364601204e+01    0.1810607    0.1358216 -29.86 0.0002133077    1.532    0.347
        16 -12.3494    136.7010    171.5177   1.1708439334e+02   2.0406485687e+01     0.747251     0.389743  50.30  0.003018442    1.863    0.463
        17 -12.6426    204.9486    197.8112   1.0767288037e+02   2.6706435488e+00    0.5549104    0.3572274   8.81  0.002150233    2.014    0.503
        18  -9.8394     20.5274    219.6671   1.4694816529e+02   2.7523860617e+01    0.1071514    0.0762542  67.19 0.0001276486    1.060    0.056
        19 -11.9064    230.1286    165.8782   9.6779181742e+01   2.9779023133e+00    0.3434992    0.1800281 -41.36  0.001584828    2.011    0.503
        20 -11.0665    225.8264    167.0063   9.7783390491e+01   3.6062502351e+00    0.2651972    0.1884818 -62.28  0.001280146    2.272    0.560
        21 -11.6031    204.0650    168.2189   1.0211381501e+02   7.6059551905e+00    0.5342847    0.4985366  68.24  0.002734327    1.290    0.225
        22 -11.5700    144.7125    168.0012   1.1461550499e+02   1.9573675602e+01    0.4898708    0.3536172  72.49  0.002342719    1.725    0.420
        23  -9.1154    164.2623    169.7212   1.1061551851e+02   1.5331307979e+01     0.135335    0.1119429  80.01            0    1.477    0.323
        24  -9.9576    122.8973    166.0446   1.1928950533e+02   2.4169184117e+01    0.2134467    0.1737056  71.22            0    1.255    0.203
        25 -10.7986     27.0763    165.7006   1.4185315971e+02   3.8004040951e+01    0.2499364    0.1567066  26.44 0.0009271968    2.045    0.511
        26 -11.9768     99.9748    162.3607   1.2412905907e+02   2.9051999302e+01    0.2742998    0.2514049 -76.32 0.0003181414    1.107    0.097
        27 -10.5155     13.4624    160.3982   1.4446280305e+02   4.0426214072e+01     0.203857    0.1497252  88.47 0.0006195678    1.050    0.048
        28 -11.8773    162.9727    155.2639   1.0795308194e+02   1.8439293374e+01    0.4857211    0.3802114 -74.28  0.002374803    1.617    0.382
        29 -10.2148    140.0073    156.4862   1.1345325178e+02   2.2909537632e+01    0.2073849     0.197056  87.13  0.000382315    1.062    0.058
        30 -10.2063      1.9554    218.8965   1.5013066861e+02   2.9484068600e+01    0.1824079    0.0625122  58.46 0.0006697926    2.199    0.545
        31 -12.2810    134.0222    145.4545   1.1260731904e+02   2.6492432921e+01     1.147195    0.3242818 -55.08  0.003035613    4.865    0.794
        32 -10.4457     11.3087    153.1326   1.4436827468e+02   4.2214642435e+01    0.1919268    0.1637309 -11.98 0.0009743863    1.772    0.436
        33 -11.7859    120.0423    215.6049   1.2741655338e+02   1.4750683737e+01    0.3907717     0.274145  84.75  0.002208533    1.713    0.416
        34 -11.1289    174.4019    148.4026   1.0395837867e+02   1.7368764511e+01    0.3629163    0.2897587 -59.82  0.001094939    1.433    0.302
        35 -11.9541    144.9368    146.3901   1.1019072544e+02   2.4049203149e+01    0.4642803    0.3341227 -86.61  0.002044668    1.968    0.492
        36 -10.5618      2.3190    146.9083   1.4595801800e+02   4.4280278958e+01    0.1663161    0.1535075  67.80 0.0003312816    1.304    0.233
        37 -12.2622     20.9262    214.0035   1.4656012783e+02   2.8566269524e+01    0.2751038    0.1975048  34.35  0.001964121    1.736    0.424
        38  -9.9412      4.5266    214.4705   1.4949343702e+02   3.0080955645e+01    0.1038234   0.07769944  78.89 0.0001512268    1.125    0.111
        39 -11.2548    143.2225    139.6307   1.0911451110e+02   2.5854808650e+01    0.3019532    0.2360822  12.17  0.001407602    1.695    0.410
        40 -10.6778    133.0511    213.5111   1.2450881893e+02   1.2938442635e+01    0.1994604    0.1113083  42.25 0.0004859695    1.528    0.346
        41 -11.1649    165.0840    205.6903   1.1685068958e+02   8.6379730581e+00    0.4782582    0.2613516 -63.84  0.002034942    3.121    0.680
        42  -9.6280    171.5598    137.7820   1.0216579556e+02   2.0085453784e+01    0.2068597     0.145345 -54.89 0.0006345467    1.590    0.371
        43 -12.2123     16.2961    206.3196   1.4696741785e+02   3.0534097518e+01    0.2111353     0.120951 -73.31 0.0006174201    1.637    0.389
        44 -11.7754     21.3599    135.9207   1.4028915917e+02   4.5283282832e+01    0.2184031    0.1834563 -79.94 0.0003134699    1.089    0.082
        45 -10.9796    151.0130    134.9107   1.0618138687e+02   2.5193352727e+01    0.4187672    0.2762383  79.41  0.001615374    2.490    0.598
        46 -11.4521    106.0000    130.9856   1.1665998476e+02   3.5184597879e+01    0.3639168    0.3231637 -87.80  0.001457626    1.128    0.113
        47 -11.5351    106.6903    126.7976   1.1556154270e+02   3.6024886475e+01    0.3193339    0.2795517 -21.03 0.0006826452    1.375    0.272
        48 -11.5058    118.5809    130.0592   1.1313548625e+02   3.3010038505e+01    0.3908311    0.3705939 -61.94 0.0009965939    1.058    0.055
        49 -13.6685     11.5320    205.9558   1.4782237499e+02   3.1068211619e+01    0.3941761    0.2598388  40.62  0.002246892    1.617    0.381
        50 -11.0921    160.2896    128.1416   1.0240898920e+02   2.4556327744e+01    0.4227352    0.2967826 -34.67  0.001912291    1.531    0.347
        51 -11.9242    135.5164    122.4850   1.0700244652e+02   3.1218908306e+01    0.7645715    0.2290313 -49.15  0.002252969    3.500    0.714
        52 -11.7531    123.9468    126.4913   1.1092222491e+02   3.2744580634e+01    0.6546881     0.360586  67.07  0.002228358    3.139    0.681
        53 -13.6605    194.1249    194.0987   1.0908046822e+02   5.2229362790e+00     1.135685    0.7864534 -65.02  0.005098755    2.361    0.576
        54 -10.7535      1.4445    250.5447   1.5142427576e+02   2.3922949694e+01    0.1014978   0.06354585  67.69  0.000806021    1.039    0.038
        55 -11.2723     23.5854    205.4908   1.4555909201e+02   2.9960665259e+01    0.3393345    0.1164622  50.04  0.001028145    2.301    0.565
        56 -10.5911    112.7296    119.3330   1.1220986860e+02   3.6591377736e+01    0.2586138    0.2518032 -20.51 0.0003538101    1.116    0.104
        57  -9.5278    170.3588    205.2454   1.1571960951e+02   7.7563696522e+00    0.1623594    0.1274486 -58.64 0.0004330334    1.585    0.369
        58 -10.2960    210.9820    202.3323   1.0735487113e+02   9.2830656372e-01    0.1870138    0.1736459 -21.53  0.000302863    1.248    0.199
        59 -10.6545    140.6829    199.6705   1.2091971751e+02   1.4127006694e+01    0.2202484    0.1259105  40.12  0.000806946    1.571    0.364
        60 -11.0584    168.2130    113.2380   9.6867941373e+01   2.5758760422e+01    0.4550912    0.3279817  82.19 0.0009801611    1.945    0.486
        61 -11.5890      3.0316    112.5619   1.4267373430e+02   5.1961406459e+01    0.2668038    0.2197832  -5.55  0.001510057    1.660    0.397
        62 -11.1995    136.4785    197.4484   1.2146408960e+02   1.5299819122e+01    0.4095205    0.2465204  72.92  0.001770171    2.593    0.614
        63 -10.5811    205.4329    110.1831   8.8519736761e+01   1.7578272432e+01    0.3241349    0.2129924  42.63 0.0009468707    1.597    0.374
        64 -11.2458     88.9320    108.7127   1.1641467681e+02   4.3358227249e+01    0.2723874    0.2044747 -60.53 0.0005510836    1.287    0.223
        65 -10.9248    134.5065    104.1996   1.0254729220e+02   3.5390021720e+01     0.516029    0.1529904 -43.85  0.001517639    3.370    0.703
        66  -9.2172    124.9241     94.6993   1.0243640251e+02   3.9507600092e+01    0.2569536    0.1191829  28.96 0.0004743383    4.385    0.772
        67 -10.1999    177.9810    196.9474   1.1278737605e+02   7.7477463630e+00    0.2740338    0.2274999  67.54   0.00109776    1.458    0.314
        68  -9.6351    148.5188     78.5487   9.1647825850e+01   3.7252735388e+01    0.1539422     0.151633  70.31 0.0001931402    1.012    0.012
        69 -10.5776     86.8928     78.0358   1.0877899129e+02   5.0534808956e+01    0.2592249    0.2155126  13.67  0.001391599    1.350    0.259
        70 -10.8673    112.7722     76.2831   1.0030621726e+02   4.5889919140e+01    0.6671629    0.2673749  55.15  0.002150863    3.327    0.699
        71 -10.6893    160.3482    247.8514   1.2377256152e+02   2.9096080926e+00    0.2388287    0.1471155 -65.60  0.001322684    2.605    0.616
        72  -9.6543    168.3148    248.6500   1.2242708414e+02   1.5242035691e+00     0.116227   0.08271606  62.65  0.000704687    1.727    0.421
        73 -10.2855     13.7080     59.9726   1.3066394853e+02   6.3054611974e+01    0.1755742    0.1539042 -43.32 0.0004406658    1.124    0.111
        74 -10.2684    200.5000    247.0116   1.1643664239e+02  -3.3522388246e+00    0.1487219    0.1152948 -31.47  0.001027012    1.581    0.367
        75  -9.1812    203.3036    245.3188   1.1569806825e+02  -3.5804944948e+00    0.1186761   0.07705501  15.09  0.000469347    1.627    0.386
