#   1 NUMBER                 Running object number                                     
#   2 MAG_AUTO               Kron-like elliptical aperture magnitude                    [mag]
#   3 X_IMAGE                Object position along x                                    [pixel]
#   4 Y_IMAGE                Object position along y                                    [pixel]
#   5 X_WORLD                Barycenter position along world x axis                     [deg]
#   6 Y_WORLD                Barycenter position along world y axis                     [deg]
#   7 A_WORLD                Profile RMS along major axis (world units)                 [deg]
#   8 B_WORLD                Profile RMS along minor axis (world units)                 [deg]
#   9 THETA_WORLD            Position angle (CCW/world-x)                               [deg]
#  10 FWHM_WORLD             FWHM assuming a gaussian core                              [deg]
#  11 ELONGATION             A_IMAGE/B_IMAGE                                           
#  12 ELLIPTICITY            1 - B_IMAGE/A_IMAGE                                       
         1 -16.6366    230.9373     95.5264   2.5120893203e+01   1.5511546049e+01     3.724487     2.925871 -56.11   0.02150703    1.114    0.102
         2 -12.0604     62.5695     69.4490   5.8336087591e+01   5.5955550353e+01    0.7134026    0.1083994 -44.35  0.001865873    5.959    0.832
         3 -11.3836     73.2096     55.9177   4.9987603850e+01   5.6634081141e+01    0.7074944    0.2013944 -36.90   0.00243722    3.711    0.731
         4 -11.1662     92.0067     47.6418   4.0952639220e+01   5.4444643022e+01    0.6036969    0.1273165 -37.56  0.001843879    4.910    0.796
         5 -11.0332     40.9596     13.9682   4.6062334254e+01   6.7283505917e+01     0.174169    0.1304692  10.19 0.0003029341    1.020    0.019
         6 -10.6284     52.4625    250.0154   9.2968707487e+01   1.4891683345e+01    0.2110961    0.1679558  29.86 0.0009838971    1.539    0.350
         7 -10.3321    162.0499    224.7967   6.5870335329e+01   2.9217426169e+00    0.2449509    0.1610399   7.57  0.001098623    2.062    0.515
         8 -10.5147     98.3301    225.1326   8.0450976757e+01   1.3618154988e+01    0.2530097    0.1796346  30.25  0.001107209    1.485    0.327
         9 -10.5057    126.1533    220.7660   7.3389735888e+01   9.9653896779e+00    0.2196008     0.181937  60.35 0.0006355435    1.237    0.191
        10 -10.4157    143.5964    216.8011   6.8697826254e+01   7.7787144135e+00      0.19299    0.1416207 -65.74 0.0009454513    1.631    0.387
        11 -10.4236     76.6713    212.3311   8.3782114027e+01   1.9876258695e+01    0.1504328    0.0958529  68.23 -5.119154e-05    1.714    0.417
        12 -10.3327     74.6294    219.3093   8.5123616739e+01   1.8551909363e+01    0.1504708   0.09101859  64.85 0.0007034559    1.767    0.434
        13 -11.3098    185.9441    204.1608   5.6835230578e+01   2.8487943886e+00    0.2175484     0.203998  66.09  0.001163075    1.305    0.234
        14 -11.9579    165.4667    202.3251   6.1050863479e+01   6.9148128012e+00     0.468075    0.3540782 -75.76  0.002212547    1.869    0.465
        15 -12.2671    163.5766    194.3483   5.9950773705e+01   8.9747399505e+00    0.5372594    0.3873031  79.90  0.002299559    2.266    0.559
        16 -12.0441    176.2449    198.1302   5.7804956849e+01   5.8211255424e+00    0.4607852    0.2901883  -4.04  0.001664168    2.637    0.621
        17 -10.7186    124.6209    197.1592   6.9827017140e+01   1.5564541130e+01    0.3041376    0.1934247  57.57  0.001308081    1.822    0.451
        18 -10.6155     66.2283    192.9857   8.3745820988e+01   2.6047808772e+01    0.3348849    0.1647908 -81.75  0.001284166    2.634    0.620
        19 -10.0254     11.7048    187.3098   9.6161091238e+01   3.3620032589e+01    0.1299537   0.07870721  70.87 0.0003028349    1.591    0.372
        20 -10.4934      7.6791    187.6820   9.7101708850e+01   3.3879466597e+01    0.1221906   0.08195601 -51.24 0.0004255329    1.664    0.399
        21 -10.2812    165.4144    186.2415   5.7912184918e+01   1.0398528796e+01    0.2124574    0.1463417 -58.40 0.0007297581    1.659    0.397
        22 -10.7739    120.3992    184.1214   6.8512918961e+01   1.9436640295e+01    0.3619188    0.1523586 -63.42  0.001141969    3.236    0.691
        23 -11.0804     95.2509    183.1468   7.4828045488e+01   2.4073979706e+01    0.4459391    0.2107271 -70.18  0.001568604    2.757    0.637
        24 -10.6997    174.4780    183.5177   5.5275253973e+01   9.2539183492e+00    0.1499884    0.1448685  -7.23 4.712313e-05    1.021    0.021
        25 -12.2724      2.2357    178.8616   9.7594542724e+01   3.6417278561e+01    0.4424891    0.2116565 -57.50  0.002292738    1.930    0.482
        26 -11.0928    147.7325    179.3876   6.0736812784e+01   1.5374454165e+01    0.2905203    0.1951674 -60.75  0.001188418    1.684    0.406
        27 -10.8549    138.3245    178.8308   6.2951589460e+01   1.7330163924e+01    0.3143191    0.1457127 -58.82  0.001048642    2.588    0.614
        28 -11.3149     77.8138    175.5383   7.8146274267e+01   2.8751590553e+01     0.291807    0.1800344  75.25  0.001198113    2.221    0.550
        29 -11.2014    177.2889    170.8301   5.1971405587e+01   1.1463855507e+01    0.2939399     0.241191 -75.50  0.001219613    1.536    0.349
        30 -11.4627    121.7765    168.0894   6.5016031738e+01   2.3096322028e+01    0.6240597    0.3598974 -65.07   0.00241687    2.089    0.521
        31 -10.9844     80.0955    163.7664   7.5500509212e+01   3.1406304314e+01    0.3852941    0.2009465 -79.87  0.001326986    3.002    0.667
        32 -10.1987    146.1698    162.8600   5.7633332697e+01   1.9556342810e+01    0.2362228    0.2096859 -89.00  0.000487685    1.279    0.218
        33 -11.3923    205.9676    161.9681   4.3958579345e+01   7.7293890130e+00    0.2348507    0.1861493 -79.27  0.001142329    1.742    0.426
        34 -11.0923    177.7151    159.6632   4.9434613088e+01   1.3823680860e+01    0.4424489    0.2108897 -55.48  0.001545274    2.575    0.612
        35 -10.9471     92.8646    159.5942   7.1159009687e+01   3.0419096543e+01    0.3202231    0.2077636 -78.37  0.001329419    1.947    0.486
        36 -11.9484    197.0829    157.1530   4.4711535388e+01   1.0452848596e+01    0.3468182    0.2104677 -48.18  0.001522557    1.608    0.378
        37 -11.6484    188.7745    156.6564   4.6345186605e+01   1.2223595361e+01     0.480992    0.2532108 -48.46  0.001771293    1.879    0.468
        38 -12.9501    189.1239    148.6477   4.4474121802e+01   1.3858591685e+01    0.6442605    0.3392602 -52.05  0.002534181    2.008    0.502
        39 -11.0237    168.0043    157.0216   5.1060359589e+01   1.6410591462e+01    0.2538978    0.1989692 -86.25  0.001136276    1.725    0.420
        40 -10.4780    105.4812    157.5205   6.7232647594e+01   2.8746928789e+01    0.1558336    0.1499466 -82.83 6.718596e-05    1.031    0.030
        41 -10.9119     49.4872    153.8190   8.2411283738e+01   3.8121451729e+01    0.4270745    0.2213842 -84.95  0.001650702    2.654    0.623
        42 -11.9554    204.9976    154.0211   4.2424400831e+01   9.5384912740e+00    0.2366615    0.2160218 -41.56 0.0009217968    1.038    0.037
        43 -11.5139    139.1601    163.9927   5.9647897319e+01   2.0698948438e+01    0.5739399    0.3117879 -65.35  0.002003975    2.624    0.619
        44 -10.6904     81.4107    153.6573   7.3241777224e+01   3.3786632326e+01    0.2945774    0.1417381 -73.67 0.0009550925    3.182    0.686
        45 -11.2607     67.8370    153.0891   7.7035111746e+01   3.5941525188e+01    0.4150385    0.2757165  77.62  0.001699147    2.004    0.501
        46 -10.8721    133.0552    152.2531   5.8634328236e+01   2.4747208139e+01    0.3885439    0.2657412 -82.50  0.001507063    2.250    0.556
        47 -10.4390    182.4525    150.0171   4.6217007476e+01   1.4949008407e+01    0.2488604    0.1472045 -44.81  0.001038927    1.623    0.384
        48 -12.4655    200.4422    148.1488   4.2033239163e+01   1.1651349125e+01    0.3713057    0.2663707 -52.62  0.001629392    1.402    0.287
        49  -9.7503    142.6533    148.3347   5.5254115085e+01   2.3709839433e+01    0.1675765    0.1281876  84.22 0.0007048804    1.772    0.436
        50 -11.0063     38.8932    146.4044   8.4271481192e+01   4.1179606528e+01    0.3655145    0.1778094 -88.84  0.001309278    3.304    0.697
        51 -11.8173    148.9943    143.1092   5.2430381803e+01   2.3595977842e+01      0.83771    0.3953677 -55.91  0.002863055    2.503    0.600
        52 -11.3461    106.8471    143.9765   6.3924191246e+01   3.1880719372e+01    0.6627415    0.3836877 -73.53  0.002338317    2.707    0.631
        53 -11.2467     55.4333    144.2262   7.9058699082e+01   3.9843193375e+01     0.535763     0.292081 -80.66  0.002136592    2.428    0.588
        54 -11.2106    165.7766    142.9020   4.8330840557e+01   2.0048641259e+01    0.4004654     0.214846 -56.12  0.001486605    2.160    0.537
        55 -11.4027    124.5958    141.4850   5.8413351145e+01   2.9052983339e+01    0.5564468    0.3150814 -68.06  0.001933461    2.657    0.624
        56 -11.0115     87.6368    142.9104   6.9246909877e+01   3.5515567414e+01    0.3081883    0.1964888 -72.02  0.001287671    1.884    0.469
        57 -11.0999    182.2209    140.9602   4.4185169518e+01   1.6950877340e+01    0.3454419    0.2078612 -55.02  0.001421073    1.806    0.446
        58 -12.8112    189.0166    136.3680   4.1680255365e+01   1.6478339032e+01    0.6450019    0.3231965 -54.18  0.002409445    2.265    0.559
        59 -11.1528    172.2798    137.2139   4.5496579618e+01   1.9900959289e+01    0.3910862    0.2346237 -64.45  0.001467873    2.330    0.571
        60 -11.6189     22.9021    137.1474   8.7523844712e+01   4.4991537564e+01     0.488727    0.2269186  83.74  0.001681716    4.094    0.756
        61 -10.8489    162.5836    135.3115   4.7271151950e+01   2.2432277777e+01    0.3129705    0.1503277 -49.04   0.00113571    2.096    0.523
        62 -11.2507    179.7400    132.9799   4.2846945888e+01   1.9193012107e+01    0.3993408    0.2358208 -56.28  0.001611037    1.898    0.473
        63 -10.6849    112.6841    132.6949   5.9634122409e+01   3.3531032343e+01    0.3190369    0.1967226 -72.32  0.001172433    2.449    0.592
        64 -11.4048    131.6313    129.2381   5.3549210290e+01   3.0502531871e+01    0.6893744    0.2759344 -53.41  0.002194691    2.825    0.646
        65 -11.9728     83.1862    128.6696   6.7432340000e+01   3.9786964144e+01    0.9445946    0.2562925 -55.19  0.002740243    3.616    0.723
        66 -11.1603    143.0762    129.6386   5.0659449051e+01   2.7963664457e+01    0.4894932    0.2363795 -46.39  0.001794896    2.047    0.511
        67 -12.5764    192.6434    129.2945   3.9293576478e+01   1.7172768777e+01    0.3866346    0.2816206 -41.54  0.001605559    1.310    0.237
        68 -11.6821    168.7225    128.6161   4.4232875791e+01   2.2549585692e+01    0.4779802    0.2384848 -52.09  0.001764648    2.148    0.534
        69 -11.3578    152.7653    127.4757   4.7703724329e+01   2.6331482212e+01    0.6068714    0.2177239 -48.84  0.001892788    2.886    0.654
        70 -12.4341     98.7797    124.3799   6.1669076736e+01   3.8146723904e+01     1.009245    0.4354165 -52.46  0.003622035    2.294    0.564
        71 -10.8368     72.6912    127.9801   7.0530299941e+01   4.1579972677e+01    0.4070825    0.1832708 -63.98  0.001457884    2.595    0.615
        72 -11.3182     12.4812    128.4940   8.9356009498e+01   4.7903054024e+01    0.3513376    0.1678355  81.20  0.001347645    3.546    0.718
        73 -12.0895    180.5094    122.3978   4.0148143425e+01   2.1251315914e+01     0.764039    0.2859867 -37.03  0.002428127    3.035    0.671
        74 -11.3528    117.1824    123.0677   5.5971965572e+01   3.4919784760e+01    0.6039867    0.2916664 -54.67  0.002174073    2.276    0.561
        75 -11.3392     58.7730    122.8556   7.3822759377e+01   4.4763935931e+01    0.4926425    0.2906124 -84.60  0.001905291    2.848    0.649
        76 -10.4345      3.2115    249.2015   1.0208427139e+02   2.0709643200e+01    0.1639494   0.09550519  67.70 0.0005567977    1.336    0.251
        77 -10.8216    133.1919    108.2727   4.7705558547e+01   3.4851470208e+01      0.33149    0.2192208 -54.18  0.001425916    1.637    0.389
        78 -11.9417    139.7777    102.4152   4.4425137262e+01   3.4617422703e+01    0.5705194    0.2992945 -41.58  0.002250111    1.933    0.483
        79 -13.1804     21.5379     98.6323   8.1286652209e+01   5.4310749097e+01    0.9652779    0.4507324 -77.03  0.003841285    3.194    0.687
        80 -11.9206    166.9520    102.0519   3.7968966664e+01   2.8461411901e+01    0.4819546     0.223665 -41.13  0.001816372    2.156    0.536
        81 -12.4102    150.0703    100.0813   4.1275251870e+01   3.2750627430e+01    0.8170025    0.2837087 -44.31  0.002646706    2.901    0.655
        82 -12.1403     42.8193    120.3338   7.8458496951e+01   4.7254318425e+01    0.7916092    0.3436802 -76.60  0.002506657    4.231    0.764
        83 -11.1745      6.4327    101.7282   8.7097748502e+01   5.4599104235e+01    0.2491155    0.1082572 -71.24   0.00114535    2.178    0.541
        84 -12.1855    175.8748    100.2088   3.5628955836e+01   2.6757172639e+01    0.3908396    0.2223032 -44.71   0.00165761    1.725    0.420
        85 -11.6845    159.5688     99.2357   3.8860990381e+01   3.0725627099e+01    0.4588757    0.1460129 -42.73  0.001431043    3.122    0.680
        86 -12.5489    108.3330     95.9634   5.1235492584e+01   4.2695409610e+01    0.8138868    0.4050374 -48.57  0.003196805    2.105    0.525
        87 -11.8142     81.7040     97.3000   5.9955540895e+01   4.7329159381e+01    0.5810615    0.1800698 -47.76   0.00190868    3.070    0.674
        88 -11.5228     28.9045    121.2601   8.3117887732e+01   4.8377089172e+01     0.590856    0.1916151 -69.82   0.00199607    3.506    0.715
        89 -11.4324     95.0913     94.2740   5.4787377749e+01   4.5612886692e+01    0.6356325     0.261574 -39.25  0.002284786    2.560    0.609
        90 -12.7178    183.8287     95.2453   3.2823176292e+01   2.5861916980e+01    0.3859752    0.2026418 -46.86  0.001602999    1.868    0.465
        91 -12.4808     63.1911     92.2660   6.4871438544e+01   5.1262772567e+01    0.9025192    0.2806771 -50.19  0.003155473    2.953    0.661
        92 -12.5496    177.0474     92.2806   3.3393235102e+01   2.7982876598e+01    0.4143447    0.2198556 -38.03  0.001710699    1.944    0.486
        93 -11.9179    164.9698     92.6711   3.5961918322e+01   3.0730291694e+01    0.3550786    0.2257409 -40.26  0.001587888    1.598    0.374
        94 -11.6964    138.7211     90.1487   4.1312729725e+01   3.7294798724e+01    0.5238956    0.2733436 -40.80  0.002112391    1.965    0.491
        95 -11.1406    158.0736     90.2948   3.6825336619e+01   3.2789767493e+01    0.2707609    0.2115071 -30.47  0.001324059    1.408    0.290
        96 -12.3501    124.9662     87.4804   4.4101466069e+01   4.0884464328e+01    0.7559873    0.3687504 -34.24  0.002882137    2.322    0.569
        97 -12.3028      5.1077     88.1411   8.5090719799e+01   5.7719284765e+01    0.5925051    0.1075048 -51.91  0.002279951    3.034    0.670
        98 -11.4463     34.5818     86.6086   7.3799222252e+01   5.5868053499e+01    0.7112345    0.1946415 -55.81  0.002574789    3.144    0.682
        99 -12.0232    128.5496    100.1869   4.6734355372e+01   3.7566904754e+01    0.5571771    0.3001231 -39.73  0.002230458    1.911    0.477
       100 -11.5285    158.4947    119.8340   4.4416286519e+01   2.6726233557e+01    0.4742842    0.2744558 -48.17  0.001928788    1.728    0.421
       101 -12.2847     44.5400    100.7759   7.3632399106e+01   5.1692597716e+01    0.6732263    0.3978584  89.60   0.00244848    4.009    0.751
       102 -12.1114     86.3862     83.5698   5.4433811779e+01   4.9375897303e+01    0.6872036     0.281726 -42.20  0.002631731    2.409    0.585
       103 -12.1883    179.4245     84.6971   3.1021793454e+01   2.8801130162e+01    0.3526307    0.1715762 -45.45  0.001431446    2.035    0.509
       104 -12.0068    141.5115    116.4722   4.7714458010e+01   3.1246708315e+01    0.8283254    0.3049669 -47.52  0.002665039    2.769    0.639
       105 -12.6252     47.8569     81.3329   6.7407340140e+01   5.5561786765e+01    0.6924911    0.2677088 -51.13  0.002858836    2.368    0.578
       106 -11.3201    130.4679    116.8987   5.0714567017e+01   3.3558197128e+01    0.5305462    0.2774259 -55.04  0.001963496    2.193    0.544
       107 -11.1354     70.7642    118.2876   6.8929192156e+01   4.4223316218e+01    0.3740951     0.178057 -61.03  0.001436296    2.283    0.562
       108 -11.8663    140.9541     81.2813   3.8274010398e+01   3.8431970922e+01    0.4240502    0.2213644 -35.02  0.001717053    2.092    0.522
       109 -11.9475    104.3631     80.3860   4.7829357574e+01   4.6577490149e+01    0.6887625    0.2719853 -40.59  0.002529036    2.593    0.614
       110 -11.8517      2.4368    114.4888   9.0412391794e+01   5.1861369317e+01    0.6911415    0.2058651 -74.12  0.002520166    3.458    0.711
       111 -12.0394    186.0100    114.8046   3.7182390088e+01   2.1575777491e+01     0.434438    0.2225718 -42.54  0.001578646    1.880    0.468
       112 -11.4288    158.5034     81.5084   3.4375323474e+01   3.4290351078e+01    0.3058342    0.1474947 -38.55  0.001206743    2.153    0.536
       113 -11.3954     24.0175     79.2822   7.5994716872e+01   5.8367484948e+01    0.4164996    0.1906409 -68.00   0.00173626    3.007    0.667
       114 -12.2922     24.4905     74.0055   7.4456953604e+01   5.9424977155e+01    0.6856664    0.2577364 -24.82  0.002264644    4.799    0.792
       115 -11.6592    150.2483     78.8772   3.5455513101e+01   3.6695882321e+01    0.3627355    0.2026883 -41.41  0.001556684    1.844    0.458
       116 -11.4471    172.4079    120.0198   4.1306114377e+01   2.3557237923e+01    0.3895869    0.2314961 -49.33  0.001624039    1.679    0.404
       117 -11.9921    174.8685     76.9138   2.9897282425e+01   3.1220796779e+01    0.3010096    0.1946568 -36.20  0.001414242    1.646    0.392
       118 -10.7324    157.5029     74.9994   3.2825916864e+01   3.5655099859e+01    0.2216377    0.1459556 -37.80  0.001034139    1.597    0.374
       119 -11.9575    128.0386     72.3018   3.8848177597e+01   4.2953675990e+01    0.5716734    0.3230323 -31.18  0.002463394    2.000    0.500
       120 -10.8168     10.0034     74.4789   8.0327934632e+01   6.0365477141e+01    0.1593035    0.1138787   4.97 0.0003318887    1.521    0.343
       121 -12.4845    193.0060    113.9251   3.5599333851e+01   2.0195611225e+01    0.4019192    0.2258564 -42.93  0.001714783    1.695    0.410
       122 -11.6263     82.1596     68.7309   5.1200313806e+01   5.2914979462e+01    0.7630468    0.2359355 -39.45  0.002631129    3.309    0.698
       123 -10.7187     57.0204    247.4946   9.1842820136e+01   1.4815107540e+01      0.19971    0.1684925 -66.96 0.0008327719    1.371    0.271
       124 -10.6683    115.6216     70.9904   4.1725615732e+01   4.5915439929e+01    0.3264742    0.1396157 -38.00    0.0012523    2.457    0.593
       125 -11.8939    108.8745    111.5541   5.5374985773e+01   3.9212505380e+01    0.8464465    0.3370685 -51.16   0.00286196    2.653    0.623
       126 -11.1653    105.5912     69.4995   4.4099837093e+01   4.8285083887e+01    0.3959638    0.1387305 -39.04   0.00139994    2.973    0.664
       127 -11.4275     94.8031     68.0492   4.6891154224e+01   5.0691202687e+01    0.6788298    0.1815192 -41.79  0.002146301    3.886    0.743
       128 -11.8481     92.2496    109.3374   5.9832526385e+01   4.2835045126e+01    0.9237129    0.2809229 -50.94  0.002833763    3.320    0.699
       129 -11.7887     78.4179    110.4200   6.4524428630e+01   4.4914977813e+01      0.74112    0.3379669 -64.20  0.002428436    3.421    0.708
       130 -11.6068     50.8713     66.7998   6.1915423579e+01   5.8060268841e+01    0.6191109    0.1768575 -51.62  0.002032269    4.244    0.764
       131 -11.7771    174.9292    110.4389   3.8388921689e+01   2.4956413361e+01    0.4820521    0.2204617 -45.88  0.001799009    2.147    0.534
       132 -10.3054    157.2936     68.3531   3.1060118950e+01   3.6804484016e+01    0.1446052    0.1130818  19.45 0.0003959785    1.683    0.406
       133 -11.6873    159.2927    110.4814   4.1847655627e+01   2.8519194402e+01    0.4703903    0.2058368 -43.02  0.001686902    2.268    0.559
       134 -11.0851    147.0165     65.6684   3.2469165754e+01   3.9664084749e+01    0.3945794    0.2206243 -22.72  0.001608135    2.503    0.601
       135 -11.5294    122.0848    110.5909   5.1336454088e+01   3.6734586589e+01    0.4829002    0.2327417 -45.34  0.001812214    2.067    0.516
       136 -12.2068    188.8039    122.7339   3.8520432063e+01   1.9351163892e+01    0.4613877    0.2113934 -46.47  0.001434412    2.101    0.524
       137 -11.3159    138.6866     63.9964   3.3839214997e+01   4.1877030721e+01    0.3676128    0.1860845 -27.07  0.001466582    2.527    0.604
       138 -11.3061     17.6259     63.5825   7.4444738248e+01   6.2050622397e+01    0.3382184   0.08004691 -44.09  0.001316855    3.076    0.675
       139 -11.3712    110.3487     60.7617   3.9980425068e+01   4.8725826683e+01    0.4683721    0.2459037 -20.58  0.001844778    2.772    0.639
       140 -10.7806     99.8947     57.0265   4.1754249270e+01   5.1481696144e+01    0.3870324    0.1768755 -31.30  0.001599554    2.445    0.591
       141 -10.9937    162.6610    244.3286   6.8930774119e+01  -8.7205300570e-01    0.1337806     0.101802  62.69  0.000705177    1.734    0.423
       142 -11.3733     65.9461    108.6707   6.8194707541e+01   4.7189594669e+01    0.5395259    0.2100243 -60.18  0.001846628    3.044    0.671
       143 -12.2102      7.4849     54.6701   7.6308718062e+01   6.4448400849e+01    0.5061755   0.08060618 -55.67  0.001737146    4.553    0.780
       144 -11.1970    140.3525     73.5393   3.6211517026e+01   3.9927089365e+01    0.2894514    0.1883965 -34.26  0.001342952    1.657    0.397
       145 -10.4940     74.2729     78.7432   5.7054712158e+01   5.2378951331e+01    0.4334276    0.1230695 -51.75  0.001208159    5.058    0.802
       146 -11.0241    121.7498     63.3413   3.7746955280e+01   4.5836638158e+01    0.4415568    0.2027855 -28.11   0.00168162    2.772    0.639
       147 -12.0603     45.2811     49.4333   5.8325832719e+01   6.1829931607e+01    0.3687591    0.1974675 -30.20 0.0006153767    1.781    0.439
       148 -11.1273     53.5392     50.2987   5.5323077887e+01   6.0583882780e+01    0.5186505    0.1187292 -43.28  0.001722045    4.422    0.774
       149 -10.5273    105.4882     50.9918   3.8164234014e+01   5.1223091441e+01    0.2035032     0.135627 -31.24  0.001041287    1.615    0.381
       150 -10.5064    147.4925    239.0015   7.1398805761e+01   2.6159160762e+00    0.1782276     0.122901 -87.33 0.0008098512    2.486    0.598
       151 -10.7611     82.6187     43.0667   4.2285000931e+01   5.6880624977e+01    0.5106442    0.1891544 -23.66   0.00169047    4.514    0.778
       152 -10.7038    113.3537     43.0393   3.3478603363e+01   5.0621385522e+01    0.4118231    0.2307507  -0.51  0.001587002    3.445    0.710
       153 -11.9169     14.8130    108.0204   8.5375135046e+01   5.2624746746e+01    0.5164775    0.2557032 -56.88  0.001667744    1.569    0.363
       154 -10.8454     16.6222     42.3815   6.8372235811e+01   6.6000743998e+01    0.2980824    0.0779186 -45.49  0.001268636    2.967    0.663
       155 -11.4426      4.8706     39.8533   7.3043664906e+01   6.7281622557e+01    0.3063661    0.1305781 -61.95  0.001360249    3.645    0.726
       156 -13.2232    189.3397    106.7284   3.4577897906e+01   2.2422402613e+01    0.5835621    0.2291231 -46.29  0.002078181    2.475    0.596
       157 -12.3319    182.9798    108.0151   3.6136212224e+01   2.3608403781e+01    0.4046118    0.2247369 -42.75  0.001595111    1.747    0.427
       158 -11.2389    119.3027     78.6624   4.3042230081e+01   4.3766362929e+01    0.4103672    0.2032794 -38.41  0.001661233    2.106    0.525
