#   1 NUMBER                 Running object number                                     
#   2 MAG_AUTO               Kron-like elliptical aperture magnitude                    [mag]
#   3 X_IMAGE                Object position along x                                    [pixel]
#   4 Y_IMAGE                Object position along y                                    [pixel]
#   5 X_WORLD                Barycenter position along world x axis                     [deg]
#   6 Y_WORLD                Barycenter position along world y axis                     [deg]
#   7 A_WORLD                Profile RMS along major axis (world units)                 [deg]
#   8 B_WORLD                Profile RMS along minor axis (world units)                 [deg]
#   9 THETA_WORLD            Position angle (CCW/world-x)                               [deg]
#  10 FWHM_WORLD             FWHM assuming a gaussian core                              [deg]
#  11 ELONGATION             A_IMAGE/B_IMAGE                                           
#  12 ELLIPTICITY            1 - B_IMAGE/A_IMAGE                                       
         1 -13.9689    185.6968     32.2274   6.6627111157e+01   3.5093761764e+01    0.9332924    0.8322653 -76.01  0.002956391    1.094    0.086
         2 -14.4772    192.9225     21.5301   6.3069528644e+01   3.4646639590e+01    0.8246361    0.7831156  38.73  0.001362104    1.340    0.254
         3 -10.6042     40.6737      2.6521   9.0963760852e+01   6.8077638016e+01    0.1188994   0.06726395  10.87  0.000704957    1.752    0.429
         4 -11.4474    115.1176    210.7097   1.2371449522e+02   1.4673327987e+01    0.2325592     0.183648 -83.23 0.0004523133    1.328    0.247
         5 -16.2927    110.6098    240.2739   1.2871983555e+02   9.3225914801e+00     6.973516     2.444485  36.81   0.02692247    2.917    0.657
         6 -12.5519    107.3888    202.7996   1.2424241705e+02   1.7768806593e+01    0.4882064    0.2722549  39.36  0.002146394    1.768    0.435
         7 -12.8029     43.5036    202.7317   1.3828353912e+02   2.7272664721e+01    0.2874762    0.2469698 -89.14 0.0005385182    1.132    0.117
         8 -13.4927     70.3014    196.0495   1.3167089044e+02   2.5236085637e+01    0.7976344    0.6230893  89.42  0.003905375    1.155    0.134
         9 -10.9811     80.1617    193.4529   1.2907774726e+02   2.4374295342e+01    0.5194432    0.1954703  52.71  0.001886095    3.012    0.668
        10 -10.6889     44.9871    210.5189   1.3875969202e+02   2.5337579329e+01    0.2606009    0.1371809  56.23  0.001023741    1.763    0.433
        11 -12.9737    195.9419    196.0903   1.0353392630e+02   2.5550464260e+00    0.9084494     0.692169  77.87  0.004249572    1.998    0.500
        12  -9.9378     69.4576    227.7741   1.3556980818e+02   1.8275282507e+01    0.1737247    0.1141621 -75.66 0.0009839641    1.460    0.315
        13  -9.9948     36.9940    223.4549   1.4152290346e+02   2.3494971781e+01    0.1589562    0.1042138  49.12 0.0003872167    1.439    0.305
        14 -11.4041    102.1482    194.8859   1.2421917278e+02   2.0474672747e+01     0.439038    0.2492104  72.70   0.00173793    2.571    0.611
        15 -10.2863     92.2228    194.6980   1.2648264933e+02   2.2174639669e+01    0.3318811    0.2077279  50.46  0.001234339    1.531    0.347
        16  -9.6429     47.9887    194.4598   1.3643319049e+02   2.8616692270e+01    0.1791157   0.08565301  59.59 0.0004413092    2.243    0.554
        17 -14.2385     52.9993    230.9561   1.3911614928e+02   1.9878368555e+01     1.027793    0.8398176 -51.44  0.006692607    1.683    0.406
        18 -10.2217     59.5915    189.2666   1.3322236669e+02   2.8325761684e+01    0.2716132    0.1882877 -42.68  0.000769755    1.883    0.469
        19 -11.6499    207.9259    185.2244   9.8934401542e+01   2.3681517365e+00     0.328035    0.3012485  -0.57  0.001070162    1.051    0.049
        20 -11.5267    211.8699    181.3718   9.7365184565e+01   2.3557556955e+00    0.3198398    0.2318738  -1.80  0.001036704    1.754    0.430
        21 -10.6855    147.0353    185.7191   1.1218994955e+02   1.4244449524e+01    0.2117234    0.1891859  49.27 0.0003212051    1.080    0.074
        22 -11.4650     41.2251    208.2408   1.3930553427e+02   2.6309333416e+01    0.2252126    0.1573892  69.44 0.0004260139    1.244    0.196
        23 -12.2351     81.6665    180.1678   1.2676433300e+02   2.7299962756e+01    0.4232602    0.2704681 -40.50  0.001963831    2.023    0.506
        24 -12.4158     85.2806    174.8837   1.2504537258e+02   2.8008473367e+01    0.4420372    0.3548964  16.58  0.000933627    1.660    0.398
        25 -10.8074     99.4972    180.6292   1.2253395157e+02   2.4279947208e+01    0.2491326    0.2277476  47.46 0.0008555022    1.160    0.138
        26 -10.6151    197.9006    176.1028   9.9083566989e+01   6.0855935940e+00     0.361776    0.2438484 -61.37  0.001625356    1.896    0.473
        27 -10.8870    137.5015    170.9584   1.1153145949e+02   1.9484455027e+01    0.2363884    0.1506571 -52.69  0.000939393    1.581    0.368
        28 -10.2932      1.9945    170.0697   1.4401908968e+02   3.8939755483e+01    0.1860265    0.1371631 -86.08 0.0006826272    1.035    0.034
        29 -10.7319    204.6190    168.4790   9.6105757733e+01   6.2681630292e+00     0.350875    0.2758212  32.59  0.001796585    1.332    0.249
        30 -11.4544     66.2403    236.6228   1.3710074609e+02   1.6885520375e+01    0.2801485    0.1777667 -55.45  0.001588946    1.897    0.473
        31  -9.7032    135.7940    162.9935   1.1031021936e+02   2.1679834462e+01    0.2059055    0.1925732 -66.97 -0.0006383859    1.056    0.053
        32 -19.3107     17.0903    131.9252   1.3608780048e+02   4.6607336470e+01     18.95927     1.743456 -68.41   0.03609375   12.088    0.917
        33 -12.3615     97.2142    157.8946   1.1901302170e+02   3.0174573510e+01    0.6381461    0.4108789 -34.94  0.002767491    2.023    0.506
        34 -10.2707     42.3904    220.5355   1.4022405001e+02   2.3462200370e+01     0.251834    0.1395377  36.62  0.001373792    1.977    0.494
        35 -11.3555    133.9019    145.1146   1.0688199595e+02   2.6256463324e+01     1.006554    0.2259233 -53.76  0.002172356    6.295    0.841
        36 -10.8523    174.8772    149.0839   9.8088626798e+01   1.6553596130e+01    0.2449045    0.2147449 -87.14 0.0006326955    1.277    0.217
        37 -11.7044    144.3514    144.9520   1.0425329861e+02   2.4098569597e+01    0.3437116     0.305688 -73.14 0.0005425303    1.163    0.140
        38 -11.7543    108.4370    141.5480   1.1268726033e+02   3.2130983698e+01    0.5983698    0.3373238 -34.62  0.002291376    2.356    0.576
        39 -12.3566     96.6194    142.3649   1.1603981487e+02   3.4061751289e+01    0.2815903     0.266047  15.60 0.0003042711    1.199    0.166
        40 -14.4595     66.5710    212.6968   1.3451076565e+02   2.1970774012e+01     2.394074    0.7016281  49.25   0.00884567    3.259    0.693
        41 -10.7550     48.3254    217.3150   1.3874793117e+02   2.3414014846e+01    0.2411332    0.1809333 -31.21  0.001352525    2.352    0.575
        42 -11.6398     44.0600    215.0983   1.3939012363e+02   2.4439791826e+01    0.5013632    0.1832307  53.23  0.002196211    2.615    0.618
        43 -10.7119    115.4106    131.5906   1.0854958935e+02   3.3167035292e+01    0.3083833    0.2651544 -14.27 0.0005923554    1.389    0.280
        44 -11.6599    104.4049    129.1395   1.1096626619e+02   3.5838265002e+01    0.5802891    0.4052836  84.23    0.0024623    2.107    0.525
        45 -11.1273    119.5753    128.1536   1.0661500387e+02   3.3144852004e+01    0.4735508    0.2668943 -55.03  0.001913178    1.819    0.450
        46 -10.7512    160.3428    127.6800   9.6306733828e+01   2.4463940292e+01     0.258671    0.1940177 -84.20  0.001117552    1.754    0.430
        47 -11.5196    135.6542    123.7037   1.0132444103e+02   3.0814728584e+01    0.5968366    0.2161268 -46.85  0.001928768    2.725    0.633
        48 -10.3188    110.8272    120.0330   1.0699483035e+02   3.6744943025e+01    0.2252641    0.2172588 -48.49 0.0005165809    1.017    0.016
        49 -10.9978     67.1307    115.6762   1.1863496416e+02   4.5064673018e+01    0.2498985    0.1812375 -64.88 0.0008196029    1.371    0.271
        50 -16.0438     73.5876    149.4738   1.2365688254e+02   3.6013936889e+01     5.004567     2.701009  73.77   0.01744598    3.557    0.719
        51 -10.6286    167.5781    112.4342   9.0840392647e+01   2.6046973495e+01    0.3509434    0.2425628 -75.64  0.001444817    1.997    0.499
        52  -9.3372    165.2976    208.2998   1.1230069840e+02   5.9571194212e+00    0.1398144    0.1110879   1.54 0.0002129346    1.576    0.365
        53 -10.3554    205.1964    110.2079   8.2727016666e+01   1.7770481482e+01    0.2972788     0.203969  42.96 0.0009635811    1.637    0.389
        54 -11.4801     65.2956    104.8382   1.1667079033e+02   4.7798547800e+01    0.3257177    0.1882361  24.10  0.001511387    2.075    0.518
        55  -9.1635    154.2904    103.7384   9.1592925715e+01   3.0927444167e+01    0.1510119    0.1211816 -87.44            0    1.495    0.331
        56  -9.8693    182.7972     78.4153   7.8935065839e+01   2.8912614144e+01    0.2075948    0.1340876  48.42 0.0005341597    1.604    0.377
        57 -12.0551    173.5471     72.3988   7.9091010073e+01   3.2180381618e+01    0.5030956    0.3199072 -82.59 0.0009114041    2.310    0.567
        58 -13.7906    175.1252     41.7954   7.0671137446e+01   3.6415380752e+01    0.7698675    0.6649832   5.59 0.0009586235    1.511    0.338
        59  -9.8251     92.1328    205.8714   1.2810966101e+02   1.9624569866e+01    0.2192464     0.167023  70.44 0.0005598601    1.247    0.198
        60 -10.6300    168.1523    248.0663   1.1821698177e+02  -1.8287970926e+00    0.1871407    0.1593439  18.32   0.00033689    1.192    0.161
        61  -9.9456     95.2445     42.2609   8.8290702234e+01   5.4442316499e+01    0.2038785   0.09954672 -43.31 0.0009010548    2.425    0.588
