#   1 NUMBER                 Running object number                                     
#   2 MAG_AUTO               Kron-like elliptical aperture magnitude                    [mag]
#   3 X_IMAGE                Object position along x                                    [pixel]
#   4 Y_IMAGE                Object position along y                                    [pixel]
#   5 X_WORLD                Barycenter position along world x axis                     [deg]
#   6 Y_WORLD                Barycenter position along world y axis                     [deg]
#   7 A_WORLD                Profile RMS along major axis (world units)                 [deg]
#   8 B_WORLD                Profile RMS along minor axis (world units)                 [deg]
#   9 THETA_WORLD            Position angle (CCW/world-x)                               [deg]
#  10 FWHM_WORLD             FWHM assuming a gaussian core                              [deg]
#  11 ELONGATION             A_IMAGE/B_IMAGE                                           
#  12 ELLIPTICITY            1 - B_IMAGE/A_IMAGE                                       
         1 -13.5255    219.0006      6.9395   3.7487903892e+01   2.9643012744e+01     1.268425    0.9115653  56.96  0.004865227    1.506    0.336
         2 -14.3386    193.4207     37.5947   4.8303236554e+01   3.2246415464e+01     2.798598      1.71991  19.56   0.01149922    2.798    0.643
         3 -10.7211    189.6091     14.6449   4.2448393265e+01   3.5911247414e+01    0.2636873    0.2163861 -70.60 0.0008056149    1.177    0.150
         4  -9.5954     56.2804    217.7497   1.1880652693e+02   2.2255082223e+01    0.2560075    0.1270354  78.21  0.001268763    2.324    0.570
         5 -11.4249    248.6073    244.6724   8.5522083830e+01  -1.0863026588e+01    0.3541881    0.2323921 -26.58  0.002388248    1.592    0.372
         6  -9.7531    168.1153    232.9888   9.8394325993e+01   2.6565892973e+00    0.2563785    0.1544338  43.95  0.000756934    1.476    0.322
         7  -9.5866     72.1162    250.0599   1.1851159725e+02   1.4202422237e+01    0.1384989   0.09487095  86.57  0.000401987    1.449    0.310
         8 -10.1112    183.9823    210.9318   9.1774448164e+01   3.5312663248e+00    0.3084094    0.1989411 -50.49  0.001615671    1.928    0.481
         9  -9.9952     56.7537    210.1608   1.1804555517e+02   2.3733846789e+01    0.2881483    0.1557709 -61.76  0.001155078    1.916    0.478
        10  -7.9013     43.8651    210.1650   1.2060554748e+02   2.5283617596e+01    0.1728844    0.1322232  83.81 0.0002695362    1.096    0.088
        11  99.0000     41.8261    205.8808   1.2066210025e+02   2.6403060145e+01    0.2474405    0.2067309 -22.22   0.00162726    1.983    0.496
        12 -12.3465     32.6843    206.6880   1.2252366001e+02   2.7248589655e+01    0.3523582    0.1554711  57.11  0.001349163    2.021    0.505
        13  -8.4487    223.7528    206.6478   8.3361941560e+01  -2.4140696577e+00    0.1297915    0.0864933  -2.26 0.0002543335    1.589    0.371
        14 -11.0554    193.2063    195.3723   8.7148968742e+01   4.5111571953e+00     1.261001    0.5706716 -53.92  0.004606803    3.763    0.734
        15 -10.6684     66.2344    204.5993   1.1557251663e+02   2.3672705046e+01    0.2719648    0.1671036 -56.16  0.001001791    1.819    0.450
        16  -9.7781     96.0608    202.1434   1.0895494014e+02   1.9943792598e+01    0.4869776    0.2875476 -37.61  0.002255716    2.655    0.623
        17 -10.3466     59.0683    230.2223   1.1930850878e+02   1.9476591636e+01    0.1714352    0.1332894  86.43 0.0003356776    1.180    0.153
        18  -8.4972     70.5493    199.9699   1.1417608770e+02   2.4074947703e+01    0.1681771     0.114617 -71.92 0.0006512794    1.429    0.300
        19 -10.4782    150.0805    196.1774   9.6305020039e+01   1.2106442796e+01    0.3009985    0.2082691 -58.29  0.001544808    1.688    0.408
        20  -9.9116     34.8103    197.1798   1.2136781379e+02   2.9015517265e+01    0.1624127    0.1188301  67.27 0.0003987226    1.144    0.126
        21 -10.6776     50.2819    224.6338   1.2051347345e+02   2.1632972149e+01    0.2001137    0.1264246  81.42  0.000716679    1.433    0.302
        22  -9.6231     81.9039    194.7385   1.1111194041e+02   2.3612031166e+01    0.2215706    0.1762627 -87.44  0.000510987    1.199    0.166
        23 -10.2334     95.4313    188.4372   1.0726245359e+02   2.2956732215e+01    0.4378683    0.2868408  84.46  0.002167923    1.857    0.461
        24 -10.9316     99.1119    181.3361   1.0538750090e+02   2.3940222236e+01    0.5871831    0.2914361 -53.68  0.002038919    2.060    0.515
        25  -8.7154    156.5078    189.9590   9.3831837894e+01   1.2141991771e+01    0.1957251    0.1398227 -46.05 0.0004528828    1.508    0.337
        26 -11.0730    149.7324    187.5914   9.4892629525e+01   1.3843292961e+01    0.3446677    0.3004107  81.63  0.001936577    1.347    0.258
        27  -6.9913     76.5928    224.5179   1.1545434972e+02   1.8269887324e+01    0.1194312   0.09918574  66.79 0.0008027651    1.035    0.033
        28  -9.1375    134.3259    187.3255   9.8276710106e+01   1.6678873627e+01    0.1400478    0.1109536  -3.89 0.0007049327    1.694    0.410
        29  -9.5278    238.4696    185.4907   7.6654305215e+01  -1.6643313636e+00    0.1323127    0.1102781  -2.67 3.623772e-06    1.006    0.006
        30  -9.1118     65.0000    223.9095   1.1765078534e+02   1.9932024098e+01    0.1626053   0.06263982 -69.19 0.0007604067    2.659    0.624
        31 -10.4454    139.7086    172.0087   9.4304742658e+01   1.8902361493e+01    0.5498492    0.3467054  66.84  0.002296676    2.301    0.565
        32 -11.2174    144.7675    180.2807   9.4683798422e+01   1.6231140191e+01    0.3648629    0.3296325  33.73  0.001027011    1.069    0.065
        33 -10.1728    142.4138    176.7968   9.4577730024e+01   1.7388871739e+01    0.2568233    0.2099135 -23.41  0.000707013    1.436    0.304
        34 -10.7495    150.6998    179.3666   9.3179972072e+01   1.5313209309e+01    0.4297045     0.290704 -74.47  0.001797909    2.226    0.551
        35 -10.4978    188.9823    177.0615   8.4456457898e+01   8.5005880486e+00    0.6708339    0.3705655 -56.30  0.002130148    2.676    0.626
        36  -9.9754     58.5760    176.2383   1.1413836809e+02   3.0890888617e+01    0.2275554    0.1667839  60.63 0.0007273016    1.282    0.220
        37 -10.7435     43.4619    172.3296   1.1718399270e+02   3.3578287517e+01    0.5853065    0.2364796  50.76  0.001773546    2.484    0.597
        38  -9.1779     36.7462    224.0711   1.2298519552e+02   2.3315960118e+01    0.1455508    0.1207344  75.56 0.0003989678    1.149    0.129
        39  -9.6390    240.2390    169.3811   7.3072804084e+01   5.0803780638e-01    0.1678102    0.1259981  46.33 0.0003319144    1.587    0.370
        40 -10.2147    230.6961    167.2589   7.4321907956e+01   2.5017867502e+00     0.438175   0.09919159 -42.72  0.001231648    5.091    0.804
        41  -9.4587     55.4588    223.0507   1.1940800729e+02   2.1309278637e+01    0.1481596    0.1110615  80.61 0.0009995388    1.145    0.127
        42 -11.6498     94.9711    151.6009   1.0148243892e+02   3.1464474512e+01     0.671882    0.5011586 -38.99  0.003395956    1.531    0.347
        43 -10.0646    187.4828    152.2218   7.9480934440e+01   1.3474923915e+01    0.2809108     0.226926 -69.90   0.00137807    1.646    0.393
        44 -10.7833    133.9191    146.0368   9.0423683170e+01   2.5721236858e+01     1.241089    0.3184097 -54.55  0.002938005    5.741    0.826
        45  -8.7138    139.2645    150.9494   9.0170611766e+01   2.3569701465e+01    0.2105506    0.1952838 -49.03 0.0005006942    1.086    0.080
        46  -9.6987    174.4168    148.9159   8.1551330552e+01   1.6824309247e+01    0.2875346    0.2632366  69.92  0.001044096    1.252    0.201
        47  -9.5125    109.0588    147.3089   9.7010406237e+01   3.0088431349e+01    0.2632017    0.2080496 -71.27 0.0003497853    1.323    0.244
        48  -9.2646    112.9528    150.9156   9.6727949145e+01   2.8551503562e+01    0.2428674    0.1779433  78.81 0.0007195871    1.732    0.423
        49  -9.7056     86.8974    143.5309   1.0212141808e+02   3.4680741925e+01    0.3348888    0.2104911  68.66  0.001456499    2.114    0.527
        50 -10.7932    106.8570    137.9684   9.5665891485e+01   3.2684035575e+01    0.5016755    0.3566835 -35.33  0.001924075    1.606    0.377
        51 -10.5118    105.8690    130.7369   9.4363269056e+01   3.4575386910e+01    0.4059488    0.3226076 -62.25  0.001234683    1.251    0.200
        52 -11.6737     94.8275    137.7170   9.8854763245e+01   3.4809087075e+01    0.2859803    0.2605363 -48.41 0.0004529628    1.112    0.101
        53 -10.4176    135.7022    127.6834   8.5744915399e+01   2.9498535499e+01      0.83806    0.1405725 -49.58  0.001672074    7.327    0.864
        54 -10.9645    119.9548    123.8554   8.8940786246e+01   3.3545820234e+01    0.9267832    0.3202229 -38.49  0.002574494    4.072    0.754
        55 -10.3934    102.0026    124.8447   9.4103314734e+01   3.6662716323e+01    0.3184092    0.2560684 -17.38 0.0007184103    1.536    0.349
        56 -10.0589    114.3934    129.0237   9.1661173344e+01   3.3412226753e+01    0.3471909    0.2906673 -30.14 0.0007534893    1.300    0.231
        57 -11.3500    248.7365    235.5648   8.4002695108e+01  -9.8458801260e+00    0.3194889    0.3015946  60.88   0.00231546    2.015    0.504
        58  -9.4860    109.9307    118.2556   9.0323244352e+01   3.6769490645e+01    0.2473455    0.2082368 -49.73 0.0003152949    1.139    0.122
        59 -10.0106    231.2059    113.7023   6.2167586411e+01   1.1453463277e+01    0.2663154    0.2608781 -11.82 0.0007178885    1.101    0.092
        60  -9.3505    167.4125    112.4135   7.4177150686e+01   2.5831162650e+01    0.3413528    0.2637349 -77.85  0.001520194    1.744    0.426
        61  -9.5633    134.6669    106.3318   8.0502132509e+01   3.4446560146e+01    0.3155835    0.1521518 -48.33  0.001137348    2.103    0.525
        62 -11.3462    118.3119    110.2651   8.5959373274e+01   3.6982381267e+01    0.6915869    0.4869663  77.84  0.002862112    2.190    0.543
        63  -9.5333    205.4439    110.1077   6.5771797698e+01   1.7622414779e+01    0.3203254     0.226646  44.28  0.001157719    1.495    0.331
        64  -9.1859     61.4680    219.9748   1.1798894287e+02   2.1158597737e+01    0.1497814    0.1037641 -64.34 0.0005357966    1.570    0.363
        65  -8.5012    155.0602     81.9992   6.8469216673e+01   3.4721757385e+01     0.184434    0.1824367  19.25 0.0003912961    1.016    0.016
        66  -8.6284    184.3527     77.2897   6.0983248507e+01   2.8452132812e+01    0.1563203    0.1180272  22.00 0.0007026574    1.673    0.402
        67  -9.0080     67.7480     71.1283   9.0608698290e+01   5.4492480257e+01    0.1967303    0.1778034 -51.95 0.0005695497    1.183    0.154
        68 -10.0793     72.4061    245.3748   1.1808524074e+02   1.4981898469e+01    0.2753555    0.1422378  64.65  0.001358941    1.890    0.471
        69 -12.8834    177.8500     52.1250   5.4913726951e+01   3.4114306425e+01    0.9072218    0.7555124   5.08 0.0008577434    1.440    0.306
        70 -19.5329     16.4507    144.6882   1.2075318233e+02   4.2618726238e+01     19.11652     4.530037 -75.85   0.06548344    3.958    0.747
        71  -9.8655     48.9115    218.4409   1.2028822656e+02   2.3016283717e+01    0.3042893    0.1615117  68.45  0.001699553    1.788    0.441
        72  -7.6070     84.2557    245.7372   1.1596180529e+02   1.3326343063e+01    0.1120837   0.07013862  63.44            0    1.441    0.306
        73  -9.6992     80.5510     15.5187   6.4561013755e+01   6.1577973167e+01    0.2264728    0.1269826  61.65  0.001038981    2.468    0.595
