#   1 NUMBER                 Running object number                                     
#   2 MAG_AUTO               Kron-like elliptical aperture magnitude                    [mag]
#   3 X_IMAGE                Object position along x                                    [pixel]
#   4 Y_IMAGE                Object position along y                                    [pixel]
#   5 X_WORLD                Barycenter position along world x axis                     [deg]
#   6 Y_WORLD                Barycenter position along world y axis                     [deg]
#   7 A_WORLD                Profile RMS along major axis (world units)                 [deg]
#   8 B_WORLD                Profile RMS along minor axis (world units)                 [deg]
#   9 THETA_WORLD            Position angle (CCW/world-x)                               [deg]
#  10 FWHM_WORLD             FWHM assuming a gaussian core                              [deg]
#  11 ELONGATION             A_IMAGE/B_IMAGE                                           
#  12 ELLIPTICITY            1 - B_IMAGE/A_IMAGE                                       
         1 -13.8852    204.7654     18.4451   6.0525627574e+01   3.1943178463e+01     1.759977     1.151704 -15.05  0.008342733    2.404    0.584
         2 -13.8342    211.3054     13.1224   5.8668228396e+01   3.1021329505e+01     3.215207     1.603338  35.36  0.001394359    5.527    0.819
         3 -11.3542      2.1581      5.9553   1.1060511642e+02   7.1942710133e+01     0.594753    0.1106751 -44.24  0.002378509    4.985    0.799
         4 -10.3279     15.9975      3.7450   1.0269098774e+02   7.1015231795e+01    0.1308194   0.07505479  21.70 0.0004528497    1.560    0.359
         5 -15.7789      8.3716    210.2170   1.4622514962e+02   2.9474245179e+01     10.44568     1.275643 -73.31     0.030938    5.972    0.833
         6 -10.9690    182.4102    250.1793   1.1541874010e+02  -4.7348151977e+00    0.4914113   0.07407317  38.88  0.001285245    5.903    0.831
         7 -14.2657     95.6553    247.6517   1.3259282142e+02   1.0266400243e+01      4.50421     2.865293  16.88  0.004269925    3.091    0.676
         8 -14.7942     54.5167    209.2164   1.3684702236e+02   2.4437434559e+01     4.552971     1.288238  54.33   0.01466058    4.535    0.780
         9 -12.0619    152.7402    228.4453   1.1814351693e+02   4.2211979885e+00    0.6096256    0.2565615  34.17  0.002374261    2.460    0.593
        10 -10.5241     66.7513    225.4790   1.3601813073e+02   1.9172178586e+01    0.2560251     0.164234  74.77  0.000942624    1.496    0.331
        11  -9.9126     60.2131    228.1784   1.3761582823e+02   1.9513875827e+01    0.1855994    0.1236662  71.93 0.0007647387    1.336    0.251
        12 -14.2546     44.6353    215.8314   1.3956491494e+02   2.4239624320e+01     1.223261    0.8303881  88.23   0.00724154    1.279    0.218
        13 -12.4594     54.5639    238.4983   1.3968316793e+02   1.8130826299e+01    0.6076233    0.2467291  53.98  0.002619213    2.158    0.537
        14 -10.6657    227.1138    202.8924   9.8163776476e+01  -4.4840756701e+00    0.3383855    0.2431228 -58.77 0.0007550232    2.001    0.500
        15 -11.1284     25.7066    203.3684   1.4228393440e+02   2.9210834453e+01    0.2809652    0.1519256  68.63  0.001300761    1.765    0.433
        16  -8.6111     67.4915    198.5380   1.3276160811e+02   2.5094940252e+01    0.1391423    0.1140873  77.68 6.318704e-05    1.070    0.065
        17  -9.8017    192.0098    193.0164   1.0331055672e+02   3.7045545944e+00    0.3682841    0.1904852 -63.70  0.001146502    4.383    0.772
        18 -11.6076     63.4904    192.5259   1.3291297576e+02   2.7064399512e+01    0.3934084     0.272059 -42.86  0.001417278    1.878    0.467
        19 -11.7954     69.0156    185.4578   1.3068010385e+02   2.7959927613e+01    0.3112204    0.2432425 -49.03 0.0006118086    1.456    0.313
        20  -8.5645    181.5081    192.4441   1.0545441769e+02   5.8635752514e+00    0.1474757    0.1379681  19.79 7.683247e-05    1.025    0.025
        21 -11.2868     51.9524    233.3130   1.3972316486e+02   1.9550108220e+01    0.2634344    0.2258383  32.07  0.001078228    1.569    0.363
        22 -11.0446     78.6630    173.6833   1.2656912270e+02   2.9371503549e+01    0.2595216    0.2309219 -63.14 0.0004267255    1.141    0.124
        23 -10.5806    106.8077    173.7057   1.1948897955e+02   2.4670622821e+01    0.5214642    0.1426194  44.77  0.001549599    3.612    0.723
        24 -13.2412     65.7685    171.0832   1.2939889007e+02   3.1890303242e+01     0.534972    0.2856289 -45.16  0.001644768    2.215    0.549
        25 -12.1224     85.9885    165.3292   1.2330593473e+02   3.0263652841e+01    0.9352798    0.5822201  56.91  0.004260511    1.759    0.431
        26 -12.9754     67.5636    144.3281   1.2447851414e+02   3.8200051707e+01     1.169843    0.6981727 -88.76  0.002662234    2.407    0.585
        27 -12.1798     58.0916    132.7815   1.2500855179e+02   4.2272495089e+01     2.236244    0.7510084 -71.78  0.004633626    9.294    0.892
        28  -9.9431     98.8859    149.6395   1.1690939091e+02   3.1935979939e+01    0.3250954     0.273363 -50.41 0.0007591752    1.180    0.153
        29  -9.2287    101.9489    145.3029   1.1517392084e+02   3.2445804050e+01    0.3045727    0.1929188 -29.70  0.001227647    2.210    0.548
        30 -12.0472     87.3399    148.5542   1.1983112847e+02   3.4164312740e+01    0.3092291    0.2557449 -42.97 0.0004463139    1.267    0.211
        31 -10.0498     39.2969    147.0340   1.3264306091e+02   4.1004154414e+01     0.188052    0.1550917 -73.01 0.0004858623    1.033    0.032
        32 -12.7887      5.2030    246.4398   1.4900241645e+02   2.2385156468e+01     1.186288    0.7132509  63.38  0.008322119    1.264    0.209
        33 -14.1373     16.3778    241.8006   1.4685980953e+02   2.2108709558e+01     3.042538    0.4320805  43.35   0.01240864    3.971    0.748
        34  -9.5489    110.0215    135.5332   1.1080077846e+02   3.3299250666e+01    0.3054215     0.210451 -32.31  0.001331199    1.728    0.421
        35 -10.3465     68.7989    134.8572   1.2232389174e+02   4.0337062966e+01    0.2130526     0.185459 -43.68 0.0004826791    1.154    0.133
        36 -10.5688     97.3758    132.4683   1.1363228613e+02   3.6363419186e+01    0.2874309    0.2395533 -25.14 0.0008326365    1.370    0.270
        37  -9.1325    107.0214    122.7106   1.0859549125e+02   3.6892720840e+01    0.1998386     0.191388  38.53 0.0002883434    1.072    0.067
        38 -12.9925     37.2670    224.9805   1.4183701064e+02   2.3167886410e+01    0.5183672    0.4180909 -46.10 0.0008003499    1.821    0.451
        39 -10.9434    167.9477    113.0093   9.0472507536e+01   2.5716137478e+01    0.3772584    0.3094253 -85.35 0.0007201213    1.420    0.296
        40  -9.3202    204.4461    111.0088   8.2508433032e+01   1.7562699956e+01    0.3427678    0.1848527  36.48  0.001292991    2.555    0.609
        41 -11.6288      1.9819     79.2938   1.3248389029e+02   5.9276890901e+01    0.6549292    0.1062955 -62.50  0.002313084    4.132    0.758
        42 -12.5441    127.1145    247.3228   1.2622800145e+02   5.1686636082e+00    0.5767947    0.4755347 -38.41  0.003521854    1.563    0.360
        43 -10.9916     53.0244    228.4499   1.3907002139e+02   2.0430129994e+01    0.3019774     0.196652 -85.20 5.315102e-05    1.400    0.286
        44 -13.0096    140.2367    248.8048   1.2375436386e+02   2.6673846223e+00    0.9418424    0.4744087  46.49  0.004556817    1.700    0.412
        45 -10.6782    189.8673     15.3569   6.1524590323e+01   3.5805928573e+01    0.2126264    0.1630605 -62.62 0.0007757639    1.298    0.230
