#   1 NUMBER                 Running object number                                     
#   2 MAG_AUTO               Kron-like elliptical aperture magnitude                    [mag]
#   3 X_IMAGE                Object position along x                                    [pixel]
#   4 Y_IMAGE                Object position along y                                    [pixel]
#   5 X_WORLD                Barycenter position along world x axis                     [deg]
#   6 Y_WORLD                Barycenter position along world y axis                     [deg]
#   7 A_WORLD                Profile RMS along major axis (world units)                 [deg]
#   8 B_WORLD                Profile RMS along minor axis (world units)                 [deg]
#   9 THETA_WORLD            Position angle (CCW/world-x)                               [deg]
#  10 FWHM_WORLD             FWHM assuming a gaussian core                              [deg]
#  11 ELONGATION             A_IMAGE/B_IMAGE                                           
#  12 ELLIPTICITY            1 - B_IMAGE/A_IMAGE                                       
         1 -14.6305      8.5379    149.5960   1.4813587996e+02   4.2783703752e+01     4.954182     1.207129 -81.37   0.01840419    4.322    0.769
         2 -13.5351      4.6732     11.1381   1.2384538542e+02   7.1842718106e+01     1.717567    0.6192799 -48.40  0.009338512    1.976    0.494
         3 -13.4860    207.1204      5.6263   6.6078025717e+01   3.2172900095e+01     1.316825    0.9029876  54.76  0.006889247    1.459    0.315
         4 -13.7101    191.3871     24.8720   7.3615101142e+01   3.4215437786e+01     1.786087     1.570484  25.73  0.007677297    1.243    0.195
         5 -13.9363     43.9893    230.5562   1.4736219237e+02   2.3726933333e+01    0.7792468    0.4550233  55.80  0.003245919    1.309    0.236
         6 -11.2247    173.9454    248.4263   1.2750205245e+02   2.4189725400e+00    0.2953376    0.2249843  89.40  0.001986853    2.069    0.517
         7 -12.3029    145.2707    243.4963   1.3170672442e+02   7.5809231977e+00    0.4429397    0.2943224  48.45  0.002991139    1.156    0.135
         8 -12.4257    140.7245    248.2298   1.3298649336e+02   7.6387293585e+00     0.592541    0.3408018  55.69  0.003735948    1.518    0.341
         9 -13.2545    131.2828    247.0915   1.3443004156e+02   9.2406632725e+00    0.9656301    0.4376579  37.87  0.005242274    2.088    0.521
        10 -10.6537    100.2101    249.2323   1.3971304555e+02   1.3489463706e+01    0.2855094    0.1580725  64.48  0.001830553    1.663    0.399
        11  -9.3788     89.2142    250.1889   1.4154964614e+02   1.4868517062e+01    0.1526291    0.0911297  62.30 0.0006169297    1.340    0.253
        12  -9.1092     64.0160    250.5623   1.4551131558e+02   1.8094191404e+01    0.1527342   0.07673315  46.92 0.0006588399    1.577    0.366
        13 -14.1840    109.6360    229.5662   1.3629232548e+02   1.5150742749e+01     5.384272          nan  44.52   0.01154331   11.742    0.915
        14  -9.1530     66.7321    243.0338   1.4457755112e+02   1.8929633443e+01    0.1583177    0.1009668  69.48 0.0005516263    1.236    0.191
        15 -11.9147    183.0262    235.1348   1.2425268398e+02   2.6160190112e+00    0.6325837    0.4038264 -82.32  0.002742962    4.897    0.796
        16  -9.3618      2.4444    249.6797   1.5444605529e+02   2.4959931969e+01    0.1647231    0.1123142  74.74  0.000818126    1.129    0.114
        17 -12.5665     53.3903    208.6372   1.4423694368e+02   2.6474112092e+01     2.209601    0.5219764  58.56   0.00623068    8.212    0.878
        18 -11.0650     29.8461    246.8630   1.5043331770e+02   2.2638474589e+01    0.4723621    0.2642314 -62.97  0.003445924    2.331    0.571
        19  -9.7493     81.1733    248.9572   1.4272714359e+02   1.6134958906e+01    0.1729673   0.09044755  72.99 0.0009636342    1.971    0.493
        20  -9.8545      4.0941    227.6107   1.5337671033e+02   2.8368093248e+01    0.2185515    0.1493364  49.70  0.001847439    1.477    0.323
        21  -9.1937     85.4666    246.5116   1.4185599244e+02   1.5934335373e+01    0.1091052   0.07703292  62.60 0.0002273408    1.046    0.044
        22  -9.6377     19.1212    247.3467   1.5201209527e+02   2.3687017828e+01    0.2897338    0.1611466  43.68  0.002224513    1.734    0.423
        23  -9.3635     83.0024    218.9816   1.3991075352e+02   2.0772100018e+01    0.1852555    0.1068438  68.18  0.001088977    1.626    0.385
        24  -9.9145     33.1457    218.2599   1.4835437572e+02   2.7061551279e+01    0.1700556    0.1478119 -54.36  0.001376375    1.860    0.462
        25 -10.5136     37.4783    213.4296   1.4732688578e+02   2.7446597235e+01    0.2918682      0.25978  57.19  0.001813544    1.471    0.320
        26  -8.2351    221.3563    213.6791   1.1442794605e+02  -1.0971930397e+00    0.1118892   0.09399609  66.58 0.0007045638    1.760    0.432
        27 -12.8693     10.9660    206.2821   1.5131624863e+02   3.1450138629e+01     1.112876    0.4971081  60.06  0.005295287    1.749    0.428
        28  -9.2728    249.6753    249.7019   1.1547802112e+02  -9.2418219583e+00    0.1122864   0.06238419  19.13 0.0002972149    1.629    0.386
        29 -13.3149     66.9706    178.5116   1.3883099943e+02   3.0591914633e+01    0.4524662    0.2638539 -47.54  0.001822399    2.349    0.574
        30 -10.7744     79.9576    180.2821   1.3639727043e+02   2.8464280976e+01    0.2069282    0.1767532  87.87   0.00032202    1.087    0.080
        31 -11.7459     87.0563    170.5694   1.3368102414e+02   2.9417531320e+01    0.5725778    0.5001402 -55.96  0.003730695    1.348    0.258
        32 -12.8377     38.9207    237.7795   1.4858858175e+02   2.3102695702e+01    0.2568477    0.2015549 -86.75  0.000761615    1.377    0.274
        33  -9.2536    101.8854    149.8627   1.2722036701e+02   3.1468379424e+01    0.1889566    0.1799545 -43.86  0.000378806    1.246    0.198
        34 -11.9940     87.8824    153.4556   1.3101616217e+02   3.2908819211e+01    0.2610865    0.2373292 -49.00 0.0006758843    1.311    0.237
        35 -10.1917     99.0911    154.2441   1.2859585825e+02   3.0986817587e+01    0.2938329     0.254287 -67.90 0.0007123957    1.143    0.125
        36  -9.5661    133.8337    144.4387   1.1887459291e+02   2.6871849904e+01    0.3690661    0.1216048 -53.66  0.001198429    3.474    0.712
        37 -12.3861     67.0287    143.5044   1.3433811845e+02   3.8034431098e+01    0.6491295    0.4020711  67.74  0.003446243    1.773    0.436
        38 -10.0749    192.8733    195.0089   1.1630442862e+02   6.4254407099e+00    0.7998663    0.3835379 -60.70  0.002152616    8.707    0.885
        39 -12.9439      6.3610    171.1490   1.5010183772e+02   3.8554993297e+01     1.005024    0.4606516 -70.78  0.006239415    1.811    0.448
        40  -9.8934    110.1308    138.3650   1.2317795433e+02   3.2545888869e+01    0.3866724    0.2666439 -23.14  0.001437456    2.372    0.578
        41  -9.2169     86.6194    136.5569   1.2851176952e+02   3.6802376396e+01    0.2221926    0.1546225  73.28 0.0007123323    1.621    0.383
        42 -10.6044     97.6803    135.8463   1.2569097917e+02   3.5211615950e+01     0.227905    0.2221815 -25.39 0.0004275882    1.227    0.185
        43  -9.8164     54.2272    131.4070   1.3563261622e+02   4.2322843182e+01    0.1666992    0.1080088  52.55 0.0003772137    1.617    0.382
        44  -8.7863    116.4914    130.0345   1.1995159374e+02   3.3205151244e+01    0.2052741    0.1196616 -31.19 0.0008100435    2.598    0.615
        45 -11.5732     64.1721    202.3856   1.4176741567e+02   2.6290254128e+01    0.2193979    0.1896325 -79.46 0.0005422264    1.323    0.244
        46  -9.2600    107.2587    124.7595   1.2110115010e+02   3.6023880324e+01    0.1755097    0.1609383 -23.09 0.0003104882    1.281    0.220
        47  -9.2832     46.7587    123.9749   1.3639298872e+02   4.4837058369e+01    0.1734902   0.08928669 -66.42 0.0008889338    1.628    0.386
        48 -11.8964     70.1980    193.6808   1.3980375179e+02   2.7159401132e+01    0.2339826    0.1984874 -80.07 0.0004398115    1.246    0.197
        49  -9.4878     54.2365    121.0218   1.3400753409e+02   4.4660778556e+01    0.1771185   0.09217061 -64.33 0.0005647722    1.638    0.390
        50 -11.6252     23.6983    115.6905   1.4113748166e+02   4.8903419402e+01    0.3557299    0.2017047 -46.43 0.0006315431    1.950    0.487
        51  -9.8882    168.0930    113.2683   1.0395193513e+02   2.5871019236e+01    0.3149646    0.2639079  81.25 0.0009158773    1.426    0.299
        52  -9.2987    203.2337    111.5984   9.6405527774e+01   1.8027447065e+01    0.2168484    0.1358179  39.97  0.000734958    1.662    0.398
        53  -9.7178    156.0193     75.2992   9.5940080333e+01   3.5852688217e+01    0.2195943    0.2032699  49.24 0.0005228567    1.094    0.086
        54 -10.9242     11.0119     64.2922   1.3657802113e+02   6.1093593968e+01     0.378754    0.1608758  38.27  0.001990244    3.012    0.668
        55 -11.4648      2.0364     61.3781   1.3911908660e+02   6.2209608970e+01    0.4199803    0.1319887 -70.97  0.001860842    2.795    0.642
        56 -10.1834     27.4704     60.2395   1.2985035945e+02   6.0774667703e+01    0.2755541    0.1823306  48.10   0.00127905    2.027    0.507
        57  -9.3188     18.9989     57.2189   1.3216882230e+02   6.2057052262e+01    0.1278612   0.09706864  15.10  0.000554918    1.656    0.396
        58  -9.3431    161.6576    250.2943   1.2975625459e+02   4.1164173005e+00    0.1116199   0.07268812  61.15 0.0007030237    1.660    0.398
        59 -12.2996     52.2035    218.8794   1.4522175429e+02   2.4775102770e+01    0.8062594    0.4713372  57.09   0.00431659    1.344    0.256
