#   1 NUMBER                 Running object number                                     
#   2 MAG_AUTO               Kron-like elliptical aperture magnitude                    [mag]
#   3 X_IMAGE                Object position along x                                    [pixel]
#   4 Y_IMAGE                Object position along y                                    [pixel]
#   5 X_WORLD                Barycenter position along world x axis                     [deg]
#   6 Y_WORLD                Barycenter position along world y axis                     [deg]
#   7 A_WORLD                Profile RMS along major axis (world units)                 [deg]
#   8 B_WORLD                Profile RMS along minor axis (world units)                 [deg]
#   9 THETA_WORLD            Position angle (CCW/world-x)                               [deg]
#  10 FWHM_WORLD             FWHM assuming a gaussian core                              [deg]
#  11 ELONGATION             A_IMAGE/B_IMAGE                                           
#  12 ELLIPTICITY            1 - B_IMAGE/A_IMAGE                                       
         1 -11.7462    110.4349     39.8953   1.2771765593e+01   5.2435325663e+01     1.671345    0.7869996 -54.46  0.006050278    2.773    0.639
         2 -12.9218    164.6104     27.1636   3.5914735133e+02   4.0317109424e+01    0.4696186    0.3378298 -77.33 0.0005782107    1.310    0.237
         3 -13.0462    110.5724     27.2134   7.7238794712e+00   5.4168660417e+01      1.39594    0.6673434  38.10  0.005103869    2.979    0.664
         4 -11.9527     58.2700     29.3446   2.5620970420e+01   6.6480702052e+01     0.490097    0.3608394  -6.68  0.002455688    1.697    0.411
         5 -10.4478     60.4570     23.5046   2.1508964047e+01   6.6927091936e+01    0.5739846     0.194933 -38.38  0.002088201    3.066    0.674
         6 -11.3313     20.5776     21.6132   4.4619983160e+01   7.4297647292e+01    0.5555384    0.3585967 -32.98  0.001840897    1.527    0.345
         7 -11.6575     36.1119     18.1445   3.1302705862e+01   7.2586194826e+01    0.6613349    0.4454608 -45.36  0.002670116    1.648    0.393
         8 -11.4697      8.6865     19.9783   5.3944130822e+01   7.5868961901e+01    0.5790872    0.2801768 -16.01   0.00142101    2.743    0.635
         9 -12.0300     22.9638     10.5036   3.5672253801e+01   7.5980965989e+01     0.560599    0.4488686  -9.87  0.002635601    1.199    0.166
        10 -11.5369     16.0214     13.8959   4.3865623643e+01   7.6325198865e+01     0.903348    0.3988286 -45.12  0.004219148    2.159    0.537
        11 -10.9954     13.1317      8.2639   4.2768967813e+01   7.7696159173e+01    0.6404542    0.3245556 -56.35  0.002879808    2.518    0.603
        12 -12.1451    164.8776     17.8959   3.5635762939e+02   4.1317748488e+01    0.5305806    0.3027333  45.07  0.002488005    2.310    0.567
        13 -10.9841     88.4638      7.9283   4.1422944767e+00   6.2048121449e+01    0.4020587    0.3335346  76.65  0.001353265    1.121    0.108
        14 -11.2625     85.9959     14.2448   7.8432739178e+00   6.2028900216e+01    0.5015392     0.333965  -8.87  0.002310446    1.884    0.469
        15 -12.1201    127.6242     15.8350   2.3556661923e-01   5.1037582362e+01    0.5204425    0.4517343 -24.33  0.001576693    1.315    0.240
        16 -11.2911    135.9767     14.5800   3.5861155479e+02   4.8993366485e+01    0.6231054    0.2632733  65.83  0.002621201    2.099    0.524
        17 -11.7838    227.9977     14.9521   3.5095699387e+02   2.7656832186e+01    0.3897238    0.1860626 -68.00  0.001129204    1.970    0.492
        18 -11.9148    104.7604     12.5981   2.8338390970e+00   5.7366326536e+01    0.4679069    0.3764772 -16.90  0.001384109    1.441    0.306
        19 -11.3786    191.1906     11.6413   3.5241023507e+02   3.5770712909e+01    0.3695059     0.227212 -16.29  0.001951176    2.088    0.521
        20 -10.2997      5.5469      9.0969   5.1012736051e+01   7.8332648552e+01    0.5375878    0.1447991 -54.58  0.002089588    3.340    0.701
        21 -11.3907    212.3118      9.3870   3.5054237750e+02   3.1411330665e+01    0.4408191    0.2836298 -14.60  0.002030161    2.078    0.519
        22 -10.8324    218.5477      3.4327   3.4884940107e+02   3.0728718681e+01    0.2679475    0.1907746  72.68 0.0009319948    1.585    0.369
        23 -10.1990    223.5808      2.4755   3.4840729214e+02   2.9810975408e+01    0.2113975    0.1521537 -54.41 0.0005740912    1.042    0.040
        24 -12.0331    168.7249      9.4847   3.5353093141e+02   4.1261224147e+01    0.5046473    0.2385891  66.70  0.001868444    2.030    0.507
        25 -10.4210    145.0079      9.5827   3.5582318886e+02   4.7170485844e+01    0.2297938    0.1916061  16.15 0.0007639273    1.585    0.369
        26 -11.0015     64.1536      9.9616   1.2321607870e+01   6.7845799707e+01     0.301869    0.2235511  64.57 0.0003023761    1.313    0.238
        27 -10.4314     63.2775      6.5802   1.0631104948e+01   6.8414502178e+01    0.3620925    0.1936325  53.02  0.001730203    1.618    0.382
        28  -9.6963     78.0506      7.6338   6.6163571529e+00   6.4712054905e+01    0.1995167    0.1558127  65.03 0.0004996488    1.156    0.135
        29  -9.6294      1.1552      7.2721   5.4713164192e+01   7.9042319386e+01    0.2101032   0.07581301 -56.72 0.0007670264    2.534    0.605
        30 -11.4091    185.1579      6.4737   3.5146393737e+02   3.7673322314e+01    0.3148414    0.1931737 -61.12  0.001104553    1.380    0.275
        31 -11.9039    155.4727      6.3296   3.5373620841e+02   4.4835720526e+01    0.5175361    0.2519025  74.70      0.00221    1.866    0.464
        32  -9.8737     30.5786      5.1735   2.6000137324e+01   7.5521242840e+01    0.2656159    0.1180053 -40.49  0.001095656    2.503    0.600
        33 -10.1977     28.8359      1.4389   2.4259310786e+01   7.6331185111e+01    0.1996441    0.1392241  45.75 0.0003809986    1.381    0.276
        34 -11.1738    120.4282     11.6082   3.5972824644e+02   5.3357381042e+01    0.2992256    0.2131886  70.88 0.0008726155    1.261    0.207
        35 -11.3285    142.5290      3.5701   3.5407576498e+02   4.8367670528e+01    0.4097993    0.2589988 -84.91  0.001414637    1.453    0.312
        36 -10.3971    128.9876      4.7614   3.5598149799e+02   5.1761348229e+01    0.2030701    0.1799506 -85.00 -0.000430966    1.031    0.030
        37 -10.6935    137.7956      3.8588   3.5466156568e+02   4.9557969842e+01    0.2513051    0.1966071  73.73 0.0004037062    1.188    0.158
        38 -12.0083    133.7565      2.5538   3.5463945410e+02   5.0716108804e+01    0.6786311    0.2585134  78.84  0.002715172    2.417    0.586
        39  -9.8916     71.4292      4.4132   6.7336639361e+00   6.6659705553e+01    0.4560694    0.1878794  30.27  0.001498909    4.198    0.762
        40  -9.1126     76.4772      3.4680   4.8046200280e+00   6.5493947791e+01    0.2020952    0.1232456  77.34 0.0001592405    1.669    0.401
        41 -10.8020     41.3974      3.8556   1.8396642441e+01   7.3584023097e+01    0.3998887    0.2213831  28.54  0.001884242    2.075    0.518
        42  -9.9428    235.4988      4.4803   3.4833463442e+02   2.7298473382e+01    0.1171363   0.08346955 -55.25 0.0002206872    1.022    0.021
        43 -12.5183     48.7836     12.8211   2.0671650334e+01   7.0928947835e+01    0.7426004    0.2931266  49.42  0.003061764    2.282    0.562
        44 -11.3552    113.5993      2.2531   3.5702906802e+02   5.6003817014e+01    0.5205759    0.2551133  89.37   0.00201046    2.133    0.531
        45 -10.6516    105.4174      2.2178   3.5824480814e+02   5.8151214130e+01    0.3501522    0.2101568 -58.66   0.00124896    1.802    0.445
        46 -11.1001    205.2862      1.9434   3.4914452597e+02   3.3641989552e+01    0.3855803    0.1755002 -81.68 0.0008449474    2.131    0.531
        47  -8.9381     52.6864      2.2819   1.1952506165e+01   7.1302358004e+01    0.1243386    0.1014415 -77.10 0.0002407503    1.573    0.364
        48 -10.1341      1.9072      1.9078   5.0303222717e+01   8.0011340856e+01    0.1972333    0.1354503 -22.15 0.0008230751    1.326    0.246
        49  -9.5815    152.4672      1.3215   3.5242979457e+02   4.6047663329e+01     0.219775    0.1088576  80.61 0.0005949853    1.821    0.451
        50  -9.4167    124.0325      1.4508   3.5535033081e+02   5.3339067478e+01    0.2120826    0.1192855  77.96  0.001021809    1.573    0.364
        51  -9.6733     82.4136      1.2409   2.1677597959e+00   6.4186201406e+01    0.2286933    0.1036564  69.48 0.0005160038    1.965    0.491
        52 -11.1729      7.8492    114.8458   7.4468560848e+01   5.1718816496e+01    0.3413123    0.2694098 -54.93  0.000364522    1.278    0.217
        53  -9.6181    249.5980    250.1823   3.3158509254e+01  -6.0929821479e+00    0.1360699   0.06658394 -19.79 0.0009394958    1.665    0.399
        54  -9.7043    239.3949    250.1859   3.4690692538e+01  -5.2064316377e+00    0.1200785   0.07972664 -28.98 0.0005615621    1.607    0.378
        55 -12.1598      2.6722    111.6167   7.6266803221e+01   5.2890197597e+01    0.8979998    0.3743142 -83.75  0.003668241    2.185    0.542
        56 -11.6503      5.2224    108.2317   7.4957042910e+01   5.3680367611e+01    0.6257363    0.2927831 -89.13  0.001663806    2.047    0.511
        57  -9.4502     79.1819    114.8400   4.6898727131e+01   4.3205156636e+01    0.2155402    0.1869864 -23.64 0.0007631283    1.326    0.246
        58 -10.0115     58.5631    115.0868   5.4473845965e+01   4.6442446800e+01    0.2745423    0.1958179  50.64 0.0002719401    1.432    0.302
        59 -11.0809     35.4169    102.8733   6.1464058422e+01   5.2726550627e+01    0.8771102    0.3402776   9.82  0.002554663    4.403    0.773
        60 -11.7115     22.3204    113.9074   6.8581509651e+01   5.0934449849e+01    0.5731552    0.3232065  -4.00  0.002384771    2.388    0.581
        61 -12.4373     26.9582    110.8117   6.6282350842e+01   5.1382558064e+01     1.249458    0.5874376  89.18  0.004656654    2.554    0.608
        62  -9.8899     48.8752    111.7731   5.7575910418e+01   4.8677062807e+01    0.2216957    0.2082761 -21.42 0.0005212191    1.168    0.144
        63 -11.7827     79.5461    108.0053   4.5144788959e+01   4.4901078838e+01    0.5576002    0.3861566  22.76  0.001072742    1.683    0.406
        64 -11.3734     49.4391    101.3653   5.5239343310e+01   5.1429436036e+01    0.8293684    0.4524139 -29.99  0.003017894    2.739    0.635
        65  -9.9569     86.0102    103.2614   4.1664541899e+01   4.4905302715e+01    0.2188714    0.2060751  46.27 0.0004142389    1.060    0.057
        66  -9.5273     57.1739    103.1868   5.2479122124e+01   4.9844383847e+01    0.2218451     0.178605  70.54 0.0005871403    1.353    0.261
        67 -10.0039     92.0764    101.6371   3.9160037143e+01   4.4125638920e+01    0.3232397    0.2378097 -45.73  0.001468331    1.388    0.279
        68 -12.2033    210.3534     98.2694   1.1735712991e+01   1.9912952795e+01    0.2719816    0.2133627 -28.52 0.0002861225    1.205    0.170
        69 -10.4451     17.1750     99.9988   6.8954833682e+01   5.5181166991e+01    0.3291626    0.1868473 -72.93  0.000978017    1.603    0.376
        70 -10.1391     16.4097     95.2546   6.8647605444e+01   5.6539943873e+01    0.2862448    0.1684209 -74.13  0.001054001    1.558    0.358
        71 -11.2372     22.9939     94.3322   6.5496641973e+01   5.6275090533e+01    0.5156078    0.3114683 -31.77  0.001887053    1.932    0.483
        72 -10.9433     18.5215     88.0964   6.6574948205e+01   5.8337640432e+01    0.6810784    0.3336066 -74.40   0.00287766    1.925    0.480
        73 -11.5623     27.9646     85.1404   6.1472459416e+01   5.8319703564e+01    0.6672935    0.4938156  26.45  0.001296868    1.411    0.291
        74 -10.4175     35.7312     92.3947   5.9310849263e+01   5.5550914351e+01    0.4363351    0.2588972  88.42  0.001304733    2.111    0.526
        75 -10.0562     38.8670     90.3727   5.7449895124e+01   5.5735226597e+01    0.2788817    0.2197018 -22.17 0.0007150333    1.447    0.309
        76 -11.7803      9.2203     96.9840   7.2118952092e+01   5.6535287599e+01    0.4752341    0.3845296  59.94 0.0003558259    1.254    0.202
        77 -10.0957     29.5695     98.0970   6.3166608984e+01   5.4641050188e+01    0.5121579    0.1356791 -53.62  0.001615686    3.255    0.693
        78 -11.3456    247.6972     95.8479   6.6941007989e+00   1.3901806414e+01    0.4167366    0.2427882  21.22  0.001932292    3.768    0.735
        79 -11.9771     67.8293     94.7990   4.6164849867e+01   5.0344740946e+01    0.5858891    0.3644403  36.54  0.001718398    1.608    0.378
        80 -10.1734     77.1717     96.6361   4.3075562645e+01   4.8220376032e+01    0.3268976     0.257598  26.05 0.0005833663    1.379    0.275
        81 -11.1871     79.1811     93.2111   4.1382787121e+01   4.8700076309e+01    0.7466995    0.6521329  52.87  0.003729912    1.151    0.131
        82 -10.1801     42.9718     94.2610   5.6463370952e+01   5.4188296016e+01    0.3073334    0.2788068  69.61  0.001653553    1.130    0.115
        83 -10.6468     43.6036     90.4445   5.5319249996e+01   5.5130926806e+01    0.2483822    0.2298983 -68.53 0.0003994697    1.044    0.042
        84 -10.5415     98.1987     90.7175   3.4040816861e+01   4.5460055389e+01    0.2691567    0.2400959  49.71 0.0004576171    1.113    0.101
        85  -9.8081     50.9788     91.0402   5.2196881412e+01   5.3972715413e+01    0.2501677    0.1775412 -30.46  0.001128298    1.662    0.398
        86 -10.9572      2.3319     80.4119   7.3469222103e+01   6.1373173881e+01    0.6661322    0.2612529  81.59  0.002276955    3.118    0.679
        87 -10.8477      1.9889     71.1264   7.2474930843e+01   6.3855324435e+01    0.4197241    0.2045458 -69.78  0.001918321    1.764    0.433
        88 -10.2583     10.6471     89.8493   7.0587848363e+01   5.8398060607e+01    0.2582179     0.175753  80.14 0.0003996294    1.505    0.336
        89 -11.4578      5.3211     88.4424   7.2940093932e+01   5.9072572692e+01    0.6790947    0.3937383   4.93  0.003245851    1.970    0.492
        90  -9.7248     66.9775     88.0199   4.4646316536e+01   5.2214326936e+01    0.2474145    0.1871204 -23.40 0.0006755911    1.642    0.391
        91 -10.2075     52.1618     86.8481   5.0608748914e+01   5.4899101911e+01    0.2226254    0.2009059  80.90 0.0003469818    1.168    0.144
        92 -10.4311    113.9403     84.0176   2.7209062787e+01   4.3455501814e+01    0.5557476    0.3554364 -76.97  0.002062725    2.549    0.608
        93  -9.0544    104.6581     86.6929   3.0782883765e+01   4.4967672741e+01    0.1594613    0.1279281   3.84 0.0002986589    1.688    0.408
        94  -9.9046     90.4054     85.6169   3.5113537808e+01   4.8285200131e+01    0.3538991    0.2525036 -82.55  0.001475825    1.944    0.486
        95 -11.3526     45.0283     84.0042   5.3097634704e+01   5.6646162019e+01    0.4821696    0.3730524 -84.15  0.002017144    1.431    0.301
        96  -9.5278     83.0037     83.0000   3.6940573751e+01   5.0417672053e+01    0.3422642    0.2206484  36.70  0.001083999    1.602    0.376
        97 -11.8488     75.4295     78.6994   3.8452096414e+01   5.2932376655e+01    0.7615591    0.5733761  89.28  0.001257359    1.767    0.434
        98 -12.5696     60.9510     83.4097   4.5833811183e+01   5.4400156109e+01    0.3281147    0.3000514  40.02 0.0003778612    1.103    0.093
        99 -10.1013     67.3865     81.2476   4.2485952233e+01   5.3824071701e+01    0.3607801    0.2716802  -3.71  0.001609177    1.800    0.444
       100  -9.6089     37.2758     85.4579   5.7080654985e+01   5.7237203225e+01    0.2681055    0.1506117  18.78  0.001127306    1.985    0.496
       101  -9.4109    143.5183     84.4486   1.9896780931e+01   3.6490562490e+01    0.1508866    0.1442177 -69.87 0.0002640549    1.007    0.007
       102  -9.6866    162.2544     81.2180   1.5184803601e+01   3.2758237070e+01    0.1894037    0.1560267 -69.28 0.0003061884    1.253    0.202
       103 -10.6273     89.3667     77.3486   3.2847262368e+01   5.0388206425e+01    0.4667577    0.3386404  60.61  0.002105528    1.516    0.340
       104 -10.6228     94.4997     75.4223   3.0454688141e+01   4.9694085358e+01    0.4676628    0.3998052 -77.09  0.001974118    1.290    0.225
       105  -9.2291    118.9623     78.0338   2.3954409574e+01   4.3526810421e+01    0.1862148    0.1697052 -53.07 0.0009521514    1.090    0.082
       106 -10.0986     58.0447     77.9375   4.5476837000e+01   5.6248313468e+01    0.2276827    0.2203515 -50.55 0.0004511889    1.021    0.021
       107 -10.6562     53.2522     76.1222   4.7093938777e+01   5.7468828276e+01    0.4081401    0.3569749  55.14  0.001855208    1.208    0.172
       108  -9.9953     46.7671     74.8325   4.9763061504e+01   5.8764184879e+01    0.3671959    0.2050286 -39.10  0.001086306    2.005    0.501
       109 -10.9164     14.2168     74.1683   6.6344014397e+01   6.2390038839e+01    0.4239343    0.2765393 -78.44  0.001888434    1.493    0.330
       110 -11.6981    247.9975     76.5624   2.7126711852e+00   1.6476280570e+01    0.2951069    0.2164311 -79.76  0.001954895    1.663    0.399
       111 -11.3303     27.3309     73.4934   5.9225053071e+01   6.1472335755e+01      0.48387    0.3293622 -13.70  0.001132628    1.744    0.427
       112 -10.6815     35.1217     71.6210   5.4671906113e+01   6.1108428458e+01    0.4763809      0.23208  39.61  0.001406873    2.133    0.531
       113  -9.9104     40.7543     72.5910   5.2069075044e+01   6.0157264965e+01    0.4770003    0.2714826  11.43  0.001938789    2.281    0.562
       114 -11.1557     40.4070     68.8319   5.1142373475e+01   6.1150255925e+01    0.5001472    0.2749341  34.30  0.002176157    1.826    0.452
       115 -10.3308     80.8011     71.7305   3.4069480190e+01   5.3451015543e+01    0.4078654    0.2206614 -41.46  0.001613091    1.954    0.488
       116 -10.8477    122.5725     68.4118   1.9918733333e+01   4.4538472749e+01    0.4439876    0.2472172  47.34 0.0009629977    1.842    0.457
       117  -9.7324     13.1702     67.5896   6.5657515742e+01   6.4191269486e+01    0.5184329     0.191096   7.36  0.001631475    3.352    0.702
       118 -10.0710    102.0754     66.5788   2.5001370294e+01   4.9806634209e+01    0.3202429    0.2168569 -39.09  0.001428346    1.537    0.350
       119 -11.6232     13.1612     57.2530   6.3392841552e+01   6.6848543647e+01     1.075623    0.5930622 -23.68  0.004894102    2.061    0.515
       120 -12.1279      7.4670     63.4725   6.8149083107e+01   6.5603277672e+01    0.3081562    0.2164302 -49.78 0.0004911337    1.286    0.223
       121 -12.5816      4.2112     61.1611   6.9663508434e+01   6.6360678446e+01    0.3977465    0.2901868 -57.22  0.000348764    1.207    0.172
       122  -9.1403     51.5005     65.5952   4.4547708288e+01   6.0314194177e+01    0.1456073    0.1420214  -1.51 7.190563e-05    1.020    0.020
       123 -10.0963    202.1982     63.3823   4.5294170411e+00   2.6833940319e+01    0.2483927    0.1647328 -36.59 0.0006495495    1.345    0.256
       124 -11.8317     46.4973     59.4625   4.4910390948e+01   6.2547261544e+01    0.8053222    0.2938976  43.34  0.002760421    3.003    0.667
       125 -11.7193     43.1744     60.7186   4.7085438879e+01   6.2748034195e+01    0.4927061    0.2722054 -56.10 0.0009576145    1.784    0.440
       126 -11.5847     39.5905     56.5658   4.7558728589e+01   6.4241750122e+01     0.322774    0.2422587  30.24 0.0006703968    1.346    0.257
       127 -10.1863    158.8620     62.7717   1.0558952987e+01   3.6682797079e+01    0.2781454    0.1817915  51.13 0.0006766227    1.649    0.394
       128  -9.7264    105.4814     63.4869   2.2891854655e+01   4.9605026820e+01    0.1539971    0.1479053  80.86 1.485602e-05    1.004    0.004
       129 -10.8321     92.5622     62.5117   2.6591495837e+01   5.2826475437e+01    0.3463785    0.2685028  66.10 0.0008465268    1.390    0.280
       130  -9.9240     57.9328     62.2551   4.0304038036e+01   6.0009332125e+01    0.2820249     0.219714 -84.79  0.001342263    1.678    0.404
       131  -9.9022    113.6496     60.8700   1.9682364531e+01   4.8117315196e+01    0.2675732    0.2375291 -65.19 0.0009703309    1.137    0.121
       132  -9.0988    150.7521     60.6667   1.1373221710e+01   3.8986735616e+01     0.137688    0.1168758   7.68 0.0004303312    1.553    0.356
       133 -10.8190     26.0109     59.2457   5.6177001532e+01   6.5241428784e+01    0.6499912    0.2943269  21.58  0.002672415    2.318    0.569
       134 -11.1476     75.5099     57.5411   3.0918873860e+01   5.7605091590e+01    0.4541846    0.3647567 -58.25  0.001737967    1.348    0.258
       135 -11.7384     72.5124     46.2789   2.7491484938e+01   6.0462257329e+01     1.163876    0.4769858 -53.42  0.002601824    3.547    0.718
       136 -10.9352     88.0000     56.0122   2.5693918335e+01   5.5149826511e+01     1.297476    0.2130797 -40.76  0.002894622    6.465    0.845
       137 -10.2366    124.7130     56.7004   1.5477299938e+01   4.6111754458e+01    0.2801743    0.2730312 -45.32  0.001009899    1.106    0.096
       138 -10.2696    156.5707     54.2151   8.4086432366e+00   3.8587608375e+01    0.4539071    0.2714284 -71.20  0.001937472    2.098    0.523
       139 -10.1030     67.6544    240.3646   6.7172058647e+01   1.5504866740e+01    0.2116842    0.1271929 -40.65  0.001109833    2.357    0.576
       140 -10.1530    112.5766     50.2155   1.6137736628e+01   5.0251234709e+01    0.3330879    0.2862685  13.06 0.0008540764    1.443    0.307
       141 -11.6335    116.9576     47.7858   1.4161413720e+01   4.9545586913e+01    0.7160411    0.3911916 -27.37 0.0003850941    2.188    0.543
       142 -11.9450    119.7269     37.3987   9.6984070200e+00   5.0416310469e+01    0.6533103    0.3928845 -38.62  0.001854163    1.680    0.405
       143  -9.6583     50.7052     56.4354   4.1640628509e+01   6.2568505520e+01    0.2660189    0.1385996  38.46 0.0009374652    1.905    0.475
       144 -11.3136     25.5634     55.5757   5.5331763659e+01   6.6192407383e+01    0.3476265     0.279993  -7.26 0.0008120048    1.301    0.231
       145  -8.9238     67.2923     55.2862   3.3425371348e+01   5.9766524550e+01    0.1464373    0.1175409   0.08 0.0005052114    1.540    0.351
       146 -10.4025     60.0141     50.4740   3.4721610434e+01   6.2191819113e+01    0.6093126    0.2922836 -59.63  0.002126202    3.128    0.680
       147 -10.1830     61.4963     46.5065   3.2338361900e+01   6.2706119350e+01    0.3464013    0.2037774 -33.89  0.001187885    1.913    0.477
       148 -10.8475     31.9768     52.6225   5.0510072514e+01   6.6173745449e+01    0.4961031    0.2599713  11.81  0.002010212    2.477    0.596
       149 -10.1642    126.8591     51.2990   1.3136200575e+01   4.6470211897e+01    0.4300828    0.2401141 -27.10  0.001652949    2.138    0.532
       150  -9.7031     54.4172     51.7275   3.7926548770e+01   6.2963699312e+01    0.3639274    0.2238493 -23.20  0.001487384    2.324    0.570
       151 -10.7180    243.6981     51.0818   3.5775086217e+02   2.0509348344e+01    0.1800382    0.1598963 -79.78 0.0003165002    1.272    0.214
       152  -9.9839    145.1524     49.8159   9.0101511047e+00   4.2087464184e+01    0.2904317    0.2051817  15.63  0.000948216    2.288    0.563
       153  -9.4428     97.6838     49.9066   2.0170152426e+01   5.3985598890e+01    0.2028074    0.1909503 -61.83 0.0004217993    1.085    0.079
       154  -9.8636    155.1523     48.6003   6.9371576856e+00   3.9781766594e+01    0.2580517    0.1853725 -14.46 0.0005938688    1.831    0.454
       155  -8.8605    137.3279     49.3162   1.0304459682e+01   4.4134296089e+01    0.1479077    0.1146754  29.19 0.0007045275    1.676    0.403
       156 -10.3381     83.0057     46.9506   2.3796979693e+01   5.7989544216e+01      0.35954    0.2315677 -24.63  0.001306259    1.943    0.485
       157  -9.6470     52.0124     48.0165   3.7583353468e+01   6.4178481099e+01    0.2295293    0.1727253  -7.57 0.0005949624    1.656    0.396
       158 -12.4907     41.6807     44.1156   4.1479165682e+01   6.6730554185e+01    0.9428235    0.3955411  33.56  0.003052075    2.393    0.582
       159 -10.4574     20.3614     45.8498   5.5450188362e+01   6.9051198035e+01    0.3676845    0.2116813 -43.62  0.001413694    1.626    0.385
       160 -11.5008     26.2594     42.5954   5.0337561657e+01   6.9178088777e+01    0.4294015    0.2806159  39.37 0.0006728603    1.651    0.394
       161  -9.1619      2.2454     48.6223   6.8510219608e+01   6.9622467270e+01    0.1747872    0.1179739 -12.29 0.0008145756    1.543    0.352
       162 -10.8571     22.4167     37.0884   5.0719096565e+01   7.0847261494e+01    0.4495388    0.1923904  35.47  0.001222764    2.389    0.581
       163  -9.9533     13.3826     45.9706   6.0210707362e+01   6.9621393881e+01    0.2570358    0.1652026 -27.95 0.0009323253    1.581    0.367
       164  -9.2828    200.0181     45.0000   1.9528528392e-01   2.9847307755e+01    0.1985587   0.07256749  69.25 0.0008039032    2.953    0.661
       165  -9.7083    139.0553     43.9223   8.1891744617e+00   4.4508980549e+01    0.2331288    0.1739859  32.20  0.001119542    1.743    0.426
       166  -9.9179    156.0490     42.4918   4.9256879604e+00   4.0438631136e+01    0.2524786    0.2043384 -12.53  0.001111619    1.555    0.357
       167  -8.9865    145.6710     42.7247   6.6427139006e+00   4.3005088179e+01    0.1411011    0.1094416  37.40 0.0001857509    1.592    0.372
       168 -10.2249     56.4762     41.6598   3.2537585742e+01   6.4634765784e+01    0.2871207     0.232712  62.91  0.000585389    1.448    0.310
       169 -10.9907     18.1603     40.5556   5.5080694153e+01   7.0496799134e+01    0.2819152    0.1977734 -46.52 0.0006835369    1.304    0.233
       170  -9.0561     91.2684     41.3266   1.8664527966e+01   5.6998767328e+01    0.1458154     0.115604  17.38 0.0002478648    1.574    0.365
       171  -9.7972    106.5518     58.0768   2.0644547876e+01   5.0363052769e+01    0.2780177    0.2059676  73.43 0.0004121014    1.493    0.330
       172 -10.5766      9.4540     30.2613   5.7779665999e+01   7.3576383798e+01    0.5662856    0.3339672  -4.72  0.002866121    1.842    0.457
       173  -9.9923      4.3412     39.6778   6.4867453034e+01   7.1709242376e+01    0.2604775    0.1465777  44.81  0.001258153    2.166    0.538
       174 -10.9382      4.0900     35.6338   6.3904895622e+01   7.2682259727e+01    0.4147043    0.3367834 -36.56  0.001863086    1.091    0.083
       175  -9.8060    249.9985     39.0341   3.5479672150e+02   2.0871690756e+01    0.1751226    0.1273439 -49.83 0.0003645629    1.024    0.023
       176 -10.8756     78.9995     37.7314   2.1217529751e+01   6.0509126353e+01    0.5006804    0.3247004  88.44  0.001984044    2.673    0.626
       177 -11.0196     78.6933     33.7164   1.9482260766e+01   6.1226239803e+01    0.6069558    0.3565624  32.18  0.002307084    2.150    0.535
       178  -9.2471     70.6062     33.6986   2.2506851645e+01   6.3090138206e+01    0.2355701    0.1706356  32.24   0.00104628    1.474    0.322
       179 -10.3296     61.5245     35.1507   2.7064964201e+01   6.4816860531e+01     0.476189    0.3060235 -19.96  0.002138233    2.031    0.508
       180  -9.4523     67.5923     31.8877   2.2838875536e+01   6.4056843500e+01    0.4179941    0.2309917  29.36   0.00165659    2.486    0.598
       181  -9.2248     12.6474     36.7427   5.7704829359e+01   7.1855420584e+01    0.1712249    0.1218862 -75.28            0    1.596    0.373
       182 -10.4514    153.1985     35.7497   3.2495396010e+00   4.2068559709e+01    0.2432292    0.2127541  83.14  0.000478116    1.097    0.088
       183  -9.7964    220.0412     35.3123   3.5608221011e+02   2.6908864929e+01     0.168438    0.1340093 -66.29  0.000363324    1.117    0.105
       184 -10.6112    169.4001     23.0013   3.5739877758e+02   3.9638970194e+01    0.2703654    0.2090113  66.78  0.000583043    1.346    0.257
       185 -10.8180    175.4293     34.4098   1.2914765214e-02   3.6805059636e+01    0.7207359    0.2533578 -55.00  0.002053214    3.263    0.694
       186 -10.9030    157.1303     28.8882   5.7640010158e-01   4.1960010297e+01    0.3073179    0.2571195 -56.93 0.0003540162    1.100    0.091
       187 -10.5406    131.9442    240.4926   5.3020257060e+01   7.7185486466e+00    0.1898093   0.09722876  28.28  0.000811004    1.565    0.361
       188 -10.9469    147.1916    238.2051   4.9571886236e+01   6.1991347191e+00    0.2643782     0.220555  55.68  0.001787251    1.681    0.405
       189 -12.5276    105.7023     19.9934   5.7928067017e+00   5.6315441935e+01     0.367769    0.3015158 -73.02  0.000386763    1.253    0.202
       190 -10.2670    240.4825     32.5230   3.5403829783e+02   2.3328528666e+01     0.233155    0.1709291  21.57  0.001403772    2.438    0.590
       191  -9.9033    216.9928     32.0040   3.5554527459e+02   2.7922338199e+01    0.1873945    0.1461572 -54.44 0.0003169549    1.011    0.011
       192 -10.6168     72.8466    237.8883   6.5804330266e+01   1.5363555576e+01    0.1845221    0.1564685  13.12 0.0008589284    1.269    0.212
       193 -11.5027     48.8996     30.0757   3.0684543861e+01   6.8225527917e+01    0.6575372    0.3228521  35.41  0.001999931    2.117    0.528
       194  -9.1113    243.6846    235.6540   3.1992688119e+01  -4.0251488405e+00    0.1095387   0.05800056  -6.44 0.0007047828    1.718    0.418
       195  -9.3610     36.2890     30.9623   3.8499681394e+01   7.0258324998e+01    0.1872268    0.1655603 -31.38 0.0005544135    1.122    0.109
       196 -11.7247     26.4286     27.6985   4.3462409266e+01   7.2341124074e+01    0.4751025    0.3672753 -61.97  0.001864825    1.551    0.355
       197  -9.1709     15.5073    233.9796   7.8595262209e+01   2.2114825302e+01    0.1442926   0.08506037 -51.13 0.0008085644    2.408    0.585
       198 -12.1115    127.2855     28.4202   4.9089273120e+00   4.9663169417e+01    0.8138447    0.4009664  78.22  0.001944688    2.226    0.551
       199 -10.7497    189.0414     27.3111   3.5669191887e+02   3.4511125444e+01    0.3392883    0.2755005  19.97  0.001679399    1.801    0.445
       200  -9.8639    177.4867     28.9756   3.5826486481e+02   3.6993342178e+01    0.1982832     0.122264 -34.58 0.0005614529    1.547    0.353
       201 -10.6417    229.7424     26.9848   3.5351730762e+02   2.5984657290e+01     0.224402     0.198355  55.37  0.001127695    1.532    0.347
       202  -9.8403    155.4866     20.4972   3.5816331245e+02   4.3361637152e+01    0.2011461     0.164304  42.50  0.001133374    1.502    0.334
       203  -9.8552    155.9503     24.5245   3.5936706832e+02   4.2781137856e+01    0.2043859    0.1268404  75.94 0.0005504949    1.530    0.347
       204 -11.3792    149.3593     22.3949   3.5950952601e+02   4.4693890549e+01    0.6124719    0.1867446  70.26  0.002163628    3.037    0.671
       205 -11.3100    148.4704     27.7247   1.3540021112e+00   4.4286324380e+01    0.5908603    0.2115746  61.70  0.002268953    2.542    0.607
       206 -11.1046    142.9634     25.4838   1.3867123942e+00   4.5965275832e+01    0.4244092    0.1975122  71.64  0.001494294    2.044    0.511
       207 -10.9091    183.3448     25.7772   3.5680622900e+02   3.6002684516e+01    0.3734664    0.1599916 -48.30  0.001677618    2.014    0.504
       208  -9.6797     97.8710     26.0361   1.0208987431e+01   5.7594445741e+01     0.226854    0.1882639 -77.67 0.0006844547    1.284    0.221
       209  -9.9362     45.7206     24.5227   2.9372072548e+01   6.9781162200e+01    0.2344017    0.1768561 -33.97 0.0004525613    1.368    0.269
       210  -9.8911     86.0216     23.5750   1.2329804107e+01   6.0903176120e+01    0.1943375    0.1877602  43.07 0.0001302734    1.071    0.066
       211 -10.9705    134.3790     21.5139   1.2740955328e+00   4.8649070386e+01    0.4135064    0.3189156 -49.80  0.002256159    1.267    0.211
       212  -9.2458     81.3269    229.6708   6.3148188327e+01   1.5892219806e+01    0.1344785   0.07865189  52.42 0.0007050809    1.705    0.414
       213  -9.9501     13.7849     22.8463   5.0880116305e+01   7.4805424196e+01    0.2123246    0.1790415  26.83 0.0005707371    1.265    0.210
       214 -10.7746    178.3994     21.0520   3.5596705203e+02   3.7707087051e+01    0.3799106    0.2241305  41.80  0.001654832    2.463    0.594
       215 -10.8255     68.7188     20.4525   1.6504142061e+01   6.5490777395e+01    0.3769606    0.3132166 -27.43   0.00166262    1.296    0.228
       216  -9.8659    248.0302    222.8353   2.9453387991e+01  -2.9924318452e+00    0.1914229    0.1376056 -50.18  0.001247649    2.943    0.660
       217  -9.2859    171.4572    208.5087   4.0454130699e+01   7.7367445392e+00    0.1253376    0.1032647   4.58 0.0002050166    1.008    0.008
       218  -9.8670     39.6778    206.5005   7.1458895673e+01   2.5500002389e+01    0.2166265    0.1162888 -78.98  0.001087694    2.011    0.503
       219 -10.5914      4.1600    205.0209   8.0305458113e+01   2.9150798688e+01     0.186345    0.1210041 -55.73  0.000669382    1.945    0.486
       220  -9.2660    135.2931    196.6541   4.6386153813e+01   1.4912271152e+01    0.1294587    0.1029773  62.99 0.0003717208    1.665    0.399
       221 -10.2388     46.1425     20.0115   2.6507558413e+01   7.0427247272e+01    0.2938366    0.1861074  47.22   0.00129178    1.523    0.343
       222  -9.7898     74.9286     19.0743   1.3579481185e+01   6.4197742512e+01     0.226198    0.1572241  28.09  0.000824607    1.661    0.398
       223 -10.6335     16.3543    190.9992   7.6633120156e+01   3.1323424451e+01    0.2588791     0.190351  56.99 0.0005299729    1.131    0.116
       224 -10.0215     82.4849     18.5360   1.0935162094e+01   6.2414372231e+01    0.2369087    0.1287424  60.94 4.610423e-05    1.677    0.404
       225 -12.3963      4.7073    183.8549   7.9445529602e+01   3.3976482720e+01    0.6425536    0.3951781  75.08  0.003558814    1.445    0.308
       226  -9.3795    198.7891     17.6031   3.5339643161e+02   3.3436747097e+01    0.1715786    0.1025602 -80.41 0.0003656044    1.603    0.376
       227  -9.3091     28.0000    175.9630   7.2499502437e+01   3.3883287021e+01    0.2164635   0.07383864 -77.69 0.0008015464    2.936    0.659
       228 -10.6288     16.0460    173.7050   7.5806817900e+01   3.5535098941e+01    0.3186447    0.1589346  72.94  0.001460971    1.955    0.489
       229 -10.4676    242.1455     15.0766   3.5026589022e+02   2.4965980263e+01    0.1804538    0.1443713 -45.87  0.000266624    1.170    0.145
       230 -12.0062      8.8066    166.8034   7.7548953903e+01   3.7850021578e+01    0.4862244    0.2407405  35.81  0.002349893    1.766    0.434
       231 -10.1166    186.8627     14.8798   3.5357739724e+02   3.6414787803e+01    0.1802359    0.1695936 -68.88 0.0008994913    1.208    0.172
       232  -9.7531    148.4610     15.5104   3.5738350720e+02   4.5684572608e+01    0.2842681    0.1240051  74.06 0.0009598728    2.127    0.530
       233 -12.6447     13.1723    160.7536   7.5905841747e+01   3.9051103964e+01    0.5278813    0.4563937 -29.72  0.001591683    1.430    0.301
       234  -9.5424    196.2320     14.2750   3.5273577646e+02   3.4362589910e+01     0.180889    0.1142021 -59.00  0.000644214    1.322    0.243
       235  -8.7722     80.6715    164.6788   5.5697750205e+01   3.0212665604e+01    0.1493603    0.1138351 -20.83  0.000704837    1.690    0.408
       236 -10.2074    205.0743    162.9647   2.6170204231e+01   1.0325801276e+01    0.1963622    0.1633162 -17.88 0.0007117581    1.017    0.017
       237  -9.5542    156.9906    165.9743   3.6163587376e+01   1.7406786931e+01    0.1691369    0.1547164 -10.83 0.0007660061    1.032    0.031
       238  -9.7723    104.5778    154.2730   4.7061946155e+01   2.8916625160e+01    0.2805594    0.1512262 -61.66  0.001130547    2.087    0.521
       239 -10.7919      9.3078    154.8888   7.6760469118e+01   4.0865007320e+01    0.2358474    0.1448428  69.94  0.001190816    1.485    0.327
       240 -12.0220     16.8225    147.7481   7.3874787681e+01   4.2161104123e+01    0.7015511    0.2907239 -86.54  0.002783951    2.397    0.583
       241 -11.6098     21.2019    150.5605   7.2657509487e+01   4.1046343387e+01    0.4154615    0.2662467 -45.22 0.0004778692    1.830    0.454
       242 -11.3159     23.7701    147.9920   7.1598818186e+01   4.1501989287e+01    0.3294538    0.2723429 -72.57 0.0007071615    1.201    0.168
       243 -10.0738     55.5727    152.6736   6.1696490921e+01   3.6768101722e+01    0.2687171    0.1332126 -62.92 0.0008971088    1.986    0.497
       244 -11.1598     47.4913    148.5211   6.3787703932e+01   3.8870056879e+01    0.6796753    0.4355905 -37.09  0.003048185    1.973    0.493
       245 -10.3993      4.2945    153.4081   7.8252909182e+01   4.1604443665e+01    0.1876247    0.1095057  36.45 0.0009452635    1.582    0.368
       246  -9.6233    104.1051    147.3107   4.5877708438e+01   3.0660070447e+01    0.2127163    0.1882389  45.75 0.0004816293    1.097    0.089
       247 -11.9499      3.6784    142.3110   7.7874644996e+01   4.4554341906e+01    0.6537184    0.3342724  39.35  0.002663125    1.795    0.443
       248 -11.9966     12.5304    135.4930   7.4404538959e+01   4.5778315182e+01    0.7140462    0.3438881 -46.10  0.002996619    2.407    0.584
       249 -10.6335     32.9920    144.0707   6.8123970554e+01   4.1670855789e+01    0.3027132    0.2525322 -71.57 0.0007332938    1.186    0.157
       250  -9.2361     40.3404    141.3153   6.5294589660e+01   4.1631248405e+01    0.2223332    0.1361597 -55.61 0.0008842686    1.668    0.401
       251 -10.5730     40.6068    138.0142   6.4786022403e+01   4.2495653270e+01    0.4026446    0.2574534  35.08  0.001533022    1.504    0.335
       252 -10.2163     30.4593    132.6187   6.7731071883e+01   4.5034871488e+01    0.3259993    0.2515848 -21.10 0.0008573175    1.596    0.373
       253  -9.4556     26.0490    131.4745   6.9199732015e+01   4.5765596325e+01    0.2248792    0.1816928 -82.22 0.0003775571    1.158    0.137
       254 -11.4570     23.8834    137.1900   7.0563602721e+01   4.4401243717e+01    0.5987082    0.3246405 -48.05  0.002624743    2.050    0.512
       255 -10.0172     20.6459    133.9129   7.1394690164e+01   4.5572386372e+01    0.3044034    0.2768529 -17.77  0.001147844    1.286    0.222
       256  -9.3610    104.0280    130.5549   4.2430416626e+01   3.4731371599e+01    0.2229563    0.1505862  38.02 5.468387e-06    1.459    0.315
       257  -9.4288     26.6808    127.0917   6.8475350095e+01   4.6910762884e+01    0.2019623    0.1723853 -83.58 0.0003499394    1.094    0.086
       258 -10.9351     11.2934    125.0555   7.4014375638e+01   4.8702864401e+01    0.5207407    0.2494167 -50.25  0.001968511    2.198    0.545
       259 -10.1246     23.0299    126.3643   6.9756132294e+01   4.7436478581e+01    0.1965623    0.1810283  53.22 0.0003849387    1.088    0.081
       260  -9.8055      2.0674    124.8828   7.7416036645e+01   4.9318235915e+01    0.2293428    0.1629265  61.76  0.001230297    1.315    0.239
       261 -10.6707    104.8319    122.4398   4.0342071784e+01   3.6548970033e+01    0.3204619    0.3048308  72.34 0.0009087202    1.058    0.055
       262 -10.0191     49.3050    122.4712   5.9330538658e+01   4.5696934506e+01    0.3344891    0.2157786  -5.77  0.001374553    2.254    0.556
       263 -11.2552    244.7323    118.3799   1.1559293476e+01   1.1189829509e+01    0.2372824    0.1175788 -42.26  0.001285297    1.687    0.407
       264 -10.1754     43.2708    117.0642   6.0721804348e+01   4.7926589019e+01    0.4559321    0.2038153 -81.29  0.001567528    2.805    0.643
       265 -10.6718     12.2895    110.5844   7.2279136584e+01   5.2607660713e+01    0.3533366    0.2034961 -57.13  0.001314493    1.646    0.392
       266 -11.0747     16.5505    108.9070   7.0337592759e+01   5.2771414860e+01    0.5533575    0.3784263  69.51  0.001520163    1.486    0.327
