#   1 NUMBER                 Running object number                                     
#   2 MAG_AUTO               Kron-like elliptical aperture magnitude                    [mag]
#   3 X_IMAGE                Object position along x                                    [pixel]
#   4 Y_IMAGE                Object position along y                                    [pixel]
#   5 X_WORLD                Barycenter position along world x axis                     [deg]
#   6 Y_WORLD                Barycenter position along world y axis                     [deg]
#   7 A_WORLD                Profile RMS along major axis (world units)                 [deg]
#   8 B_WORLD                Profile RMS along minor axis (world units)                 [deg]
#   9 THETA_WORLD            Position angle (CCW/world-x)                               [deg]
#  10 FWHM_WORLD             FWHM assuming a gaussian core                              [deg]
#  11 ELONGATION             A_IMAGE/B_IMAGE                                           
#  12 ELLIPTICITY            1 - B_IMAGE/A_IMAGE                                       
         1 -13.1235    181.0471     38.5687   6.3823888497e+01   3.5316374567e+01     1.064105    0.9205823  10.14  0.004347152    1.645    0.392
         2 -12.7352    202.1604      6.7993   5.4389742913e+01   3.4291910564e+01    0.8227074    0.6370005  85.46  0.004052316    1.065    0.061
         3  -9.0811    167.7124    232.0450   1.0945999470e+02   2.1183255636e-01     0.251082     0.188474  25.71 0.0007139937    1.293    0.227
         4 -11.0669    249.1274    246.4946   9.5988288874e+01  -1.4118768880e+01    0.5560977    0.2119704 -36.88  0.002700042    2.378    0.579
         5  -9.0613     11.9214    205.9919   1.4039710359e+02   2.9051507796e+01    0.4256614     0.185623  39.77  0.002167208    2.275    0.560
         6  -9.6237     85.9049    201.4575   1.2316223228e+02   2.0763252158e+01    0.5425041    0.2563352  59.39  0.001982866    2.884    0.653
         7 -10.9788    140.6111    200.1978   1.0993272362e+02   1.1651105101e+01    0.4325117    0.3102749  16.74  0.001993324    1.760    0.432
         8  -9.3785    192.2883    193.5680   9.7172909558e+01   3.6177871137e+00    0.5366696      0.25228 -63.35  0.001402697    6.142    0.837
         9  -8.4416    161.5029    200.4531   1.0519367658e+02   7.7626259163e+00    0.1447857    0.1415498  12.44 0.0001938232    1.010    0.010
        10 -10.8848     69.7356    196.6634   1.2634133234e+02   2.4360485096e+01    0.5052733     0.291693 -45.28  0.001204043    2.045    0.511
        11  -9.8534    152.5031    198.6021   1.0688733875e+02   9.8243737323e+00    0.3180432    0.1462508 -50.74  0.001222283    2.208    0.547
        12  -9.3060     81.7687    194.7768   1.2315897000e+02   2.3033541456e+01    0.2874872    0.2663921  66.20  0.001624167    1.079    0.073
        13  -9.5126     64.8215    192.8549   1.2699385059e+02   2.5994482490e+01     0.301822    0.2467196 -81.26  0.001558982    1.110    0.099
        14 -11.8544    127.3681    191.2957   1.1144369401e+02   1.6137823150e+01    0.5941235    0.3137228 -47.47    0.0024252    1.925    0.481
        15 -10.3563     98.3697    190.9209   1.1847201588e+02   2.1318425096e+01    0.2752262     0.234457  64.87 0.0006396194    1.167    0.143
        16  -9.8713    149.9995    188.2913   1.0549087826e+02   1.2615930120e+01    0.2179214    0.2025075  37.18  0.001164905    1.081    0.075
        17  -9.2224    136.5161    185.4849   1.0814143629e+02   1.5813789477e+01    0.1499762    0.1487327 -65.03 -4.306134e-05    1.022    0.021
        18 -10.4985     99.2940    180.9148   1.1651517776e+02   2.3634603947e+01    0.3179504    0.2478225 -44.68   0.00060423    1.355    0.262
        19  -8.7647    149.0413    180.0184   1.0407163653e+02   1.4702778113e+01    0.2457428    0.1900781  85.60 0.0009544583    1.700    0.412
        20  -9.0902    204.5925    176.6012   9.1234964755e+01   4.8621958369e+00    0.3004142    0.2201433 -50.97  0.001495376    1.366    0.268
        21 -10.2296    249.7253    224.3747   9.2000390488e+01  -1.0849338573e+01    0.3396828   0.08631139 -36.82  0.001219042    3.696    0.729
        22  -9.1418     67.0783    225.7176   1.3062541931e+02   1.7857766737e+01    0.2651404   0.09467404  42.18  0.001072124    2.508    0.601
        23 -10.7298    119.7246    173.5488   1.0994899421e+02   2.1826347904e+01    0.3673087    0.2053338  30.94  0.001452201    2.070    0.517
        24 -10.2079    124.3339    171.1258   1.0830303322e+02   2.1556771916e+01    0.3203256    0.2610323  37.01 0.0009400511    1.274    0.215
        25 -11.3015    103.7267    172.6962   1.1387231458e+02   2.4919467626e+01    0.4535744    0.2756516  36.56  0.001969534    1.723    0.419
        26  -8.8027    164.2168    170.7155   9.8615840226e+01   1.3864289513e+01    0.2532825    0.1984506 -57.87 0.0006286773    1.318    0.241
        27  -8.1380    139.7006    168.2826   1.0390034826e+02   1.9281797733e+01     0.154044    0.1225138  81.18 0.0001796156    1.547    0.354
        28  -8.7021    192.4929    164.8927   9.1226995491e+01   9.5763010125e+00    0.2176229    0.2079199  22.85  0.001209366    1.107    0.096
        29 -10.3002     96.5068    158.5752   1.1302776729e+02   2.9707303308e+01    0.3039151    0.2665004 -45.47 0.0005466659    1.149    0.130
        30 -11.2569    101.0738    152.1796   1.1047991768e+02   3.0512055707e+01    0.6668845    0.4428736 -31.75  0.002775474    1.873    0.466
        31  -9.8549    162.2796    223.4558   1.0917086761e+02   2.8152505935e+00    0.2835587    0.1326648  33.13   0.00115444    2.174    0.540
        32  -9.0598    189.3465    155.2801   8.9797467173e+01   1.2249333064e+01     0.281681    0.1901878  32.47  0.001273028    1.726    0.421
        33 -11.9034     69.3205    218.4621   1.2927814780e+02   1.9205681067e+01    0.3307258    0.2349549  70.95 0.0007899118    1.377    0.274
        34 -11.2983     73.4861    212.8277   1.2763540588e+02   1.9922332587e+01    0.2731569    0.2325404 -86.75 0.0005819018    1.077    0.072
        35  -9.8532    134.0132    146.5533   1.0055824025e+02   2.5601089393e+01    0.9790427    0.2240563 -53.88  0.002111758    6.159    0.838
        36 -10.4932    110.9954    138.2755   1.0470566875e+02   3.2110122883e+01    0.4938923      0.34319 -26.38   0.00212284    1.834    0.455
        37 -10.7914    100.0539    137.6725   1.0759087116e+02   3.4270868282e+01    0.3115677    0.2898538 -25.74 0.0005585356    1.129    0.115
        38  -9.9811    106.0227    131.0192   1.0437734562e+02   3.4783835187e+01    0.3742074    0.3322542 -70.16  0.001196116    1.170    0.145
        39  -9.4163    116.9143    129.1587   1.0093835084e+02   3.3135813340e+01     0.281065    0.2265682 -29.87 0.0007975982    1.350    0.259
        40  -9.0739    160.2819    127.5261   8.9720262000e+01   2.4410397874e+01    0.3859069    0.2350888 -77.40  0.001305388    3.140    0.682
        41  -9.4027    105.1114    124.9286   1.0316603480e+02   3.6392083133e+01     0.259877    0.2143027 -32.10 0.0006093387    1.264    0.209
        42  -8.2237    174.7018    149.2923   9.1578649417e+01   1.6541382350e+01    0.1520991    0.1215007 -85.42  0.000258282    1.563    0.360
        43  -8.7428    111.7820    118.4123   9.9680223044e+01   3.6619553430e+01    0.2053848    0.1479991  27.97 0.0002676846    1.569    0.363
        44  -9.4599    168.3459    113.3787   8.4499860145e+01   2.5637684785e+01    0.2976381    0.2516816 -77.99 0.0006818512    1.271    0.213
        45  -9.0336    205.3041    110.2999   7.6669773919e+01   1.8162898644e+01    0.3080168    0.2018925  49.49  0.001484785    1.667    0.400
        46  -9.7429     76.2988    208.1329   1.2636907877e+02   2.0622120385e+01    0.3606609    0.3216913 -37.97  0.001459848    1.379    0.275
        47 -11.1500     60.0266    215.0654   1.3093789158e+02   2.1297408749e+01    0.3838545    0.2279583  45.91  0.000390013    1.605    0.377
        48 -10.9808     65.2638    210.2518   1.2917996029e+02   2.1710500368e+01    0.4163926    0.3011819  65.98  0.001695598    1.334    0.250
        49  -8.6962    176.5919     74.7678   7.3319818236e+01   3.0994117288e+01    0.2022568    0.1719587 -62.03  0.000268922    1.142    0.125
        50 -11.0510    171.5614     70.9401   7.3268854041e+01   3.2782648157e+01    0.4761275    0.3026537 -83.88  0.001255497    2.191    0.544
        51  -8.3990     78.6258     75.2404   9.7623413860e+01   5.1604131671e+01    0.1287197    0.1070175  64.55 0.0004257507    1.622    0.383
        52  -9.1222     96.9778    214.0122   1.2240736886e+02   1.6024842775e+01    0.2241416    0.1777946 -20.83  0.001141632    1.778    0.438
        53  -9.3143    154.3245    213.3229   1.0915791454e+02   6.2965322753e+00     0.147465    0.1123086  -7.27 0.0003483161    1.684    0.406
        54 -11.9736    167.1025     53.5867   6.9670302697e+01   3.6474369961e+01    0.4952535    0.4500983 -83.39  0.001087707    1.055    0.052
        55 -19.4702     36.6348    146.7371   1.2746417094e+02   4.1036823518e+01     21.69361     3.990593 -65.86   0.05633616    5.463    0.817
        56 -11.6340    185.5073     32.6426   6.1839192926e+01   3.5051617522e+01    0.4455897    0.4370295  52.06  0.001578007    1.305    0.234
        57 -10.2372     71.8077    230.5569   1.3016300837e+02   1.6093572636e+01    0.2951416    0.2365406  70.47 0.0007700062    1.108    0.097
