#   1 NUMBER                 Running object number                                     
#   2 MAG_AUTO               Kron-like elliptical aperture magnitude                    [mag]
#   3 X_IMAGE                Object position along x                                    [pixel]
#   4 Y_IMAGE                Object position along y                                    [pixel]
#   5 X_WORLD                Barycenter position along world x axis                     [deg]
#   6 Y_WORLD                Barycenter position along world y axis                     [deg]
#   7 A_WORLD                Profile RMS along major axis (world units)                 [deg]
#   8 B_WORLD                Profile RMS along minor axis (world units)                 [deg]
#   9 THETA_WORLD            Position angle (CCW/world-x)                               [deg]
#  10 FWHM_WORLD             FWHM assuming a gaussian core                              [deg]
#  11 ELONGATION             A_IMAGE/B_IMAGE                                           
#  12 ELLIPTICITY            1 - B_IMAGE/A_IMAGE                                       
         1 -11.1409     20.9107     17.0952   5.3233934963e+01   7.3698468196e+01    0.4026778    0.2841384  26.10  0.002360523    1.274    0.215
         2 -10.3016      6.5874     15.1412   6.3170752011e+01   7.5897730057e+01    0.2706266    0.2148977 -60.56 0.0008989963    1.730    0.422
         3 -10.6252    128.1058     14.4113   1.6810737918e+01   5.0274606264e+01    0.2866979    0.2018066  84.32 0.0009918346    1.307    0.235
         4 -10.9213     49.6339     13.8792   3.5477087864e+01   6.8853995753e+01    0.3237238    0.2691327  50.17  0.000865895    1.142    0.125
         5 -10.3684     45.5168     12.0268   3.6195219479e+01   6.9923492760e+01     0.249866    0.2068958  -9.73 0.0008996334    1.280    0.219
         6 -10.4466     35.0518     13.5502   4.2276229403e+01   7.1803560539e+01    0.2715665    0.2085354  27.98 0.0008055822    1.149    0.130
         7 -10.0921     32.4825     10.0364   4.1482194171e+01   7.2725858791e+01    0.2270489    0.1857883 -38.29  0.001414794    1.472    0.321
         8  -9.6658    115.2817      8.9540   1.6710882133e+01   5.3878518800e+01    0.2271337    0.1618227  74.04 0.0005752617    1.234    0.190
         9 -10.9402    119.2933      9.8360   1.6456693372e+01   5.2826259566e+01    0.4105388    0.1963474 -34.31  0.001507253    2.120    0.528
        10 -11.2611    123.7633      6.4544   1.4713297387e+01   5.2035210220e+01    0.3024635    0.2152469 -87.99 0.0009260534    1.294    0.227
        11 -10.2331     79.1237     11.6988   2.4715904259e+01   6.2404952947e+01    0.2623532    0.2180516 -35.33 0.0007559662    1.349    0.259
        12 -10.7636     74.9949      9.1966   2.4596971323e+01   6.3613992088e+01    0.3345878    0.2372504 -16.01  0.001496763    1.631    0.387
        13  -9.5828     78.2987      7.6959   2.3067781359e+01   6.2962156386e+01    0.2070027    0.1481885  78.40 0.0002784756    1.396    0.284
        14 -10.2254     64.7226     11.6572   2.8756277246e+01   6.5770336269e+01    0.3020097    0.1803115  32.17  0.001025292    1.822    0.451
        15 -10.3712     69.8928      8.2281   2.5493330326e+01   6.4900013747e+01    0.3412123    0.1941183   9.33  0.001579265    2.536    0.606
        16 -10.2775     27.5667     11.3130   4.5197577208e+01   7.3451906855e+01     0.221013    0.2048328 -24.22  0.001477798    1.291    0.225
        17 -11.5249     56.8729      8.7577   2.9835902269e+01   6.7825542850e+01     0.494484    0.3021418  33.27  0.001766596    1.668    0.400
        18 -10.7681    104.3909      8.7360   1.8307712487e+01   5.6553405148e+01    0.3160248    0.3039621 -10.37  0.001943407    1.211    0.174
        19 -10.3759    213.0264      8.8618   8.1648056229e+00   3.2277453050e+01    0.1749715    0.1273145 -52.59 0.0002956165    1.091    0.084
        20 -10.9002     97.5277      6.8334   1.8731735059e+01   5.8388241428e+01    0.4967646    0.2140368 -52.14  0.002059989    2.939    0.660
        21 -10.0863      3.3551      8.2130   6.1697065107e+01   7.7433041311e+01    0.2145558    0.1696014  12.51 0.0006473255    1.137    0.121
        22 -11.0452    178.1039      7.3665   9.9333499270e+00   3.9474454715e+01      0.35451    0.1703341 -24.91  0.001535853    2.294    0.564
        23 -11.1032    174.1936      3.5683   9.2483731311e+00   4.0662053246e+01    0.3379596    0.2177464 -52.23   0.00155534    1.332    0.249
        24 -10.2158    178.9681      1.4773   8.4180951009e+00   3.9822574710e+01    0.2300857    0.1499851  59.60 0.0006588986    1.736    0.424
        25 -11.8004     87.1188      6.3643   2.0513638757e+01   6.0955484303e+01    0.5621724    0.2688105  44.30  0.002606636    2.103    0.525
        26 -10.1865     22.0260      6.3578   4.5409906759e+01   7.5050737011e+01    0.4075904    0.2275832  -4.03  0.001472173    2.691    0.628
        27 -10.7859    131.0022      4.7375   1.3304305121e+01   5.0439597400e+01    0.3382047     0.254412   7.30  0.001366272    1.801    0.445
        28  -9.4879    236.4392      6.6972   6.6242817968e+00   2.8257741240e+01    0.1621556   0.08410358  83.06   0.00105944    1.983    0.496
        29 -10.2847    242.9792      5.3116   6.0954071257e+00   2.7281335166e+01    0.1426289    0.1034007 -59.63 0.0005779407    1.051    0.048
        30 -10.1250    203.7053      4.7498   7.7658027922e+00   3.4465956700e+01    0.1860178    0.1557874  63.05  0.001017854    1.500    0.333
        31  -9.6964     16.4855      4.9475   4.8319399855e+01   7.6141609765e+01    0.2191605    0.1616873  44.71 0.0007221726    1.507    0.337
        32  -9.8552      8.2521      5.1363   5.5112793999e+01   7.7316816337e+01    0.2034231    0.1407397  12.92 0.0005463205    1.301    0.231
        33 -11.1054    183.2685      3.5631   8.6603773705e+00   3.8726968277e+01    0.2843509   0.09656532  75.49  0.001323453    2.712    0.631
        34 -11.0023    159.1150      3.2994   1.0272499881e+01   4.4017855445e+01    0.3336325    0.1274199  74.79  0.001128848    2.333    0.571
        35 -11.2474    114.5664      1.9012   1.4289765247e+01   5.4627511753e+01    0.3951856    0.1725002  74.63 0.0009776455    2.002    0.500
        36 -10.2932     37.6799      2.1787   3.3658283836e+01   7.2568735855e+01    0.2645344    0.1934376  44.49 0.0009124207    1.160    0.138
        37  -9.5770     75.9833      1.9921   2.0923881238e+01   6.3976875938e+01     0.160157    0.1260831  63.63 0.0009691149    1.090    0.083
        38  -8.9328    229.6884      1.7052   5.9312798194e+00   2.9909781196e+01   0.08591115   0.08031342  49.23 0.0003675037    1.594    0.373
        39 -12.2178     54.8500     79.1004   6.1415047333e+01   5.6169325334e+01    0.3000269    0.2931667 -60.89 0.0004236728    1.106    0.096
        40  -8.6533      6.2541     80.3355   8.5420784092e+01   6.1269908570e+01    0.1486868    0.0864535 -43.40 0.0002894797    1.567    0.362
        41  -9.7371     40.6572     78.6324   6.7719677254e+01   5.8381159356e+01    0.2325601    0.2168857 -35.75 0.0005892832    1.038    0.037
        42  -9.1024    215.9014     78.1598   2.2957814253e+01   2.3380798658e+01    0.1487356    0.1288268 -25.32  0.001005724    1.268    0.212
        43  -9.2344     78.1137     77.8669   5.1739891678e+01   5.2253330050e+01    0.2027235    0.1748839   0.37  0.001034847    1.281    0.219
        44  -9.5032     83.7762     74.8072   4.8720033720e+01   5.1753222315e+01    0.2146679    0.1970355   6.92  0.000515039    1.138    0.121
        45 -10.2787      2.5081     74.8553   8.6393612635e+01   6.2886731388e+01    0.2931724    0.1873441  55.40  0.001433076    1.933    0.483
        46  -8.8432    121.5252     74.5171   3.7644266940e+01   4.3557383063e+01    0.1433424    0.1422202 -86.57 6.785803e-05    1.030    0.029
        47  -9.8323    128.5131     71.2215   3.5010622717e+01   4.2551655848e+01    0.2388903    0.1968678  57.96 0.0004161396    1.216    0.178
        48  -8.3920     76.6983     71.3029   5.0045266644e+01   5.3906729926e+01    0.1457531    0.1198808  84.82 0.0003411155    1.590    0.371
        49 -10.4364     64.0000     69.5354   5.4361809624e+01   5.6718699815e+01    0.2573041    0.2127092 -43.43 0.0002595466    1.225    0.184
        50  -9.6207     34.4649     68.9608   6.7831421477e+01   6.1500459129e+01     0.222953     0.137555 -55.85  0.001035082    1.606    0.377
        51  -9.7052      7.7469     68.7815   8.2273632527e+01   6.4123277774e+01    0.2191098    0.1709774 -16.34 0.0004725382    1.262    0.208
        52  -9.0223     83.1850     68.3427   4.6711208017e+01   5.3169962232e+01    0.2025914    0.1349764  53.73 0.0004093025    1.581    0.368
        53 -10.0685     70.2650     66.0536   5.0619914821e+01   5.6248661745e+01    0.2646981    0.2330292  13.31 0.0005189117    1.168    0.144
        54  -9.1718    192.2549     65.7117   2.2886735491e+01   2.9588707619e+01    0.1266695   0.08344658 -59.43 0.0002106738    1.481    0.325
        55 -10.0902      4.2983     64.2600   8.3235295003e+01   6.5458429259e+01    0.2509858    0.2098503 -60.34 0.0006551357    1.141    0.123
        56 -10.6742      3.7355     59.2359   8.2396743816e+01   6.6721774522e+01    0.3054984    0.2637335 -35.95 0.0009600411    1.015    0.015
        57  -8.5069    126.3003     64.6152   3.3470670569e+01   4.4172032129e+01     0.153756    0.1068711 -69.22 0.0007018837    1.781    0.439
        58  -8.4676    152.3038     66.3113   2.8873812802e+01   3.7970117285e+01    0.1331597    0.1093027  17.75 0.0006030121    1.612    0.380
        59 -10.3825     99.0522     61.7466   3.9395008516e+01   5.0922710492e+01    0.4220847    0.2824865 -65.27  0.001867398    2.020    0.505
        60  -8.7098     85.2715     63.7054   4.4361434292e+01   5.3613890676e+01    0.1406029    0.1166966 -84.52 0.0001599581    1.519    0.342
        61 -10.3927     43.5113     62.3741   6.1048743762e+01   6.1726254887e+01    0.2550893    0.2246211  -9.65 0.0003866019    1.101    0.092
        62  -9.4721    114.3100     60.9824   3.5088261955e+01   4.7550184503e+01    0.1925888    0.1838374 -49.92  0.000315851    1.067    0.063
        63  -9.9044     34.8163     60.8686   6.4958490537e+01   6.3310255291e+01    0.2093181      0.17772 -13.16 0.0003400912    1.140    0.123
        64  -9.6802     13.8556     61.3968   7.6894827960e+01   6.5483083502e+01    0.3241038    0.1329411  14.51  0.001285235    2.615    0.618
        65 -10.0972    233.2347     59.6213   1.7373915502e+01   2.2877662546e+01    0.2513554    0.1550771  46.73 0.0009664369    2.323    0.569
        66  -9.5811     57.1576     59.8654   5.3742842708e+01   5.9972985414e+01    0.2084705    0.1969243  51.24 0.0003971611    1.165    0.142
        67 -10.0925     85.0664     58.1265   4.2394650045e+01   5.4675726239e+01    0.2372274    0.2146185 -64.18 0.0003396577    1.222    0.181
        68 -11.7879     24.2479     57.1508   6.9512601604e+01   6.5457935791e+01    0.4779581    0.3893104 -16.30  0.002699527    1.173    0.148
        69  -9.3474     77.8210     55.4997   4.3873087028e+01   5.6708121246e+01     0.226989     0.200709 -77.13  0.000623902    1.346    0.257
        70  -9.5837     44.8483     56.0275   5.8016549158e+01   6.2866827035e+01    0.2680904    0.1827689  59.09   0.00122579    2.090    0.522
        71 -10.1810     63.5922     52.4454   4.8088320322e+01   6.0189060017e+01    0.3552026    0.2226629 -34.36  0.001362969    1.701    0.412
        72 -10.4811     69.7200     51.8212   4.5406855834e+01   5.9063912097e+01    0.4642975    0.2724821  58.67  0.001994052    2.076    0.518
        73  -8.7581     88.2977     52.6678   3.9316081207e+01   5.4899331860e+01    0.1443702    0.1135637 -78.45 0.0002954708    1.644    0.392
        74 -10.4552     22.9165     50.7394   6.8027515505e+01   6.7039025538e+01    0.3667852    0.1703927 -36.92  0.001528234    2.263    0.558
        75 -11.7331     94.0606     48.4831   3.6020162360e+01   5.4260849085e+01    0.2749442    0.2289053 -31.95  0.001496952    1.277    0.217
        76  -8.6803    148.5036     47.3764   2.4083033390e+01   4.1602448312e+01    0.1332164    0.1203286 -83.77 -0.0002244416    1.033    0.032
        77 -10.9593     52.0624     46.3034   5.0551423115e+01   6.3517035463e+01    0.5164536    0.2573803  38.48  0.001583455    1.925    0.480
        78  -8.7189    141.7876     44.9757   2.4441976187e+01   4.3488382064e+01    0.1700127    0.1070002 -34.10 0.0004139371    1.614    0.381
        79 -10.9523     38.6881     43.5091   5.6020177500e+01   6.6346808219e+01    0.6696509    0.2886019  33.04  0.002740617    2.289    0.563
        80 -10.3131     32.3164     43.9722   5.9766363763e+01   6.7230299738e+01    0.4168624    0.1760413  36.35  0.001725501    2.303    0.566
        81 -10.6225    119.0962     42.7770   2.7891852831e+01   4.9173050524e+01     0.331989    0.2098924 -36.88 0.0004754245    1.621    0.383
        82  -9.1313      7.2972     44.3612   7.5810724012e+01   6.9956826023e+01    0.1471547   0.08198533 -32.31 0.0007033451    1.711    0.416
        83  -9.0921    206.2230     43.1900   1.6187784557e+01   2.9819577773e+01    0.1633026    0.1113393 -58.12 0.0003515266    1.257    0.204
        84  -8.8758     71.5095     42.4908   4.0880132497e+01   6.0258236749e+01      0.14139    0.1308939  33.38  0.000810537    1.008    0.008
        85  -9.2050    237.8369     41.1267   1.3300695092e+01   2.4350840375e+01    0.1351012    0.1154422 -34.76 0.0004035379    1.313    0.238
        86  -9.0599    158.8441     39.2033   2.0270867226e+01   4.0298944467e+01    0.1624445    0.1452378  56.02 0.0003648051    1.259    0.206
        87  -8.7436    151.7150     39.6742   2.1367883341e+01   4.1870881613e+01    0.1253639    0.1019037  29.00 0.0004633838    1.604    0.377
        88  -9.6176     89.8743     38.9005   3.3496699544e+01   5.6657626132e+01    0.2040737    0.1826189  24.14 0.0003744433    1.188    0.158
        89  -9.4048     96.0396     38.0255   3.1484435922e+01   5.5330185966e+01    0.2069491    0.1878641  59.66 0.0003933551    1.026    0.025
        90 -10.5820     48.0189     33.9913   4.6815791891e+01   6.6392512418e+01    0.5095992    0.2859932 -28.41   0.00236133    2.032    0.508
        91  -9.8038     51.7084     33.0070   4.4613550945e+01   6.5838460088e+01    0.1914295    0.1829454  47.94 0.0002385572    1.176    0.149
        92  -9.7521     13.1771     36.2565   6.8633584424e+01   7.1171818109e+01    0.3774649     0.142661 -49.67  0.001577941    2.386    0.581
        93 -10.8262     39.9361     35.9280   5.1850041827e+01   6.7523869920e+01    0.5100349    0.2042233  40.34  0.002068853    2.373    0.579
        94  -9.5226    174.0254     34.4906   1.7210519286e+01   3.7494196520e+01    0.1859331    0.1511254 -52.92 0.0004944593    1.102    0.093
        95  -9.5254    119.1508     35.1862   2.5285072964e+01   5.0155963671e+01    0.1928731     0.178135  42.35 0.0004401788    1.177    0.150
        96  -8.8767     82.2460     35.3915   3.4294746349e+01   5.8916004097e+01    0.1395654    0.1039266  15.04 0.0006941138    1.668    0.401
        97  -8.6641     57.3377     35.3086   4.3238871703e+01   6.4356776657e+01    0.1444062     0.101682  16.45 0.0005051814    1.682    0.405
        98  -9.4753     25.7402     33.1290   5.8763164694e+01   7.0249912558e+01    0.3872427    0.2052274 -15.39  0.001493544    3.215    0.689
        99  -9.9371    153.3894     32.2193   1.8994199848e+01   4.2393429840e+01    0.2490153    0.1947533  38.72 0.0008076061    1.601    0.375
       100  -9.3237    139.4653     33.4365   2.1277280354e+01   4.5504571070e+01    0.1323542    0.1191881 -85.20 -5.789921e-06    1.006    0.006
       101  -9.2769      7.0244     32.7811   7.1645229223e+01   7.2473608942e+01     0.182481    0.1493623   3.11 0.0007202678    1.142    0.124
       102  -9.3107      3.5189     31.4221   7.3766559432e+01   7.3046146683e+01    0.1971284    0.1446248   0.72 5.773974e-05    1.272    0.214
       103  -9.5652     83.3828     31.5413   3.2333041072e+01   5.9171272488e+01    0.3643974    0.1514376  49.38  0.001480252    2.173    0.540
       104 -10.5081     17.6015     31.5181   6.3393710789e+01   7.1621147639e+01    0.2234016    0.2084351   1.05 0.0002030584    1.165    0.141
       105  -9.6371    104.5835     29.5753   2.6223648681e+01   5.4366805134e+01    0.3065794    0.1789857 -47.84  0.001463765    1.874    0.466
       106  -9.5577     64.7003     29.9968   3.7801543491e+01   6.3591506937e+01    0.1854573    0.1715682  -6.18 0.0005888161    1.134    0.118
       107 -10.6050    161.9317     27.3504   1.6613383854e+01   4.1001408416e+01    0.4457985    0.2153239 -89.50  0.001992634    2.466    0.594
       108  -9.3148     59.4965     29.5040   3.9579661830e+01   6.4773132493e+01    0.1377002    0.1228204  31.17 0.0003305519    1.017    0.017
       109  -9.3568     60.5748     25.9903   3.7439595507e+01   6.5026334863e+01    0.2398539    0.1822587  -1.49  0.001031377    1.524    0.344
       110  -9.3098    153.2475     27.9601   1.7787453637e+01   4.2916255310e+01    0.1756527    0.1521972 -60.50 0.0003604899    1.078    0.072
       111 -10.0278     89.0522     26.0769   2.8487235979e+01   5.8514965975e+01    0.4288303    0.2285196 -58.30  0.001765814    2.775    0.640
       112 -10.1567     85.4859     20.8009   2.7160546955e+01   5.9964633128e+01    0.3888847    0.2311627 -64.37  0.001139767    2.438    0.590
       113  -8.9662     42.4089     28.4725   4.6820412163e+01   6.8314091876e+01    0.1348322    0.1178283  13.96 0.0001412297    1.041    0.040
       114 -10.4887     46.9102     26.7704   4.3711330313e+01   6.7719369653e+01    0.2103342    0.1885542 -20.30 0.0003264163    1.179    0.152
       115  -9.8893    120.9525     25.8215   2.1737683442e+01   5.0828919188e+01    0.3240148    0.1531229  56.42  0.001465323    1.944    0.486
       116  -9.7209     93.8073     25.4197   2.7042953868e+01   5.7454326795e+01    0.1946854    0.1713608  73.76 0.0005250233    1.085    0.078
       117 -11.8644     96.6645     22.0087   2.5013034268e+01   5.7147618681e+01    0.3711882    0.2460719  75.62 0.0003365314    1.512    0.338
       118  -9.8836    111.2538     24.8123   2.3111128153e+01   5.3297126625e+01    0.2706506    0.1736716  82.49 0.0006031069    1.635    0.388
       119  -9.1454     83.5012     25.0721   2.9530448403e+01   5.9948707354e+01    0.1870713    0.1359809 -28.08 0.0004227051    1.515    0.340
       120  -9.8944    250.6445     23.8993   9.2327071365e+00   2.4147083847e+01    0.1509162   0.07352977 -39.03  0.000342976    1.538    0.350
       121  -9.0975    239.0887     24.4838   9.9463451942e+00   2.5995136341e+01    0.1337142   0.09442294 -87.70 0.0003503731    1.449    0.310
       122  -9.3706    129.0099     24.2990   1.9938335662e+01   4.9049055948e+01    0.1814423    0.1551581  81.02 0.0003544768    1.061    0.057
       123  -9.3629    136.2890     23.3396   1.8582157063e+01   4.7407794895e+01    0.1278816   0.09634941  36.26 0.0002587225    1.642    0.391
       124  -9.7718     72.8085     22.5077   3.1506963267e+01   6.2739501456e+01    0.2037516    0.1903057  -9.06 0.0004343537    1.165    0.142
       125 -10.3227     38.3229     22.7108   4.5864891078e+01   6.9935147703e+01       0.2377     0.193732  19.69 0.0002878289    1.118    0.105
       126  -9.4980    195.8670     22.6254   1.2319748718e+01   3.4235721705e+01    0.1627015   0.09552558 -83.36 0.0006623582    1.685    0.407
       127 -10.5152     24.4836     19.9778   5.2535415606e+01   7.2698726872e+01    0.2300382    0.1890628   9.35 0.0006810081    1.068    0.064
       128  -8.5050      1.3436    241.3119   9.9647722573e+01   2.1151122629e+01    0.1071584   0.08490935 -29.78 0.0007046216    1.704    0.413
       129  -9.4195    159.0669     20.7018   1.5080731297e+01   4.2370256081e+01    0.1698907    0.1448788 -88.44 0.0003446932    1.073    0.068
       130  -9.4312     66.2819     20.6814   3.2760587472e+01   6.4436945628e+01    0.1969568     0.154362  68.04 0.0006181257    1.340    0.254
       131  -9.7235     48.6101     19.8059   3.9210585787e+01   6.8343391211e+01    0.2092258    0.1580406  35.23 0.0003968381    1.187    0.158
       132  -9.2406     30.9726     20.4889   4.8760159066e+01   7.1563367057e+01    0.1711529    0.1117634  60.46 0.0007800194    2.440    0.590
       133 -10.4832     12.0648     17.9591   6.0326173193e+01   7.4768801212e+01     0.500518    0.2190546  18.97  0.001869378    2.661    0.624
       134  -9.9974      5.1595     19.4350   6.6811635636e+01   7.5271649416e+01    0.3513056    0.1627974  24.35  0.001722865    2.031    0.508
       135  -9.4591    109.5551     19.2193   2.1369261033e+01   5.4306848934e+01    0.1670519    0.1303439   1.06 0.0007578499    1.624    0.384
       136  -9.1851    147.5016     17.9051   1.5527909680e+01   4.5324504728e+01    0.1712955    0.1217939 -32.51 0.0003667285    1.476    0.322
       137  -8.8357     70.6292     18.2659   3.0179234436e+01   6.3724334216e+01    0.1317825    0.1009877 -85.00 0.0006989196    1.663    0.399
       138  -9.3651    241.6680     17.6978   8.5015914459e+00   2.6270841076e+01   0.08676549   0.08132087  22.11 0.0007035041    1.654    0.395
       139 -10.4497     84.9867     15.7196   2.5075996881e+01   6.0616018566e+01    0.4138021    0.2008947  64.14  0.001897171    1.843    0.457
       140  -9.4275     66.1872     16.2207   3.0589707607e+01   6.4962901738e+01    0.1733857    0.1508257 -88.24 0.0003789088    1.347    0.257
       141  -9.7036     31.3277    238.2975   9.2686888971e+01   1.9219435893e+01    0.1146728   0.08961307 -20.55 0.0004574747    1.634    0.388
       142 -10.6163    183.2135     15.0205   1.1455153221e+01   3.7646199438e+01    0.2015321    0.1511009 -88.90 0.0005836386    1.223    0.182
       143 -10.1550      2.2316    234.1816   9.9213202210e+01   2.2533075295e+01    0.1928234    0.1329033 -85.02 0.0005981693    1.514    0.340
       144 -10.4938      5.2777    230.4069   9.8378070541e+01   2.3083262642e+01    0.2200422    0.1084822  17.17   0.00105614    2.077    0.518
       145 -11.2399      3.0649    220.7095   9.8528302556e+01   2.5331323769e+01    0.3359823    0.1820501  70.41    0.0018257    1.757    0.431
       146 -10.0143    115.2130     13.8878   1.8483862826e+01   5.3449866075e+01    0.4108923   0.07930649  62.01  0.001366228    3.617    0.724
       147 -10.5500     19.8233    199.1736   9.3168955700e+01   2.8907688220e+01    0.1759603    0.1541398 -34.15  0.001081463    1.342    0.255
       148 -10.8864      4.0010    197.8463   9.7313775396e+01   3.0474889228e+01    0.2553462    0.2186902 -29.24  0.001611571    1.418    0.295
       149  -9.1560    157.3184     13.3476   1.3204344444e+01   4.3507931963e+01    0.1212948    0.0898679  41.06 0.0007048586    1.730    0.422
       150  -9.6562      8.4889    187.5045   9.5557016062e+01   3.2646130959e+01    0.1316516    0.1163379  63.03 9.734657e-05    1.007    0.007
       151  -9.9777     27.3385    185.6695   9.0088260057e+01   3.1540706638e+01    0.1522521   0.08708832  55.39 0.0007051898    1.738    0.425
       152  -9.4041     17.0768    155.2899   9.0603899638e+01   4.0291193657e+01    0.1908783     0.174786  40.57  0.000503406    1.109    0.098
       153 -10.3790     25.7337    146.2741   8.6750025385e+01   4.1997289694e+01    0.2910629    0.2219879 -13.07 0.0005117005    1.521    0.343
       154  -9.1972     91.8977    137.8618   6.3056525432e+01   3.5556793908e+01    0.1976964    0.1780593  69.26            0    1.241    0.194
       155  -9.2927     10.8297    133.1703   9.0634203509e+01   4.6737302546e+01    0.2016133    0.1478859 -54.70  0.001030478    1.309    0.236
       156  -9.8062     17.6435    132.0923   8.7995611891e+01   4.6539297872e+01    0.2311197    0.1874455  46.29 0.0005113405    1.267    0.211
       157  -9.8921     58.1724    129.9202   7.2680670606e+01   4.2781474149e+01    0.2468908    0.2189407  -8.75 0.0002323424    1.204    0.169
       158  -9.9976    245.6705    123.3338   2.8685546538e+01   1.2211049191e+01    0.1145198   0.07590023 -55.44 0.0007052012    1.723    0.420
       159  -9.6241    192.4825     11.4630   9.9512424243e+00   3.6070560037e+01    0.1191061   0.09132265 -63.81 4.238246e-06    1.046    0.044
       160  -9.3434    162.3455     11.6923   1.2291059352e+01   4.2528490149e+01    0.1345131   0.07514132 -63.66 0.0007043582    1.698    0.411
       161  -9.2116     63.9751    122.0434   6.8975826160e+01   4.4029988825e+01    0.2285251    0.1786268  69.56 0.0005360428    1.536    0.349
       162  -8.5205     81.3543    121.7028   6.2830514913e+01   4.1354356371e+01    0.1607763    0.1203902  66.99 0.0007034774    1.695    0.410
       163  -9.4815      6.6042    119.1594   9.0764025595e+01   5.0835373121e+01    0.2068483    0.1111566 -61.45 0.0003253288    1.642    0.391
       164  -8.8423     91.5200    116.4866   5.8224975424e+01   4.0849281524e+01    0.1553961    0.1488268 -17.06 3.393385e-05    1.043    0.041
       165  -9.4132     95.9556    111.6969   5.5594120723e+01   4.1163470547e+01    0.2548229    0.1999064 -36.62 0.0005385706    1.305    0.234
       166  -9.0024      3.4594    111.5292   9.1194142470e+01   5.3092181469e+01    0.1411471     0.125697 -62.57 0.0001013209    1.031    0.030
       167  -9.6445     18.9652    108.0458   8.4175443777e+01   5.3014376507e+01    0.2246229    0.1962422 -31.52  0.001213198    1.153    0.133
       168  -9.3551     13.0089    105.9652   8.6421678963e+01   5.4022990781e+01    0.2190769    0.1553493  59.61            0    1.583    0.368
       169 -10.5280      1.8993    104.9426   9.1099508396e+01   5.4958813840e+01    0.3210509    0.1766883 -55.48  0.001502551    1.602    0.376
       170  -9.7044     78.3580    101.2290   5.8677256228e+01   4.6900640491e+01    0.4292354    0.1410498 -50.64  0.001352079    2.965    0.663
       171 -10.7728    246.7870    101.6199   2.4420251067e+01   1.5122224290e+01     0.229045    0.1208323 -14.68 0.0009560032    4.113    0.757
       172  -9.3402     49.1543    101.3150   6.9977047032e+01   5.1539914880e+01    0.2425975     0.186421  -6.48  0.001159789    1.487    0.328
       173  -9.8501    102.8442     96.7985   4.9398308749e+01   4.3174243095e+01     0.331497    0.2953167   2.70  0.001017945    1.241    0.194
       174 -10.2764     64.2324     96.2953   6.2591588779e+01   5.0530534376e+01    0.3266729    0.2674286   9.03 0.0009314163    1.332    0.249
       175  -9.8344      3.9697     96.3222   8.9077936947e+01   5.7174921505e+01    0.2367774    0.1799387 -66.44 0.0004736381    1.182    0.154
       176  -9.7209     94.1571     96.0207   5.1865417378e+01   4.5101558254e+01    0.2211428    0.2179384   2.39 0.0004716724    1.007    0.007
       177 -10.7266     40.2794     96.0502   7.2497039328e+01   5.4055907409e+01    0.3008198    0.2210886  33.96  0.001473433    1.399    0.285
       178 -10.1244    132.6645     92.6504   4.0284161501e+01   3.7713585376e+01    0.2546613    0.2397857 -74.58 0.0005020107    1.089    0.082
       179  -9.7416     61.0812     91.1459   6.2404103047e+01   5.2299101131e+01    0.3261174    0.2082672 -58.38   0.00100424    1.635    0.389
       180  -8.6305      2.2723     88.3770   8.8741674761e+01   5.9376129456e+01    0.1549565   0.08324493 -45.36 0.0006925396    1.691    0.409
       181  -9.4369     12.0033     85.7651   8.3522045730e+01   5.9487806714e+01    0.1891901    0.1716259 -29.21 0.0003149582    1.073    0.068
