#   1 NUMBER                 Running object number                                     
#   2 MAG_AUTO               Kron-like elliptical aperture magnitude                    [mag]
#   3 X_IMAGE                Object position along x                                    [pixel]
#   4 Y_IMAGE                Object position along y                                    [pixel]
#   5 X_WORLD                Barycenter position along world x axis                     [deg]
#   6 Y_WORLD                Barycenter position along world y axis                     [deg]
#   7 A_WORLD                Profile RMS along major axis (world units)                 [deg]
#   8 B_WORLD                Profile RMS along minor axis (world units)                 [deg]
#   9 THETA_WORLD            Position angle (CCW/world-x)                               [deg]
#  10 FWHM_WORLD             FWHM assuming a gaussian core                              [deg]
#  11 ELONGATION             A_IMAGE/B_IMAGE                                           
#  12 ELLIPTICITY            1 - B_IMAGE/A_IMAGE                                       
         1 -10.7092    222.2978     12.3451   5.7908084409e+01   2.8923622956e+01    0.3565003    0.2071164 -49.90  0.002043114    1.608    0.378
         2  -8.3910     55.8001     10.1834   8.8625580174e+01   6.5116148404e+01    0.1587723    0.1414077  11.39 0.0006109271    1.264    0.209
         3  -9.0500      6.2647      8.5314   1.0892735555e+02   7.1213859897e+01    0.1752962    0.1570249  29.11 0.0009149591    1.887    0.470
         4 -10.7472    245.3304      4.2287   5.4422105525e+01   2.4860207451e+01    0.5409781    0.3106539  78.44  0.003310235    1.506    0.336
         5 -10.8513    236.4298      1.8166   5.4628801907e+01   2.7001507506e+01    0.3934233    0.1966766  74.29  0.002222798    1.721    0.419
         6  -8.5329     33.5197      5.4770   9.5127274789e+01   6.8738746915e+01    0.1785875    0.0902778 -38.48  0.001029156    2.442    0.591
         7  -8.3861     79.1354      3.9997   7.8764437722e+01   6.1685854819e+01    0.1729581    0.1246937 -46.59 0.0008292276    2.013    0.503
         8  -8.3390     62.2755      1.4278   8.2754352318e+01   6.4876891503e+01    0.1399273   0.09912802  50.31 0.0003221268    1.510    0.338
         9  -7.9662     39.2842      1.6280   9.1046883601e+01   6.8367451934e+01   0.09269465   0.08407823 -29.75 0.0007016702    1.706    0.414
        10  -8.9382    103.7632    246.9064   1.3087806457e+02   9.1498898740e+00    0.3516231    0.1671831 -74.98  0.001524671    2.986    0.665
        11  -9.2610     65.8983    249.7104   1.3839177779e+02   1.4310164678e+01    0.2559921    0.1552251  65.89 0.0004950141    1.429    0.300
        12  -8.6666     27.5851    250.5440   1.4524437426e+02   1.9092290729e+01    0.2141094   0.09458485  41.17 0.0006489992    2.130    0.531
        13  -9.4654     34.7849    248.0481   1.4383765497e+02   1.8718737528e+01    0.2183993    0.1285393  57.60 0.0007070777    1.362    0.266
        14  -8.7783    242.8466    247.0572   1.0381445479e+02  -1.3356566180e+01    0.2170817     0.130627 -31.53  0.001294289    1.653    0.395
        15 -10.0911    224.0974    244.1784   1.0675608772e+02  -1.0248176669e+01    0.4304966    0.2472645 -44.99  0.002328789    2.121    0.529
        16  -9.0691    210.9813    246.4473   1.0960643353e+02  -8.5698509368e+00    0.2046414    0.1752532 -55.19 0.0006849743    1.621    0.383
        17  -8.1558     76.8076    247.6139   1.3615635628e+02   1.3153616687e+01    0.1733692   0.09221957  52.13 0.0003096594    1.567    0.362
        18  -9.0169    120.1439    245.6431   1.2748031714e+02   6.7180951710e+00    0.2815634    0.1813118  75.78  0.001445182    1.945    0.486
        19  -9.3651    160.1528    240.4648   1.1867865603e+02   8.3865122510e-01    0.3197836    0.2232726 -80.18  0.001279448    2.238    0.553
        20  -9.6704     52.5978    249.9305   1.4083207458e+02   1.6083655309e+01    0.2575008    0.1362348  49.48 0.0003787316    1.571    0.364
        21  -9.5133     46.3147    244.8630   1.4155430601e+02   1.7905894142e+01    0.2007325    0.1263187  59.28 0.0004606331    1.285    0.222
        22  -8.9860    246.3037    229.5054   1.0013336286e+02  -1.1408052344e+01    0.2766135    0.1698105 -36.75   0.00102074    1.639    0.390
        23  -9.6146    247.3719    235.0479   1.0092726550e+02  -1.2346442685e+01    0.3107309    0.2473187 -30.90  0.001431011    1.352    0.260
        24  -9.5112    248.6433    242.3250   1.0197075115e+02  -1.3521232359e+01    0.2563827    0.1859871 -39.95  0.001054018    1.657    0.397
        25 -10.0523    246.5405    239.4760   1.0185088934e+02  -1.2843450068e+01    0.2370002    0.1762117  25.39  0.000613825    1.248    0.199
        26  -8.5148    169.1433    243.4765   1.1732514652e+02  -1.2264182281e+00    0.1966973    0.1714334  68.71 0.0005492862    1.345    0.257
        27  -8.1257    135.6206    242.8626   1.2400110715e+02   4.6295182220e+00    0.1676664    0.1231989 -76.13 0.0006201434    1.663    0.399
        28  -9.7437     30.4394    242.2135   1.4418181983e+02   2.0397279579e+01    0.2117239     0.154354  68.98 0.0004360969    1.071    0.066
        29  -7.8672    153.6266    242.3046   1.2027517462e+02   1.6397125697e+00    0.1374476   0.09443726  64.63 0.0007030967    1.762    0.432
        30  -8.0335     88.3314    242.1693   1.3337360039e+02   1.2497171010e+01    0.1693885    0.1075884 -83.08 0.0004851969    1.690    0.408
        31  -9.4515     37.9625    241.6617   1.4280635212e+02   1.9599346461e+01    0.1668787    0.1195025  66.14 0.0005008203    1.103    0.093
        32 -10.0032      3.5436    241.0535   1.4868519447e+02   2.3579225680e+01    0.2152647     0.140725  80.08 0.0004480582    1.095    0.087
        33  -7.6026     62.3175    241.7101   1.3833134666e+02   1.6398695062e+01      0.12965    0.0743488  67.21 0.0002976825    1.597    0.374
        34  -8.5143    201.8597    243.4659   1.1086634198e+02  -6.6743141842e+00    0.2235865    0.1677715 -60.33  0.001148201    1.963    0.491
        35  -8.3686    193.9529    239.6930   1.1178884235e+02  -4.7868996986e+00    0.1811504    0.1471089  32.44 0.0004323047    1.094    0.086
        36  -8.4616    146.4320    239.9402   1.2139154620e+02   3.3081697784e+00    0.1725796    0.1141775 -87.64 0.0007802228    2.441    0.590
        37  -8.7486    126.1078    239.9310   1.2553436129e+02   6.7983026219e+00    0.2062232    0.1574776  63.73 0.0005662896    1.264    0.209
        38  -8.8064    107.7369    239.2856   1.2917690883e+02   9.9874548597e+00    0.2254316    0.1684518  66.75 0.0004049437    1.245    0.197
        39  -8.7619     53.3186    239.6932   1.3983752223e+02   1.8030508345e+01    0.2113338    0.1413894  70.35 0.0005587386    1.237    0.192
        40  -8.1359    209.4512    238.9474   1.0864669492e+02  -7.1977440922e+00    0.1582933    0.1146851 -68.02 0.0008082794    2.519    0.603
        41  -8.5152    135.8528    238.9141   1.2340609659e+02   5.3251462203e+00    0.2133097    0.1434015  65.32 0.0008138617    1.681    0.405
        42  -7.9332    129.6271    239.3086   1.2473286676e+02   6.3179369477e+00    0.1420644   0.09164382  65.84 0.0007032466    1.771    0.435
        43  -8.1642     84.2756    239.0161   1.3382788466e+02   1.3749104900e+01    0.1713977    0.1419789  73.35 0.0004300624    1.044    0.042
        44 -10.0548     19.4084    238.4881   1.4585152149e+02   2.2408760090e+01    0.2328668    0.1710475  80.59 0.0006241531    1.047    0.045
        45  -8.0900    189.4945    237.5053   1.1230984181e+02  -3.6851534373e+00     0.131335    0.1145195  25.59 0.0008106351    1.008    0.008
        46  -9.2848    231.0623    237.3520   1.0429253739e+02  -1.0307042121e+01    0.2233245    0.1959582 -87.78  0.001226038    2.014    0.504
        47 -10.0739    214.6584    233.0397   1.0663206501e+02  -7.1166069039e+00    0.4969113    0.3564282 -81.12    0.0022371    3.552    0.718
        48  -8.9050    203.2057    234.9045   1.0917119461e+02  -5.5494776985e+00     0.282915      0.20413 -64.82  0.001325818    2.234    0.552
        49  -9.6001    175.7679    233.3589   1.1438813705e+02  -6.2727725986e-01    0.4666553    0.2461464 -59.56  0.002011595    2.864    0.651
        50  -8.0936    170.2254    235.9104   1.1592592382e+02  -1.0855307675e-01    0.1574973    0.1120416 -49.08 0.0005516485    1.609    0.379
        51  -8.4068     44.7417    236.5876   1.4116738470e+02   1.9781967587e+01    0.1624078   0.08993179  53.85 0.0003010503    1.525    0.344
        52  -9.4219    108.5518    234.4270   1.2840234174e+02   1.0819784766e+01    0.3234397    0.2135301  70.00  0.001100731    1.621    0.383
        53  -8.4211     78.8877    234.7558   1.3443322998e+02   1.5430724100e+01    0.2458593    0.1378384  78.39  0.001007976    2.080    0.519
        54  -9.2447    182.8166    240.1477   1.1406886896e+02  -2.9933590644e+00    0.3213291    0.2152138  62.90  0.001174593    2.153    0.535
        55  -8.2407    122.8331    234.0565   1.2541190166e+02   8.4935663395e+00    0.2160862    0.1422388  80.17 0.0008279774    1.979    0.495
        56  -8.3542     99.6198    234.3199   1.3021390159e+02   1.2298455329e+01    0.2165125     0.134712  70.08  0.001100712    1.738    0.425
        57  -8.5668    194.6077    232.5525   1.1046517081e+02  -3.7303055270e+00    0.2033953    0.1265495 -41.90 0.0007303265    1.759    0.432
        58  -8.6437     67.9262    231.9511   1.3630648339e+02   1.7614725179e+01    0.3306393    0.1533015  75.65  0.001335795    3.133    0.681
        59  -9.4180    186.3375    230.8237   1.1182767359e+02  -2.0237206736e+00    0.2916002    0.2208124 -79.54   0.00140508    2.147    0.534
        60  -7.8179    132.3668    232.6906   1.2324362613e+02   7.1182258632e+00    0.1439078   0.09514152  66.83 0.0007037396    1.757    0.431
        61  -8.9990     11.4192    232.2133   1.4683185629e+02   2.4537941964e+01    0.1565142   0.08143755  86.19 0.0003421878    1.584    0.369
        62  -8.5239      1.6316    231.5199   1.4846775358e+02   2.5668111014e+01    0.1917982    0.1111544  84.03  0.001102664    1.306    0.234
        63  -9.0736    236.0166    230.8387   1.0223454547e+02  -1.0094116474e+01    0.2052446    0.1629301 -24.68 0.0004855614    1.231    0.188
        64  -7.9554     92.2860    231.6694   1.3138937443e+02   1.4010470963e+01    0.1366819   0.08759724  71.67  0.000701169    1.616    0.381
        65  -9.4014     32.8146    230.3640   1.4287041607e+02   2.2536622537e+01    0.2010231    0.1641514  82.20  0.000388405    1.142    0.124
        66  -9.9072    149.0623    226.2203   1.1877460254e+02   5.4228329858e+00    0.5848576      0.42492  85.70  0.002958462    1.906    0.475
        67  -9.1059    140.0605    230.1860   1.2127233667e+02   6.2570011493e+00    0.2597119    0.1679353  57.21 0.0009263624    1.585    0.369
        68  -8.1429    229.7601    228.9913   1.0306180428e+02  -8.8685854553e+00    0.1552192   0.09984126 -33.51 0.0004024279    1.549    0.355
        69  -8.6573     95.5553    235.1129   1.3113376042e+02   1.2787250287e+01    0.2467417    0.1498259  57.21 0.0006408159    1.489    0.328
        70  -8.9755     62.9271    228.9667   1.3699090924e+02   1.8947503418e+01     0.192794    0.1494321  74.50 0.0003999089    1.052    0.049
        71  -9.9384     48.4783    227.3877   1.3966156872e+02   2.1223151377e+01    0.3934697    0.1992582 -66.88  0.001504702    1.873    0.466
        72  -8.9137    162.3105    228.2349   1.1632265945e+02   2.6702148281e+00    0.3174489    0.1730865  52.25  0.001204619    1.947    0.486
        73  -9.0646    128.1055    227.4732   1.2338551980e+02   8.8910684799e+00    0.2941591     0.198833  71.78  0.001183186    1.775    0.436
        74  -8.8466    118.3635    228.3045   1.2555345577e+02   1.0407236205e+01    0.3294471    0.1796499  32.08  0.001340605    2.087    0.521
        75  -8.8539    206.0214    226.0405   1.0708023675e+02  -4.5765376126e+00    0.1894671    0.1655744  85.94 0.0007047287    1.689    0.408
        76  -8.4071     88.0327    225.7224   1.3155325324e+02   1.5923421917e+01    0.1844535    0.1504098  59.25 0.0004227357    1.085    0.079
        77  -7.9085     11.5054    226.4643   1.4644614291e+02   2.5708943561e+01    0.1161489    0.0840755  79.98 0.0008095808    1.003    0.003
        78  -8.9990      6.3752    226.1706   1.4733095622e+02   2.6289807981e+01    0.1791105    0.1316547  61.04  0.000272037    1.250    0.200
        79  -8.9868    180.5964    224.3040   1.1188680927e+02   1.2602933289e-01    0.2674376    0.2047706 -71.81 0.0009295905    1.846    0.458
        80  -8.7198     94.1573    224.3302   1.3010790007e+02   1.5250663634e+01     0.302664    0.1639083  74.31  0.001286615    2.549    0.608
        81  -8.4731     75.0441    225.3418   1.3417755805e+02   1.7978766905e+01    0.1829263    0.1408247  60.39  0.000414004    1.123    0.110
        82 -10.4858     43.5277    221.0037   1.4004401381e+02   2.3219365085e+01    0.3530363    0.2547158  59.94  0.001488427    1.214    0.177
        83 -11.4735     38.3879    217.8899   1.4077005683e+02   2.4525694898e+01    0.6546291     0.430562 -69.73  0.004009777    1.437    0.304
        84  -7.8602     27.2818    225.3112   1.4350186860e+02   2.4238940612e+01    0.1046043   0.08354185 -61.35 0.0003105298    1.568    0.362
        85  -8.6310    216.5219    223.3844   1.0456333530e+02  -5.8848756676e+00    0.2370145    0.1831325 -55.72 0.0008471066    1.741    0.426
        86  -8.6077    173.0043    223.2545   1.1327503872e+02   1.6737731523e+00    0.2301065    0.1904541 -88.72 0.0007000957    1.611    0.379
        87  -7.8635    113.6800    224.3137   1.2598993950e+02   1.2026037306e+01    0.1430887   0.09549456  69.80 0.0002101813    1.652    0.395
        88  -8.8069    104.7261    223.8691   1.2782544530e+02   1.3624715972e+01    0.2613156    0.1729077  89.19  0.001315381    1.779    0.438
        89  -9.0293    239.0625    221.6630   1.0002189415e+02  -9.1770200519e+00    0.2012767    0.1674434 -35.14 0.0006686061    1.327    0.246
        90  -9.2549    225.3284    221.7612   1.0258940056e+02  -7.0513101873e+00    0.2094618    0.1920866 -58.33 0.0007423264    1.483    0.326
        91  -9.2214    192.4546    221.5501   1.0898973918e+02  -1.4811803445e+00    0.2849484    0.2316698  70.89   0.00101753    1.688    0.408
        92  -9.2332     54.9563    221.9457   1.3787463237e+02   2.1538021602e+01    0.2614658    0.1572359  43.12 0.0009670013    1.619    0.382
        93  -8.8348     19.3689    221.8479   1.4470478818e+02   2.5846356640e+01    0.1905262    0.1241531  62.60 0.0004215129    1.291    0.225
        94 -10.3147    158.7363    217.8430   1.1536161008e+02   5.2943719525e+00    0.4619992     0.274695 -59.31  0.001092817    2.049    0.512
        95  -9.3706    132.8616    216.2226   1.2067264955e+02   1.0343864163e+01    0.5374703     0.308687  77.77   0.00195538    3.455    0.711
        96  -8.1386     63.3488    221.2899   1.3611834406e+02   2.0533604223e+01     0.113183    0.1017303 -32.29 0.0006395357    1.665    0.399
        97  -8.4801    202.5557    220.0266   1.0669128847e+02  -2.9752649811e+00    0.1920199    0.1299546 -41.32 0.0007227056    1.567    0.362
        98  -9.1433    120.2697    219.2445   1.2385817229e+02   1.1948102981e+01     0.388173     0.223046  70.81  0.001617029    2.514    0.602
        99  -7.9828     82.3968    220.2555   1.3207042024e+02   1.7968180360e+01    0.1854835     0.114728 -83.83 0.0008520458    1.720    0.419
       100  -8.5049      1.6450    219.8829   1.4777208575e+02   2.8051887739e+01    0.1575242     0.104835  86.21 0.0004292515    1.105    0.095
       101  -8.2877    210.1244    219.1637   1.0504108238e+02  -4.1223948723e+00    0.1672186    0.1614126 -76.88 0.0004939979    1.345    0.257
       102  -8.1503    134.5133    221.4663   1.2112853499e+02   8.9709191422e+00    0.2091865    0.1177092  49.74 0.0006437203    1.662    0.398
       103  -8.2270     99.1853    219.4711   1.2841868106e+02   1.5474578634e+01    0.1906633    0.1110827  53.66  0.000439116    1.593    0.372
       104  -8.4288    248.0365    218.0037   9.7732762918e+01  -9.9662502192e+00    0.2954296    0.1600748  56.95  0.001153456    4.408    0.773
       105  -8.7265    142.9756    216.9599   1.1859839752e+02   8.3577361106e+00    0.2915967    0.1908717 -85.69  0.001125524    2.389    0.581
       106  -9.0268    109.6109    218.0006   1.2597925478e+02   1.4049027815e+01    0.4003473    0.1918281  37.92  0.001300299    2.059    0.514
       107  -9.1986     51.2397    217.5130   1.3818182709e+02   2.2993706478e+01    0.2518474    0.1583564  76.34 0.0007813444    1.470    0.320
       108  -8.8780    169.2743    216.4225   1.1288345929e+02   3.6330310632e+00    0.2867982    0.2112249  73.27 0.0009281666    1.884    0.469
       109  -8.6950    232.5342    215.2884   1.0004701519e+02  -7.1697427978e+00    0.2480078    0.2075839 -73.92  0.001157984    1.958    0.489
       110  -8.4095     87.2085    215.8766   1.3051144923e+02   1.8178427723e+01    0.2114789    0.1576754  70.68 0.0006365117    1.243    0.195
       111  -8.6339     12.9768    216.0749   1.4546820967e+02   2.7741105011e+01    0.1742136    0.1282268  79.97  0.000379887    1.026    0.026
       112  -8.7070    185.5137    214.4883   1.0914752196e+02   1.0277515148e+00    0.2235404    0.1346838 -56.76 0.0006566785    2.136    0.532
       113  -8.2819    154.3825    215.1388   1.1583823861e+02   6.6294077323e+00    0.1904503    0.1340653 -67.15   0.00068352    1.753    0.430
       114  -8.5244     93.1950    214.1352   1.2899815961e+02   1.7609511943e+01    0.2808605     0.147775  62.05  0.001224278    2.149    0.535
       115  -8.1619    224.6098    212.7321   1.0105713042e+02  -5.4726911638e+00    0.1714664    0.1208976 -45.24  0.000622573    1.577    0.366
       116  -9.3410    213.8588    212.1652   1.0301959315e+02  -3.5715889556e+00    0.3196381    0.2616638  75.19  0.001565322    1.877    0.467
       117  -8.9089    161.7120    212.5528   1.1382071559e+02   5.7839611766e+00    0.2211211    0.1759746 -89.72 0.0009981429    1.636    0.389
       118  -9.6428     71.6716    212.0567   1.3335708036e+02   2.1379453744e+01    0.5753211    0.2676872  47.02  0.002684993    1.967    0.492
       119  -8.8796    147.8088    210.9963   1.1656354365e+02   8.6859312150e+00     0.315355    0.2721383 -61.40   0.00176936    1.249    0.199
       120  -8.3447    127.0079    212.4886   1.2136722148e+02   1.2182003961e+01      0.20972    0.1304489  41.95 0.0003626001    1.499    0.333
       121  -8.8502    126.2363    208.8473   1.2096305598e+02   1.3100673536e+01    0.2940264    0.2203785  80.42  0.000718076    1.534    0.348
       122  -7.9487    106.3402    212.6796   1.2593514488e+02   1.5754841219e+01    0.1492728   0.09761382  70.64 0.0007050075    1.716    0.417
       123 -10.5745     34.3301    214.6319   1.4127788502e+02   2.5718672880e+01    0.4387773    0.2934305  85.94  0.001866644    1.242    0.195
       124  -8.5324      3.9791    212.2776   1.4686340435e+02   2.9431580856e+01    0.1518444    0.1166767  76.89 0.0003781136    1.105    0.095
       125  -8.8383    204.3002    210.9156   1.0467248258e+02  -1.6934471609e+00    0.2282244    0.2024145 -72.22  0.000750322    1.490    0.329
       126  -8.0943    192.4525    210.9372   1.0707249108e+02   4.2165963485e-01     0.178138    0.1244429 -71.82  0.000805909    2.369    0.578
       127  -9.2966    175.3877    209.9967   1.1045303794e+02   3.7360207452e+00    0.3558073    0.2550825  88.70  0.001324741    2.346    0.574
       128  -8.7901    116.2161    210.4125   1.2342680963e+02   1.4545653191e+01    0.3043034    0.1929737  68.99 0.0007764575    1.887    0.470
       129  -9.0568     99.6026    211.1048   1.2718962644e+02   1.7230934959e+01    0.2721348    0.1648581  56.60 0.0007659391    1.602    0.376
       130  -9.1523    236.6463    208.6776   9.8045480072e+01  -6.7619689908e+00     0.286283    0.2444373 -84.23  0.001359374    1.940    0.485
       131  -8.2584     85.7559    210.1415   1.3008691564e+02   1.9678028153e+01    0.2452087    0.1251117  71.72 0.0009505383    2.862    0.651
       132  -9.2270    137.6705    208.5995   1.1838937507e+02   1.1064679775e+01    0.4120917     0.240294  30.16  0.001640808    1.995    0.499
       133 -10.0667     56.2641    205.4607   1.3587839305e+02   2.5020019006e+01    0.5052522    0.2650347  86.18  0.002321894    2.216    0.549
       134 -10.7852     53.1554    197.8598   1.3569116384e+02   2.7170687348e+01    0.4182529     0.300106 -65.18   0.00181984    1.347    0.257
       135 -10.5222     61.3988    197.5111   1.3384083484e+02   2.6150612590e+01    0.4850946    0.2720848  75.51  0.001691354    2.063    0.515
       136  -9.8959     56.8117    193.8312   1.3441288867e+02   2.7626117332e+01    0.2634558    0.1772082  53.33 0.0009818092    1.427    0.299
       137  -8.9598     26.0473    208.9905   1.4241988901e+02   2.7896454573e+01    0.1838343    0.1406266  83.72 0.0003703292    1.001    0.001
       138  -9.2516    246.2213    207.3949   9.6070556830e+01  -8.0561573965e+00    0.2264142    0.1815377 -35.42 0.0005836604    1.275    0.216
       139  -9.1910     99.5083    206.3011   1.2652954540e+02   1.8317224316e+01    0.4230455    0.2445635  77.09  0.001535896    2.432    0.589
       140  -8.4705    215.0119    207.0059   1.0182180001e+02  -2.8808135010e+00    0.2109942    0.1523029   0.68 0.0004618312    1.598    0.374
       141  -9.2188     80.4865    206.7435   1.3079652677e+02   2.1258634214e+01     0.247696    0.2047848  69.77 0.0005424047    1.066    0.062
       142  -8.9024     44.5544    199.4716   1.3772152956e+02   2.7887031810e+01      0.18889    0.1180854  42.10 0.0001094206    1.647    0.393
       143  -9.2944     51.4695    206.4568   1.3700037959e+02   2.5424722501e+01    0.2044962    0.1302605  72.02 0.0006128993    1.480    0.324
       144  -9.7077     60.7734    201.4462   1.3444881834e+02   2.5327753422e+01     0.358795    0.1867151  47.84  0.001287445    1.817    0.450
       145  -8.9991    183.8314    204.0785   1.0758351070e+02   3.2982374978e+00    0.2439955    0.1896879  53.78 0.0008231268    1.389    0.280
       146  -8.6920    131.2529    204.3140   1.1910654464e+02   1.3166609549e+01    0.3193316    0.2028079  65.03  0.001105553    1.899    0.473
       147  -8.2873    109.3308    205.1811   1.2416731440e+02   1.6899318677e+01    0.2021037    0.1264423 -73.22 0.0006789565    1.801    0.445
       148  -8.6055     90.3720    205.3991   1.2843542652e+02   2.0014891191e+01    0.3040072    0.1290986  37.72   0.00123827    2.383    0.580
       149  -8.3765     40.9120    205.3185   1.3908370339e+02   2.7002937119e+01    0.1824387    0.1422011 -33.02  0.001070975    2.044    0.511
       150  -9.3204     13.0821    204.1904   1.4456497158e+02   3.0301565383e+01    0.2140292    0.1505041 -86.96 0.0005006071    1.107    0.097
       151  -9.4089    250.1164    202.2798   9.4406713158e+01  -7.8437246724e+00     0.399093    0.1705998 -38.49  0.001292793    2.159    0.537
       152  -9.2722    194.9417    203.7541   1.0521707378e+02   1.2948137361e+00    0.2758955    0.2416726 -89.54 0.0009630765    1.505    0.335
       153  -9.4649    192.5878    197.4859   1.0449813083e+02   2.9190525546e+00    0.4584431    0.3285897 -77.98  0.001493824    2.332    0.571
       154  -9.7830    163.7061    203.0109   1.1169033065e+02   7.3232554861e+00    0.4586684     0.270861  58.01   0.00122747    2.074    0.518
       155  -8.6962    122.2391    204.2549   1.2112137967e+02   1.4822639264e+01    0.2002441    0.1906699  50.71 0.0006510977    1.113    0.102
       156  -9.1479    243.0611    200.8776   9.5388802551e+01  -6.5157646800e+00    0.2917016     0.177334 -41.38  0.001010596    1.625    0.385
       157  -8.2864    211.0283    202.0016   1.0164391844e+02  -1.2990846262e+00    0.2027161    0.1730126 -85.65 0.0006113166    1.693    0.409
       158  -8.8278    140.2166    200.9026   1.1651397776e+02   1.2234285104e+01    0.3555837     0.232284  85.99  0.001118195    2.440    0.590
       159  -8.3935     80.1933    201.6403   1.3019145867e+02   2.2468152702e+01    0.3324221     0.156345  70.89  0.001123982    3.787    0.736
       160  -9.5070    149.6666    199.0449   1.1406729919e+02   1.0836106439e+01    0.4436121     0.291383  86.20  0.001482134    2.582    0.613
       161  -9.4082    113.1222    198.7399   1.2230438502e+02   1.7684126682e+01    0.4985931    0.2766347  71.50  0.001867843    2.881    0.653
       162  -9.0833     88.7651    198.6270   1.2784648885e+02   2.1821746311e+01    0.3827389    0.2279665  86.07  0.001475495    2.167    0.538
       163  -8.7668    236.9472    198.7232   9.6078395926e+01  -5.1719581871e+00    0.2532983    0.1816406 -44.20 0.0009487469    1.475    0.322
       164  -9.0410    176.9088    198.9464   1.0808200377e+02   5.6157292415e+00    0.2496792    0.2006783 -57.27 0.0006962021    1.389    0.280
       165  -8.8068    105.6721    199.1142   1.2406643427e+02   1.8899812740e+01    0.2349314     0.176094  55.65 0.0004909763    1.257    0.205
       166  -7.7879     21.6870    199.7129   1.4249382071e+02   3.0422908195e+01    0.1100372    0.0849727 -54.74 0.0002633264    1.582    0.368
       167  -7.9898    230.7062    198.6621   9.7218323191e+01  -4.1244763756e+00    0.1386992   0.09710754  -4.92 0.0007027735    1.648    0.393
       168  -8.8378    123.9547    199.2653   1.1991638033e+02   1.5616672072e+01     0.268512    0.1935242  86.91 0.0009155489    1.693    0.409
       169  -8.3739    215.9630    195.9434   9.9495009287e+01  -1.0908898198e+00    0.2064355    0.1730305 -79.37 0.0007445365    1.728    0.421
       170  -8.3031    133.0205    196.2207   1.1732810432e+02   1.4613022468e+01    0.2132679    0.1571988 -83.02 0.0006419215    1.644    0.392
       171  -8.6202    224.5401    194.3306   9.7527669504e+01  -2.3169810042e+00    0.2304538    0.1857508 -54.48 0.0007199217    1.491    0.329
       172  -8.7006    185.1015    194.7122   1.0552461471e+02   4.8835036544e+00    0.2432555     0.195252 -56.71 0.0006494878    1.398    0.285
       173  -8.8939    160.9645    194.4723   1.1070826491e+02   9.6192464818e+00    0.2683936    0.2103132 -76.98  0.000829104    1.584    0.369
       174  -9.3853     43.1877    193.3727   1.3735999956e+02   2.9458289557e+01    0.4487794    0.2362873  59.53  0.002242089    1.923    0.480
       175  -9.2362    245.3845    193.6152   9.3562669839e+01  -5.6917819748e+00    0.2475048    0.2111924 -71.23 0.0007734868    1.732    0.423
       176  -7.9916    231.2648    194.6336   9.6324824642e+01  -3.5274799859e+00    0.1272547     0.105984 -65.34 0.0005750883    1.651    0.394
       177  -7.9499    155.4814    193.9759   1.1183600339e+02   1.0793022875e+01    0.1880345      0.13029 -82.75 0.0004053923    2.152    0.535
       178  -8.5179     76.8348    194.0592   1.2992363842e+02   2.4737249159e+01    0.2160679    0.1635735  79.40 0.0005713062    1.263    0.208
       179  -8.7160      6.3786    194.2584   1.4511033560e+02   3.3126119763e+01    0.1633112    0.1456951  82.85  0.001221622    1.271    0.213
       180  -8.5464    118.0162    192.5330   1.2015349407e+02   1.8219676592e+01    0.2145903    0.1924578 -80.42 0.0004381783    1.097    0.088
       181 -10.4733     92.1969    189.1437   1.2564689266e+02   2.3480600269e+01    0.9279141    0.3800057  55.11  0.003281632    3.046    0.672
       182  -8.0797    198.9560    191.9802   1.0210553832e+02   2.7727963719e+00    0.2125442    0.1771768 -81.80 0.0006546451    1.637    0.389
       183  -8.4422    172.3931    192.1131   1.0774489905e+02   7.8753466679e+00    0.2082892    0.1394988 -59.93 0.0009429508    1.774    0.436
       184  -8.1679     17.5570    191.7336   1.4263910991e+02   3.2636914678e+01    0.2028616    0.1121233  59.81 0.0007762843    1.730    0.422
       185  -9.0302    139.4130    190.6636   1.1486876432e+02   1.4630959267e+01    0.3494095     0.239478  73.12  0.001155805    1.919    0.479
       186  -8.8691    129.2586    188.7350   1.1687108342e+02   1.7002144912e+01    0.3436455    0.2331354  88.36  0.001012233    2.052    0.513
       187  -8.2752    237.0384    188.4835   9.4045327931e+01  -3.4444776728e+00    0.2131879    0.1607594 -34.20 0.0005789077    1.229    0.186
       188  -8.8721    216.6526    188.1429   9.7807432619e+01   2.0384340312e-01    0.2599147    0.2182694  79.76 0.0007877852    1.682    0.405
       189  -8.2849    148.4169    189.2617   1.1254615093e+02   1.3192312697e+01    0.2025752    0.1430492 -65.69  0.000563382    1.626    0.385
       190  -9.7601    120.9748    186.9825   1.1850145026e+02   1.8953044768e+01    0.5835706    0.3108104 -74.57  0.002094363    2.956    0.662
       191  -8.1770     71.2033    189.2298   1.3055456647e+02   2.6707745675e+01    0.1908652    0.1411705  72.96 0.0005010728    1.308    0.235
       192  -9.4715     50.0923    188.6615   1.3529576246e+02   2.9706834960e+01    0.2257525    0.1821374  82.03 0.0004290371    1.070    0.065
       193  -9.6328     54.7098    187.2242   1.3407669516e+02   2.9454481688e+01    0.3818628    0.2155146  70.92  0.001806148    2.008    0.502
       194  -8.4595     34.1284    188.2748   1.3878681082e+02   3.1692350340e+01    0.2522503    0.1313875  80.80 0.0008123262    2.105    0.525
       195  -8.8837    191.2272    187.5968   1.0282754535e+02   5.1077875003e+00    0.2911598    0.2249009 -72.13  0.001041794    1.744    0.427
       196  -9.2873    156.0054    187.2976   1.1044824144e+02   1.2126154240e+01    0.3575559    0.2331078 -68.52  0.001053403    2.011    0.503
       197  -8.1714    230.4817    187.5238   9.5056868059e+01  -2.1507554101e+00    0.1357795    0.1239664 -15.67 0.0003239324    1.037    0.036
       198  -8.9232    182.7760    185.4249   1.0417822751e+02   7.2012682857e+00    0.3171042    0.2117664 -37.72  0.001126306    1.557    0.358
       199  -8.8803    164.8762    187.0330   1.0840728098e+02   1.0421978358e+01    0.2326862    0.1988245  82.75 0.0007162816    1.369    0.269
       200  -9.1928    109.2833    185.9800   1.2109468690e+02   2.1307292756e+01    0.3548698    0.2380493 -88.15  0.001002407    1.867    0.464
       201  -8.2017     82.1741    187.2072   1.2770905290e+02   2.5538213142e+01    0.1965465    0.1488762  74.65 0.0005032867    1.305    0.234
       202  -8.9462     28.8628    187.1405   1.3981346987e+02   3.2529410464e+01    0.1997241    0.1604135  64.24 0.0005971666    1.211    0.174
       203  -8.5467    249.4278    185.7907   9.1312027315e+01  -5.0379865647e+00    0.2495713    0.1706382 -53.86  0.001096099    1.828    0.453
       204  -8.8049    210.0896    184.4540   9.8347483827e+01   2.1069568168e+00    0.2123038    0.1841543 -35.72 0.0005480715    1.131    0.116
       205  -8.3808    202.6990    184.5935   9.9856853597e+01   3.4822490856e+00    0.2361679     0.174706 -63.30 0.0007647618    1.741    0.426
       206  -8.1233    143.8551    184.8492   1.1275733028e+02   1.5063469913e+01    0.2053807    0.1722125  73.11 0.0003684253    1.287    0.223
       207  -9.1965     66.7277    184.6851   1.3097109253e+02   2.8428832209e+01    0.3550762    0.1959306  65.30  0.001050632    2.119    0.528
       208  -8.5642    224.1342    183.8286   9.5500185251e+01  -3.6353950271e-01    0.1977387    0.1869298 -55.56 0.0004289411    1.228    0.185
       209  -9.1243    174.2002    183.6333   1.0567309679e+02   9.2782605154e+00    0.2991177    0.2291792 -79.68 0.0009500145    1.762    0.432
       210  -8.8963    241.1505    181.8529   9.1977570606e+01  -2.9923065300e+00    0.3540058    0.2355805 -66.01  0.001604544    2.628    0.620
       211  -8.3508    134.9966    182.7415   1.1442379407e+02   1.7268530777e+01    0.2099478    0.1857372  49.92 0.0003663276    1.097    0.089
       212  -9.2118     44.8141    182.7768   1.3578851278e+02   3.1744015338e+01     0.324607    0.1777812  63.60  0.001365262    1.973    0.493
       213  -8.2825     39.0794    182.7366   1.3708313528e+02   3.2426732222e+01    0.1748237    0.1472228  76.36 0.0004890888    1.107    0.096
       214  -9.1771    147.6351    180.7428   1.1108784683e+02   1.5233775343e+01    0.3643379    0.2642807  81.72   0.00120321    1.865    0.464
       215  -7.7490     83.3086    182.6119   1.2674712718e+02   2.6457525950e+01    0.1549188    0.1003527  77.53 0.0007015591    1.814    0.449
       216  -9.1007     60.4426    182.1256   1.3209412303e+02   2.9907241379e+01    0.2474202    0.1779619  52.99 0.0005909117    1.376    0.273
       217  -7.9107    235.3079    181.6636   9.2989174016e+01  -1.9546242854e+00    0.1307994    0.1086121 -71.53 0.0007042266    1.677    0.404
       218  -8.3763    114.9266    180.7310   1.1882986226e+02   2.1523584923e+01     0.207828      0.18201  60.72  0.000390925    1.098    0.089
       219  -9.2403     25.5428    178.9835   1.3970335655e+02   3.4769227843e+01    0.5513291    0.2137188  85.29  0.001815726    4.642    0.785
       220  -8.6086    137.6695    179.6091   1.1319709712e+02   1.7462050166e+01    0.3032677     0.210282  82.24  0.000824624    2.024    0.506
       221  -9.4411    191.3979    178.3752   1.0090790671e+02   6.9212339393e+00    0.2871005    0.2515607  87.14 0.0005517007    1.395    0.283
       222  -8.5104    169.3900    179.1153   1.0581766422e+02   1.1203705229e+01      0.21257    0.1420105 -59.97 0.0009336825    1.732    0.423
       223  -9.0587     36.0868    177.1146   1.3711736377e+02   3.4090493383e+01    0.5511585    0.2243127  84.42  0.001680201    5.225    0.809
       224  -9.5253    248.4191    176.7140   8.9670421987e+01  -3.3278784863e+00    0.4376274    0.2631079 -50.56  0.001802748    1.867    0.465
       225  -8.6520    205.1361    177.7136   9.7948361140e+01   4.3483278613e+00    0.2560025    0.1897831 -50.63 0.0006076464    1.424    0.298
       226  -8.5768    129.0237    177.3515   1.1481858172e+02   1.9664665933e+01    0.2730042    0.2055201 -89.14 0.0006565517    1.604    0.376
       227  -8.4325    231.1861    177.1833   9.2828053839e+01  -4.2489223199e-01    0.1864179    0.1570433 -55.51 0.0005076972    1.361    0.265
       228  -8.4384    217.2470    177.2342   9.5462817873e+01   2.1256267676e+00     0.191108     0.166837 -67.54 0.0007113558    1.392    0.282
       229  -9.5146    183.1474    176.1876   1.0220442656e+02   9.0285245171e+00    0.3027237    0.2372409 -58.19 0.0006660923    1.400    0.286
       230  -8.9559     88.9743    176.8454   1.2446168513e+02   2.6941654484e+01    0.3058713    0.2095791  86.97 0.0008224378    1.681    0.405
       231  -9.9416     57.1806    173.1062   1.3163479537e+02   3.2508653081e+01    0.8539455    0.3879995  84.88  0.002517263    5.209    0.808
       232  -9.3282    158.8903    175.0907   1.0736095770e+02   1.4217382598e+01    0.4347056    0.2840194  75.68  0.001378051    2.474    0.596
       233  -9.2869    104.3588    174.8573   1.2034930760e+02   2.4817858555e+01    0.5576656    0.2954446  68.21  0.001916032    3.223    0.690
       234 -10.8125     76.0634    169.5295   1.2645770825e+02   3.0732149405e+01     1.449757    0.4954797 -66.30  0.004597871    3.260    0.693
       235  -8.5177     52.0742    174.9531   1.3311115531e+02   3.2717973017e+01    0.2027586    0.1754351 -87.69 0.0005350792    1.035    0.034
       236  -8.0750    224.4442    174.4750   9.3520198923e+01   1.2994692699e+00    0.1401938     0.129285 -23.36 0.0002067445    1.021    0.021
       237  -9.7376    175.8900    172.1502   1.0293479404e+02   1.1361719097e+01    0.4014945    0.2158813 -47.13   0.00115403    1.876    0.467
       238  -8.4518    143.0001    172.9928   1.1063186787e+02   1.7914957695e+01     0.243718    0.1855114  81.81 0.0006215791    1.639    0.390
       239  -8.6560    134.1414    172.3254   1.1261156737e+02   1.9834302859e+01     0.302076    0.2071612 -29.73  0.001298525    1.938    0.484
       240  -9.5217    121.3419    170.5327   1.1536958626e+02   2.2737517120e+01    0.4058539     0.280968 -79.25  0.001039008    1.778    0.437
       241  -9.1906     45.0741    171.1953   1.3428636988e+02   3.4474270929e+01    0.3277165    0.1867995 -88.72  0.001158856    1.874    0.466
       242  -8.9902    230.7715    170.3827   9.1497535269e+01   8.9080741420e-01    0.2341287    0.1818496 -45.99 0.0007589858    1.280    0.219
       243  -8.3501    112.1253    171.3648   1.1779771497e+02   2.4260050110e+01    0.2478911    0.1970864  72.45  0.001232057    1.337    0.252
       244  -9.0849    111.6378    167.4736   1.1718258456e+02   2.5282496376e+01    0.3863756    0.2387304  88.17  0.001132964    2.615    0.618
       245  -8.9498     39.8438    170.8968   1.3549317099e+02   3.5149543089e+01    0.2186778    0.1712386  71.35 0.0004062425    1.227    0.185
       246  -9.1080     20.3354    170.6144   1.3999476458e+02   3.7233573647e+01    0.1984132    0.1638552  70.83 0.0005096669    1.194    0.162
       247  -8.6874    237.1063    169.8868   9.0253009020e+01  -1.6547099022e-01     0.206475    0.1799669 -57.75 0.0006210731    1.312    0.238
       248  -8.2743    205.5399    170.0828   9.6262796390e+01   5.7673914365e+00    0.2221609    0.1394372 -44.88  0.000934136    1.563    0.360
       249  -8.5398    198.4075    170.1941   9.7732115691e+01   7.1696566328e+00    0.2113635    0.1372073 -53.74 0.0006287285    1.694    0.410
       250  -9.1376    167.0301    168.7836   1.0419472314e+02   1.3924157284e+01    0.3411909    0.2640226 -89.83 0.0007162619    1.710    0.415
       251  -8.3651    149.7893    169.7750   1.0837318786e+02   1.7269278446e+01    0.2137199    0.1790501  80.81 0.0006093371    1.352    0.260
       252  -8.6397    250.5211    172.8902   8.8538810237e+01  -3.0200863462e+00    0.1962718    0.1712361 -42.63 0.0005047672    1.183    0.155
       253  -8.3099     88.5969    168.8385   1.2320702053e+02   2.8944544446e+01    0.2101577    0.1311985 -75.55 0.0009326407    1.757    0.431
       254  -8.2335    218.9112    168.4834   9.3310715628e+01   3.4698024157e+00    0.1984687    0.1420715  45.10 0.0004424174    1.483    0.326
       255  -8.9805    192.0106    166.7392   9.8317877545e+01   9.1745968002e+00    0.2668934    0.2093451 -47.27 0.0006354899    1.271    0.213
       256  -8.2850    184.9465    166.9003   9.9849094177e+01   1.0599352818e+01    0.2334772    0.1861348 -82.56 0.0006725633    1.635    0.388
       257  -9.9627    136.8044    164.7464   1.1042940475e+02   2.1067042844e+01    0.6265519    0.3623184  67.00  0.002051262    2.696    0.629
       258 -10.8656     94.6514    162.3385   1.2051067238e+02   2.9526884811e+01    0.9135081      0.57281 -80.97  0.002813866    2.011    0.503
       259  -8.9544     20.2384    166.1175   1.3953319669e+02   3.8296171600e+01    0.2474007    0.1259935  60.19  0.001235318    2.184    0.542
       260  -8.2971    233.8537    165.1087   8.9838004946e+01   1.2949233253e+00    0.2097598     0.178044 -53.19 0.0005388102    1.261    0.207
       261  -8.7563    159.5770    164.5471   1.0499048370e+02   1.6417232366e+01    0.2952011    0.2166563  87.87 0.0008179689    1.913    0.477
       262  -9.4479     63.6221    164.9532   1.2884863877e+02   3.3629688490e+01    0.2471512    0.2072055  66.38 0.0004086756    1.188    0.159
       263  -8.7084     60.4046    160.1796   1.2892007618e+02   3.5228217097e+01    0.3208536    0.1857565  76.77  0.001113342    2.353    0.575
       264  -9.3206     33.6010    163.5533   1.3606712282e+02   3.7584785868e+01       0.5425    0.2114465  56.09  0.002105858    3.435    0.709
       265  -8.5961    213.0718    163.6340   9.3399059112e+01   5.5433045845e+00    0.2567073    0.1874348 -50.99 0.0006755351    1.412    0.292
       266  -9.4955    246.0105    163.0390   8.7287371388e+01  -5.1709916444e-01    0.2090952    0.1819263 -33.94   0.00047301    1.039    0.038
       267  -8.5165    204.8243    163.0602   9.4899154495e+01   7.3068769817e+00    0.2190499     0.195431 -65.75  0.000449309    1.240    0.194
       268  -8.0905    127.9630    163.4592   1.1232865365e+02   2.3131255053e+01    0.2231067    0.1495313  44.57 0.0004394527    1.488    0.328
       269  -8.9739      3.4271    162.7018   1.4302784878e+02   4.0512463419e+01    0.2606474    0.1470388  69.03  0.001180819    1.827    0.453
       270  -8.7350    151.9040    161.3900   1.0610144639e+02   1.8735367819e+01    0.2956749    0.2183085 -71.26 0.0009934413    1.617    0.381
       271 -10.1596    250.2095    158.4752   8.5640566809e+01  -4.4305772422e-01    0.4808096    0.1705481 -40.31  0.001537627    2.483    0.597
       272  -8.9678    177.4631    160.7723   1.0013861459e+02   1.3470211873e+01    0.2884666     0.238148 -85.97 0.0008843816    1.482    0.325
       273 -10.0682    105.6511    158.0352   1.1686275140e+02   2.8653141631e+01    0.5045129     0.336295  87.89   0.00135892    2.087    0.521
       274  -9.4866    100.4241    156.7155   1.1795245504e+02   2.9904192957e+01    0.3021401    0.2436412  83.48 0.0006124452    1.345    0.257
       275  -9.1635     84.5101    159.5188   1.2260510306e+02   3.1879373157e+01    0.2583893    0.2230618 -70.71 0.0005654941    1.069    0.064
       276  -9.8027     81.3721    154.4271   1.2249835331e+02   3.3621698372e+01    0.5162921    0.3105178  80.86  0.001884904    2.554    0.608
       277  -8.3648    227.4704    159.0753   8.9713465925e+01   3.6156902826e+00    0.2188908    0.1307329 -43.32 0.0008505054    1.563    0.360
       278  -8.4067    145.7700    158.8019   1.0700219005e+02   2.0607544636e+01    0.2134921    0.1807681  79.32 0.0004566862    1.311    0.237
       279  -8.3431    128.0446    159.0393   1.1139212410e+02   2.4160991820e+01    0.2507791    0.1861817  81.37 0.0006936611    1.696    0.410
       280  -8.4746    196.3526    157.9768   9.5504943850e+01   1.0079080477e+01    0.2568659     0.211358  81.65  0.000660885    1.523    0.343
       281  -8.1476    188.1490    158.0958   9.7242910608e+01   1.1777191674e+01    0.2133138    0.1789101 -68.99 0.0005385467    1.349    0.258
       282  -9.0068    167.4496    157.3651   1.0162009058e+02   1.6344750478e+01    0.3196707    0.2484141 -85.88 0.0008169273    1.663    0.399
       283  -9.5341     42.5698    157.5941   1.3305955866e+02   3.8042679555e+01    0.2439965    0.2094841 -64.21 0.0005351026    1.135    0.119
       284  -8.2654    217.9935    156.9087   9.1003862794e+01   5.8778769539e+00    0.2223717    0.1738269 -71.42  0.000631277    1.637    0.389
       285  -8.9971    157.2122    156.4022   1.0376357650e+02   1.8744617384e+01    0.3082174    0.2587752  46.37  0.001339112    1.193    0.162
       286  -9.3382    119.5163    155.4278   1.1278153076e+02   2.6691394017e+01    0.4326684    0.2886471 -83.09  0.001608866    2.096    0.523
       287  -9.3726     49.5260    155.1981   1.3093897293e+02   3.7815261073e+01    0.3729609    0.2106142  78.75   0.00158396    2.415    0.586
       288  -9.2484    242.5369    155.4338   8.6290976650e+01   1.4734200735e+00    0.2307981    0.1237715 -40.78  0.000550726    1.667    0.400
       289  -8.9816    239.7144    153.3210   8.6326072447e+01   2.3783172230e+00    0.1863109    0.1291562  79.50 0.0003657292    2.454    0.592
       290  -7.6109    204.7340    155.3762   9.3236479057e+01   8.8678164128e+00    0.1516158    0.1155434 -71.07 0.0006988304    1.675    0.403
       291  -8.3923    144.5474    154.7900   1.0642054285e+02   2.1787793728e+01     0.218574    0.1494038 -62.67 0.0009368669    1.621    0.383
       292 -10.4627     67.6495    153.8120   1.2599937964e+02   3.5800946631e+01    0.4806727    0.3397468  87.94  0.002297727    1.575    0.365
       293  -9.6377    132.7636    152.8003   1.0887968855e+02   2.4685936912e+01    0.4375596    0.3107334 -86.26  0.001183916    1.929    0.482
       294  -9.2325    133.5257    148.4916   1.0773719658e+02   2.5542627567e+01    0.4161467    0.2124755 -45.58  0.001595103    1.973    0.493
       295  -8.8604    151.5805    152.3442   1.0418777663e+02   2.0863900024e+01    0.3023975    0.1512687 -52.61  0.001038486    2.078    0.519
       296  -8.4724    112.9786    153.1764   1.1398613393e+02   2.8478940333e+01     0.239429    0.1991367  76.95 0.0005511576    1.300    0.231
       297  -8.1909    240.0139    164.2721   8.8574785058e+01   3.2790129713e-01    0.1824465    0.1715733 -26.05  0.000442389    1.067    0.063
       298  -9.8057     29.2346    150.5748   1.3546571003e+02   4.1127862028e+01    0.4327011    0.2075043  81.18  0.001705193    3.259    0.693
       299  -9.7010    248.7771    149.5041   8.4009099441e+01   1.4119634845e+00    0.3444534    0.1955285 -40.66 0.0007969767    1.548    0.354
       300  -9.0977    247.0710    143.9979   8.3128424429e+01   2.7158342599e+00    0.2920905    0.1761428 -36.63 0.0005653416    1.502    0.334
       301  -8.6883    250.4784    141.0469   8.1961500077e+01   2.6211123894e+00    0.2103702    0.1813792 -13.95 0.0005056612    1.259    0.206
       302  -8.9187    189.2223    149.9883   9.5200201653e+01   1.3250643396e+01    0.3081809    0.2004474 -56.32 0.0007064972    1.692    0.409
       303  -8.0138    182.3817    151.2062   9.6932075281e+01   1.4467973001e+01    0.2241648    0.1412092 -55.43 0.0005686138    1.729    0.422
       304  -8.2788    162.5727    150.7309   1.0124589969e+02   1.8865776977e+01    0.2207547    0.1482231 -58.53 0.0009382635    1.626    0.385
       305  -9.3756     98.2120    150.5998   1.1731482797e+02   3.1781656046e+01     0.343033     0.253937 -77.67  0.001157615    1.479    0.324
       306  -9.2837     53.9904    149.8711   1.2894130788e+02   3.8568526513e+01    0.3354374    0.2525027  57.70  0.001076023    1.426    0.299
       307 -10.5805     54.9700    144.9327   1.2786135483e+02   3.9650173575e+01    0.8537019    0.4678118  85.92  0.003368179    2.919    0.657
       308  -8.7970    243.1412    149.9468   8.5032395519e+01   2.3609303206e+00    0.2199771    0.1733864 -57.10 0.0008418389    1.358    0.263
       309  -7.9653    212.9638    149.9807   9.0439470965e+01   8.2502843117e+00    0.1762074    0.1632151 -38.26 0.0003802058    1.018    0.018
       310 -10.4865     89.1531    146.3780   1.1888176793e+02   3.4347899300e+01    0.6740955    0.3994721  86.90  0.002450412    3.028    0.670
       311  -8.4321     87.0169    149.7579   1.2012094487e+02   3.3870314001e+01    0.2057637    0.1877319  52.48 0.0004410521    1.149    0.130
       312 -10.1560     39.9813    148.2978   1.3237750806e+02   4.0574279080e+01    0.5066262    0.2564361  66.46  0.001828695    2.933    0.659
       313  -7.9502    219.7794    149.4056   8.9030895758e+01   6.9777594748e+00    0.1865394     0.138645  33.33 0.0003829351    1.516    0.340
       314  -8.7412    233.4948    147.5168   8.6157904582e+01   4.6319137390e+00    0.2914144    0.1292596 -41.10  0.001176069    2.045    0.511
       315  -9.4884    139.2015    145.6488   1.0568074102e+02   2.5026891992e+01    0.5044341    0.2784197 -57.51  0.001557864    1.985    0.496
       316 -10.3806     76.8287    147.3634   1.2239526341e+02   3.6049690836e+01    0.4372697    0.2864488  31.67  0.001613903    1.738    0.425
       317  -8.3694    198.8182    149.0685   9.3014795397e+01   1.1389212158e+01     0.230162    0.2000806 -72.88 0.0005680284    1.283    0.221
       318 -10.1292    148.9533    145.0767   1.0316442568e+02   2.3084931624e+01    0.5719576    0.3795879 -86.20  0.001764205    2.514    0.602
       319 -10.4606    106.5155    144.2412   1.1378540808e+02   3.1838110498e+01    0.7456856    0.4677408 -84.29  0.002502722    2.526    0.604
       320  -8.8784     13.0926    146.1525   1.3896780862e+02   4.3596618836e+01    0.2676353    0.1573697  77.49 0.0009418119    1.878    0.468
       321  -9.3235    241.3699    138.2129   8.2824962563e+01   4.8437022919e+00    0.4568653    0.2706776 -76.55  0.001580416    4.099    0.756
       322  -8.7479    242.6943    143.3311   8.3702215331e+01   3.6529113458e+00    0.1882479    0.1863625  15.26 0.0006304421    1.128    0.114
       323  -7.7018    206.5413    146.4976   9.0901812277e+01   1.0278692918e+01    0.1502843    0.1406869 -58.00 0.0008081588    1.073    0.068
       324  -8.1242    175.4413    146.2466   9.7312539333e+01   1.7045634041e+01    0.2120835    0.1471901 -56.48 0.0004923457    1.533    0.348
       325  -9.4225     33.3917    145.6376   1.3370960173e+02   4.1899526295e+01    0.3100328    0.1803541  69.69  0.001073153    2.162    0.538
       326  -9.7226    124.9975    142.8020   1.0862338301e+02   2.8618357999e+01    0.5138201    0.3334436 -84.02  0.001418017    2.482    0.597
       327 -10.7219     62.7996    136.1836   1.2413841319e+02   4.0768565722e+01     0.425516    0.3329351 -52.64 0.0007545803    1.181    0.153
       328 -10.2909     73.0194    129.5184   1.1990984600e+02   4.0950502240e+01    0.4262172    0.2748884 -75.96  0.001423743    1.842    0.457
       329 -11.5356     69.1111    141.8083   1.2344947935e+02   3.8534248443e+01    0.7573459    0.4927399 -63.16  0.003223636    1.406    0.289
       330 -10.4914     73.9987    134.3438   1.2062732237e+02   3.9643929585e+01    0.5979019    0.2074232  44.44  0.001932688    3.234    0.691
       331  -8.8567    165.5030    144.0675   9.9040488154e+01   1.9706262542e+01    0.2833202    0.2197122  69.29 0.0005549491    1.495    0.331
       332  -9.2753      3.1456    142.5031   1.4101666425e+02   4.5182412706e+01    0.2358567    0.1543698  80.32    0.0011095    1.522    0.343
       333  -7.9498    181.8060    141.6028   9.4849110235e+01   1.6642636199e+01    0.2075001    0.1484177  59.56 0.0003232515    1.540    0.351
       334  -9.3007     46.5743    140.8811   1.2945713993e+02   4.1634773155e+01    0.2581919    0.1878822  49.20 0.0003709339    1.520    0.342
       335  -9.9389     23.5224    138.6028   1.3530531491e+02   4.4501478316e+01    0.4858563    0.2550785  65.54  0.002151491    2.609    0.617
       336  -8.9223     19.5905    139.7962   1.3650298799e+02   4.4557568697e+01    0.1942227    0.1622487  61.86 0.0005337588    1.322    0.244
       337  -9.2897    115.4809    138.7906   1.1019833235e+02   3.1450719889e+01     0.295421    0.2420557  61.31 0.0006249473    1.299    0.230
       338  -8.2105    207.4369    138.1872   8.8845730871e+01   1.1756824531e+01    0.2179522    0.1343202 -53.45  0.000695054    1.702    0.412
       339  -8.6397    197.6189    137.4962   9.0611192963e+01   1.4021318513e+01    0.2964242    0.2130381 -66.89 0.0009020952    1.688    0.407
       340  -8.5498    171.9576    138.1888   9.6202372850e+01   1.9564172838e+01    0.2456563    0.2109048 -85.83 0.0005993569    1.312    0.238
       341  -8.9084    139.9928    137.5188   1.0359467661e+02   2.6738626929e+01    0.3219045    0.2015996 -13.91  0.001040194    3.466    0.711
       342  -9.2658     93.5204    137.9714   1.1594867851e+02   3.5659269383e+01    0.3308551    0.2017593  55.89 0.0009469554    1.939    0.484
       343  -8.9603    130.2239    136.2585   1.0576636643e+02   2.9086291994e+01    0.2703533    0.2283893  80.04 0.0007142919    1.328    0.247
       344 -10.2106    131.8974    131.0986   1.0410483669e+02   2.9931190141e+01    0.5850523    0.3982957 -73.78  0.001201634    1.974    0.493
       345 -10.5700     83.1455    133.5526   1.1788708511e+02   3.8435918473e+01    0.6154625    0.3629619 -56.93  0.001506663    1.578    0.366
       346  -9.6310     38.9324    136.1309   1.3076900528e+02   4.3612258589e+01    0.2888975    0.1891038  73.08 0.0008682329    1.881    0.468
       347  -9.1708    248.4574    135.4271   8.1093566878e+01   4.0074848932e+00    0.3063653    0.1992982 -44.48 0.0007358617    1.354    0.262
       348  -9.2113    250.6352    129.7706   7.9558150158e+01   4.6161729043e+00    0.4550926    0.1180373 -40.66  0.001484697    3.349    0.701
       349  -8.7509    246.9166    130.3638   8.0257753150e+01   5.2144081529e+00    0.2312183    0.1696437 -50.56 0.0004064328    1.256    0.204
       350  -8.0892    162.5179    136.4869   9.7938882755e+01   2.2042068290e+01    0.1583301    0.1520808 -80.03 0.0008100196    1.035    0.034
       351  -9.9622    237.8326    132.3493   8.2137719394e+01   6.6138763214e+00    0.4500594    0.1836876 -34.54  0.001097643    2.614    0.617
       352  -7.5679    231.3277    134.2782   8.3646105511e+01   7.5486472817e+00    0.1383172    0.1120001   2.48 0.0002420942    1.595    0.373
       353  -8.6704    179.4759    134.0150   9.3562444542e+01   1.8777123872e+01    0.2704468    0.2070089 -73.87 0.0006462761    1.584    0.369
       354  -9.1897    112.6668    133.2135   1.0966671047e+02   3.3317020658e+01    0.3411367    0.2494017 -82.77  0.000926261    1.768    0.434
       355  -9.0467     10.0481    133.9368   1.3823156552e+02   4.6673704893e+01    0.1874815    0.1767171  35.81 0.0006286045    1.339    0.253
       356 -10.4699     98.1356    130.1335   1.1293343008e+02   3.6736851753e+01    0.6863458    0.2619221 -55.08  0.001980888    2.606    0.616
       357  -9.0398    142.9176    131.6064   1.0145009537e+02   2.7458441864e+01    0.3017161    0.2237424 -59.81 0.0006382496    1.422    0.297
       358  -9.0997    168.0822    129.9636   9.5096666716e+01   2.2217306109e+01     0.355426    0.3166075 -39.87  0.001154924    1.134    0.118
       359  -9.7252     30.8859    130.7313   1.3212686194e+02   4.5695420456e+01     0.372846    0.1876181  42.42 0.0006145438    2.282    0.562
       360  -9.7256     12.8160    129.1524   1.3685718121e+02   4.7579575618e+01    0.4378734    0.2360778  79.78  0.002123574    2.453    0.592
       361  -7.7983    204.5442    130.4878   8.7627384917e+01   1.3925448382e+01    0.1529964    0.1405505 -64.07 0.0007203181    1.077    0.072
       362  -9.5290    152.9289    128.3113   9.8207767584e+01   2.5990475380e+01    0.6556983    0.2434274 -48.33  0.001932899    2.730    0.634
       363  -7.8845    211.4787    128.9899   8.5975944001e+01   1.2713751192e+01    0.2116971    0.1206889 -61.76 0.0006446341    2.358    0.576
       364  -8.2574    161.6678    129.7065   9.6496897380e+01   2.3722353407e+01    0.1578131    0.1277338   5.58 0.0007024412    1.635    0.388
       365 -10.7261     60.3925    125.7180   1.2277779916e+02   4.3601775151e+01    0.7629303    0.4393942  73.23  0.002863877    3.244    0.692
       366 -11.0309     45.0441    124.4736   1.2701048226e+02   4.5736396742e+01    0.9925224    0.5622398  85.57  0.004070479    2.989    0.665
       367  -9.7860     36.9968    115.5332   1.2771256328e+02   4.8671626495e+01    0.2697364     0.231078  57.61 0.0005795176    1.366    0.268
       368 -10.0682    117.9333    125.7032   1.0645871655e+02   3.4041106894e+01    0.5455949    0.3861282 -84.20  0.001435488    2.020    0.505
       369  -8.1997    243.9049    124.8106   7.9535701852e+01   6.8040821145e+00    0.1944443    0.1469033 -57.23 0.0007894929    1.299    0.230
       370  -9.2949    240.4146    145.4760   8.4538875590e+01   3.6890947172e+00    0.2447058    0.1869557 -35.36 0.0005870818    1.196    0.164
       371  -8.6867    179.2650    124.9798   9.1429580505e+01   2.0732268830e+01    0.2768788    0.2143768  84.54 0.0006436942    1.597    0.374
       372  -9.2593    134.2482    124.9957   1.0200546777e+02   3.0825048481e+01    0.4235378    0.1957577  30.97  0.001302081    3.426    0.708
       373 -10.4828     28.3231    122.3892   1.3149041736e+02   4.7891256859e+01    0.6843687    0.3526492  82.66  0.002683932    3.590    0.721
       374  -7.6909    188.6771    124.3134   8.9303822342e+01   1.8723967739e+01    0.1593056    0.1207355 -80.62 0.0006900818    1.658    0.397
       375  -9.4482     76.9373    124.1393   1.1762052117e+02   4.1651600692e+01    0.4239167    0.1588406  44.03  0.001352006    2.989    0.665
       376  -8.7444      5.3133    124.3982   1.3824836993e+02   4.9194678144e+01    0.1780579    0.1422797  49.71 0.0006630708    1.496    0.332
       377  -8.6237     85.1028    122.6875   1.1492355215e+02   4.0714303177e+01    0.2988552    0.1888933   3.10  0.001148472    2.935    0.659
       378  -8.9389    172.0052    121.9595   9.2258620679e+01   2.3031734160e+01    0.2456658    0.1884386 -77.96 0.0006378609    1.599    0.375
       379  -9.0264    158.8208    122.0181   9.5254006010e+01   2.6038358283e+01    0.2488237    0.2102135 -79.26 0.0006283915    1.321    0.243
       380  -9.1350     92.3976    122.0096   1.1266471385e+02   3.9656126860e+01    0.2554154    0.2147233  52.62 0.0004196599    1.278    0.218
       381  -9.5347     71.2257    120.3957   1.1846678386e+02   4.3380531737e+01    0.2909359    0.2111245  74.03 0.0007241265    1.847    0.459
       382  -9.8341    141.5042    118.3937   9.8506719016e+01   3.0719064862e+01    0.5652391    0.3052315 -57.16   0.00147888    2.184    0.542
       383  -9.5812    130.8720    118.7417   1.0129921463e+02   3.2950918826e+01    0.4063527    0.2867077 -84.80  0.001102392    2.112    0.527
       384  -9.6883     21.0842    118.9092   1.3300792349e+02   4.9312909949e+01    0.2866341    0.1791879  31.71  0.001494853    1.902    0.474
       385  -9.7382      2.8250    117.3231   1.3797534622e+02   5.0957265916e+01    0.4879337    0.2312802  83.67  0.002128472    3.231    0.690
       386  -8.7311    125.4998    118.5386   1.0265355194e+02   3.4129483111e+01    0.1536006    0.1509949 -58.72 2.295928e-05    1.010    0.010
       387  -7.6750    185.6742    116.2879   8.7962684657e+01   2.1050171739e+01    0.1572388    0.1201965 -82.89 0.0002365093    1.610    0.379
       388  -9.9012    109.3311    114.2644   1.0595440246e+02   3.8346213349e+01    0.4941597    0.3218047 -76.44  0.001314011    2.410    0.585
       389  -9.6419     65.2732    115.8809   1.1924057743e+02   4.5272560578e+01    0.2849263    0.2245279  49.34 0.0005875488    1.439    0.305
       390  -8.7016    250.1147    115.3061   7.6565821671e+01   7.2980385069e+00    0.2004311    0.1727707  35.28  0.001172318    1.429    0.300
       391  -8.0513    192.9775    115.2496   8.6248446628e+01   1.9575398471e+01    0.2198433    0.1522179 -61.13 0.0003941156    1.594    0.373
       392 -10.0365     78.8289    112.5429   1.1438394725e+02   4.4070148922e+01    0.5204548    0.3550042 -88.19  0.002053363    2.297    0.565
       393  -7.8191    167.2895    114.6519   9.1468321822e+01   2.5653788826e+01    0.1624282    0.1221183 -77.53 0.0007025665    1.662    0.398
       394 -10.6831    133.9424    109.4765   9.8098271301e+01   3.4318738106e+01    0.8017299    0.3504876 -52.72   0.00274718    2.606    0.616
       395 -10.0131    121.7085    112.4661   1.0209787457e+02   3.6269465911e+01    0.4580882    0.3183855 -75.37 0.0008092333    2.033    0.508
       396 -10.0957    115.4470    107.4206   1.0247073839e+02   3.8655843253e+01    0.4108165    0.2691123  63.51  0.001474596    2.010    0.502
       397 -10.0150     92.6097    112.5225   1.1029374152e+02   4.1810587612e+01    0.4911005    0.3083487 -65.99  0.001340493    1.942    0.485
       398  -9.6929     51.5125    113.4783   1.2289644324e+02   4.7577980820e+01    0.2642284    0.2270458 -54.63 0.0005424242    1.017    0.017
       399 -11.2262    249.5636    104.8054   7.4409651294e+01   9.2553745433e+00    0.6513013    0.2809103 -50.25  0.002705872    2.192    0.544
       400 -10.4665     66.3795    110.0714   1.1757812098e+02   4.6462284440e+01    0.5530436    0.2828845 -58.98  0.002317015    1.906    0.475
       401  -9.6182     14.1257    111.1208   1.3377945194e+02   5.1618233151e+01    0.3617801    0.1960201  85.52  0.001366953    2.734    0.634
       402  -7.9492    149.5010    110.9947   9.4635806208e+01   3.0520251358e+01    0.2167008    0.1402793 -18.58 0.0008089998    2.421    0.587
       403  -9.5731      8.7834    110.5647   1.3527028718e+02   5.2106397881e+01    0.2894435    0.1938324  60.06  0.001230719    1.906    0.475
       404  -8.1742    189.3429    108.1645   8.5224220229e+01   2.1820443983e+01    0.2223733    0.1332002 -50.94 0.0003805656    1.681    0.405
       405  -9.2584     86.5657    106.0417   1.1044088370e+02   4.4297590467e+01    0.2622586    0.1993958  57.71 0.0005724255    1.573    0.364
       406  -9.2683     72.4141    105.7487   1.1468085372e+02   4.6582662758e+01    0.2416677    0.1692793  47.34 0.0006279595    1.635    0.388
       407 -10.7868     45.7816    102.6317   1.2232939561e+02   5.0702453721e+01    0.7077857    0.4344774  74.84  0.003008346    3.182    0.686
       408 -10.8685     22.7878    102.8456   1.2967171644e+02   5.2827738422e+01    0.6416841    0.3873688  79.36  0.002633039    2.679    0.627
       409  -9.3992    139.7070    104.4659   9.5303013590e+01   3.4105741075e+01    0.3500293    0.2788428 -79.38 0.0008262678    1.536    0.349
       410  -9.0529     78.6044    104.8896   1.1256207922e+02   4.5837881123e+01    0.2703624    0.1919859  -0.73  0.001088892    1.932    0.482
       411  -8.4350    166.6122    104.3370   8.8968203137e+01   2.7924501544e+01    0.2343652    0.1784264 -77.85 0.0005447126    1.604    0.377
       412  -9.8514    128.3761    102.0801   9.7553851199e+01   3.7097099909e+01    0.3409173    0.2675678 -76.72  0.000833524    1.598    0.374
       413  -8.1618     96.3601    103.2786   1.0680427815e+02   4.3209950072e+01     0.149375    0.1145293  -4.98 0.0005183673    1.666    0.400
       414  -9.0076      6.7516    102.9834   1.3466507567e+02   5.3924096323e+01    0.2207567    0.1458209 -82.31 0.0008308836    1.562    0.360
       415  -7.8761    175.5207    102.4901   8.6588530327e+01   2.6188747329e+01    0.1546367    0.1472668 -79.59 2.889189e-05    1.012    0.012
       416 -10.3354    109.0322     99.0322   1.0198993032e+02   4.1734796473e+01    0.6213573    0.4142136  77.92  0.001643975    2.692    0.628
       417  -8.5540    107.6002     92.7434   1.0063833615e+02   4.3324171219e+01    0.2564586    0.2039842  25.11 0.0007900227    1.361    0.265
       418  -8.0712    159.7613    101.0638   8.9631186193e+01   3.0191286100e+01      0.20063    0.1291833 -44.20 0.0004496408    1.549    0.354
       419  -9.0920     82.1825    100.0739   1.1021973728e+02   4.6332957770e+01    0.3221315    0.2381451 -76.14 0.0008566116    1.815    0.449
       420  -9.0639     95.0375     97.0726   1.0551706141e+02   4.4784989445e+01    0.3153996    0.2280586 -59.84  0.000645041    1.543    0.352
       421 -10.1140     64.0614     96.0994   1.1488867487e+02   4.9899206187e+01    0.5061304    0.3417531  87.91  0.001656758    2.756    0.637
       422  -9.4071    150.5572    103.1111   9.2302176377e+01   3.1918877666e+01    0.4028972    0.2638012 -70.36  0.001206386    2.186    0.542
       423  -9.6812     57.0676     95.3009   1.1695031147e+02   5.0991115485e+01    0.2587481    0.2290815  40.61 0.0004890751    1.299    0.230
       424  -8.4626    174.6308    111.8195   8.9152300497e+01   2.4527454315e+01    0.2258245    0.1393695 -52.97 0.0005227158    1.691    0.409
       425  -8.3142    164.7235     94.1831   8.6708603726e+01   3.0369786208e+01    0.2439166      0.18441 -61.63 0.0005935034    1.439    0.305
       426  -7.7963    176.4728     93.4516   8.4059721585e+01   2.7706684563e+01    0.1559308    0.1410785 -81.36 0.0001974941    1.103    0.093
       427  -9.2066    139.0182     92.4073   9.2171492186e+01   3.6707578688e+01     0.345493     0.259369 -78.82 0.0007153067    1.778    0.438
       428 -10.3184    123.3753     91.5974   9.5957754421e+01   4.0316338196e+01    0.7860175    0.4272436  44.28  0.002436801    1.840    0.457
       429  -9.4168     29.9566     92.4150   1.2521738090e+02   5.4522395735e+01    0.2500289    0.1860335 -69.07 0.0007772553    1.382    0.276
       430  -8.5122      1.4576     92.9939   1.3463778427e+02   5.6404601845e+01    0.1803062   0.09120334 -64.22 0.0003882409    1.539    0.350
       431  -9.5638      5.0383     92.0492   1.3332582574e+02   5.6408567034e+01    0.2407947    0.1721645  64.31  0.001496304    1.903    0.474
       432  -9.3854     47.2502     92.4236   1.1946626454e+02   5.2786078009e+01    0.3563047    0.1323486  26.69  0.001438755    3.169    0.684
       433  -9.6431     34.7661     90.0186   1.2306686329e+02   5.4598060589e+01    0.4139458    0.2493165 -81.96  0.001885234    2.707    0.631
       434  -9.1769     23.0053     90.2269   1.2706002845e+02   5.5576969479e+01    0.2978382    0.2119655   1.66  0.001340879    1.666    0.400
       435  -9.2812    150.7760     89.0898   8.8442540580e+01   3.4639252335e+01    0.2368585    0.2021444 -69.70 0.0005465494    1.272    0.214
       436  -9.9960     86.2843     86.2759   1.0514035556e+02   4.8555571010e+01    0.5290434     0.354247 -61.19  0.001782354    1.860    0.462
       437  -8.3820    159.1643    111.8793   9.2595143157e+01   2.8115717340e+01    0.2379131    0.2067395 -75.71  0.000494526    1.234    0.189
       438  -9.5437     15.4325     86.2660   1.2877062405e+02   5.6984801814e+01    0.3596221    0.2079128  45.56 0.0009615266    2.395    0.582
       439  -9.1645     10.1286     81.1631   1.2951634116e+02   5.8406150084e+01    0.2702483    0.1526737  54.55  0.001382789    2.987    0.665
       440 -10.2051     48.4975     84.3064   1.1698968461e+02   5.4363740757e+01    0.4189606    0.2947975  84.29  0.001859201    2.607    0.616
       441  -8.5797    178.4975     85.1706   8.1504047215e+01   2.8752460491e+01    0.2384124    0.1965009 -83.59 0.0005700081    1.297    0.229
       442  -9.7353    104.8216     83.3933   9.8728827973e+01   4.5732847666e+01      0.43266    0.2956906 -64.61 0.0009303488    2.021    0.505
       443  -8.4781    105.3242     77.3241   9.6766714215e+01   4.6787158908e+01    0.2195808    0.1246213  22.94 0.0008413068    2.625    0.619
       444  -8.1837    157.8479     84.1266   8.5486343922e+01   3.3897273540e+01    0.1980581    0.1796989  16.50 0.0003762061    1.263    0.208
       445  -9.8761     24.6203     80.4487   1.2430962863e+02   5.7510705167e+01    0.4175852    0.2601616 -82.23  0.001492761    2.534    0.605
       446  -8.5754    119.4811     80.4840   9.3776081271e+01   4.3293886182e+01    0.2492871     0.199487 -80.44 0.0005928222    1.667    0.400
       447  -8.9320     74.4628     80.4725   1.0721512635e+02   5.1638038189e+01    0.3063741    0.2152538 -66.50  0.001186816    1.966    0.491
       448  -8.3912    166.5943     79.7039   8.2428369846e+01   3.2599771902e+01    0.2553768    0.1477447 -34.65 0.0005630691    1.865    0.464
       449  -9.1641     95.9670     78.8708   9.9988590710e+01   4.8287580257e+01    0.4116111    0.1835778  48.74  0.001294846    2.525    0.604
       450  -7.9638    184.4334     78.4642   7.8647211830e+01   2.8509325085e+01    0.1475306    0.1379347 -84.42 0.0001238793    1.008    0.008
       451 -10.2738     63.8176     74.7872   1.0908177139e+02   5.4321821039e+01     0.636362    0.2924359 -59.01  0.002414091    3.322    0.699
       452  -8.8894    233.9046     75.8492   7.0277514062e+01   1.7465120968e+01    0.2040439    0.1754161 -68.56 0.0005096179    1.005    0.005
       453  -8.7631    150.3380     80.6886   8.6203049669e+01   3.6302128163e+01    0.2328232    0.1726845 -77.56 0.0006337489    1.747    0.427
       454  -8.5490    140.4174     75.3114   8.6964611354e+01   3.9576826472e+01    0.2018351    0.1388501 -49.92 0.0006282795    1.562    0.360
       455 -10.1511    163.6963     72.2749   8.0995991873e+01   3.4585170126e+01    0.5077089    0.2360771 -36.53  0.001988784    2.262    0.558
       456  -9.6831     82.3660     72.6901   1.0231530961e+02   5.1855562922e+01    0.3651397    0.2584297 -61.86   0.00112261    1.915    0.478
       457  -8.5619    115.7370     72.9082   9.2510499801e+01   4.5465356452e+01    0.2598308     0.196728 -56.38 0.0009526948    1.548    0.354
       458  -8.2792     42.5189     73.0180   1.1602197204e+02   5.7317098152e+01    0.1602556    0.1103504 -76.55 0.0005526513    2.363    0.577
       459  -9.1029    140.9794     84.1748   8.9374695341e+01   3.7839143563e+01    0.4636495    0.2062241 -42.56  0.001365868    2.280    0.561
       460  -7.5525    175.3406     72.7192   7.8835775865e+01   3.1691571514e+01    0.1521034    0.1110444 -81.31 0.0003556099    1.627    0.385
       461  -9.3133    105.7963     71.7510   9.4923719710e+01   4.7708243811e+01    0.2713829    0.1924148 -50.71 0.0007361043    1.580    0.367
       462  -9.1789     95.0353     71.0990   9.7882381969e+01   4.9900234491e+01      0.31978    0.1946174 -49.02 0.0008817098    1.813    0.448
       463  -9.8521     51.5055     69.8713   1.1190375930e+02   5.6887766283e+01     0.367339    0.2402135 -64.95  0.001302186    2.160    0.537
       464  -9.2773     28.6363     70.6944   1.2042292733e+02   5.9141980456e+01     0.244213    0.1359563 -17.81 0.0008101328    2.185    0.542
       465  -8.9755     16.7312     69.9657   1.2461256095e+02   6.0240051885e+01     0.206056    0.1504495 -69.35   0.00107058    1.569    0.362
       466  -8.5472    147.0121     68.3952   8.3449198580e+01   3.9221095050e+01    0.2214196    0.1927278 -42.27 0.0004740329    1.197    0.164
       467  -8.5427    138.8069     66.6728   8.4813841640e+01   4.1422018138e+01    0.2656142    0.1780358 -63.23 0.0007938815    1.984    0.496
       468  -8.6289    121.7494     66.1040   8.8831513386e+01   4.5350132123e+01    0.2124542    0.1921505 -66.78 0.0006632268    1.266    0.210
       469  -9.0743    110.0660     63.9129   9.1269683600e+01   4.8191765208e+01    0.2612892    0.1967829 -36.69 0.0005763184    1.363    0.266
       470  -8.8378     37.0194     64.2595   1.1552142970e+02   5.9583370084e+01    0.2065578    0.1685541 -71.25  0.000962607    1.686    0.407
       471  -9.2804    128.0694     75.5362   9.0060971834e+01   4.2332903897e+01    0.3452032    0.2180472 -58.11 0.0007845883    2.039    0.510
       472  -8.2128    158.0245     61.9709   7.9282234218e+01   3.7634466386e+01    0.1728743    0.1620165  71.12 0.0003437275    1.002    0.002
       473  -9.5015     97.4809     60.8142   9.3870149824e+01   5.1210769777e+01    0.2504727    0.2146266  69.10 0.0008999801    1.484    0.326
       474  -9.8579     73.2481     59.5249   1.0108749669e+02   5.5691072977e+01    0.3836973    0.2221844 -49.61 0.0009967294    2.008    0.502
       475  -8.2111      1.9961     60.4829   1.2783235896e+02   6.3010016736e+01    0.1309932   0.08657528  47.30 0.0007047509    2.329    0.571
       476  -7.9490     88.5969     59.5129   9.6132736150e+01   5.3081801218e+01    0.1342609    0.1217187  -1.51 0.0001384277    1.019    0.019
       477 -10.0485     23.4823     56.5372   1.1842438010e+02   6.2279773849e+01    0.4036466      0.27621 -83.31  0.002090074    3.076    0.675
       478  -9.9022    175.7740     57.9401   7.4834702496e+01   3.3954763782e+01    0.3223961    0.2419986  78.99  0.001660852    1.348    0.258
       479  -9.7882    179.3335     55.3292   7.3533317386e+01   3.3482146232e+01    0.4155936    0.2256452 -50.77  0.001834156    1.967    0.492
       480  -8.0553    130.5898     57.8374   8.4093134067e+01   4.4711391090e+01    0.1902295    0.1309569 -48.44 0.0003446609    1.626    0.385
       481  -9.3946      7.4151     57.2045   1.2491185851e+02   6.3321562039e+01    0.2597359    0.1799568 -77.83  0.001348608    2.081    0.520
       482  -9.7163     54.2722     55.6450   1.0643634663e+02   5.9115973443e+01    0.3169246    0.2012756 -50.92  0.001098351    1.803    0.445
       483  -8.2515    139.7446     56.1633   8.1475541282e+01   4.2863531127e+01    0.2188768    0.1693064 -54.36 0.0005069845    1.452    0.311
       484  -8.9258    119.1827     56.0562   8.6356200540e+01   4.7514712222e+01    0.2390189     0.205799  71.56 0.0008132982    1.322    0.243
       485  -9.1013     44.0411     55.3951   1.1014756566e+02   6.0427475404e+01    0.2646472     0.158737 -51.16  0.001449283    1.797    0.443
       486  -8.7218    105.6598     53.1306   8.9012354949e+01   5.0804984473e+01    0.2043904     0.167371 -49.24 0.0005792392    1.422    0.297
       487  -9.4900     92.4406     50.6904   9.2006884747e+01   5.3765882348e+01    0.3587324    0.2137133 -47.66  0.001392675    2.051    0.512
       488  -8.1839    149.8535     49.1665   7.7270929403e+01   4.1501428092e+01     0.185437    0.1618413  16.24 0.0004847515    1.328    0.247
       489  -8.1595    144.7005     49.3033   7.8366776009e+01   4.2703141166e+01    0.1390339    0.1072083 -77.78 0.0002431975    1.587    0.370
       490  -8.2253    129.7255     49.1574   8.1619987332e+01   4.6190137806e+01    0.2082403    0.1673701 -52.18 0.0004701837    1.417    0.294
       491  -8.5557    120.9495     47.5409   8.3204640232e+01   4.8377068435e+01    0.1978202    0.1806126 -19.46 0.0004940895    1.161    0.138
       492  -8.4826    112.0864     47.0489   8.5286233544e+01   5.0358048350e+01    0.2011069    0.1659878 -74.19 0.0006008731    1.639    0.390
       493  -8.9020     82.0215     46.4548   9.3760311996e+01   5.6296224905e+01      0.22304    0.1758957 -45.01 0.0005613415    1.503    0.335
       494  -8.9923    132.8601     44.3872   7.9431835060e+01   4.6135240094e+01    0.2980314    0.1961375 -42.27  0.001265912    1.670    0.401
       495  -8.2852     45.1119     44.8196   1.0617101332e+02   6.2070603475e+01    0.1682195    0.1506804 -21.50 0.0004609073    1.231    0.188
       496  -8.4682     16.8680     44.9286   1.1755632301e+02   6.4876731548e+01    0.1483198    0.1380027 -84.91 0.0006551151    1.679    0.404
       497  -9.1266     69.5328     41.8908   9.6242452377e+01   5.9063506666e+01    0.2635391     0.209711 -58.18  0.001098064    1.888    0.470
       498  -8.9660     58.0840     42.5976   1.0052584881e+02   6.0695818345e+01    0.2236118    0.1660219 -46.92  0.001052328    1.659    0.397
       499  -9.6058      5.2424     42.2993   1.2162328795e+02   6.6144148554e+01     0.246789    0.1799205 -71.16  0.001127381    2.015    0.504
       500  -8.4047    105.8669     41.5521   8.5098680457e+01   5.2411033886e+01    0.2007273    0.1596888 -36.54  0.000511804    1.379    0.275
       501  -7.7681    140.2916     41.6586   7.7005061855e+01   4.4777930218e+01    0.1376647    0.1042544 -72.82 0.0003961546    1.652    0.395
       502  -8.6111     36.8755     41.0695   1.0807562995e+02   6.3625839121e+01    0.1672591    0.1497412 -23.00 0.0005685157    1.276    0.216
       503  -8.6039     95.4973     38.0858   8.6765933908e+01   5.4951486492e+01    0.1831405    0.1254489 -30.52 0.0005589531    1.533    0.348
       504  -8.1600     80.5092     36.9846   9.0862049600e+01   5.7891879804e+01    0.1618269    0.1075727 -54.84 0.0005894913    2.401    0.584
       505  -9.4697     26.2418     35.5548   1.1046569605e+02   6.5594988977e+01    0.2403811    0.1783733 -50.18 0.0009062757    1.679    0.404
       506 -10.1900    199.1541     34.6082   6.5402223749e+01   3.1579480967e+01    0.6403924    0.3083419 -78.43  0.002367273    3.394    0.705
       507  -8.9149    111.7624     35.3631   8.1497614656e+01   5.1970125065e+01    0.2372801    0.1843533 -25.90  0.000873535    1.389    0.280
       508  -7.9709    125.6041     35.5348   7.8278753001e+01   4.8919631458e+01    0.1315682    0.1206442  45.58 7.205017e-05    1.025    0.025
       509  -8.9857     48.4549     33.5408   1.0076091153e+02   6.3345109443e+01    0.2109266    0.1897511 -41.48 0.0007830473    1.528    0.346
       510  -8.5073    119.3679     33.2648   7.8972824820e+01   5.0579202341e+01    0.1740631    0.1206803 -40.38  0.000555129    1.634    0.388
       511  -8.6853     60.8874     32.9123   9.5925556375e+01   6.1664813984e+01     0.161327    0.1541888 -88.16 0.0005140885    1.650    0.394
       512  -8.7432    179.1512     30.8855   6.7218501235e+01   3.6832271405e+01    0.2092204    0.1669148 -77.32 0.0006087513    1.234    0.189
       513  -8.6930     72.0882     31.3147   9.1479458972e+01   6.0083258894e+01    0.1712842    0.1447511  21.95 0.0005198157    1.089    0.081
       514  -9.1220     12.9437     30.3746   1.1435814560e+02   6.7566363669e+01    0.2256239    0.1446812 -55.89  0.001145665    2.065    0.516
       515  -8.1200    101.4181     29.2599   8.2060780843e+01   5.4855030859e+01    0.1642794    0.1192365 -38.22 0.0006163286    1.584    0.369
       516  -9.6708    199.8986     19.8333   6.1846997960e+01   3.3199415779e+01    0.3617206    0.1853017 -77.60  0.001620097    2.398    0.583
       517  -9.3765    208.5054     27.4815   6.2610526785e+01   3.0281312028e+01    0.2553994    0.1925742 -78.71 0.0007068934    1.185    0.156
       518  -9.5541    204.7867     24.7897   6.2424916447e+01   3.1475365427e+01    0.3508646    0.2038058 -73.61  0.001500389    1.846    0.458
       519  -8.9411     81.4867     27.7342   8.7155673534e+01   5.8879016221e+01    0.2105787    0.1972402 -85.71 0.0007325052    1.531    0.347
       520  -9.0203      3.7589     27.8460   1.1760517191e+02   6.8623408576e+01    0.1753493    0.1350967 -52.69  0.000777469    1.607    0.378
       521  -8.7262     91.7277     26.4087   8.3675612497e+01   5.7108766600e+01    0.2022582    0.1483961 -38.78 0.0005425083    1.609    0.379
       522  -7.9228    104.4753     23.4523   7.9258229607e+01   5.4871533920e+01    0.1260843    0.1121401  41.40   0.00012788    1.072    0.067
       523  -8.1682     34.4978     23.5067   1.0240688524e+02   6.6460838576e+01    0.1142442   0.08965642  -5.67 0.0008103772    1.037    0.036
       524  -8.9772     63.6270     21.2469   9.0429216319e+01   6.2690602665e+01    0.2230148     0.167922 -28.53 0.0008988197    1.436    0.304
       525  -8.8402     48.2068     21.7218   9.6208539727e+01   6.4942157518e+01    0.1849208    0.1391698 -28.08 0.0006570449    1.384    0.278
       526  -7.8823    120.7026     21.3386   7.4791056325e+01   5.1609320448e+01    0.1242484    0.0979866 -72.97 0.0007032631    1.658    0.397
       527  -8.5994     19.5250     21.5577   1.0809364133e+02   6.8301876821e+01      0.10957   0.08383837 -12.44 0.0001977411    1.051    0.048
       528  -8.8794     74.0084     19.5386   8.6352217888e+01   6.1137517339e+01    0.2084739     0.158533 -38.56 0.0006591897    1.643    0.392
       529  -8.0440     87.6440     17.7502   8.1638537894e+01   5.8823271107e+01    0.1528378    0.1097146 -31.28 0.0004336345    1.578    0.366
       530  -8.1206     30.1571     16.1459   1.0120713887e+02   6.7912196913e+01    0.1387995    0.1191697 -14.85 0.0006906682    1.353    0.261
       531  -8.3710      7.3567     15.6945   1.1137416005e+02   7.0164988072e+01   0.08689704   0.08196567  14.24 0.0007040625    1.721    0.419
       532  -7.7363    191.3268    249.6568   1.1390574590e+02  -5.9247051645e+00    0.1215387   0.09713572  66.12 0.0007050964    1.741    0.425
       533  -8.8946    175.9017    247.9560   1.1666533256e+02  -3.1121312682e+00     0.284878    0.1983291  72.97  0.001435946    2.387    0.581
       534  -7.6110     47.6787     10.3471   9.1656018064e+01   6.6313925038e+01   0.09565444   0.09174696 -46.38 0.0007049374    1.737    0.424
       535  -7.9841     28.2554     10.6301   9.9657483196e+01   6.8798065695e+01   0.09287531   0.08110178 -29.86 0.0004114769    1.640    0.390
       536  -9.4023    155.7204    248.7282   1.2078685712e+02   1.6175703051e-01    0.3162335    0.2063039  28.15  0.001377978    1.589    0.371
       537  -8.3317     93.6824    249.3495   1.3311183794e+02   1.0268968399e+01    0.2041361    0.1210865  67.91  0.001080034    1.734    0.423
       538  -9.3518     21.7121    248.4125   1.4609813134e+02   2.0185399376e+01    0.1962266    0.1500077  78.97 0.0005401875    1.116    0.104
       539  -8.9979    232.6568    247.3507   1.0570976054e+02  -1.1954618090e+01    0.1923371    0.1685936  26.62 0.0006879332    1.286    0.223
       540  -9.5547    146.9550    245.9880   1.2215060775e+02   2.1296637752e+00    0.2412669    0.1770559  40.16 0.0009420619    1.184    0.156
       541  -7.9981     16.7175     14.3171   1.0641394368e+02   6.9545053617e+01   0.08884032   0.08091114 -19.15   0.00022793    1.581    0.368
       542  -8.5276    132.0182    247.9977   1.2541469351e+02   4.2990540910e+00    0.2007516    0.1395413  68.37 0.0005491377    1.612    0.380
