#   1 NUMBER                 Running object number                                     
#   2 MAG_AUTO               Kron-like elliptical aperture magnitude                    [mag]
#   3 X_IMAGE                Object position along x                                    [pixel]
#   4 Y_IMAGE                Object position along y                                    [pixel]
#   5 X_WORLD                Barycenter position along world x axis                     [deg]
#   6 Y_WORLD                Barycenter position along world y axis                     [deg]
#   7 A_WORLD                Profile RMS along major axis (world units)                 [deg]
#   8 B_WORLD                Profile RMS along minor axis (world units)                 [deg]
#   9 THETA_WORLD            Position angle (CCW/world-x)                               [deg]
#  10 FWHM_WORLD             FWHM assuming a gaussian core                              [deg]
#  11 ELONGATION             A_IMAGE/B_IMAGE                                           
#  12 ELLIPTICITY            1 - B_IMAGE/A_IMAGE                                       
         1 -13.8318    207.8933     28.2044   3.5160833550e+02   3.1498176040e+01    0.8676037    0.6911791 -48.37  0.003725363    1.118    0.105
         2 -10.3793     75.5216    246.8625   6.0796967501e+01   1.2793170345e+01    0.1404028    0.1068437 -37.20 0.0008930294    1.595    0.373
         3 -13.7368    247.5326    241.1748   2.7219375995e+01  -3.9662842763e+00     1.419938    0.3427548 -35.36  0.007039956    3.311    0.698
         4 -10.0666     68.9956    195.5096   5.7450005322e+01   2.4197932862e+01    0.2484914    0.1759802  77.28 0.0006254761    1.650    0.394
         5 -11.3714     63.0547    198.0667   5.9317360812e+01   2.4314944565e+01    0.1918774    0.1831732  54.51 0.0002889205    1.058    0.055
         6 -10.3850    192.3001    193.7209   2.8865000097e+01   8.1061780033e+00    0.4304245    0.2585388 -64.00  0.001789881    4.291    0.767
         7 -10.9991    154.8721    193.5162   3.6187449959e+01   1.3039882623e+01    0.2597776     0.184891 -52.50 0.0005044057    1.597    0.374
         8 -19.0648     27.6531     97.4131   5.7538069836e+01   5.4882163950e+01     18.80426      1.07775 -68.58   0.02642073   16.443    0.939
         9 -11.3570     81.1350    182.8422   5.2580981443e+01   2.5623901403e+01     0.598549    0.4521482  70.56  0.003088461    1.531    0.347
        10 -15.8160     42.1058    211.1173   6.5969309390e+01   2.3627549580e+01     5.231888     3.227789  66.29   0.02105516    1.681    0.405
        11  -9.5639     47.1331    184.9532   6.2374114980e+01   2.9269244594e+01    0.1777732    0.1626861  89.32 0.0004486831    1.105    0.095
        12 -11.3681    180.8640    170.8737   2.6954748612e+01   1.3510979379e+01    0.6967817    0.4036486   8.33  0.003166427    2.593    0.614
        13 -11.2586    178.7726    167.3587   2.6698197937e+01   1.4443229927e+01    0.5839683    0.3688712  -7.60  0.002855319    2.113    0.527
        14 -11.2495    174.5340    180.5044   2.9926302075e+01   1.2690178862e+01    0.3471801    0.2597072  -3.77  0.000878588    1.358    0.263
        15 -11.6965    172.7870    177.2107   2.9680631959e+01   1.3527652079e+01    0.4332785    0.3224487 -43.32  0.002532533    1.332    0.249
        16 -16.7472     68.2310    143.8942   5.0498845161e+01   3.7219412032e+01     5.016286     3.825125  84.48   0.02416809    1.481    0.325
        17  -9.9252     71.6138    217.4586   5.9075901263e+01   1.9020364130e+01    0.1282426     0.113317  39.82 0.0001254256    1.031    0.030
        18 -15.2928    119.9207    235.2575   4.9731679665e+01   9.8885037929e+00     8.981426     5.996926  64.54   0.04799319    2.461    0.594
        19 -10.2118      4.0686    176.2693   7.4120661611e+01   3.5378521595e+01    0.1519758    0.1366299  20.29  0.000314585    1.238    0.193
        20 -13.0767    131.4662    171.3479   3.7654939461e+01   2.0863580708e+01    0.6267131    0.4278285  43.15  0.003153405    1.546    0.353
        21 -11.8106    229.6563    168.0398   1.8268792076e+01   7.5022757515e+00    0.3788634    0.1326375 -39.89  0.001795016    2.321    0.569
        22 -10.2732      2.0249    166.9128   7.4263635959e+01   3.7912091872e+01    0.1715142    0.1583922 -15.64 0.0004114816    1.297    0.229
        23 -10.2944    149.8275    161.6874   3.1596235513e+01   1.9978225537e+01    0.2434393    0.1744708 -33.62 0.0006410134    1.360    0.264
        24 -11.0921    127.2688    161.4535   3.6854104876e+01   2.3668531379e+01    0.2860603    0.2300176 -71.27 0.0007849049    1.497    0.332
        25 -11.1960    152.7899    207.4317   3.8840160755e+01   1.0790262271e+01    0.2483355    0.1837144 -19.76 0.0007606994    1.314    0.239
        26 -12.4483    133.8853    146.3605   3.2226898657e+01   2.5870541761e+01     1.355893    0.3288356 -54.32  0.003215482    6.209    0.839
        27 -11.4756    111.3103    150.1261   3.8801622770e+01   2.8878176425e+01    0.4435633    0.2963421  63.74  0.001516811    2.052    0.513
        28 -12.5720     94.0155    148.9619   4.3451670350e+01   3.1998927589e+01     0.741901    0.3750637  47.00 0.0003565127    2.141    0.533
        29 -13.1916     97.2800    145.3600   4.1806828669e+01   3.2357346635e+01    0.8087599    0.6477669 -13.67   0.00229488    1.501    0.334
        30 -10.8098    107.8891    140.9349   3.7882308719e+01   3.1639045558e+01    0.3038185    0.2139537 -42.08 0.0004119367    1.448    0.309
        31 -10.6504    111.7160    138.6418   3.6337526198e+01   3.1515905126e+01    0.4550669    0.3053294  69.59  0.001285466    2.207    0.547
        32 -11.3834    109.7128    132.3895   3.5536816189e+01   3.3353520754e+01    0.4433687    0.2979736 -31.04  0.001852645    1.776    0.437
        33  -9.5291    163.5175    201.0287   3.5611118538e+01   1.0537137303e+01    0.1816961    0.1177829 -43.42 0.0004995166    1.551    0.355
        34 -11.2957     98.8683    135.9325   3.9424313457e+01   3.4408910880e+01    0.3303667    0.2721612  13.79 0.0002609637    1.370    0.270
        35 -12.0942     98.2732    131.1184   3.8567823036e+01   3.5695714511e+01     0.398169    0.3339362   3.36 0.0004943176    1.399    0.285
        36 -11.3613    135.6292    128.9958   2.8008405002e+01   2.9340812196e+01    0.4716455    0.2118057 -53.49  0.001669938    2.390    0.582
        37 -10.5131    116.0954    125.8308   3.2283672590e+01   3.3718752450e+01    0.2765163    0.2189402 -31.29 0.0006880623    1.365    0.268
        38 -11.3919     84.3056    125.3784   4.1655051000e+01   3.9540141649e+01    0.3207229    0.2527555  60.11 0.0004162925    1.389    0.280
        39 -10.5165    121.3640    122.7731   3.0153626124e+01   3.3421834782e+01    0.3918534    0.2717285 -33.47  0.001750088    1.590    0.371
        40 -10.5433    104.0584    120.6590   3.4467955729e+01   3.7189272775e+01    0.2813095    0.2441261  -9.53 0.0007835354    1.338    0.252
        41  -9.6608    130.5091    116.4949   2.6297019264e+01   3.3039420807e+01    0.1499031    0.1423803 -62.36  0.000146803    1.046    0.044
        42  -9.3133    110.8873    115.8180   3.1326232318e+01   3.7033586081e+01    0.2036069    0.1774542  80.84 0.0002781573    1.288    0.223
        43 -11.4974     84.2819    111.7142   3.8500949539e+01   4.2999887478e+01    0.5116758    0.3509715 -86.81  0.001566979    2.048    0.512
        44 -11.9410     86.7055    107.8989   3.6743111523e+01   4.3509831464e+01    0.6765302     0.333036  49.87  0.001804708    2.307    0.567
        45 -11.2702    134.6452    108.0747   2.3183727114e+01   3.4010743656e+01     1.033865     0.133653 -45.75  0.002115271    7.427    0.865
        46 -12.2201    118.3933    109.9298   2.7774703600e+01   3.6896810980e+01    0.6152994    0.4559615 -84.24  0.002422306    1.825    0.452
        47 -11.3709    120.2285    104.9874   2.6001450806e+01   3.7619040912e+01    0.3293968    0.2000142 -51.09  0.001219348    1.620    0.383
        48  -8.9800    143.2929    109.6659   2.1585056475e+01   3.1931330112e+01    0.1490445    0.1139293 -76.52 0.0004380207    1.638    0.390
        49 -12.0246     71.0630    231.4320   6.0506016619e+01   1.6219181547e+01    0.2126204     0.179247 -78.98 0.0007696816    1.380    0.275
        50  -9.4930    151.0006    102.6713   1.8155699340e+01   3.1766639109e+01    0.1931057    0.1825888  80.70 0.0004989085    1.120    0.108
        51 -10.1678    117.7769     90.7701   2.2747697363e+01   4.1186921429e+01    0.2077484    0.1732242 -75.39 0.0004469909    1.314    0.239
        52  -9.2454    182.0197    201.9322   3.2123942203e+01   8.0433032563e+00    0.1452815    0.1194725  -1.23 0.0004426203    1.057    0.054
        53  -9.3845    101.0352     89.9610   2.7252936419e+01   4.4908340128e+01    0.1819307    0.1770059 -78.61 0.0004241767    1.006    0.006
        54  -9.2083    153.6594     86.6961   1.3467458977e+01   3.4233082754e+01    0.1402157      0.11454   8.47 0.0005602677    1.678    0.404
        55  -9.1691    129.3545     84.6886   1.8107300726e+01   3.9900708164e+01    0.1561233    0.1148358 -81.63 0.0007044264    1.730    0.422
        56 -10.4140     70.5524    199.0070   5.7426265160e+01   2.3203946429e+01    0.2319303    0.1984818 -69.78  0.001361915    1.262    0.207
        57 -13.0467    169.2973     67.7043   5.7112962717e+00   3.4113080832e+01    0.5694595    0.5326886 -55.33 0.0007960019    1.100    0.091
        58  -9.5860      8.6612     71.8275   6.2067061587e+01   6.3267535507e+01    0.1816793     0.163146 -68.13 0.0003899935    1.066    0.062
        59 -13.7601    185.0586     54.3398   1.1621210626e-01   3.2771835347e+01     1.066456    0.9078051  21.54  0.003989788    1.662    0.398
        60 -12.1361    190.7621     48.4295   3.5799051454e+02   3.2406427751e+01    0.3557214    0.3213903  85.01 0.0008784077    1.217    0.178
        61  -9.3047     53.1923     63.1925   3.6409349330e+01   6.0143017843e+01    0.1900791    0.1688874  65.80 0.0003420175    1.266    0.210
        62  -8.9088    145.2763     58.3383   7.0487254079e+00   4.0971583373e+01     0.133554    0.1126196  11.69 0.0004412718    1.613    0.380
        63 -10.1672     86.4307     53.4884   1.9678308767e+01   5.5491481100e+01    0.4342507    0.2370913  67.36  0.001645464    2.611    0.617
        64  -9.2797     60.1399    247.8308   6.4321516022e+01   1.4226141785e+01    0.1499076    0.1189343 -18.64 0.0008896485    1.570    0.363
