#   1 NUMBER                 Running object number                                     
#   2 MAG_AUTO               Kron-like elliptical aperture magnitude                    [mag]
#   3 X_IMAGE                Object position along x                                    [pixel]
#   4 Y_IMAGE                Object position along y                                    [pixel]
#   5 X_WORLD                Barycenter position along world x axis                     [deg]
#   6 Y_WORLD                Barycenter position along world y axis                     [deg]
#   7 A_WORLD                Profile RMS along major axis (world units)                 [deg]
#   8 B_WORLD                Profile RMS along minor axis (world units)                 [deg]
#   9 THETA_WORLD            Position angle (CCW/world-x)                               [deg]
#  10 FWHM_WORLD             FWHM assuming a gaussian core                              [deg]
#  11 ELONGATION             A_IMAGE/B_IMAGE                                           
#  12 ELLIPTICITY            1 - B_IMAGE/A_IMAGE                                       
         1 -13.4867    226.1183     25.1447   2.9669698061e+01  -4.3538584561e+01   0.04303053   0.03415287 -42.82  0.004094042    1.256    0.204
         2 -12.6627     32.3402     15.2973   3.2611391494e+01  -4.4886814802e+01   0.01811065    0.0154487  55.74  0.001948911    1.203    0.168
         3 -12.1204    227.1687      9.6263   2.9512701301e+01  -4.3696737791e+01    0.0162084   0.01419206  39.50 0.0008121631    1.172    0.146
         4 -10.7079     49.5221      9.5051   3.2286472252e+01  -4.4842657677e+01  0.006460893  0.006243768 -16.27  9.95434e-05    1.002    0.002
         5 -11.2091     38.2023      2.5813   3.2406197952e+01  -4.4988487655e+01   0.01224357  0.008599808 -15.77  0.001308826    1.513    0.339
         6 -10.8202     59.5128      2.4872   3.2065539761e+01  -4.4856094622e+01    0.0122438  0.006415872 -14.76  0.001044363    2.443    0.591
         7 -11.1665     58.7234    232.9722   3.4032051585e+01  -4.2345972819e+01  0.008919843  0.007839569  34.17 0.0003803745    1.170    0.145
         8 -19.5314     15.3753    148.3864   3.4014076022e+01  -4.3535828467e+01    0.8788325    0.3112675  65.53   0.06456213    3.389    0.705
         9  -9.0810     83.4405    223.0576   3.3569646463e+01  -4.2305140013e+01  0.009014929  0.006480756  64.32  0.000409472    1.472    0.321
        10  -9.0835    237.6877    189.2817   3.0941722631e+01  -4.1706970409e+01  0.006577898  0.004889183 -59.58 0.0002639364    1.570    0.363
        11 -11.7705     96.4493    179.3590   3.3006930287e+01  -4.2703094197e+01   0.03680598   0.01838275  81.14   0.00270095    3.802    0.737
        12  -9.5771     50.5433    200.3448   3.3892307313e+01  -4.2753402867e+01  0.008457847   0.00604389  47.05 0.0006564326    1.426    0.299
        13 -11.7050     63.0165    180.9959   3.3538730071e+01  -4.2889868241e+01    0.0144251   0.01112929 -25.89  0.000414284    1.259    0.206
        14 -11.8493    172.3611    174.3698   3.1800745917e+01  -4.2283826522e+01    0.0271384   0.01942221  33.80  0.001363355    1.544    0.352
        15 -11.4987    179.6043    168.6421   3.1641701098e+01  -4.2299930809e+01   0.03069563    0.0237302  62.50  0.003527157    1.359    0.264
        16  -9.7787     71.3158    222.5766   3.3752698889e+01  -4.2383987293e+01  0.007667399  0.005832093  51.30 0.0005271143    1.332    0.249
        17 -11.8798    105.3847    172.3125   3.2809896034e+01  -4.2724779915e+01   0.02061844   0.01452313 -65.22  0.001984752    1.795    0.443
        18 -12.1316    113.3800    172.5431   3.2688532893e+01  -4.2672762551e+01   0.02135755    0.0138447 -45.21  0.001809716    1.594    0.373
        19 -11.2981    110.6763    166.9458   3.2683090483e+01  -4.2750457369e+01   0.02121367   0.01238919  76.38  0.001963381    2.280    0.561
        20 -10.2499    229.5958    165.8106   3.0861155956e+01  -4.2011193202e+01   0.00915985  0.006406849  74.83 0.0009553847    1.711    0.415
        21 -11.5753     87.9559    219.7497   3.3472924942e+01  -4.2313853806e+01   0.02142856   0.01851215   0.14  0.001707447    1.207    0.172
        22 -12.8158     93.2698    143.8425   3.2757408865e+01  -4.3109883497e+01   0.04747852   0.02625426  34.46  0.003530591    2.256    0.557
        23 -11.0166     87.9177    139.4654   3.2803529740e+01  -4.3190689078e+01   0.01188309  0.009392388 -87.96  0.001335333    1.533    0.348
        24 -11.0702     86.6311    149.1801   3.2905613283e+01  -4.3092755283e+01   0.01221737   0.01164034 -53.08 0.0002831177    1.086    0.079
        25 -11.4435     92.9883    156.5230   3.2868836664e+01  -4.2973457318e+01   0.01430201   0.01146796 -31.11 0.0003184168    1.203    0.169
        26 -10.6036     90.4039    153.1820   3.2880771509e+01  -4.3025836141e+01   0.01099202  0.007491688  55.84 0.0002753347    1.488    0.328
        27 -10.9009    133.7011    147.5611   3.2163978729e+01  -4.2817525757e+01   0.02077736   0.01082306  70.07  0.001839604    2.403    0.584
        28 -11.2107    133.1833    142.7806   3.2131157593e+01  -4.2872621562e+01    0.0310551   0.01114631  67.97  0.002075577    4.193    0.761
        29 -10.5047     82.9946    144.0220   3.2918631393e+01  -4.3171436214e+01  0.009849013   0.00968188   5.12 0.0003191691    1.025    0.024
        30 -11.4902    109.0173    145.0706   3.2523724143e+01  -4.2998767581e+01   0.01865374   0.01335469  45.01  0.001549256    1.435    0.303
        31 -12.0729    105.3838    131.6040   3.2465477743e+01  -4.3167808963e+01   0.02752158   0.01710844  45.79  0.001893838    1.659    0.397
        32  -9.1353    167.4386    134.9384   3.1537948487e+01  -4.2741199010e+01  0.008781782  0.005712284 -83.33 0.0008048823    2.368    0.578
        33 -11.7575     93.4488    131.3561   3.2648726113e+01  -4.3244726655e+01   0.01490095   0.01285758  81.72 0.0002479778    1.293    0.227
        34  -9.7506    135.5540    127.7630   3.1966002548e+01  -4.3020489459e+01  0.008918331  0.006452155  78.43  0.000945472    1.664    0.399
        35 -11.1367    113.4953    125.7556   3.2289783673e+01  -4.3180704730e+01   0.01443816    0.0132923  75.99 0.0009937927    1.166    0.142
        36 -10.4798    100.8600    120.7163   3.2442805278e+01  -4.3314347692e+01   0.01322154   0.01019503   9.87   0.00112992    1.498    0.333
        37 -11.5750     76.3644    120.5634   3.2823284892e+01  -4.3468099150e+01   0.01530059    0.0117823 -36.04 0.0009457189    1.259    0.206
        38  -9.9591    108.9703    115.9149   3.2275682570e+01  -4.3315848110e+01  0.009644976  0.009296453 -11.85 0.0003215102    1.009    0.009
        39  -9.6429     91.5785    110.8177   3.2502659258e+01  -4.3479782257e+01   0.01009362  0.008176502 -50.89 0.0003713593    1.300    0.231
        40  -9.7182    153.2697    211.6502   3.2406032231e+01  -4.1999523433e+01  0.006591329  0.004976236 -68.22 0.0005640971    1.624    0.384
        41 -11.1115    115.4226    108.8505   3.2114803989e+01  -4.3352054396e+01   0.01274335  0.009066651 -27.58  0.001395445    1.366    0.268
        42  -9.6435    164.2873    205.9445   3.2190682001e+01  -4.1992606029e+01   0.01712382  0.006473546  70.63  0.001085308    4.665    0.786
        43  -9.7912     99.2648    104.9431   3.2332464560e+01  -4.3495671883e+01  0.009030272  0.008339167  52.06 0.0005431863    1.111    0.100
        44 -11.6761    118.1251    102.8456   3.2021082151e+01  -4.3400162411e+01   0.01273444   0.01069836 -51.19   0.00151091    1.247    0.198
        45 -10.4946     76.5108     99.2246   3.2638902649e+01  -4.3699570572e+01   0.01541313  0.009607256 -53.12 0.0008953476    1.874    0.466
        46  -8.7460    150.3134    100.6328   3.1503892011e+01  -4.3220483362e+01   0.00690584  0.004930448 -65.58 0.0007037873    1.769    0.435
        47  -9.3801    113.3196     94.6720   3.2025117375e+01  -4.3518968439e+01  0.006812263  0.004914302 -62.45 0.0003352393    1.685    0.406
        48 -12.0671     40.3982     89.2948   3.3122242681e+01  -4.4030793851e+01   0.02037634   0.01341313 -60.44  0.001579064    1.917    0.478
        49 -12.5156    133.6254    199.8723   3.2607087608e+01  -4.2249759699e+01   0.02868849   0.01667167  57.34  0.002873775    1.743    0.426
        50  -9.8294    210.8542    198.6908   3.1425142304e+01  -4.1777152597e+01   0.01027736    0.0087608  39.44 0.0004496331    1.205    0.170
        51  -9.4790     96.9274     73.3038   3.2095642110e+01  -4.3853620617e+01  0.008998128  0.008069877 -22.25 0.0003314451    1.084    0.077
        52  -9.5202     92.2648     70.7840   3.2146765679e+01  -4.3910215915e+01   0.01016618  0.008262627 -86.27 0.0005525612    1.470    0.320
        53 -11.8124     52.9621    231.5240   3.4109395850e+01  -4.2396521010e+01   0.01083337  0.008452239  46.01 0.0003407989    1.307    0.235
        54 -12.4914    179.4809     65.8058   3.0748993145e+01  -4.3408479814e+01   0.01985252   0.01924051  21.55 0.0007320644    1.042    0.040
        55 -13.5356    196.1758     53.5242   3.0383348599e+01  -4.3431890556e+01    0.0568482   0.04484546  10.48  0.003917135    1.459    0.314
        56 -12.3726    202.2557     48.1818   3.0242366340e+01  -4.3449426348e+01   0.02662038   0.02103229   5.22   0.00158798    1.449    0.310
        57 -10.5916     47.2937    229.1569   3.4177967859e+01  -4.2456559884e+01  0.008601489      0.00756 -69.11 0.0006372302    1.259    0.206
        58 -10.0126    193.1773    195.1804   3.1661964883e+01  -4.1927216224e+01   0.01682452  0.008480152  84.30  0.001096561    4.835    0.793
        59  -9.7753     67.6815     47.0935   3.2327448078e+01  -4.4321214654e+01  0.008898019  0.008401281  49.87 0.0004636158    1.087    0.080
        60 -12.6924    222.9885     30.8363   2.9769019270e+01  -4.3498610484e+01   0.04015573    0.0212221 -45.08  0.003635884    1.987    0.497
        61 -10.7745     20.1896    247.7331   3.4748386989e+01  -4.2413581559e+01  0.009065896  0.008554482 -58.11  0.001137306    1.109    0.099
        62  -9.3588     86.0000    240.8279   3.3675713815e+01  -4.2095013478e+01   0.01012824  0.003726856  60.92 0.0005639267    2.803    0.643
        63 -10.9359     60.5590     21.4348   3.2215818188e+01  -4.4644184220e+01   0.01173052   0.01095007 -21.92 0.0007600411    1.037    0.035
        64 -10.9363     69.1760    194.5903   3.3555631357e+01  -4.2703553274e+01   0.01186408   0.01064517  88.41 0.0007269884    1.231    0.188
        65  -9.2419    163.7885    237.2161   3.2459753252e+01  -4.1656318366e+01  0.008735544  0.007356938  19.71 0.0003803115    1.277    0.217
        66 -10.6723     89.8239    249.1980   3.3685263035e+01  -4.1980147416e+01   0.01178999  0.008488226  50.82 0.0006001473    1.405    0.288
