#   1 NUMBER                 Running object number                                     
#   2 MAG_AUTO               Kron-like elliptical aperture magnitude                    [mag]
#   3 X_IMAGE                Object position along x                                    [pixel]
#   4 Y_IMAGE                Object position along y                                    [pixel]
#   5 X_WORLD                Barycenter position along world x axis                     [deg]
#   6 Y_WORLD                Barycenter position along world y axis                     [deg]
#   7 A_WORLD                Profile RMS along major axis (world units)                 [deg]
#   8 B_WORLD                Profile RMS along minor axis (world units)                 [deg]
#   9 THETA_WORLD            Position angle (CCW/world-x)                               [deg]
#  10 FWHM_WORLD             FWHM assuming a gaussian core                              [deg]
#  11 ELONGATION             A_IMAGE/B_IMAGE                                           
#  12 ELLIPTICITY            1 - B_IMAGE/A_IMAGE                                       
         1 -19.5427    226.9311     89.7808   5.2226950314e+01   1.6640303789e+01       6.7963      5.09376 -42.22   0.02579497    1.207    0.172
         2 -11.1280    142.4279     15.7479   4.5527792960e+01   4.7452171533e+01    0.2642799    0.1700753 -51.22  0.001184203    1.790    0.441
         3 -12.6159    119.3141      9.8549   4.7847788037e+01   5.3612430193e+01    0.6547897    0.3985666  45.08  0.002554939    1.476    0.323
         4 -10.0701    196.8633     12.0410   3.7229732037e+01   3.4462148939e+01     0.232684    0.1734122  65.18 0.0009893519    1.295    0.228
         5 -10.0132    225.5476      7.2471   3.3546873685e+01   2.8372573671e+01    0.2130456    0.1406256  81.63 0.0005047509    1.352    0.261
         6  -9.3743    212.8024      5.1689   3.4120767282e+01   3.1455306914e+01    0.1494395    0.1362802  69.81 0.0002342676    1.281    0.219
         7 -10.5862    204.2968      8.5622   3.5661084588e+01   3.3071427221e+01    0.3324689    0.1717516  57.89  0.001405469    1.940    0.485
         8 -10.4488    198.9230    164.1745   7.4206142737e+01   8.8428746484e+00    0.3810304    0.2593175  65.56  0.001370185    2.279    0.561
         9 -11.5960    233.0493    194.3039   7.3714397925e+01  -2.2680399990e+00    0.4918672    0.2669259  14.31  0.002195735    2.524    0.604
        10 -13.8045    141.6510    174.5842   8.9166365594e+01   1.7838775428e+01      1.40727     1.220135  42.99  0.007512386    1.105    0.095
        11 -11.6000    133.8661    169.5922   9.0101638740e+01   2.0422100288e+01    0.4620989     0.355039 -64.10  0.001288304    1.442    0.307
        12 -12.9515    156.7170    191.5766   8.8825213322e+01   1.1459714919e+01     1.717663    0.9821308  66.83   0.00417994    3.811    0.738
        13 -13.4822    163.1633    186.9550   8.6516787237e+01   1.1194147393e+01     1.623652     1.198913  64.08  0.006548538    1.762    0.433
        14 -11.9865    156.9282    169.5738   8.4546881088e+01   1.5967303363e+01    0.5778536    0.3728945 -54.55 0.0009320966    1.725    0.420
        15 -10.8798    153.8057    165.1017   8.4365954884e+01   1.7538427790e+01     0.321794    0.2857016  84.99 0.0008681759    1.326    0.246
        16 -11.2288    241.0406    188.4584   7.1168918916e+01  -2.5952514200e+00    0.3210933    0.1685697  27.62   0.00118907    2.058    0.514
        17  -9.0030     49.5793    190.4430   1.1406290812e+02   2.8829624847e+01    0.1274966    0.1112953  83.96 9.908197e-05    1.062    0.059
        18 -11.4792    247.4943    187.5023   6.9867965360e+01  -3.4262485876e+00    0.4407661    0.2850255  38.13  0.002070713    1.682    0.405
        19 -11.2098    246.4963    182.9707   6.9161328608e+01  -2.5827170772e+00    0.3683617    0.3175661 -14.64  0.001934069    1.100    0.091
        20 -11.5098    247.8821    178.0997   6.7972903062e+01  -2.0408168288e+00    0.6227056     0.485007   1.38   0.00383532    1.214    0.176
        21 -10.0421    238.1865    249.6135   8.2451320319e+01  -1.0648750658e+01    0.1666987   0.08601732  22.60 0.0009504042    1.691    0.409
        22 -13.0541      3.0593    137.6243   1.2047843102e+02   4.5738134562e+01    0.3424883    0.3001699 -15.68   0.00239409    1.482    0.325
        23 -11.0110    106.0689    180.2917   9.8940690022e+01   2.2979431540e+01    0.2596167     0.208063 -77.52 0.0003956917    1.328    0.247
        24 -14.2886     40.0800    130.8988   1.0908373781e+02   4.4349526027e+01     1.016007    0.8551785 -88.29  0.004311826    1.139    0.122
        25 -11.9570    160.5567    128.6882   7.4524881622e+01   2.4013084615e+01    0.5175483    0.4822545 -49.75  0.001663274    1.082    0.076
        26 -12.3579    151.5041    126.3237   7.6121917847e+01   2.6513195334e+01    0.7127998    0.4887644 -38.20  0.003148157    1.496    0.331
        27 -10.4747    115.9931    128.0158   8.5891708989e+01   3.3571523213e+01    0.2476656    0.1928911  84.33  0.000370557    1.657    0.397
        28 -13.2424     60.6330    126.5847   1.0207506711e+02   4.3043619118e+01     0.657264    0.5673382  34.21 0.0008281441    1.260    0.207
        29 -10.8683    106.5039     91.8958   7.9168624138e+01   4.3685934757e+01     0.418455    0.1488728 -45.87  0.001377397    2.785    0.641
        30 -10.3187    204.3405    161.9329   7.2639380218e+01   8.2294028294e+00    0.4884396    0.2428106 -54.33  0.001287435    2.910    0.656
        31  -9.2861    240.5412    174.5140   6.8517102309e+01  -3.1819102327e-01    0.1331149    0.1118767 -12.56 0.0002047398    1.012    0.012
        32 -10.3974     99.6379     85.1223   7.9292067611e+01   4.6486914925e+01    0.2588301    0.2110757  29.59 0.0003578541    1.251    0.201
        33 -10.4140    106.4644     84.0340   7.6846683939e+01   4.5351935343e+01    0.2384754    0.1473862 -43.36  0.001037361    1.611    0.379
        34 -10.9862    135.4666     74.1945   6.5721789945e+01   4.0858667903e+01    0.8183214    0.2939419 -28.09  0.002058185    5.410    0.815
        35 -10.6247    161.5376     76.0547   6.0226577312e+01   3.4252128711e+01    0.3293081    0.2453038 -44.10  0.000780012    1.356    0.262
        36 -10.2254    160.6874     72.6836   5.9437832715e+01   3.5049326755e+01    0.2371002    0.1839422  42.13 0.0004694512    1.338    0.253
        37 -11.1997    156.2558     72.5264   6.0341786049e+01   3.6160142249e+01    0.4501363    0.2296159 -47.36  0.001524127    2.106    0.525
        38  -9.6338    190.4927    159.0470   7.4849440558e+01   1.1466888862e+01    0.2427256    0.2016141  61.82 0.0007111274    1.452    0.311
        39 -10.3019    108.9547     68.9604   7.1341357342e+01   4.7792348621e+01    0.3261699    0.2023663  45.90  0.001150131    1.586    0.370
        40 -11.2166    133.1110     64.4292   6.3268671349e+01   4.3141782090e+01    0.3542823    0.2742495  21.27 0.0003817524    1.513    0.339
        41 -11.5185    152.5791     60.9575   5.7698121931e+01   3.9003252149e+01    0.4387297    0.3062762  87.07  0.001954508    1.883    0.469
        42 -10.5177    135.0527     58.4553   6.0889760931e+01   4.3673193197e+01    0.2728634    0.2096708 -10.56 0.0006560095    1.566    0.361
        43  -9.5818    190.8984    180.3006   7.9190261598e+01   7.3220812735e+00    0.2436719    0.1736098 -20.71 0.0008667947    1.532    0.347
        44 -11.4607    160.3848     49.8006   5.2788203673e+01   3.8777964139e+01    0.2998683    0.2696576  34.17  0.001146623    1.207    0.172
        45 -11.1989    137.4396     49.8726   5.7571867054e+01   4.4432292463e+01    0.4201595    0.2448049 -13.97  0.001690652    2.514    0.602
        46 -12.1651    140.5232     42.6334   5.4558406525e+01   4.4719558127e+01    0.6071245    0.3854797  -4.48  0.002621934    2.350    0.574
        47 -12.2192    149.5132     47.3861   5.4187655092e+01   4.1831362699e+01    0.4513043    0.3872254 -14.39 0.0006283915    1.324    0.245
        48 -11.1714    164.4038     41.8682   4.9720636449e+01   3.8889005831e+01    0.4275375    0.2650604   2.41  0.001721777    2.894    0.654
        49 -11.5834    134.4818     41.4844   5.5500239527e+01   4.6352639953e+01    0.2646974    0.2519741  68.74 0.0008665134    1.062    0.059
        50 -11.5518    134.6917     37.6533   5.4187802829e+01   4.6817174220e+01    0.4259825    0.2546311  19.86   0.00174309    2.599    0.615
        51 -11.9225    130.4665     33.2249   5.3628992389e+01   4.8411625390e+01    0.4682161    0.2974148   1.79   0.00150276    2.293    0.564
        52 -11.0793    123.4124     30.9186   5.4422624900e+01   5.0389086577e+01    0.2554918    0.1766555  -3.65 0.0009921152    1.818    0.450
        53 -11.6581    114.9962    170.0287   9.4920285518e+01   2.3804540073e+01    0.3482824    0.2625926  82.62  0.001053155    1.632    0.387
        54  -9.3904    176.4608    154.3026   7.6839478754e+01   1.5240634941e+01    0.1959731    0.1445084 -56.16 0.0009114607    1.541    0.351
        55  -9.5382    148.6496    151.3715   8.2681286150e+01   2.1583205464e+01    0.2205674    0.1786091  82.15 0.0006231008    1.574    0.365
        56 -10.8505    139.8337     21.6898   4.7906109462e+01   4.7471260152e+01    0.2222059    0.1863296  11.17 0.0007447323    1.390    0.281
        57 -10.8553    133.6256    147.8104   8.5671917534e+01   2.5434919351e+01     0.599411    0.3213542 -66.42  0.002060916    2.899    0.655
        58  -9.0859    162.2773     20.3608   4.3765245581e+01   4.2043657215e+01    0.1364323    0.0976442  34.53 0.0005617323    1.664    0.399
        59 -13.7550    184.7578    239.3254   9.0848415468e+01  -1.6844924860e+00     1.716156     1.044138  23.90  0.009457741    1.518    0.341
        60 -11.4265    133.2482    143.2545   8.4759258618e+01   2.6560647728e+01     1.108268    0.2721539 -54.04  0.002526411    5.871    0.830
        61 -13.5600     89.3531    119.1199   9.1606903052e+01   4.0592942260e+01     1.614971    0.8611841 -59.60  0.004073934    1.956    0.489
        62 -14.0289    198.2762    242.4713   8.8693024219e+01  -4.1908826946e+00     1.582072    0.7575365  34.30  0.008149248    1.763    0.433
        63 -14.1854     66.2573    142.7838   1.0331406117e+02   3.8253760064e+01     1.534092     1.091876  67.36  0.006970179    1.590    0.371
        64 -12.6491    229.9356    238.9778   8.2208198706e+01  -8.2263786818e+00    0.6454076    0.4298179   3.58  0.004045452    1.371    0.271
        65 -14.9070     72.3998    124.8703   9.8100291141e+01   4.1852467037e+01     1.822007     1.518831  42.80  0.005509339    1.266    0.210
        66 -10.2080    227.6773    214.9789   7.8514154672e+01  -4.5800498514e+00    0.2054635     0.163412  27.15 0.0002993829    1.252    0.201
        67 -10.4500    165.1236    201.3330   8.8700261292e+01   8.0400255993e+00    0.2309643     0.204205 -47.77 0.0003508231    1.270    0.213
        68 -12.0533    111.4111    167.4707   9.5372657900e+01   2.5040497344e+01    0.3693238    0.3235483 -31.78  0.001961771    1.295    0.228
        69 -10.4814    192.3465    193.9816   8.1551268097e+01   4.5619095216e+00    0.8220365    0.4081956 -62.43  0.002058702    8.233    0.879
