#   1 NUMBER                 Running object number                                     
#   2 MAG_AUTO               Kron-like elliptical aperture magnitude                    [mag]
#   3 X_IMAGE                Object position along x                                    [pixel]
#   4 Y_IMAGE                Object position along y                                    [pixel]
#   5 X_WORLD                Barycenter position along world x axis                     [deg]
#   6 Y_WORLD                Barycenter position along world y axis                     [deg]
#   7 A_WORLD                Profile RMS along major axis (world units)                 [deg]
#   8 B_WORLD                Profile RMS along minor axis (world units)                 [deg]
#   9 THETA_WORLD            Position angle (CCW/world-x)                               [deg]
#  10 FWHM_WORLD             FWHM assuming a gaussian core                              [deg]
#  11 ELONGATION             A_IMAGE/B_IMAGE                                           
#  12 ELLIPTICITY            1 - B_IMAGE/A_IMAGE                                       
         1 -14.4999    201.1265     39.8112   4.3667003614e+01   3.0129776533e+01      1.86293     1.401179  32.94  0.005876923    1.794    0.443
         2 -14.4754    212.4959     28.4622   3.9559047554e+01   2.8901022639e+01     1.266107     1.021218   1.86  0.003216175    1.819    0.450
         3 -11.6931      3.1182      3.0388   9.0201765576e+01   7.4228614503e+01    0.3835458    0.2266776 -17.95  0.002570391    1.386    0.278
         4 -13.2332    237.7410      4.2098   3.2010272120e+01   2.6054791014e+01    0.8091317     0.441642  80.08  0.004664115    1.667    0.400
         5  -9.4211     47.2812    228.6307   1.1795669085e+02   2.0828647737e+01    0.2160213    0.1255122  82.59  0.001078775    1.685    0.406
         6 -12.1656    139.4408    248.7951   1.0127444716e+02   3.8683181937e+00    0.4045095    0.3907902  25.32  0.002892812    1.191    0.160
         7 -13.8339     69.6097    172.2758   1.0696473465e+02   3.0526040784e+01     2.393974     1.172529 -30.92  0.006622791    6.567    0.848
         8 -16.5909     47.0500    196.2057   1.1521780808e+02   2.7817488475e+01      13.3426     3.754845  48.03   0.04120518    3.249    0.692
         9 -14.2896     56.9442    239.0601   1.1685484370e+02   1.7562432880e+01    0.7776333    0.5326038  77.38  0.001993848    1.337    0.252
        10 -15.7331     29.5770    249.6447   1.2268438643e+02   1.8803001851e+01     3.834169     1.093094  26.97   0.01015107   10.943    0.909
        11 -13.2398     10.8505    188.6727   1.2263308818e+02   3.3263228380e+01     0.350265     0.308811  29.35  0.001114178    1.462    0.316
        12  -9.5982    120.0106    194.0032   9.7769240987e+01   1.7527151217e+01    0.2110061    0.1920064  59.93 0.0003570835    1.055    0.052
        13 -13.7799     69.0662    155.8802   1.0467839837e+02   3.4610274989e+01    0.6569849    0.5877998  -6.86  0.001493925    1.386    0.278
        14 -11.2242     61.3990    198.8981   1.1222123578e+02   2.5413922603e+01    0.3235128    0.2373557 -57.77 0.0005443351    1.494    0.331
        15 -14.7757     68.5116    144.2324   1.0291467116e+02   3.7582489675e+01     3.752791     2.094578  83.09   0.01042214    2.963    0.663
        16 -10.9691    107.7217    204.0184   1.0215077648e+02   1.7428952763e+01    0.2512007    0.2208139  69.21 0.0004343186    1.103    0.093
        17 -11.8645    109.6189    200.8333   1.0125386843e+02   1.7801950190e+01    0.4619893    0.2739803 -49.91  0.001751781    1.867    0.464
        18  -9.5026     69.7125    183.9047   1.0849150649e+02   2.7743755707e+01    0.1883744    0.1555647  88.47 0.0003674725    1.130    0.115
        19 -10.0887     99.3558    180.8103   1.0069746712e+02   2.3977185146e+01    0.2497188     0.222957  40.16 0.0005036563    1.132    0.116
        20 -10.2534    143.4569    179.0128   8.9576462503e+01   1.6537794942e+01    0.2183098     0.147165 -49.78 0.0004685967    1.564    0.361
        21 -10.2977    188.7480    177.3079   7.9040537038e+01   8.2847251671e+00    0.3784312    0.1960741 -47.67  0.001441668    2.105    0.525
        22 -10.5875    146.5115    172.0301   8.7503175268e+01   1.7464713535e+01    0.3193701    0.2174901 -70.24  0.001391976    1.998    0.500
        23  -9.8012     34.6651    171.4962   1.1568345138e+02   3.4959208051e+01    0.2250729    0.1714316  81.08 0.0006772317    1.164    0.141
        24 -10.3057    137.1398    167.3566   8.8856343024e+01   2.0298463843e+01    0.4122834    0.2369917  56.83  0.001638426    2.150    0.535
        25 -14.7431     23.7215    225.8403   1.2238733009e+02   2.4062259430e+01     1.972299    0.7698093  71.09  0.003576909    2.751    0.636
        26 -10.4878    230.4895    166.5170   6.8664348789e+01   2.6736103384e+00    0.2448101    0.1171544 -46.96  0.001032276    2.344    0.573
        27  -9.4547    133.2036    162.9602   8.8958462535e+01   2.2047157542e+01    0.2861995    0.1891976  55.42  0.001255127    1.672    0.402
        28 -10.0256    149.0490    176.5352   8.7779010680e+01   1.6009148133e+01    0.2243319    0.1971527 -47.90 0.0004950333    1.196    0.164
        29 -15.9361      3.8994    182.6501   1.2374407802e+02   3.5198343505e+01     9.194503    0.3621816 -72.21   0.02550708    6.654    0.850
        30 -12.3299     87.9220    153.9244   9.9170012936e+01   3.2277076658e+01    0.6427058    0.4623276 -24.31  0.002972072    1.935    0.483
        31  -9.4526    154.5773    155.7568   8.2204031086e+01   1.9409207867e+01    0.2054868    0.1482932 -58.79 0.0004520659    1.566    0.361
        32 -11.2432    133.7192    144.8006   8.4982999727e+01   2.6109197558e+01     1.201449    0.3208762 -54.96  0.002813857    5.636    0.823
        33 -10.5715    174.5500    149.0406   7.6091153774e+01   1.6718317295e+01    0.2799755    0.2613305  54.16 0.0008743727    1.138    0.121
        34  -9.4150    110.7686    149.0014   9.1972369702e+01   2.9551222398e+01    0.2526036    0.1757408  83.87  0.001057751    2.043    0.511
        35 -10.3432    143.8248    145.9761   8.2676016532e+01   2.3779805010e+01    0.2630914    0.1879884 -79.36  0.001093876    2.029    0.507
        36 -10.5146     37.9671    145.9679   1.1184227279e+02   4.0829532010e+01    0.3117937    0.1732278  42.10  0.001552526    1.871    0.465
        37 -11.6467     25.6544    137.4602   1.1421104441e+02   4.4091340006e+01    0.4078105    0.2615311  51.49  0.001199601    1.674    0.403
        38 -11.7341     29.9148    143.5551   1.1377248489e+02   4.2211503924e+01    0.5521804    0.3728404  25.33  0.003096064    1.739    0.425
        39 -11.0148     81.9670    141.8267   9.8608721036e+01   3.6204366418e+01    0.3030922    0.2335545  66.63 0.0004681813    1.437    0.304
        40 -11.0109    101.9998    139.3743   9.2391345193e+01   3.3465451068e+01    0.5844936    0.3817598 -20.18  0.002305528    2.467    0.595
        41 -12.3608     89.2645    139.1981   9.5991047971e+01   3.5689939993e+01     0.300436    0.2630844 -42.09 0.0005082532    1.187    0.157
        42 -10.6320    105.9757    130.8185   8.9380962874e+01   3.4814557915e+01    0.3676208    0.3230257 -75.21  0.001250957    1.199    0.166
        43  -9.7652     34.5024    139.3736   1.1193927443e+02   4.2805943752e+01    0.2212721    0.1960882  71.07 0.0001826716    1.147    0.128
        44 -11.1485    135.5767    127.3801   8.0425717841e+01   2.9715513130e+01    0.6553874    0.1546812 -48.02   0.00168146    4.328    0.769
        45 -11.7068     44.2221    129.4110   1.0759975328e+02   4.4283583236e+01    0.2800349     0.234084  54.89 0.0009978707    1.283    0.221
        46 -10.1536    160.8547    128.1093   7.4312771133e+01   2.4071233067e+01    0.2500613     0.223662 -82.52  0.001250023    1.271    0.213
        47 -10.8794     98.5352    125.9027   9.0418197489e+01   3.7354417489e+01    0.3217651     0.253889 -14.50  0.001013222    1.599    0.374
        48 -11.1549     38.9238    125.8725   1.0864701004e+02   4.5713644770e+01    0.3289816     0.149029 -57.91  0.001469452    1.859    0.462
        49 -10.5315    116.9949    124.2300   8.4700898088e+01   3.4263921384e+01    0.3175896    0.2050223  10.73  0.001008057    2.631    0.620
        50  -9.2668     89.9746    123.2130   9.2360309954e+01   3.9494964783e+01    0.2054865    0.1730758  64.31 0.0004960433    1.311    0.237
        51  -9.2063     87.2980    120.6832   9.2598205100e+01   4.0558607632e+01    0.3106378    0.1871071  62.55  0.001006084    2.413    0.586
        52 -10.2145    111.3249    129.8933   8.7646406437e+01   3.4029957832e+01     0.290157    0.2458494   7.67 0.0007517197    1.390    0.281
        53 -10.1516    107.7432    118.9765   8.6063080867e+01   3.7304794118e+01    0.2366565    0.2157598  35.66 0.0004051563    1.121    0.108
        54 -11.5584     33.3517    118.6220   1.0921831165e+02   4.8040242475e+01    0.2727811     0.213479 -49.96  0.001604419    1.203    0.168
        55 -15.8030      9.3410    207.7987   1.2413383037e+02   2.9230339476e+01     2.252135     1.037556 -76.89   0.01105235    1.875    0.467
        56  -9.3815    168.0143    112.9975   6.8861960396e+01   2.5620662581e+01    0.2592162    0.1961036 -81.60   0.00113438    1.799    0.444
        57 -11.9576     34.2606    109.9057   1.0744640359e+02   5.0089043233e+01    0.4622968    0.2403173 -57.76  0.002245638    1.602    0.376
        58 -10.2481    205.4569    110.1163   6.0576596351e+01   1.7731560121e+01    0.3048427    0.2229902  46.33 0.0008743525    1.454    0.312
        59 -10.3725    115.9808    109.1294   8.1150494226e+01   3.7952173676e+01    0.4056599    0.2235401  41.37  0.001625678    1.836    0.455
        60 -10.2237    134.5717    105.8079   7.5118455894e+01   3.4722253883e+01    0.3917007     0.152249 -46.56  0.001290631    2.611    0.617
        61  -9.6581    139.6056    106.1413   7.3892767702e+01   3.3528945122e+01    0.2548333    0.2180757  64.53 0.0007176037    1.262    0.208
        62 -10.7381     33.3120    100.2899   1.0598401031e+02   5.2497925091e+01    0.2602432    0.2396387  37.02 0.0009423327    1.252    0.201
        63 -11.0941     38.4579    102.5056   1.0463721021e+02   5.1480571128e+01    0.2487076    0.2006807 -49.41 0.0009147222    1.102    0.093
        64 -10.5259    241.4993    101.5021   5.2794080930e+01   1.1712701978e+01    0.1369777    0.1193885 -45.66 0.0008106586    1.013    0.013
        65 -10.9307     41.3111    103.6777   1.0389070247e+02   5.0912274989e+01    0.2335465    0.2051628  83.55 0.0009719342    1.263    0.208
        66 -10.0303    127.3270     94.5293   7.3920248191e+01   3.8722883364e+01    0.3426622    0.2203488  67.61  0.001226461    2.212    0.548
        67 -10.1420     52.8763     90.8604   9.6937636969e+01   5.2658014706e+01    0.2167336     0.172239 -33.24 0.0004628421    1.212    0.175
        68  -9.8082    155.9623     87.9760   6.4850039214e+01   3.3408350342e+01     0.346586    0.2019241 -61.59  0.001284017    2.453    0.592
        69  -9.3571     74.9361     85.1183   8.7518705696e+01   5.0868203353e+01     0.202712    0.1902986  72.33 0.0003085971    1.259    0.205
        70  -9.4198    114.3942     83.8242   7.4417364942e+01   4.3740412164e+01    0.3557034    0.2279429 -87.43  0.001141121    3.933    0.746
        71 -10.2197    158.8728     82.1484   6.2543391639e+01   3.3800793904e+01     0.238066    0.2110371 -78.93 0.0005496997    1.220    0.180
        72  -9.5290     70.0183     81.8079   8.8302161846e+01   5.2357695217e+01    0.1979688    0.1870551  65.35  0.000484777    1.254    0.203
        73  -9.9435     54.1702     65.3657   8.9295379198e+01   5.8085234730e+01    0.2154978    0.1892017  57.16 0.0004057094    1.492    0.330
        74 -10.8313     13.2758     59.7908   1.0488341912e+02   6.3201132142e+01    0.2416127    0.2163152 -66.88 0.0004725255    1.265    0.210
        75 -13.4769    191.2501     46.9132   4.6846758273e+01   3.1544804788e+01    0.9616303    0.6528032  48.52 0.0008915606    1.598    0.374
        76 -16.4590      6.4801    247.0953   1.2659310205e+02   2.1687900789e+01     1.497883     1.276199  64.96   0.01240988    1.306    0.234
        77 -11.3852    140.5784     46.0867   5.5656143041e+01   4.4220061571e+01     0.355135    0.2755699 -87.38 0.0007407385    1.554    0.356
        78  -9.7479    141.1733     38.8621   5.3207270550e+01   4.5070902110e+01    0.2068592    0.1853786 -83.38 0.0004317745    1.195    0.163
        79 -10.6807     59.2692    220.6255   1.1483041022e+02   2.0975775860e+01    0.2748046    0.2640559 -10.53  0.001560749    1.457    0.313
        80 -10.8903      2.0195     29.2240   1.0153722781e+02   6.9917943943e+01    0.2236844    0.1428332 -55.35 0.0008027644    1.464    0.317
        81 -10.3638    198.0018     23.6417   3.9986848532e+01   3.2899606487e+01    0.2556952    0.1935158  -4.96 0.0009770531    1.887    0.470
        82 -11.3291      2.8985     21.7669   9.8426794548e+01   7.1210349183e+01    0.2857151    0.1041944 -41.13  0.001490354    2.031    0.508
        83  -9.3456    189.5196     15.0097   3.8764804501e+01   3.5909967729e+01    0.1816101    0.1274471 -33.78 0.0007389595    1.547    0.354
        84 -11.9950    193.3843    195.6236   8.1647278939e+01   4.0883866434e+00    0.9819471    0.5705178 -65.28  0.003506853    4.235    0.764
