#   1 NUMBER                 Running object number                                     
#   2 MAG_AUTO               Kron-like elliptical aperture magnitude                    [mag]
#   3 X_IMAGE                Object position along x                                    [pixel]
#   4 Y_IMAGE                Object position along y                                    [pixel]
#   5 X_WORLD                Barycenter position along world x axis                     [deg]
#   6 Y_WORLD                Barycenter position along world y axis                     [deg]
#   7 A_WORLD                Profile RMS along major axis (world units)                 [deg]
#   8 B_WORLD                Profile RMS along minor axis (world units)                 [deg]
#   9 THETA_WORLD            Position angle (CCW/world-x)                               [deg]
#  10 FWHM_WORLD             FWHM assuming a gaussian core                              [deg]
#  11 ELONGATION             A_IMAGE/B_IMAGE                                           
#  12 ELLIPTICITY            1 - B_IMAGE/A_IMAGE                                       
         1 -15.1039    174.0624     81.1096   5.6406751773e+01   3.0382261601e+01     6.939495     3.694167  50.05   0.01559551    1.915    0.478
         2 -14.5433    227.1742     71.2783   4.5610639331e+01   2.0051551556e+01     1.853865     1.038168 -38.12  0.009189368    1.618    0.382
         3 -14.4816    247.7426     81.8920   4.5439059809e+01   1.4284927493e+01     2.051333     1.131534 -43.33   0.00447636    1.505    0.335
         4 -13.3453    247.8704      5.3558   2.9723653220e+01   2.4373257537e+01     1.320715    0.6850289 -58.83  0.007923692    1.583    0.368
         5 -14.5578    242.1370     19.3400   3.2868851451e+01   2.3956994192e+01     1.806314     1.006991 -20.18  0.007522617    2.750    0.636
         6 -15.0534    225.6223     86.9785   4.9418407691e+01   1.7876262867e+01     8.121303     2.325425 -50.96   0.02242257    5.181    0.807
         7 -14.1704    249.9616     33.5379   3.5121245997e+01   2.0676502306e+01     1.143066    0.5870914 -31.48  0.003617009    2.066    0.516
         8 -14.4372    215.5499     25.0049   3.6337746329e+01   2.8914110017e+01       4.7652     2.904059   5.26   0.01506087    4.201    0.762
         9 -11.1493    144.4460     29.2790   4.6826911061e+01   4.5181781425e+01    0.5455486    0.2273658 -28.46  0.002256105    2.612    0.617
        10 -11.7781    133.6438     27.3723   4.8222465298e+01   4.7996177333e+01    0.9061374    0.2380721 -29.97  0.003100963    3.847    0.740
        11 -11.4454    135.3083     14.2820   4.3670968157e+01   4.8957311207e+01    0.4462502    0.3330027 -15.56  0.002579076    1.568    0.362
        12 -10.2462    136.3297      6.5625   4.1038813753e+01   4.9406571917e+01    0.4839251    0.2235086  -8.09  0.001870045    3.299    0.697
        13 -10.8554    178.4906     23.8868   4.0147938985e+01   3.7579295937e+01    0.6676496    0.3876983  77.26  0.003364882    1.663    0.399
        14 -10.1429     79.0365     15.4338   5.7033832661e+01   6.1438856032e+01    0.4976481    0.1832982 -19.70  0.001968612    3.388    0.705
        15  -9.5610    156.0000     11.9952   3.9815759711e+01   4.4208010677e+01    0.4466634    0.2393728  -1.25  0.001920407    3.217    0.689
        16  -9.6901    157.0682      7.7825   3.8462320730e+01   4.4342241121e+01    0.2283478    0.2133663  37.23 0.0006230759    1.224    0.183
        17 -10.1385    128.2513     14.4289   4.4960025611e+01   5.0621086803e+01    0.2433762    0.2302425 -27.70 0.0006479747    1.192    0.161
        18  -9.5897     90.0112     14.1994   5.3371598093e+01   5.9296186556e+01    0.2055961    0.1724367   2.07 0.0005182477    1.215    0.177
        19  -9.4412    186.9834     12.0824   3.6124774819e+01   3.6838652857e+01    0.2373288    0.1839514 -21.53  0.001040103    1.574    0.365
        20 -10.0209    115.9878     12.5053   4.6651148563e+01   5.3670761399e+01    0.2900275    0.2319467  70.06  0.001127143    1.227    0.185
        21 -11.3012    120.3606      8.8748   4.4528356837e+01   5.2976808920e+01    0.4336644    0.3377053  53.74  0.001619703    1.106    0.096
        22 -10.8332    210.0869      4.2119   3.2146177850e+01   3.2384351331e+01    0.2133565     0.194142 -19.66 0.0005829001    1.446    0.308
        23  -8.4640    205.6863      4.4960   3.2568682814e+01   3.3331109865e+01    0.1146991   0.09933164 -72.20 0.0001629963    1.096    0.088
        24 -15.2116    220.4990     33.8951   3.7862778230e+01   2.6742965514e+01     10.71489     4.234766 -23.17   0.03863432    4.301    0.768
        25  -8.7152    191.8551     11.0761   3.5377686370e+01   3.5810590205e+01    0.1967714    0.1381889  43.04  0.001124459    1.776    0.437
        26 -15.3575    247.3419     58.8049   4.0574305854e+01   1.7799132295e+01     4.942366     2.024792  73.61  0.005393563    3.192    0.687
        27 -14.2061    235.7680     56.1494   4.1217924596e+01   2.0505315319e+01    0.9181435    0.4076908 -45.25  0.001373905    1.909    0.476
        28 -10.4572    249.9690    175.0048   6.4629442130e+01  -1.3527699842e+00    0.4400376    0.1582337 -32.71  0.001792172    2.582    0.613
        29 -10.2835    201.0797    173.5253   7.3187556123e+01   6.9150765307e+00    0.3486219    0.2655727 -26.58   0.00185604    1.240    0.193
        30 -13.0515      6.5855    163.7865   1.1958853867e+02   3.9067407133e+01    0.9090711    0.6527552 -80.47  0.004033061    1.128    0.113
        31 -10.0302    214.3349    169.1139   6.9695382254e+01   5.3922196126e+00    0.4095193    0.2655213  48.43  0.001272605    1.835    0.455
        32 -11.0600    242.2985    165.6681   6.4021973847e+01   1.3423855833e+00    0.3251446    0.2676458 -53.04  0.001947916    1.498    0.332
        33  -8.7807    201.9741    245.9369   8.6198524232e+01  -5.3042561211e+00    0.1836779    0.1502719  13.18 0.0005007503    1.064    0.060
        34  -8.8393    159.5219    158.5083   7.8951460254e+01   1.7822145628e+01       0.1516    0.1463894 -12.40 -3.544475e-05    1.007    0.007
        35 -10.9380    191.5697    153.3337   7.0777264940e+01   1.2581610813e+01    0.6603049    0.3442281 -46.05   0.00274963    1.901    0.474
        36 -10.0980    204.6919    153.4141   6.8179380459e+01   1.0053512855e+01    0.5122163    0.3595071 -72.43  0.002240529    2.432    0.589
        37 -10.9200    247.3889    158.1609   6.1660202306e+01   1.7837482564e+00    0.5521653    0.4340687  87.61  0.002997932    2.302    0.566
        38  -7.9113    176.3166    154.6312   7.4299801066e+01   1.5316339049e+01    0.1530379    0.1219375 -81.95 0.0007036642    1.783    0.439
        39 -12.2962     67.1691    142.0613   1.0018872087e+02   3.8169969078e+01     1.554427     1.137966  56.79  0.006195754    1.512    0.339
        40 -12.1942     52.7092    145.0109   1.0491106819e+02   3.9286554696e+01    0.8132465    0.4644991 -72.32  0.001880626    1.713    0.416
        41 -12.1180     38.1495    150.8682   1.0991155131e+02   3.9437027103e+01    0.5487084     0.405359   9.25  0.001308775    1.763    0.433
        42 -12.6799     45.7536    147.3582   1.0727222558e+02   3.9500449447e+01    0.8812767    0.6701812 -72.33  0.002664257    1.176    0.149
        43 -10.5174    132.9144    143.9228   8.2208312174e+01   2.6399066036e+01     1.380776    0.5171359 -58.22   0.00380804    4.135    0.758
        44  -9.0104    146.6503    148.3130   7.9754856496e+01   2.2644535975e+01    0.1588455    0.1251848  82.79 0.0007046246    1.722    0.419
        45  -9.2744    222.8221    145.4835   6.3096450028e+01   8.1620061241e+00    0.1855512     0.140588  44.86 0.0006450593    1.491    0.329
        46  -9.4326    198.6556    144.4765   6.7363988141e+01   1.2934642526e+01    0.3178911    0.2443177 -87.04  0.001486232    2.021    0.505
        47 -10.6421    177.9824    142.5202   7.1179428537e+01   1.7487604643e+01    0.5712242    0.2783068  27.37  0.001847947    3.442    0.709
        48  -9.4454    192.2619    144.0705   6.8548272836e+01   1.4281090956e+01    0.2448778     0.218069  59.35 0.0003662198    1.293    0.227
        49 -10.3444     26.8047    143.4358   1.1210819019e+02   4.2403199699e+01    0.2700864    0.1873761  76.10  0.001470867    1.514    0.340
        50  -9.8011    158.9890    142.8193   7.5527434159e+01   2.1342125184e+01    0.2935464    0.2208066 -44.45  0.001383173    1.299    0.230
        51 -10.3914    145.8714    141.8001   7.8445748600e+01   2.4268814158e+01    0.3527062     0.256226 -82.40  0.001471761    2.071    0.517
        52 -11.1781    136.0097    127.3366   7.7445223590e+01   2.9581337966e+01    0.8068276    0.4746481 -68.04  0.002833831    2.772    0.639
        53  -9.9680    141.2762    133.6348   7.7648351281e+01   2.7059323150e+01      0.41009    0.2435725 -61.04  0.001456819    2.131    0.531
        54  -8.7760    200.8640    228.6903   8.3602823387e+01  -2.5742065880e+00     0.197102    0.1722334 -81.26 0.0007714501    1.982    0.496
        55  -9.0329    211.3981    136.3384   6.3104704809e+01   1.1994366024e+01    0.2753331    0.1291064 -35.43 0.0007977736    2.033    0.508
        56  -8.4145    238.4614    223.4625   7.5693252879e+01  -7.0804973216e+00    0.1232504   0.09613167  -3.50 8.796864e-05    1.001    0.001
        57  -9.9615    142.8462    136.8335   7.8023611628e+01   2.6011309328e+01    0.3769305    0.2922656 -78.01 0.0009126591    1.688    0.407
        58  -9.4452    207.0302    134.0249   6.3379659095e+01   1.3286676672e+01    0.2181204    0.1997547 -39.31 0.0003357361    1.057    0.054
        59 -10.7919    201.3905    131.9291   6.3953465732e+01   1.4815634095e+01    0.4888733    0.2772582 -31.09  0.002089231    1.825    0.452
        60  -9.0581    167.1104    134.3351   7.1643145504e+01   2.1467482810e+01    0.2404384    0.1939178  24.37 0.0006575834    1.372    0.271
        61 -11.0954    160.3513    128.9083   7.1867052924e+01   2.4063962443e+01    0.5162624    0.3900562 -29.84  0.002411627    1.385    0.278
        62  -8.7310    223.7701    128.6127   5.9202353035e+01   1.1028903962e+01     0.175035    0.1370333  65.63 0.0004227956    1.608    0.378
        63 -10.0889    171.5446    125.6615   6.8540887507e+01   2.2337017428e+01    0.3280487    0.2697251   8.26  0.001592768    1.446    0.308
        64  -9.5936    143.3284    123.6361   7.4652335171e+01   2.8864531537e+01      0.38471    0.2948413 -76.60  0.001710039    1.720    0.419
        65  -9.6644    135.3990    119.7288   7.5674081850e+01   3.1421609713e+01     0.361691    0.2092061 -44.34  0.001459182    1.690    0.408
        66 -11.3055    134.8353    110.6418   7.3427064488e+01   3.3546275324e+01    0.9823188     0.309867 -43.09   0.00296341    3.126    0.680
        67 -11.3282    135.0680    100.6153   7.0615829677e+01   3.5635951536e+01    0.8052613    0.4705533 -62.61  0.002962971    2.516    0.603
        68 -10.7664    164.4284    118.3038   6.8275011455e+01   2.5415604413e+01    0.4267903    0.3116576 -48.14  0.001115296    1.354    0.262
        69 -10.2697    220.6490    222.1808   7.8703151601e+01  -4.4509986930e+00    0.2187563    0.1800769   9.49 0.0003131474    1.090    0.083
        70  -9.2343    222.6766    117.8740   5.6957222127e+01   1.3162712014e+01    0.2109753    0.1969436  86.95 0.0003197502    1.223    0.182
        71 -10.6284    121.0300    111.7695   7.7436623351e+01   3.6215506738e+01     0.431196     0.328981 -59.06  0.002003664    1.420    0.296
        72 -10.2177    168.3891    115.8185   6.6761326834e+01   2.5052653709e+01     0.362693    0.2413988 -32.38  0.001593251    1.564    0.361
        73  -8.6834     77.0398    108.5259   8.9895026678e+01   4.5051005764e+01    0.2048752    0.1482283  32.87 0.0003883223    1.473    0.321
        74  -9.0660    142.2922    106.9939   7.0542879607e+01   3.2696239275e+01    0.2240401    0.2018116 -40.62 0.0004558618    1.088    0.081
        75  -9.9541    148.4563    104.3637   6.8318704844e+01   3.1869315025e+01     0.348191     0.270251  32.96 0.0006938798    1.400    0.286
        76  -8.1843    211.3311    104.2843   5.5656885442e+01   1.7897277952e+01    0.1390459    0.1122106   7.85 0.0007009098    1.614    0.380
        77  -9.7781    206.7912    103.1417   5.6143432780e+01   1.9063698270e+01    0.2653574    0.2203274 -40.47 0.0002691742    1.108    0.097
        78 -10.2741    167.6049     98.0190   6.2273587107e+01   2.8770544225e+01    0.4236516    0.2605522 -41.42  0.001687389    1.573    0.364
        79  -9.0199    173.4444    101.2320   6.1904485209e+01   2.6815359711e+01      0.29957    0.2097688 -62.84 0.0009403183    1.707    0.414
        80 -11.5834    174.4787     93.6693   5.9697218427e+01   2.8012228876e+01    0.8712519    0.5830216  40.52  0.003967261    1.655    0.396
        81  -9.6294    209.7782     97.5823   5.4309610176e+01   1.9412636110e+01      0.45231    0.2288133 -56.33    0.0017717    2.456    0.593
        82  -8.8813    188.8227    222.2785   8.4904198791e+01   2.8243251557e-01    0.1815289    0.1641995  22.76 0.0005077937    1.176    0.150
        83 -10.7655    142.2268     94.9094   6.7207317621e+01   3.5201477232e+01    0.3522278    0.3149741  82.37  0.001070383    1.256    0.204
        84  -8.7670    190.1503    218.1335   8.3922408185e+01   7.6731713497e-01    0.1906174    0.1564034   4.30            0    1.103    0.094
        85  -8.7400    190.9987    213.2994   8.2900989137e+01   1.4529264291e+00      0.18255    0.1544949  18.01 0.0002551271    1.072    0.068
        86 -10.3167     94.8684     89.8946   7.9019657071e+01   4.6226219122e+01    0.2289022    0.2208246   1.48            0    1.042    0.041
        87 -11.4466    143.2603     67.9012   5.9020808675e+01   3.9966450043e+01    0.4226725    0.3665664  59.95  0.001462586    1.149    0.130
        88 -11.0765     23.7134    163.2312   1.1524601117e+02   3.7771605212e+01    0.4103255    0.2259064  74.21  0.001993502    1.987    0.497
        89 -11.0292    144.3596     59.3798   5.6179368006e+01   4.1093713774e+01    0.3841843    0.3335905 -51.57 0.0007660006    1.201    0.167
        90 -10.2462    140.1684     57.0055   5.6358354208e+01   4.2463683542e+01    0.2939671     0.241997  10.33  0.001527476    1.437    0.304
        91  -9.6717    247.5736    211.2398   7.1918698491e+01  -6.5405177393e+00    0.2128584    0.1506984  21.65  0.000692211    1.367    0.269
        92  -8.1297     72.5925     58.4942   7.6360625791e+01   5.6476956218e+01    0.1384236    0.1241798 -10.73 0.0001077018    1.028    0.028
        93 -10.2446    152.2144     55.2968   5.3316432093e+01   3.9834359656e+01    0.2462837    0.2080463 -43.01 0.0005652866    1.213    0.176
        94 -10.7301    179.7311     51.1262   4.7275568429e+01   3.3807958234e+01    0.6832889    0.3912697  33.95  0.002831188    2.661    0.624
        95 -10.8797    144.5861     50.1556   5.3290278002e+01   4.2431089308e+01    0.5181373    0.2343334  63.31   0.00200937    2.353    0.575
        96  -8.8713    103.5668     46.7818   6.2076191017e+01   5.2380869443e+01    0.1906645    0.1312032 -42.63 0.0007804617    1.601    0.375
        97 -10.8814    164.7960     35.0544   4.5153041540e+01   3.9555576252e+01    0.4080888    0.3332716 -70.09  0.001290588    1.254    0.202
        98 -11.4654    124.0518     34.7370   5.2673387088e+01   4.9393158783e+01    0.8074277    0.3466938 -13.53  0.002545458    4.716    0.788
        99 -10.1355    110.1667     39.6619   5.7733282832e+01   5.1939199263e+01     0.237438    0.1925941 -39.55  0.001260742    1.350    0.260
       100 -10.6188     92.1105     30.5827   5.9309058318e+01   5.7032694317e+01    0.5732185     0.206799 -28.04   0.00221981    3.032    0.670
       101  -9.6782     78.4507     31.6712   6.4004348530e+01   5.9640608391e+01    0.4362402    0.1277857 -31.47  0.001553835    3.590    0.721
       102 -10.0473    157.8201    207.5490   8.8904831699e+01   7.9840256180e+00    0.2382315     0.220865 -18.79 0.0003900713    1.109    0.098
       103  -8.3416    227.0197    206.4946   7.4689287963e+01  -2.9631546476e+00     0.155769    0.1127094  57.62 0.0008083105    2.415    0.586
       104  -8.5754    172.7206    205.2860   8.5276744343e+01   5.8900512141e+00      0.27456    0.1518841  60.74 0.0009542575    3.967    0.748
       105  -9.8901    194.7958    198.3915   7.9393394301e+01   3.4414602068e+00    0.3582202     0.280574 -85.70  0.001762419    2.389    0.581
       106 -10.1529    165.2762     28.8163   4.3308523125e+01   4.0189726786e+01    0.3479861     0.251568 -83.33  0.001339711    1.470    0.320
       107 -10.1958    159.5347     29.5164   4.4381901738e+01   4.1498320554e+01    0.2627315    0.2163109 -66.41 0.0006718382    1.254    0.202
       108  -9.9771    191.7743    192.6569   7.8913982477e+01   4.9884109827e+00     0.535435    0.3243248 -66.21  0.002009338    3.690    0.729
       109  -8.6554    187.9498     31.0657   4.0829845487e+01   3.4497683841e+01    0.1916477    0.1720579 -69.22   0.00100789    1.063    0.059
       110  -8.9988    180.3278    193.3036   8.1432850799e+01   6.8414546847e+00    0.2180059    0.2122694  26.74 0.0001601605    1.178    0.151
       111  -8.9306     42.1113    193.6369   1.1388141052e+02   2.8566591278e+01    0.1668568    0.1495406  67.15 0.0005288859    1.114    0.103
       112  -9.5473    244.9307    193.5103   6.9067822356e+01  -3.5297620890e+00     0.173453    0.1183319  30.61 0.0007001875    1.546    0.353
       113 -11.6505    212.2745    187.5074   7.3823715128e+01   2.4694287387e+00    0.8793334    0.5470036  52.78  0.004180346    2.267    0.559
       114 -10.2480    220.2391    184.2156   7.1663008636e+01   1.7390366682e+00    0.2462494    0.2245951 -20.71 0.0007015673    1.163    0.141
       115 -10.3589    216.6733    182.0101   7.1891365745e+01   2.7037137098e+00    0.2641182    0.2171725 -37.33 0.0007949789    1.242    0.195
       116 -10.4828    249.1558    185.6714   6.6849259748e+01  -2.9167548188e+00    0.3337678    0.2618906 -45.49  0.002058676    1.536    0.349
       117  -9.2285    235.7380    187.4570   6.9493814016e+01  -1.2259888096e+00    0.2096101    0.1571476  43.66  0.001219062    1.654    0.395
       118  -9.3255    236.0000    183.9590   6.8762412062e+01  -6.9740004575e-01      0.25185    0.1211387 -36.81 0.0004876204    1.848    0.459
       119 -12.0397    226.4727    175.4802   6.8763537969e+01   2.2255395181e+00    0.8683689    0.5343171  16.87  0.003895639    2.019    0.505
       120 -11.3909    236.2051    174.7232   6.6888962240e+01   7.9456156731e-01    0.4737985    0.3393809  54.06  0.001659488    1.982    0.495
       121 -10.7941    230.7747    167.8989   6.6448501936e+01   2.8236235455e+00    0.4654637    0.2850756 -46.84  0.002295232    1.728    0.421
       122  -7.9451     44.2409    178.2502   1.1172346991e+02   3.1988018935e+01    0.1176561   0.09488042 -48.76            0    1.402    0.287
