#   1 NUMBER                 Running object number                                     
#   2 MAG_AUTO               Kron-like elliptical aperture magnitude                    [mag]
#   3 X_IMAGE                Object position along x                                    [pixel]
#   4 Y_IMAGE                Object position along y                                    [pixel]
#   5 X_WORLD                Barycenter position along world x axis                     [deg]
#   6 Y_WORLD                Barycenter position along world y axis                     [deg]
#   7 A_WORLD                Profile RMS along major axis (world units)                 [deg]
#   8 B_WORLD                Profile RMS along minor axis (world units)                 [deg]
#   9 THETA_WORLD            Position angle (CCW/world-x)                               [deg]
#  10 FWHM_WORLD             FWHM assuming a gaussian core                              [deg]
#  11 ELONGATION             A_IMAGE/B_IMAGE                                           
#  12 ELLIPTICITY            1 - B_IMAGE/A_IMAGE                                       
         1 -11.4983    117.9398     55.7628   3.4892875831e+01   4.7746760814e+01       1.2895    0.7759941 -76.08  0.003961474    4.337    0.769
         2 -12.1911    119.7814     38.5825   2.8066577684e+01   5.0037449521e+01    0.9184867    0.4310537 -45.47  0.003126492    2.486    0.598
         3 -11.7585     57.5290     31.3238   4.6295529787e+01   6.4537374281e+01     0.744305      0.39735 -35.73 0.0009358832    1.810    0.448
         4 -12.2662    104.7867     13.5085   2.1589690212e+01   5.6923578015e+01    0.5474424    0.4501829 -28.69  0.001994632    1.308    0.235
         5 -13.0812    105.4017     20.4137   2.4419228723e+01   5.5992110880e+01    0.3307478    0.3178881   8.01 0.0004839212    1.078    0.072
         6 -12.3968    113.4288     25.1097   2.4350452588e+01   5.3438715213e+01     0.781415    0.3906275  51.27  0.001989421    1.810    0.448
         7 -12.2435    164.2888     27.6411   1.5444069163e+01   4.0011526366e+01    0.5761901    0.3650616  35.58 0.0004423974    1.889    0.471
         8 -11.2734      6.4698     10.6108   6.5968452104e+01   7.4528872353e+01    0.4857723     0.415494  -5.58  0.003399874    1.203    0.169
         9 -10.4304     12.8405      8.7789   6.0457902620e+01   7.4357976692e+01    0.3873491    0.2344113 -59.46  0.001532273    2.104    0.525
        10 -11.6605     26.3591     28.3537   6.1057269102e+01   6.9363737407e+01    0.4755299    0.3413318 -50.96  0.002113396    1.370    0.270
        11 -11.8068     20.3214     22.0140   6.1914463794e+01   7.1201147607e+01    0.7662238    0.3270715 -37.92   0.00239042    2.105    0.525
        12 -12.0418     15.4052     14.8075   6.1737561192e+01   7.3023969324e+01    0.7773299    0.3222078 -31.68  0.003501378    2.509    0.601
        13 -11.1527    136.5926     22.1873   1.8233572523e+01   4.7866154904e+01    0.6059128    0.4717547  76.63  0.002574411    1.299    0.230
        14 -11.2835    127.5219     16.5140   1.7841118422e+01   5.0845732874e+01    0.6297012     0.450499 -11.88  0.002316452    1.574    0.365
        15 -12.0364     47.8937     12.7819   4.1496897667e+01   6.9128720899e+01    0.7909975    0.3448422  42.96  0.003561761    2.311    0.567
        16  -9.3667     37.2143     11.0053   4.6138479493e+01   7.1079396642e+01    0.2442097    0.1013154 -32.41 0.0007487864    2.376    0.579
        17 -11.5518     35.4575     18.3647   5.1132468852e+01   7.0129821244e+01    0.5928882    0.2477378 -41.05  0.002037275    2.208    0.547
        18 -11.9337     22.6510     10.9665   5.4954192049e+01   7.2981845046e+01    0.5069426    0.3372217   1.06   0.00190518    1.521    0.343
        19 -11.2971    135.0185     14.8928   1.5835538657e+01   4.9066402748e+01    0.6148207     0.278898  55.34  0.002558251    1.938    0.484
        20 -11.0855     67.9289     18.9978   3.5877394538e+01   6.4562648873e+01    0.4274867    0.3229412 -37.85  0.001154169    1.453    0.312
        21 -12.3936    164.6436     18.2293   1.2388380469e+01   4.0972862950e+01    0.5871367    0.3052414  40.86   0.00198169    2.281    0.562
        22 -10.3794    147.5213     16.5866   1.4352364421e+01   4.5618251089e+01    0.6006458    0.2445504  37.75  0.002017724    3.480    0.713
        23 -12.1780    227.7710     15.2878   5.1134112894e+00   2.5942048143e+01    0.4881207    0.2948671 -76.56  0.001389433    1.712    0.416
        24 -11.0692     85.9225     14.7259   2.7387485981e+01   6.1266994529e+01    0.4435157    0.3797238  -2.35  0.001865877    1.164    0.141
        25 -10.3268    218.6940     12.9183   5.2417337141e+00   2.8223481327e+01    0.2979148     0.166996 -31.41  0.001553831    1.668    0.400
        26 -11.1806    192.4470      8.7658   6.4154572876e+00   3.4872833224e+01     0.714041    0.3749683  -6.32  0.003065984    2.793    0.642
        27 -11.8146    212.2073      9.2370   4.8328474452e+00   3.0089019570e+01    0.6196794    0.3833506  -0.22  0.002732872    2.396    0.583
        28 -11.0525    218.7698      3.9412   3.0188789315e+00   2.9094311398e+01    0.3459527    0.2346058  70.65 0.0009214245    1.482    0.325
        29 -11.2733    223.9489      2.7866   2.3860499470e+00   2.8037933622e+01    0.4350632    0.2349818 -74.43  0.000390189    1.875    0.467
        30 -10.5142    168.6966      9.6584   9.1737198617e+00   4.0787541004e+01    0.5715803    0.1703692  59.02   0.00207377    2.830    0.647
        31  -9.1637    163.6700      9.6778   9.7867027272e+00   4.2086607357e+01    0.1870831    0.1464052   9.91 0.0008592716    1.560    0.359
        32  -9.9355    163.4722      6.4956   8.7965633691e+00   4.2434962761e+01    0.4949678    0.2522019  22.99  0.001894774    3.262    0.693
        33 -10.0065    145.4003      9.5371   1.2218017185e+01   4.6874418697e+01    0.2470538    0.2096497  38.72  0.001392207    1.227    0.185
        34  -9.8362    245.9046      1.4229   7.4932742023e-01   2.3466095892e+01    0.1876827    0.1325315  66.97 0.0003632531    1.576    0.366
        35 -11.1058    247.1729      6.1749   1.7192443134e+00   2.2744303872e+01    0.3261527    0.2268495  -6.76  0.001949783    1.931    0.482
        36 -11.3047    242.9008      4.3762   1.5718111463e+00   2.3800676697e+01     0.396743    0.2176872 -59.84  0.002234087    1.634    0.388
        37 -10.2315      1.1599      7.4135   6.8428553711e+01   7.5480569487e+01    0.2808782    0.0780462 -54.05  0.001228189    2.714    0.632
        38 -10.9389      2.1921      2.1149   6.4959866979e+01   7.6399434136e+01    0.3580118    0.2059248 -15.58  0.002124372    1.675    0.403
        39 -10.6291    232.5332      7.1871   2.8577976503e+00   2.5723895171e+01    0.2753884    0.1873027 -58.08  0.001067721    1.280    0.219
        40 -11.4219    233.8394      2.8540   1.7713445072e+00   2.5863969897e+01    0.4773737    0.2245912 -61.39  0.002384747    2.047    0.511
        41 -10.5616    184.9316      6.4792   6.4871423520e+00   3.6957657740e+01    0.3780798    0.2375318 -56.93  0.001066318    1.573    0.364
        42 -10.9110    122.4385      5.4090   1.4450875010e+01   5.3241442328e+01    0.3128428    0.2456597 -25.34 0.0005125018    1.385    0.278
        43  -9.4764     77.8752      7.3301   2.6285755619e+01   6.3903801161e+01    0.2582358    0.1971049  77.19 0.0009452956    1.720    0.418
        44 -10.8002     73.2108      3.5653   2.5855195580e+01   6.5321532307e+01    0.7111682    0.2619028  45.79  0.002912752    2.339    0.572
        45 -10.0734    177.1408      5.9716   7.1195414633e+00   3.8970745203e+01    0.2936058    0.1792389  86.73  0.001017902    1.617    0.381
        46 -10.2748    154.0263      6.2680   9.8973550105e+00   4.4916075011e+01    0.1993698    0.1773019  74.50  0.001167006    1.028    0.027
        47  -8.7780     89.6586      6.6819   2.2408530197e+01   6.1273107371e+01    0.1512639   0.09046081  31.20 0.0004690179    1.714    0.417
        48 -10.6601     41.2875      4.0977   3.9800331849e+01   7.1434838871e+01    0.3587882     0.230287   8.80  0.001140598    1.663    0.399
        49 -10.2741    141.5055      3.7552   1.0741118740e+01   4.8415871135e+01    0.3450181    0.2318759  78.45  0.001751357    1.422    0.297
        50 -11.5184    134.0248      2.7589   1.1489524701e+01   5.0457746899e+01    0.4858852    0.3002009  66.61  0.002314555    1.441    0.306
        51  -9.5423    128.9404      1.2120   1.1701674595e+01   5.1911328522e+01    0.2056994    0.1085777  60.00 0.0009380143    1.629    0.386
        52 -10.9580    105.9756      2.5726   1.6516142200e+01   5.7678227144e+01     0.461983    0.3219185 -77.03  0.002297316    1.873    0.466
        53 -10.9925    206.4113      2.8200   3.6409823129e+00   3.2065762975e+01    0.4582536    0.2461615  88.33  0.002110902    1.860    0.462
        54  -9.7399    157.0090      3.5070   8.6072278170e+00   4.4381907396e+01    0.2628495     0.171931 -56.75  0.001318958    1.617    0.382
        55 -10.1037    152.7656      1.4232   8.4355584923e+00   4.5666422121e+01    0.3453483    0.1826157  84.33 0.0008304046    1.945    0.486
        56 -10.6868    113.2511      3.0379   1.5220096044e+01   5.5802491141e+01    0.2974704    0.2469663  -0.42  0.001697888    1.311    0.237
        57  -9.6685     29.7512      2.5557   4.5437378145e+01   7.3412486615e+01    0.2921558     0.168649 -47.01  0.001180239    2.279    0.561
        58 -10.0657     25.9772      3.7700   4.8581488799e+01   7.3744622987e+01    0.1774621    0.1435564  -9.82  0.001171894    1.026    0.025
        59 -10.4178     22.3455      3.0165   5.0503664512e+01   7.4318715950e+01    0.2352164    0.1795821 -21.28 0.0005250926    1.112    0.101
        60 -10.3882    187.4835      2.4832   5.1145361245e+00   3.6688628573e+01    0.3222356    0.1482417 -59.94  0.001370274    2.380    0.580
        61 -10.1056     12.9478      1.9875   5.6531299924e+01   7.5523474797e+01     0.241608    0.1539078   8.31 0.0007858865    1.547    0.353
        62  -9.1046     33.5585      1.5264   4.2489641255e+01   7.3000556684e+01    0.1257099    0.1022665  -0.32 0.0001150025    1.008    0.008
        63 -10.2621     61.9168      6.7955   3.1810321359e+01   6.7331195938e+01    0.2852377    0.1882847  41.99 0.0009002738    1.388    0.280
        64  -9.4956     12.9918    122.6855   8.6877653221e+01   4.8211741514e+01    0.2116314       0.1479 -65.58 0.0006561414    1.289    0.224
        65 -10.5692     50.8727    249.9081   8.7163556210e+01   1.7856687464e+01    0.1558631     0.130224  41.45  0.001237337    1.248    0.199
        66  -9.3287     50.8206    129.8058   7.6063908116e+01   4.2942794286e+01    0.1872172     0.146619  77.95 0.0004142272    1.296    0.229
        67  -8.5641     93.3170    129.6728   6.3190913361e+01   3.6875608606e+01    0.1530258    0.1130052  72.84 0.0005883793    1.676    0.403
        68 -10.5173      3.0384    147.9174   9.1621988410e+01   4.2908789852e+01     0.360326    0.2278255  50.86  0.002211944    1.466    0.318
        69  -9.1115     26.5529    127.4901   8.3219424002e+01   4.5981143655e+01    0.1297064    0.1127509 -87.14 6.907206e-05    1.005    0.005
        70  -9.8168     22.9020    127.0049   8.4281318681e+01   4.6407887063e+01    0.1873003     0.161724 -85.17 0.0003303696    1.015    0.015
        71 -10.1157      2.3273    126.2067   9.0377889813e+01   4.8047982838e+01    0.2789226    0.1638865  70.85  0.001151796    1.607    0.378
        72  -9.7939     33.0581    125.8035   8.1009918013e+01   4.5806335374e+01    0.3050915     0.155366  64.69   0.00133535    2.382    0.580
        73  -9.3589     81.8163    125.3927   6.5760364540e+01   3.9768473250e+01    0.2028101    0.1411633  21.76 0.0009501803    1.667    0.400
        74 -11.4136    104.4363    122.2795   5.8356374751e+01   3.6639845835e+01    0.3696359     0.324407  47.34  0.000785828    1.133    0.118
        75  -9.8919     49.7826    123.1558   7.5366285914e+01   4.4702543689e+01    0.2562146    0.1989782   6.79  0.001387687    1.592    0.372
        76  -9.5007     56.2468    122.3576   7.3179087871e+01   4.4121462685e+01    0.1941386    0.1201611  42.10 0.0005691274    1.635    0.388
        77  -9.8802     44.9814    120.0109   7.6411710696e+01   4.6023111053e+01    0.3666365    0.1889319 -54.90  0.001690262    1.813    0.448
        78  -9.9950     43.4373    116.2406   7.6323442639e+01   4.7126549845e+01    0.2792309    0.2327015  63.40 0.0008176277    1.229    0.186
        79  -9.7576     37.5197    115.9877   7.8234216358e+01   4.7802101982e+01    0.2154027    0.1195647 -67.18  0.001036577    1.613    0.380
        80 -11.3634     42.3909     92.7640   7.2462827516e+01   5.3065975449e+01     1.215522    0.4353174 -55.30  0.001138391    2.348    0.574
        81 -11.0916     16.4085    108.9111   8.4317676917e+01   5.1345606959e+01    0.5404615    0.2592732 -57.51  0.001924034    1.827    0.453
        82 -10.2377     35.4270     92.7641   7.5079334967e+01   5.3776344461e+01    0.5265124    0.2567949 -74.17  0.001221602    2.143    0.533
        83 -10.8245     27.5127     86.0099   7.6854165642e+01   5.6154966133e+01    0.9578435     0.553681  20.42  0.004856413    1.966    0.491
        84 -11.8336     42.8234     85.0044   7.0635181347e+01   5.4921077969e+01    0.8434076    0.3854051  16.15  0.002965984    2.939    0.660
        85 -12.1134      9.0778     97.3298   8.5479340870e+01   5.4663130184e+01    0.4595524    0.4331778 -28.22            0    1.227    0.185
        86 -12.5152     17.7797    100.5201   8.2789544325e+01   5.3319731950e+01    0.3904854    0.3279221  32.70 0.0004850195    1.342    0.255
        87 -10.5051      7.6263    115.2239   8.7849523371e+01   5.0375848136e+01    0.3795836     0.248386 -49.24  0.001682848    1.572    0.364
        88 -11.1136     22.5767     94.5095   8.0183395068e+01   5.4453680067e+01    0.3121209    0.2695417 -28.75 0.0009592604    1.276    0.216
        89 -10.9303     18.0293     91.1232   8.1363256804e+01   5.5621199752e+01    0.4309755    0.3117873 -81.93  0.001720689    1.286    0.223
        90 -11.8840     25.3541    107.7417   8.1134865841e+01   5.0954408712e+01     1.192127    0.6130267 -17.52  0.004933922    3.285    0.696
        91 -11.3756      5.3117    105.2558   8.7644443615e+01   5.2937776510e+01    0.4246641    0.3517628   9.41  0.002795199    1.471    0.320
        92 -11.6634     21.4643    114.6125   8.3323968747e+01   4.9565362376e+01    0.6653047    0.2982394   7.82   0.00198235    3.300    0.697
        93 -11.3234     28.5333    112.5622   8.0724565374e+01   4.9490149589e+01    0.4399431    0.2759033 -52.27  0.002331798    1.532    0.347
        94  -9.6290     79.1481    114.6496   6.4364524901e+01   4.2778202407e+01    0.2942566    0.2055998 -48.48  0.001422647    1.420    0.296
        95  -8.8826     67.5274    115.0158   6.8187306008e+01   4.4428056875e+01    0.2013852    0.1229728  88.42 0.0008084667    2.432    0.589
        96  -9.5087     57.9622    114.9493   7.1308966542e+01   4.5734940243e+01    0.2401135    0.1630935  72.47  0.001139213    1.803    0.445
        97  -9.8158    104.8176    112.7592   5.6005871099e+01   3.8757449166e+01    0.3530521     0.204116  37.60 0.0009782705    1.740    0.425
        98  -9.1803    120.1844    109.4268   5.0735052537e+01   3.6466810132e+01    0.2843727    0.1160764 -43.38 0.0007257466    2.507    0.601
        99 -11.3305     79.6579    108.3256   6.2792212280e+01   4.4221254817e+01    0.6083654    0.3196546  33.15  0.002232052    1.987    0.497
       100 -10.0349     48.7790    112.0890   7.3850799742e+01   4.7562659245e+01    0.3137817    0.1961211  35.43  0.001363222    1.660    0.398
       101  -8.9999    143.4772    105.9902   4.3666667798e+01   3.2201141012e+01     0.218807    0.1346578 -64.11  0.000809535    2.499    0.600
       102 -10.8882     87.7575    104.3975   5.9228587217e+01   4.3803900212e+01    0.5242406    0.2620904  50.84 0.0008236861    2.392    0.582
       103  -9.6664     45.8814    104.7657   7.3527060927e+01   4.9711321536e+01    0.3831041     0.109409 -50.00  0.001284439    3.291    0.696
       104  -9.0349    182.3228    104.6548   3.4652332074e+01   2.3765730373e+01    0.1517452    0.1178809 -70.68 0.0007050077    1.735    0.424
       105 -11.6538     68.2161     96.2035   6.3813530504e+01   4.8913025257e+01    0.6916074    0.4980028  -5.82  0.002601608    1.875    0.467
       106 -11.0697     89.8578     88.3171   5.4264251103e+01   4.7151457054e+01     0.957027    0.4387627 -37.93  0.003441708    2.538    0.606
       107 -10.1527     67.0804     81.5798   6.0425863388e+01   5.2557132389e+01    0.4243788    0.3200299   7.41  0.002114099    1.588    0.370
       108 -10.5562     79.9538     83.9970   5.6426064968e+01   4.9903789099e+01    0.5866671    0.3969261 -39.49  0.002751286    1.486    0.327
       109 -11.2752     74.9584     78.5627   5.6632875859e+01   5.1990188680e+01    0.7109893    0.5098644  43.67  0.003491564    1.480    0.324
       110 -10.2661     77.9631     96.5561   6.0516754915e+01   4.7308929915e+01    0.3343315    0.2495101  40.51 0.0004582956    1.380    0.275
       111 -11.2605     80.2803     92.8241   5.8753569674e+01   4.7804490067e+01    0.8043466    0.6936296  67.47  0.004241468    1.322    0.243
       112 -10.5423     52.0095     99.1661   7.0255208368e+01   5.0381775491e+01    0.6721496    0.2198248 -48.83  0.001792461    2.917    0.657
       113  -8.9020    120.4578    101.4857   4.8552790416e+01   3.8136255258e+01    0.1556375    0.1483824   1.04 0.0001058442    1.063    0.060
       114 -12.3471      2.5361    112.1146   8.9189997768e+01   5.1423638282e+01    0.4255072    0.2713666 -83.58 0.0007367606    1.322    0.244
       115  -9.1777     28.3981     99.8326   7.8893954330e+01   5.2662812172e+01    0.1931904     0.136378 -46.06 0.0006304563    1.401    0.286
       116  -9.7599     30.5683     95.7271   7.7425198156e+01   5.3492270675e+01     0.381122    0.1572473 -62.36  0.001643677    2.024    0.506
       117 -12.2502    125.6610     94.7871   4.5237991119e+01   3.8438293628e+01    0.4947439     0.362638  63.74 0.0002451905    1.638    0.389
       118 -10.3801    120.2789     85.3879   4.3985689745e+01   4.1569107360e+01     0.537475    0.3891022 -50.05   0.00247211    1.453    0.312
       119  -9.4702    115.8325     93.3676   4.7609386486e+01   4.0859175807e+01    0.2245944    0.1431657  33.30 0.0006532774    1.699    0.412
       120 -11.0837     99.0783     91.2225   5.2089462325e+01   4.4746531518e+01    0.5037694    0.2574981  48.05  0.001960407    2.098    0.523
       121 -10.2513     49.7231     91.4772   6.9440072015e+01   5.2547846354e+01    0.3489203    0.2636136  32.13  0.001878257    1.418    0.295
       122 -11.6785      7.1503     88.8606   8.5143924831e+01   5.6842909606e+01    0.5077515    0.3953529  15.80  0.002104402    1.525    0.344
       123  -9.9235     66.4706     88.6166   6.2542139068e+01   5.0990334747e+01    0.3496052    0.2326889 -10.98  0.001177624    2.205    0.547
       124 -10.1763    104.1634     87.3463   4.9365070106e+01   4.4585284878e+01    0.2761062    0.2049495 -33.76  0.001290587    1.404    0.288
       125 -10.3288    143.3131     84.5622   3.7668033252e+01   3.6452464679e+01    0.2663481    0.2614693   9.65 0.0003840337    1.003    0.003
       126  -8.8030    133.3049     84.6697   4.0225204300e+01   3.8765988491e+01    0.1572908    0.1252673 -79.26 0.0003507627    1.656    0.396
       127 -10.6644    113.0080     83.2705   4.5450208193e+01   4.3595676593e+01    0.4329377     0.288785  59.35  0.001648115    1.785    0.440
       128  -9.4897     46.8025     75.4404   6.6719545758e+01   5.6766826601e+01    0.2605247     0.226414 -60.68  0.001011825    1.114    0.102
       129 -11.4574     53.3623     75.2281   6.3996220022e+01   5.5994271753e+01     0.695195    0.3954696 -63.65  0.003125937    1.863    0.463
       130 -10.9226     58.0957     77.6957   6.2794072958e+01   5.4776002221e+01    0.4457408    0.2951444 -67.37  0.001889521    1.686    0.407
       131  -9.6244    103.4579     79.5463   4.7214309879e+01   4.6399100646e+01    0.3063604    0.1495542 -44.94 0.0007221516    2.046    0.511
       132  -9.2984     88.6978     73.3033   5.0094737008e+01   5.0678370015e+01    0.2179981    0.1897696 -37.58 0.0003544998    1.123    0.109
       133  -9.9323     92.6916     72.3588   4.8423318685e+01   5.0099045855e+01    0.3236711    0.2648406 -71.96 0.0009835038    1.528    0.345
       134 -10.7215     88.5699     77.3628   5.1428466481e+01   4.9827006875e+01    0.5830995    0.3493529  43.96  0.002547833    1.720    0.419
       135 -10.2466     94.2073     76.6001   4.9280965094e+01   4.8900510280e+01    0.4727999    0.3029704  43.28  0.001939652    1.583    0.368
       136 -11.6507     13.8145     74.4632   8.0329949427e+01   5.9967541167e+01    0.4563055    0.3139674  89.66  0.002032368    1.542    0.352
       137  -9.7664     15.0827     67.3255   7.8447102415e+01   6.1604654122e+01    0.3317311    0.2089427  -0.06   0.00158388    1.898    0.473
       138  -9.1760    158.9273     76.3364   3.1643621341e+01   3.4204649869e+01    0.2093203    0.1890468  44.12 0.0004399955    1.107    0.096
       139  -9.0491    112.2577     75.4066   4.3205810971e+01   4.5367507208e+01    0.2106532     0.147566  55.99 0.0009354464    1.562    0.360
       140  -9.9343    103.6910     74.7790   4.5624772473e+01   4.7342754717e+01    0.3699328    0.2440154  55.54  0.001615668    1.721    0.419
       141  -9.9903     66.9613     74.7140   5.8486879776e+01   5.4158271092e+01    0.4058874     0.206367  33.14  0.001706238    2.073    0.518
       142  -9.7294     24.7758     74.2186   7.5647509448e+01   5.9252878996e+01    0.5025989    0.2531914 -25.33  0.002178584    2.654    0.623
       143 -11.8433     40.9437     69.9593   6.7727106618e+01   5.8734858774e+01    0.5297017    0.4307207 -35.59  0.001441937    1.168    0.144
       144 -10.8373     36.2462     71.5640   7.0149158476e+01   5.8852088982e+01     0.275003    0.2263321  -7.96 0.0009295626    1.328    0.247
       145 -10.7793      2.0457     71.6817   8.4843759364e+01   6.1248192448e+01    0.4367741    0.1813532 -71.17  0.001908041    1.942    0.485
       146 -12.5985      6.3811     61.8842   8.1333644783e+01   6.3386387525e+01    0.7302872    0.4271227 -16.46  0.003963009    1.989    0.497
       147  -9.6935      7.7948     55.1013   7.9329410476e+01   6.4908253982e+01    0.2462259    0.1934901  62.31 0.0008312335    1.564    0.360
       148 -10.3182     81.1459     73.2529   5.2744527674e+01   5.2096008929e+01    0.4659558    0.1939805 -40.31    0.0010867    2.523    0.604
       149 -10.4041     78.4821     67.6469   5.1891297241e+01   5.3786423771e+01    0.4554681    0.3703431  82.21  0.002260878    1.707    0.414
       150  -9.9228    186.9264     72.1952   2.5078846245e+01   2.8124290781e+01    0.3661663    0.2490617 -23.83  0.001581762    1.545    0.353
       151  -9.8685    153.5881     72.6984   3.1706336623e+01   3.6137276414e+01    0.4163817     0.171059  41.81  0.001384429    2.801    0.643
       152  -9.1972     19.1419     72.1840   7.7638273128e+01   6.0167144437e+01    0.2013724    0.1408789 -41.51 0.0005128456    1.345    0.256
       153 -11.2419    123.2728     68.9135   3.7940729317e+01   4.4122260596e+01    0.5535625    0.2972625  47.24  0.002225324    1.827    0.453
       154 -10.9356     32.9280     74.1843   7.2188419502e+01   5.8550287637e+01    0.3567674    0.2422456 -77.34  0.001042902    1.589    0.371
       155  -9.1264    217.4987     66.5115   1.8948985660e+01   2.1937907892e+01    0.1367414    0.1259374 -36.95 0.0001208692    1.017    0.017
       156 -10.3143     81.8698     59.6729   4.7881175488e+01   5.4816228041e+01    0.5812506    0.3807603  72.04  0.002041155    2.936    0.659
       157 -10.7848     88.1870     56.4213   4.4429099547e+01   5.4216304645e+01    0.6995966     0.288936 -37.18  0.002543225    2.515    0.602
       158  -9.4688     91.7676     57.5714   4.3613286386e+01   5.3263013471e+01    0.2712992    0.1919642  44.78 0.0006952849    1.423    0.297
       159 -10.1593     96.5043     65.1360   4.4715456431e+01   5.0801829728e+01    0.2748483    0.2279212 -13.36  0.000753225    1.301    0.231
       160 -10.9713     92.1412     62.7929   4.5361209316e+01   5.2166494085e+01    0.5147994    0.3216715  52.96   0.00109879    1.804    0.446
       161  -9.1164     52.1208     65.8447   6.1789641689e+01   5.8325196531e+01    0.1910235    0.1552875 -16.14 0.0006456292    1.292    0.226
       162 -11.0000    201.6546     64.8571   2.0733341336e+01   2.5761863281e+01    0.2955573    0.2230833  63.11 0.0001871104    1.398    0.285
       163 -10.7032    157.5200     63.5439   2.8052339217e+01   3.6701172352e+01    0.4987595    0.2411479  42.14 0.0007943197    2.307    0.567
       164  -9.6844     58.1655     62.4161   5.8161444739e+01   5.8245599309e+01    0.3329456    0.2592389 -75.82  0.001709777    1.668    0.400
       165 -10.3450     64.1324     61.3589   5.5345188141e+01   5.7564963353e+01    0.4589825    0.3030013  27.58  0.002230339    1.613    0.380
       166 -11.1087     51.6229     48.1966   5.6034023048e+01   6.2231159437e+01     1.013237    0.4127488  23.33   0.00288828    3.524    0.716
       167  -8.1053     61.0133     48.0679   5.1824697021e+01   6.0825173594e+01     1.248466    0.7140788 -17.79  0.004994072    2.672    0.626
       168  -9.6608     55.5332     50.5181   5.5144459150e+01   6.1179301727e+01    0.2137326    0.1355102  27.19 5.801673e-05    1.668    0.400
       169 -11.7743     40.2360     56.9775   6.4296902358e+01   6.1800428414e+01    0.4261914    0.3002103  -2.07 0.0004272274    1.646    0.393
       170 -11.4003     43.0858     62.0397   6.4556329594e+01   6.0325406435e+01    0.3592187    0.2370187 -44.72 0.0007830037    1.361    0.266
       171 -10.3450     50.7932     61.5715   6.1027485972e+01   5.9464501575e+01    0.3066713    0.2713601  42.98  0.001264728    1.283    0.221
       172 -11.1454     46.1881     59.1942   6.2296356734e+01   6.0590519136e+01    0.5045694    0.3254414 -42.02  0.001673406    1.418    0.295
       173 -11.4514     44.1724     43.9693   5.7932872141e+01   6.4123922241e+01    0.4854816    0.2806243 -47.92 0.0003042071    1.599    0.374
       174 -11.1321     39.9742     44.0045   5.9997371657e+01   6.4646694559e+01    0.5430441    0.3054984  10.89  0.001963144    2.278    0.561
       175 -10.5860    234.1416     61.8843   1.5755792325e+01   1.9002440301e+01    0.2086258    0.1654349 -54.39 0.0008294637    1.226    0.184
       176  -9.6881    113.9101     61.1487   3.7932482497e+01   4.7733131592e+01    0.3143486    0.2076108 -42.18   0.00140745    1.551    0.355
       177 -10.0415    124.7963     56.4729   3.3303902730e+01   4.5980037533e+01    0.3033463    0.2547153 -17.65 0.0006261034    1.261    0.207
       178  -9.0666    113.3068    249.3394   7.5220576131e+01   1.0219162772e+01     0.107872   0.08127658   7.26 0.0006993998    1.681    0.405
       179 -11.8454    117.1894     45.8822   3.1491887542e+01   4.9563756259e+01    0.8449133    0.5843632 -32.45  0.003938519    1.483    0.326
       180  -9.4478    213.5188    248.4986   5.6521991285e+01  -3.1684521873e+00    0.1130553   0.07968799  15.48 0.0008103386    1.016    0.016
       181 -11.0661     75.4783     54.5396   4.8402107020e+01   5.7037594154e+01    0.2953976    0.2540012   9.79 0.0007696644    1.176    0.150
       182 -12.1253     73.3088     48.8291   4.7061546965e+01   5.8550142170e+01     1.086358    0.4689283 -52.27  0.002086452    3.050    0.672
       183  -9.2699     29.4536     59.7469   7.0110653109e+01   6.2280576508e+01    0.3528329    0.2197003 -68.04  0.001809033    1.638    0.389
       184  -9.8267     25.5144     60.0370   7.2025134228e+01   6.2559540157e+01    0.3152021    0.2539828  29.33 0.0009471652    1.408    0.290
       185 -11.0590     25.3261     55.9166   7.1021553013e+01   6.3528127610e+01    0.6266289    0.3711461   1.62  0.002312324    2.058    0.514
       186  -9.6281     30.5357     53.5246   6.7821565685e+01   6.3600346705e+01    0.2318814    0.2211967  34.28 0.0005983119    1.229    0.186
       187 -10.2591     33.5465     51.9551   6.5879694690e+01   6.3651122143e+01    0.3122068    0.2118316 -24.81 0.0008648146    1.531    0.347
       188  -9.2157    135.5376     59.2936   3.1575074099e+01   4.2874844752e+01    0.2122121    0.1501375 -16.90 0.0009109671    1.656    0.396
       189 -10.9875    105.4229     57.8047   3.9272497627e+01   5.0274814575e+01    0.5665799    0.3351865  71.53  0.001998321    3.127    0.680
       190  -9.6851     26.0454     49.4157   6.8795966795e+01   6.4939075447e+01    0.2890829    0.2460645 -80.49  0.001264639    1.390    0.280
       191  -9.6891    246.8086     54.4038   1.2649199798e+01   1.7386814953e+01    0.1614812    0.1152845  51.33 0.0005085757    1.638    0.390
       192  -9.5252    201.1283     53.3726   1.7713503522e+01   2.7504556420e+01    0.2274524    0.1870854 -17.61 0.0004155579    1.297    0.229
       193  -8.9664    212.5106     53.5065   1.6255851416e+01   2.4840984754e+01    0.1368034     0.125954 -48.21 4.570737e-05    1.002    0.002
       194 -10.5429    156.8205     54.2189   2.5262049388e+01   3.8343303756e+01    0.6291908    0.4322752 -68.26  0.002225359    1.893    0.472
       195 -10.2036    145.6670     49.1894   2.5891771150e+01   4.1939530047e+01    0.6350257    0.2933626 -13.30  0.001822096    4.510    0.778
       196  -9.9235    240.1071     50.8291   1.2486676987e+01   1.9191350077e+01    0.1965374    0.1550857 -53.20 0.0005589843    1.169    0.144
       197 -11.2785     83.1725     47.1237   4.2654861067e+01   5.6968562680e+01    0.3513383    0.2825656  -3.78   0.00182377    1.336    0.252
       198  -8.6764     11.3152     49.3161   7.6253340439e+01   6.6049737302e+01    0.1364477   0.07478064 -38.94  0.000463982    1.647    0.393
       199  -9.2379     13.5254     46.4687   7.4377710000e+01   6.6560502621e+01    0.2036096   0.09015806 -52.35 0.0009814193    1.766    0.434
       200  -9.5669      1.8147     49.0234   8.1033178716e+01   6.6590772004e+01    0.2087878    0.1560942 -88.26 0.0009088304    1.447    0.309
       201 -10.7150     20.4337     46.3033   7.0728201761e+01   6.6104431818e+01    0.4086261    0.2366836 -40.55  0.001759365    1.515    0.340
       202 -10.4910     26.1590     42.7952   6.6622189399e+01   6.6386116021e+01    0.3255484    0.2471095 -63.05  0.001075067    1.381    0.276
       203 -10.8282    138.7761     44.4807   2.5760972504e+01   4.4393920918e+01    0.5405563    0.2690718  35.56  0.001558453    2.645    0.622
       204 -10.2981     23.0205     37.2910   6.6411278392e+01   6.7850931105e+01    0.4487987    0.1753458  36.15  0.001932141    3.005    0.667
       205  -9.0787    162.2148     44.3865   2.1125331317e+01   3.8397636316e+01    0.2143937     0.140381  76.19 0.0009555966    1.704    0.413
       206  -9.4371      5.0954     42.7576   7.7900312243e+01   6.7871311042e+01    0.3987096    0.1359619 -62.80  0.001776232    2.259    0.557
       207 -11.2972      4.5972     35.7252   7.6340447088e+01   6.9460467788e+01    0.4159922    0.3016898 -29.44  0.002573725    1.268    0.211
       208  -9.9970      9.2670     30.6053   7.2037054030e+01   7.0310002542e+01    0.5864204     0.316325  -8.08  0.003080007    2.122    0.529
       209 -10.3776    155.9794     42.3393   2.1589846205e+01   4.0283088063e+01    0.3141697    0.2721354   2.57  0.001109278    1.299    0.230
       210  -9.5643     91.6272     41.9707   3.7624604576e+01   5.6097441021e+01     0.376775    0.2650087 -76.14  0.001580001    2.572    0.611
       211  -9.6531     56.9867     41.8946   5.1131501253e+01   6.2682433354e+01    0.2722765    0.1901293  39.75  0.001418139    1.534    0.348
       212 -10.4712    232.4650     39.6561   1.0579414011e+01   2.2172802098e+01    0.4810279    0.1970732 -52.26   0.00200413    2.592    0.614
       213  -9.1549     17.8201     41.1600   7.0548862060e+01   6.7443093740e+01    0.1914129    0.1200449 -38.14  0.001064581    1.393    0.282
       214 -10.5505     79.9997     38.9098   4.0443965971e+01   5.9052498455e+01    0.4667995    0.3312818  72.74  0.001982067    2.282    0.562
       215 -11.3971     79.2480     33.8918   3.8551195178e+01   6.0035692854e+01    0.6210095    0.3351613  36.40   0.00272419    1.892    0.472
       216  -8.8120    194.3325     38.3455   1.4474619236e+01   3.1113623438e+01    0.1447136    0.1046205  28.79 0.0007049891    1.762    0.433
       217 -11.2959    153.0256     36.0879   2.0064238457e+01   4.1886325415e+01    0.2779104    0.2454092 -32.11  0.001509701    1.171    0.146
       218 -11.0188     63.1951     35.1943   4.5540471398e+01   6.2881486220e+01    0.9781879    0.4847286  24.12  0.003770818    2.858    0.650
       219 -10.1817     42.9985     28.2098   5.1883613797e+01   6.7349494805e+01    0.2081077    0.1731449   2.80  0.001260759    1.123    0.110
       220  -9.7138    174.8401    246.1493   6.3128985166e+01   2.2177279605e+00      0.16382    0.1121127  13.78 0.0008088432    1.337    0.252
       221 -11.0904     47.2429     30.7708   5.0916678283e+01   6.6267722245e+01    0.5337093    0.2982262  22.27  0.001522623    2.031    0.508
       222 -10.1794     52.5143     30.5409   4.8258272732e+01   6.5497955441e+01    0.2445632    0.2028233  -2.60 0.0006253294    1.123    0.110
       223  -9.3345    206.1622     37.4978   1.2805133009e+01   2.8375285831e+01    0.1889921    0.1319144  71.97 0.0004534496    1.469    0.319
       224 -10.9604    175.9387     34.0185   1.5711297984e+01   3.6246469029e+01    0.6729244     0.357704 -42.00   0.00264237    1.845    0.458
       225  -9.9447    170.1835     30.1909   1.5372501330e+01   3.8186233127e+01    0.3446207    0.2337081 -55.40 0.0003547022    1.562    0.360
       226  -9.3626    132.7223     37.0451   2.4445543555e+01   4.6996072487e+01    0.3685759    0.2054556 -87.96  0.001191617    3.743    0.733
       227 -10.6030    109.9746     39.5762   3.1049793115e+01   5.2279690854e+01    0.5875384    0.4186236 -26.19  0.001315634    1.464    0.317
       228  -8.8809    214.3055     35.2706   1.1320095340e+01   2.6745031309e+01    0.1257344    0.1007831  32.63 0.0001728643    1.537    0.350
       229  -8.9055     34.6692    245.3159   8.9919865223e+01   2.0363185640e+01    0.1165609   0.05428781  56.24 0.0007046243    1.682    0.406
       230 -11.7228    126.3756    241.3910   7.1853924561e+01   9.6250461763e+00    0.3130256    0.2405486  55.36  0.001590341    1.387    0.279
       231 -11.5097    106.2629     32.7011   2.9331835373e+01   5.4177755594e+01    0.5979664    0.3567705  15.87  0.002234976    2.517    0.603
       232 -11.4400     67.7917    240.9967   8.3374314332e+01   1.7373852336e+01    0.3354111    0.1922289  24.95  0.001530192    1.929    0.482
       233 -11.7678    160.0215     29.7457   1.6784822395e+01   4.0867447102e+01     0.401031    0.3823504   4.27 0.0005025585    1.140    0.123
       234 -11.1159    147.0551    238.0270   6.7399838375e+01   7.2037535348e+00     0.382936    0.2707724  45.59  0.002490486    1.371    0.271
       235 -10.1900    240.9284     32.2076   8.0539839011e+00   2.1257178453e+01    0.2192127    0.1669576  48.57  0.001188788    1.591    0.371
       236 -10.8124    189.0513     28.2899   1.2288822961e+01   3.3632754828e+01    0.5210751    0.3134684   1.24  0.002229666    2.575    0.612
       237 -10.9294     32.4228     30.5888   5.8592000870e+01   6.8260041166e+01    0.4458572    0.2276363 -57.39 0.0005275481    2.296    0.564
       238 -10.5817     76.0292    239.7072   8.1663102885e+01   1.6582418606e+01    0.2894154    0.1919177  43.95  0.001425673    1.151    0.131
       239 -10.0958    167.1878    237.9204   6.3492566045e+01   4.3539918428e+00    0.1722593    0.1383094  33.58 0.0007469117    1.185    0.156
       240  -9.0711     15.4082    233.7898   9.2986694612e+01   2.4255637661e+01    0.1309283   0.08691771 -74.52 0.0009473365    1.687    0.407
       241  -9.2850    246.7060    231.3334   4.8430668560e+01  -5.4578333681e+00   0.09076028   0.08078454   7.70 0.0007025764    1.639    0.390
       242  -8.8915    189.7233    229.6663   5.8086188582e+01   2.2443284007e+00    0.1192881   0.07701521   5.47 0.0003710143    1.604    0.377
       243 -11.8543    126.0823     28.3321   2.2670491902e+01   4.9842546844e+01    0.5496969    0.4325802  71.74  0.002829565    1.312    0.238
       244 -10.0233    200.4214     45.1244   1.5564635057e+01   2.8774565693e+01    0.3853826    0.2059521  76.30  0.001466983    2.185    0.542
       245  -9.6572    198.5898     28.8869   1.1339285806e+01   3.1220045698e+01    0.4070281    0.1807945  53.40  0.001718579    2.336    0.572
       246  -8.7117    181.2914    228.3247   5.9477262303e+01   3.6255973837e+00    0.1209927   0.07911427   6.79  0.000397207    1.614    0.381
       247 -10.0178    148.1948     28.3127   1.8293305590e+01   4.4121283621e+01    0.3839472     0.219696  55.43  0.001065522    1.623    0.384
       248 -10.9404    143.5769     25.0530   1.7980927905e+01   4.5714141995e+01    0.4362589    0.3156624  61.20  0.001629937    1.289    0.224
       249 -10.6641    148.2752     22.6083   1.6314167160e+01   4.4767010817e+01    0.3550484    0.1915823  58.72 0.0008370683    1.688    0.408
       250  -8.9428    200.6617    226.2964   5.5564864982e+01   1.1316484413e+00    0.1066535   0.08673289  44.75 0.0005602476    1.655    0.396
       251 -10.9731    183.4484     26.0931   1.2342801192e+01   3.5288400654e+01    0.4171747    0.3520637   5.11  0.001879039    1.418    0.295
       252  -9.4017    187.3976     22.8497   1.0925834537e+01   3.4663428776e+01    0.2202065    0.1846372  34.65  0.000510542    1.383    0.277
       253  -9.7895    230.8651     27.1039   7.7028552361e+00   2.3981539835e+01    0.2087339    0.1483921 -57.96  0.001218091    1.291    0.225
       254  -8.9026     97.3719     26.2859   2.9181729560e+01   5.7168126667e+01    0.1556712    0.1008205  27.64 0.0007018615    1.710    0.415
       255 -10.2084    155.4322     24.6545   1.5840757052e+01   4.2663274018e+01    0.3496411    0.2262869 -88.88 0.0005596301    1.809    0.447
       256  -9.5538     69.3425    226.3222   8.1949196034e+01   1.9731921267e+01    0.1064813   0.08930258  -5.74 0.0001535465    1.727    0.421
       257  -8.6008    166.6880    225.6767   6.1918567344e+01   6.1240746686e+00    0.1237599     0.082793   7.49 0.0003361517    1.656    0.396
       258 -10.7745     38.8462     22.1799   5.1187646325e+01   6.9006747750e+01    0.2379916    0.1706846 -33.40 0.0004260835    1.269    0.212
       259  -8.9861     75.4833    224.4812   8.0525768105e+01   1.9291950284e+01    0.1197511   0.09490629  49.51 8.152573e-05    1.002    0.002
       260  -9.6533     90.6544     23.0374   2.9782084974e+01   5.9151886750e+01    0.2871127      0.19167  42.93  0.001120706    1.390    0.281
       261  -9.3450     49.6749    222.6560   8.5714899658e+01   2.2733380090e+01    0.1020449   0.08795376 -23.55 0.0007050659    1.738    0.425
       262  -9.1889    223.7401     22.3706   7.1630128774e+00   2.6080469962e+01    0.1664861    0.1133394  64.69 0.0004295701    1.544    0.352
       263 -10.8673    178.9881     20.8049   1.1331190488e+01   3.7007955670e+01    0.5029793    0.2503131  42.05  0.002073663    2.479    0.597
       264  -9.0804      5.2435     22.0684   7.1590396421e+01   7.2337032035e+01    0.1633978    0.1334749 -41.65 0.0007804028    1.062    0.059
       265  -9.1923    144.4636    215.4882   6.4982549677e+01   1.1020929363e+01    0.1276428     0.104649  29.46 0.0008094306    1.008    0.008
       266  -8.9644     44.7103    215.3312   8.6249466260e+01   2.4665800299e+01    0.1234227   0.06719667  60.32 0.0005784347    1.625    0.385
       267 -10.3079    246.4432     19.2851   4.6776994418e+00   2.1547306657e+01    0.2215509    0.1114879 -24.30 0.0008470871    2.018    0.504
       268  -9.2073    216.4442     20.3004   7.2830503232e+00   2.7961160882e+01    0.1818741    0.1064107 -41.11  0.000938928    1.519    0.342
       269  -9.4944    164.5157    211.9750   6.0351743767e+01   8.4809877079e+00    0.1947163    0.1434729  30.23 0.0004782488    1.121    0.108
       270 -10.0176     75.7860     19.1054   3.2939520377e+01   6.2939178845e+01    0.5512814    0.2693726  36.89  0.002367438    2.081    0.519
       271  -9.3655     46.9316     19.9989   4.5849606274e+01   6.8174679011e+01    0.1862421    0.1699871 -82.27  0.001127686    1.685    0.407
       272  -9.0672      1.4702     20.5285   7.3533900695e+01   7.2856316310e+01    0.1223357    0.0933503 -39.56 0.0002366907    1.029    0.028
       273  -9.5829      8.7887    211.3901   9.3390527824e+01   2.8980681429e+01    0.1359409   0.09760344  24.23 0.0009507239    1.656    0.396
       274 -11.1867    238.7579     16.5793   4.6055469038e+00   2.3432898269e+01    0.2646117    0.1921171 -70.05  0.001320975    1.289    0.224
       275  -9.6103    153.3006    207.6631   6.2010657477e+01   1.0914243443e+01     0.122715    0.0958631  60.71 0.0004842523    1.661    0.398
       276  -9.1077    198.9901     17.5185   8.1890875473e+00   3.2384962867e+01    0.1920004    0.1251324  74.55 0.0005234119    1.494    0.331
       277  -9.8323     16.9646    205.6570   9.1477521835e+01   2.9362870858e+01    0.3034007    0.1226218  86.85  0.001543895    2.501    0.600
       278  -9.4307    120.3833     15.8732   1.9034816743e+01   5.2750539959e+01    0.1961354    0.1346362   0.01 0.0005404478    1.739    0.425
       279  -9.4720    187.0376     15.1774   8.7644154245e+00   3.5574343356e+01    0.2020499    0.1748052  52.85  0.000611707    1.238    0.192
       280  -9.1557     61.5125    206.5123   8.1967529279e+01   2.4422549784e+01    0.1217513    0.1005612  55.30 5.899877e-05    1.014    0.014
       281 -11.4013      6.1033    199.1614   9.3445221053e+01   3.1606037870e+01    0.3967033    0.1564557 -70.86   0.00212999    2.456    0.593
       282  -9.4986     78.4838    203.9377   7.7947168928e+01   2.2759678251e+01    0.1929791    0.1438098  44.15 0.0004822178    1.133    0.118
       283  -9.3576    139.0000    197.9766   6.3612903409e+01   1.4838648336e+01    0.1925657   0.07679971 -50.00  0.000798431    2.915    0.657
       284  -9.0983    233.7616    196.9860   4.4867007939e+01   1.4371488245e-01     0.150393   0.08854879 -26.38 0.0008769996    1.599    0.375
       285  -9.3656    120.8655     11.6385   1.7240673047e+01   5.3062544532e+01    0.3289643    0.1242189  64.35 0.0009598057    2.414    0.586
       286 -12.5192      4.4543    183.5181   9.3127751444e+01   3.4948531609e+01    0.7189337    0.3797679  88.76  0.004280472    1.656    0.396
       287  -9.6506     28.0409    175.9354   8.7227202482e+01   3.4520597602e+01    0.1868445    0.1597829  73.73 0.0008919269    1.049    0.046
       288  -9.1936     39.4851    173.9796   8.4279786206e+01   3.3795294307e+01    0.1836574    0.1130781 -78.31 0.0006018985    1.561    0.359
       289  -9.0516     51.5253    173.5271   8.1241481196e+01   3.2553927855e+01    0.1296586    0.1092873  65.93 0.0001694932    1.036    0.035
       290  -9.4178     65.9652     10.5039   3.2231950041e+01   6.6072161473e+01    0.1999056    0.1232543  47.40   0.00063065    1.545    0.353
       291 -12.7061     22.5323    149.6396   8.6556620363e+01   4.1011659712e+01    0.6784979    0.3870559 -46.48  0.002214473    2.115    0.527
       292 -11.0947     16.2091    147.7432   8.8109764030e+01   4.1982159130e+01    0.3112199    0.2467759  42.07  0.001959874    1.292    0.226
       293 -12.6324      9.6248    165.5169   9.1001740185e+01   3.8439282909e+01    0.6392763    0.5848039  81.30  0.003354593    1.174    0.148
       294 -10.4075     14.1730    159.0965   8.9467044979e+01   3.9523366596e+01    0.2638926    0.2187265 -62.86 0.0007397156    1.325    0.245
       295 -10.7832     18.9487    165.2062   8.8685903682e+01   3.7740622880e+01     0.365911    0.2739047 -49.28  0.002316545    1.621    0.383
       296  -9.9811    204.9628    163.2860   4.3645838991e+01   9.3901739305e+00    0.2448345    0.1784628 -17.64  0.000652602    1.320    0.242
       297 -10.6471     27.8335    161.7525   8.6175924536e+01   3.7723562002e+01    0.3629093    0.2709303 -58.21  0.002246621    1.455    0.313
       298 -10.9244      9.3779    155.3310   9.0441376597e+01   4.0756281661e+01    0.2949032    0.2025675  83.61  0.001332999    1.238    0.192
       299  -9.4328    104.1067    155.1473   6.5012883659e+01   2.9219145597e+01     0.215112     0.198095  -2.54   0.00112261    1.217    0.178
       300 -10.5470     30.7052    152.7899   8.4631124200e+01   3.9528636488e+01    0.4014791    0.2257322 -80.21  0.002107064    1.655    0.396
       301 -10.6498      4.0362    153.4936   9.1693323804e+01   4.1563509122e+01    0.3378235    0.1552119  61.23  0.001650332    2.016    0.504
       302 -11.9380     12.4619    136.3198   8.8235953374e+01   4.4967539929e+01     1.421857    0.3989922 -63.15  0.005796241    2.897    0.655
       303 -10.7146      5.9260    142.6609   9.0520047144e+01   4.3932074075e+01    0.2772133    0.2015681  72.95 0.0007443282    1.195    0.163
       304 -11.1827      2.2783    141.9201   9.1456817663e+01   4.4346822755e+01    0.4285294    0.1899172 -82.52  0.002162644    1.925    0.480
       305 -11.1135     47.1658    147.2829   7.9496753305e+01   3.9123858692e+01    0.6597806    0.3663734 -47.98  0.003171077    2.044    0.511
       306  -9.6160    104.1535    147.1177   6.3547699185e+01   3.1007645075e+01    0.2024845    0.1917847  -1.08 -0.0006383859    1.147    0.128
       307  -8.7326     74.3027    146.2785   7.1675202108e+01   3.5900103852e+01    0.1328765    0.1084435 -23.24 0.0004532818    1.546    0.353
       308 -10.9111     32.9695    144.2649   8.3161666758e+01   4.1330538240e+01    0.2898631    0.2583807  76.55 0.0007863434    1.038    0.036
       309 -10.6029     40.4643    138.2796   8.0325311935e+01   4.2019094475e+01    0.3645967    0.2143336 -74.70  0.001612121    1.595    0.373
       310 -10.3631     80.1689    138.3105   6.8667908065e+01   3.6929991498e+01    0.3338588    0.2332464  42.52 0.0009875173    1.394    0.283
       311 -11.6415     23.6138    136.5332   8.5051613113e+01   4.4037144278e+01    0.6230937    0.3526462  41.60  0.002062547    1.734    0.423
       312 -10.6551     30.1803    133.0082   8.2747379272e+01   4.4310640960e+01    0.3460212    0.3191673  -2.30  0.000912552    1.320    0.242
       313  -9.0977    217.3385    138.7129   3.6220651180e+01   1.1004226117e+01    0.1241553    0.1094551 -71.16 0.0005404841    1.635    0.389
       314  -8.5024     44.3263    136.2809   7.8932618092e+01   4.2092491193e+01     0.130039   0.09877423 -35.38 0.0005205447    1.597    0.374
       315  -9.5369     47.4587    134.1402   7.7708943363e+01   4.2267268314e+01    0.3637962    0.1231625 -67.61  0.001365884    2.759    0.638
       316  -9.9381     32.3697    137.8191   8.2639314747e+01   4.2938529844e+01    0.2810842    0.2028758  39.08 0.0006430982    1.406    0.289
       317  -9.5289     39.2793    133.4604   8.0077135775e+01   4.3314973688e+01    0.2108901    0.1337693  20.92 0.0004995109    1.828    0.453
       318  -9.6833     61.6945    151.8789   7.6024612068e+01   3.6282846710e+01    0.2251166    0.1894836  16.09 0.0009001535    1.392    0.281
       319 -10.8259     10.3094    127.2929   8.8105536037e+01   4.7281578901e+01    0.5314198    0.2499009 -67.51  0.001821326    1.805    0.446
