#   1 NUMBER                 Running object number                                     
#   2 MAG_AUTO               Kron-like elliptical aperture magnitude                    [mag]
#   3 X_IMAGE                Object position along x                                    [pixel]
#   4 Y_IMAGE                Object position along y                                    [pixel]
#   5 X_WORLD                Barycenter position along world x axis                     [deg]
#   6 Y_WORLD                Barycenter position along world y axis                     [deg]
#   7 A_WORLD                Profile RMS along major axis (world units)                 [deg]
#   8 B_WORLD                Profile RMS along minor axis (world units)                 [deg]
#   9 THETA_WORLD            Position angle (CCW/world-x)                               [deg]
#  10 FWHM_WORLD             FWHM assuming a gaussian core                              [deg]
#  11 ELONGATION             A_IMAGE/B_IMAGE                                           
#  12 ELLIPTICITY            1 - B_IMAGE/A_IMAGE                                       
         1 -10.5346    231.8540      3.9042   3.6464812929e+01   2.6806342920e+01     1.412441    0.2491844 -51.18  0.004135949    5.359    0.813
         2 -11.5402    243.8208     11.3051   3.7656352944e+01   2.3550726693e+01     1.071587    0.3718198 -43.66  0.004821973    2.192    0.544
         3 -10.9905    244.5398     20.6235   3.9919185843e+01   2.2456440666e+01    0.5318946    0.3082227 -28.35  0.002527617    1.444    0.307
         4 -11.1100    212.9106     22.9698   4.2917929643e+01   2.9138128129e+01     1.029348    0.2184538 -28.30  0.003374281    3.474    0.712
         5 -10.0676    195.2663     25.3418   4.5270773108e+01   3.3075959315e+01     0.568832    0.2106182 -31.95  0.002231878    2.243    0.554
         6 -11.1315    161.3925     10.8789   4.4237697764e+01   4.3224920552e+01    0.7208783    0.2836896 -24.67  0.002781387    2.392    0.582
         7 -12.0824    244.4097     29.2568   4.2074321694e+01   2.1561050254e+01      1.47731     0.402622 -28.41  0.005706725    2.777    0.640
         8  -9.8810    228.8866     17.1792   4.0100761665e+01   2.6146178204e+01    0.3055365    0.1727427 -21.21  0.001544641    1.690    0.408
         9  -9.1053    111.4527      4.7898   4.9043616229e+01   5.6900144726e+01    0.3009399    0.2585317  -6.53  0.001546095    1.192    0.161
        10  -7.7671      5.7146      1.6741   9.4167000082e+01   7.7945213989e+01    0.1264976   0.07382578 -29.94 0.0006177188    1.605    0.377
        11  -9.8700    228.8605    212.3804   8.3585757145e+01   1.1478588879e+00    0.2924048    0.1302931 -45.17   0.00136698    4.276    0.766
        12  -8.3722    222.4831    214.0228   8.4840363513e+01   1.7908144543e+00    0.1548939   0.09603716 -25.17  0.001038607    1.608    0.378
        13  -8.5047    184.6885    210.4672   9.0626305081e+01   7.3572575072e+00    0.1830171    0.1544253  10.39  0.001332715    1.076    0.071
        14  -9.6058    149.0385    204.9627   9.6417060217e+01   1.3313262552e+01    0.3182772     0.184397 -56.68  0.001758011    2.309    0.567
        15  -9.3931    228.9328    205.2861   8.2455221378e+01   1.9124993065e+00    0.2173411    0.1466342 -39.17 0.0009103452    1.948    0.487
        16  -9.6254    220.4689    203.4835   8.3508004867e+01   3.2441511520e+00    0.1932304   0.09327047 -20.66  0.001035827    2.298    0.565
        17 -10.2986    249.2908    197.0563   7.8021602455e+01   1.7438742584e-01    0.5092235    0.2217715 -29.16  0.002934167    2.124    0.529
        18 -10.4579    232.3684    195.6248   8.0335611241e+01   2.5399606637e+00    0.6757023    0.2646047 -34.39  0.003511842    2.560    0.609
        19  -9.6883    236.1400    188.9460   7.8616989694e+01   2.7921428162e+00     0.363608    0.2903203  38.32  0.002203471    1.568    0.362
        20  -9.2654    213.8421    199.0751   8.3872586494e+01   4.6771707261e+00    0.1641814    0.1488885   5.91  0.001107562    1.305    0.234
        21  -8.7486    206.3031    190.7256   8.3748009950e+01   6.8031860979e+00    0.2044268    0.1449569 -46.81  0.001253304    1.938    0.484
        22  -8.8110    129.5527    189.5123   9.8154279112e+01   1.8778009831e+01    0.2210185    0.1832281  41.80 0.0006285715    1.070    0.065
        23  -8.9220    192.6266    188.7904   8.5800164108e+01   9.1052797695e+00    0.1587261    0.1101755 -43.74  0.000952799    1.739    0.425
        24 -10.7221    249.3835    180.9475   7.5230811092e+01   1.9094900606e+00    0.7046464    0.1588538 -34.86  0.002779705    4.179    0.761
        25  -7.7901    204.3305    181.6363   8.2516868357e+01   8.3012510346e+00    0.1087906   0.09927157 -86.35 0.0001495078    1.808    0.447
        26  -9.0771    240.4375    172.3002   7.4990312126e+01   4.1438101479e+00    0.3209352    0.1633677 -41.44  0.001688144    2.444    0.591
        27 -10.4827    220.9920    166.9925   7.7038942235e+01   7.6991338207e+00    0.7126705    0.6555489 -81.68  0.004772533    1.804    0.446
        28  -8.6841     69.7480    168.9241   1.0894929448e+02   3.1532448249e+01    0.1796347    0.1524967  79.92 0.0004426051    1.084    0.077
        29 -10.5113    246.3138    162.2806   7.2237463004e+01   4.5011468759e+00    0.3325785    0.2573156 -50.52  0.002107445    2.046    0.511
        30  -8.4331    183.6873    162.3397   8.2684394302e+01   1.4461976093e+01    0.1211342    0.1060046 -86.82 0.0002346789    1.696    0.410
        31 -11.5338    249.0012    153.3926   7.0127404293e+01   5.1833778870e+00     0.762776    0.2374843 -31.68  0.003324894    2.755    0.637
        32  -9.5983    227.8775    153.8991   7.3387777192e+01   8.3575646732e+00    0.2346578    0.1572593 -30.92  0.001390915    1.397    0.284
        33 -10.5563    233.5093    144.6241   7.0637482601e+01   8.6892177515e+00     0.446763     0.199074 -36.34  0.002153725    2.090    0.522
        34 -11.4481    238.0471    136.8510   6.8343100223e+01   8.9830191534e+00    0.5078243    0.2845266 -33.94  0.002749958    1.606    0.377
        35  -9.1708    155.6317    125.6319   8.0603893139e+01   2.6097397114e+01    0.2984791    0.2332644 -25.80   0.00153894    1.348    0.258
        36  -8.4431     74.5673    125.2276   1.0133711392e+02   4.0898493084e+01    0.2727252    0.1339665 -67.00  0.001135173    2.075    0.518
        37 -10.4532    205.8944    129.9599   7.1910581736e+01   1.5567246275e+01      0.56777    0.4814475 -33.03  0.003002004    1.176    0.150
        38  -8.7506    118.8364    120.6980   8.8181050850e+01   3.4363183267e+01    0.3271297    0.1733497 -69.69  0.001091999    3.422    0.708
        39  -8.8094    227.2401    118.2390   6.5859672920e+01   1.3387509139e+01    0.2177612   0.08535287 -40.17 0.0008893997    2.452    0.592
        40  -9.6779    249.5553    127.1360   6.4665122436e+01   8.3799246252e+00    0.2293394    0.1892547 -44.02   0.00149378    1.472    0.320
        41  -9.9321    250.1505    113.4412   6.1610941961e+01   1.0041744379e+01    0.3970791    0.1601341 -27.57  0.001798036    2.102    0.524
        42  -9.4712    218.3729    111.9784   6.5746022923e+01   1.5933569216e+01    0.3189973    0.1158098 -32.13  0.001244631    2.441    0.590
        43  -8.1699    244.4835    110.9934   6.1803599482e+01   1.1327293515e+01    0.1874563   0.08621319 -45.63 0.0008102981    2.572    0.611
        44  -8.3473    191.5078    111.0102   6.9956792107e+01   2.1393487063e+01    0.2064085    0.1105832 -53.27 0.0008103973    2.540    0.606
        45  -9.2800    180.6837    103.5045   7.0037183158e+01   2.4923293403e+01    0.3644194    0.1730383 -44.80  0.001447193    2.137    0.532
        46  -8.9199    235.7223    104.7877   6.1554101525e+01   1.3720746876e+01     0.298102    0.1872829  52.40  0.001604943    1.879    0.468
        47  -9.1996     46.8368    102.1815   1.0587412249e+02   5.0352565098e+01    0.3922161    0.1859877 -69.18   0.00168339    1.938    0.484
        48  -9.9935    213.7025     92.3112   6.1639692775e+01   1.9769146176e+01    0.3959303     0.214521 -37.23  0.001615474    1.631    0.387
        49  -8.2427    157.6858     91.6615   7.1408900547e+01   3.2110394165e+01     0.155681    0.1189732   5.50 0.0007047145    1.697    0.411
        50  -8.7289    191.3649     90.1792   6.4615732409e+01   2.4836803049e+01    0.2382909    0.2266738  47.51  0.001204037    1.152    0.132
        51  -9.2209    249.7433     90.4080   5.6430213330e+01   1.3091348476e+01    0.2565506    0.1243867 -36.71  0.001248932    1.715    0.417
        52  -9.5769    242.8509     80.4122   5.4864803450e+01   1.5661442273e+01      0.41353   0.07043515 -40.40  0.001170833    5.010    0.800
        53  -8.7039    216.8930     74.1103   5.6491313061e+01   2.1740681789e+01    0.2224581    0.1744326 -48.23  0.001230024    1.260    0.206
        54  -8.5573    227.6531     70.3306   5.4151687554e+01   2.0007467047e+01    0.1446103    0.0919662 -54.89 0.0007049633    1.761    0.432
        55  -8.1256    150.6335     70.7120   6.6623821638e+01   3.7569253514e+01    0.1579218    0.1189482  19.40  0.000702299    1.702    0.412
        56  -9.2537    205.1584     67.0478   5.6175019205e+01   2.5308729281e+01    0.4259436    0.2371625  58.60  0.001952697    1.982    0.495
        57  -8.3656    140.5183     65.4865   6.7123639163e+01   4.0935596863e+01    0.1537941    0.1474615 -21.70 0.0005116781    1.056    0.053
        58  -8.6538     47.4028     61.8133   9.5957415868e+01   6.0331368781e+01    0.2800738     0.127544 -61.09   0.00113444    2.100    0.524
        59  -8.7250    227.7016     58.3020   5.1035830951e+01   2.1585074986e+01    0.2679339    0.1339557 -36.98  0.001246312    1.654    0.395
        60  -8.6566    197.4176     57.7710   5.4622408705e+01   2.8401336356e+01    0.3718061    0.1381418 -25.72  0.001296463    2.733    0.634
        61  -8.5908    250.0744     58.1659   4.8714790775e+01   1.7083803438e+01    0.1955508    0.1612356  -9.78 0.0008945166    1.254    0.202
        62 -10.4946    248.3657     50.1000   4.6905952470e+01   1.8384264823e+01    0.4632067     0.264518  -9.08  0.002230403    2.157    0.536
        63  -8.3157    122.7113     48.6398   6.5299010628e+01   4.8208308145e+01    0.1570698    0.1194213  10.18 0.0005646954    1.689    0.408
        64  -9.4033    226.5332     41.5629   4.6750108573e+01   2.3928487019e+01    0.6148877    0.1612612 -27.09   0.00209251    3.235    0.691
        65 -10.4631    225.9908     31.4935   4.4119839227e+01   2.5227259566e+01      0.63305    0.2729579 -24.43  0.002737575    2.112    0.526
        66 -11.4141    213.9859    238.6320   8.9723328364e+01   2.6214686171e-01     0.618129    0.5773861  -7.87  0.005364874    1.602    0.376
        67  -9.3629    176.2008    241.3269   9.6235871471e+01   4.7003227780e+00    0.2840442    0.1674439  45.78  0.001850836    1.804    0.446
        68  -9.5198    249.5486    235.7810   8.3966866504e+01  -3.6114422565e+00    0.2106375   0.08362805 -30.57  0.001294582    2.594    0.614
        69 -10.1768    147.9617     40.0472   5.6738775953e+01   4.3193183749e+01    0.5222921    0.2670469 -58.81  0.001874897    2.707    0.631
        70  -8.5251    123.5289     41.4989   6.2343739018e+01   4.9172631882e+01    0.1506895    0.1454282 -38.64 0.0008099756    1.005    0.005
        71  -9.4979    173.1550     34.6971   5.0872843470e+01   3.7465462936e+01    0.6388526    0.1814618 -31.68  0.002106244    2.921    0.658
        72  -9.0841    178.3186     34.8179   5.0212859594e+01   3.6144982239e+01    0.3625687    0.1417903 -14.72  0.001082193    4.022    0.751
        73  -8.8261    161.8807     35.1816   5.2683242533e+01   4.0283948504e+01    0.2390719    0.1972375 -58.87  0.001238461    1.216    0.178
        74 -10.0211    209.2310    223.3173   8.8349622795e+01   2.4818813532e+00    0.3639263    0.2481807 -41.58  0.002400738    2.006    0.501
        75  -8.5454    182.9828     28.7563   4.7688738436e+01   3.5719259393e+01    0.1857131    0.1212509  71.20 0.0008867457    1.609    0.378
        76  -9.8085    154.3017    224.8809   9.8045897509e+01   9.6836458621e+00    0.2013159    0.1733109 -48.89  0.001514994    1.488    0.328
        77  -8.8800    180.9814    222.9933   9.3052886222e+01   6.2753301031e+00    0.2056586    0.1251158  42.71  0.001297692    1.608    0.378
        78 -10.3304    250.1328    220.7881   8.1678195184e+01  -2.3014262661e+00    0.3390973    0.1278035 -28.61  0.001952388    2.555    0.609
        79  -8.0825    120.4398    218.4966   1.0365347952e+02   1.5292904797e+01    0.1152582   0.09466241  40.58  6.06042e-05    1.008    0.008
        80  -8.9234    234.4086    213.0007   8.2826013461e+01   3.7835494387e-01    0.1860361    0.1267966 -34.16  0.001307019    1.796    0.443
