#   1 NUMBER                 Running object number                                     
#   2 MAG_AUTO               Kron-like elliptical aperture magnitude                    [mag]
#   3 X_IMAGE                Object position along x                                    [pixel]
#   4 Y_IMAGE                Object position along y                                    [pixel]
#   5 X_WORLD                Barycenter position along world x axis                     [deg]
#   6 Y_WORLD                Barycenter position along world y axis                     [deg]
#   7 A_WORLD                Profile RMS along major axis (world units)                 [deg]
#   8 B_WORLD                Profile RMS along minor axis (world units)                 [deg]
#   9 THETA_WORLD            Position angle (CCW/world-x)                               [deg]
#  10 FWHM_WORLD             FWHM assuming a gaussian core                              [deg]
#  11 ELONGATION             A_IMAGE/B_IMAGE                                           
#  12 ELLIPTICITY            1 - B_IMAGE/A_IMAGE                                       
         1 -11.9409     90.2751     59.2689   1.0172022115e+02   5.2744093447e+01      1.04675    0.8078856 -64.27  0.005564694    1.826    0.452
         2 -11.6574     24.1607     56.0567   1.2341402760e+02   6.1776345604e+01      1.67318    0.6797422  22.48  0.008526156    2.890    0.654
         3 -12.4422     60.4839     45.7091   1.0685938078e+02   5.9673548652e+01    0.9692337    0.4630216 -40.41  0.004834683    1.917    0.478
         4 -12.4542    124.6888     27.7700   8.1632982861e+01   5.0331643116e+01     1.144702    0.8374314  22.70  0.003634332    1.457    0.314
         5 -12.5351    128.5006     14.5809   7.6364732438e+01   5.0886760195e+01     1.808738    0.6991583  59.05  0.007661851    2.265    0.558
         6 -12.4911    104.9958     13.0199   8.1073173610e+01   5.6138376057e+01    0.6466901    0.4213896 -28.05  0.003689852    1.662    0.398
         7 -11.7431    120.3139     57.6770   9.2676762399e+01   4.7126971725e+01     1.667699       1.1921  88.84  0.007477981    2.368    0.578
         8 -12.8067    112.8208     24.8185   8.3413470239e+01   5.3257216778e+01    0.9679255    0.4489548  55.32  0.004387152    2.047    0.511
         9  -8.4884    138.7626     34.0006   8.0598747906e+01   4.6360676950e+01    0.7188281    0.4463129 -17.70  0.003464974    1.908    0.476
        10 -11.7323    145.5188     48.0814   8.3603673701e+01   4.2871113902e+01     1.076006    0.5062256 -23.31  0.004119809    2.742    0.635
        11 -11.7646    182.1614     25.3664   7.0347312929e+01   3.6823690436e+01    0.6392479    0.3125611  50.73   0.00202007    1.994    0.499
        12 -11.5198    178.3526     21.0881   6.9736051963e+01   3.8258318587e+01    0.5351697    0.3174098  40.90  0.001559181    1.944    0.486
        13 -10.2354     60.2199     24.5867   9.9018733636e+01   6.2817429891e+01    0.4999728    0.2534286 -29.80  0.002533227    1.843    0.457
        14 -11.5177     26.3050     27.6762   1.1333794543e+02   6.6442293807e+01    0.4642355    0.4072214 -25.90  0.002767828    1.319    0.242
        15 -11.5360     22.8379     11.1013   1.0817357315e+02   6.9129827524e+01     1.457611    0.5466068  15.11  0.005694664    5.195    0.808
        16 -11.4705     19.9417     23.3634   1.1438522954e+02   6.7666351407e+01    0.5263872    0.2427794 -39.85  0.002834772    1.742    0.426
        17 -11.2779     14.7648     23.5372   1.1667354353e+02   6.8064394441e+01    0.4443727    0.3441035 -42.45  0.002269879    1.396    0.284
        18 -11.8639     16.8211     13.4844   1.1183583057e+02   6.9362843893e+01     0.507151    0.2209752 -25.84   0.00211379    2.167    0.539
        19 -11.3252     14.1203      9.4791   1.1137515072e+02   7.0141652625e+01    0.3391275    0.2319431  12.91  0.001861588    1.425    0.298
        20 -10.0510    145.8915     16.4649   7.3640340755e+01   4.6658155441e+01     0.518538    0.3295325 -81.27  0.002217693    2.250    0.556
        21  -9.7156    149.5228     14.9738   7.2538935459e+01   4.5942689840e+01    0.2940128    0.1960414  16.65  0.001101181    1.943    0.485
        22 -11.0670    140.5697     20.4555   7.5890749382e+01   4.7501679332e+01    0.7465964    0.2726939  48.00  0.002978053    2.440    0.590
        23 -11.2884    214.8732     23.3786   6.5601805232e+01   2.9025087121e+01    0.4185093    0.3605479 -23.51  0.001972815    1.435    0.303
        24  99.0000     88.0449      7.2755   8.3263586090e+01   6.0035668125e+01    0.6451278    0.3109235  51.94  0.003323708    1.910    0.476
        25 -11.4814     90.8232     20.4636   8.7618041912e+01   5.8168259623e+01    0.5411267     0.381301 -12.99  0.002215699    1.426    0.299
        26 -11.5056     86.0920     14.2957   8.6578303227e+01   5.9716790744e+01    0.5197609    0.2940912  -9.09  0.001955001    1.991    0.498
        27  -8.7113     32.1221     12.1973   1.0467803371e+02   6.8020380460e+01    0.2210505    0.1585002  43.68 0.0005103979    2.143    0.533
        28 -10.9601     47.2593     18.5998   1.0134783497e+02   6.5380669708e+01    0.3753478    0.2704175  29.00  0.002537087    1.410    0.291
        29 -12.1985     49.1220     13.0269   9.8288720693e+01   6.5818727408e+01    0.6188984    0.3050596  40.49  0.003482724    2.121    0.528
        30 -11.1319     38.6803     20.6549   1.0554726568e+02   6.6164314018e+01    0.4590423    0.1710377 -37.05  0.001887327    2.384    0.581
        31 -11.6944     35.5046     18.9880   1.0614443354e+02   6.6752515159e+01    0.4267609    0.1733057 -31.87  0.001770319    2.188    0.543
        32 -10.3530    206.3643     19.6687   6.5695324133e+01   3.1525967793e+01     0.551859    0.2709604 -37.33  0.002613227    2.057    0.514
        33 -10.4519     62.7200      6.5459   9.0646882423e+01   6.4521003020e+01    0.3057505    0.1754473  -4.40  0.001144747    1.831    0.454
        34 -10.4502     67.1953     10.3451   9.0776583464e+01   6.3414492452e+01    0.6604847    0.2446707  36.42  0.002976658    2.563    0.610
        35 -11.1449     77.2999      4.7378   8.5288351365e+01   6.2240329516e+01    0.4726639    0.2676913 -15.02  0.002709494    1.802    0.445
        36 -10.5773     71.6068      3.5171   8.6494956126e+01   6.3344826211e+01    0.3942003    0.2717464  16.06  0.002226918    1.284    0.221
        37 -11.9315     68.4256     17.5079   9.3336255722e+01   6.2428511622e+01    0.7060968    0.3840563  51.32  0.003731126    2.252    0.556
        38 -12.4064    239.3319     15.8327   6.1387126596e+01   2.4199543574e+01    0.9243451    0.4934149  68.42  0.003848252    1.733    0.423
        39 -11.3870    239.5895      7.6737   5.9635989920e+01   2.5087158435e+01    0.3694314     0.214955 -76.27 0.0007775599    1.621    0.383
        40 -11.1505    240.8764      3.9381   5.8751061316e+01   2.5214471942e+01    0.5295828      0.16206  71.68  0.002204134    2.869    0.651
        41 -11.2052    165.3381     17.1835   7.0599196872e+01   4.1886388666e+01    0.3955938    0.2393924  42.59 0.0006322896    1.734    0.423
        42 -11.6326    245.8898      8.1893   5.9216785529e+01   2.3619980243e+01    0.4324023    0.3452939 -51.51  0.001866645    1.247    0.198
        43 -10.7990    205.9349      2.4443   6.1601074876e+01   3.3487405806e+01    0.4419492    0.2116076  82.87  0.002062842    2.028    0.507
        44 -10.5599    186.3400     15.3505   6.7090944558e+01   3.6915908177e+01    0.3000585    0.2459518  59.08 0.0006639119    1.178    0.151
        45 -10.4518    200.3497      5.7483   6.2981278163e+01   3.4497372257e+01     0.544553    0.1986013  71.96  0.001390578    2.434    0.589
        46 -11.7494    192.2334      7.6161   6.4364084722e+01   3.6277111204e+01    0.7363545    0.4449182  54.03  0.002635166    1.608    0.378
        47 -10.1534    193.9666      1.4701   6.2630261835e+01   3.6458809950e+01    0.2569686    0.1314478  66.66  0.000616234    1.646    0.392
        48  -9.9810    218.8160     12.9400   6.2731256844e+01   2.9302928053e+01    0.3524538    0.2065285  54.89  0.001837835    1.791    0.442
        49 -11.6470    211.2798     10.1234   6.2857746451e+01   3.1410013110e+01    0.4316526    0.3275005  34.01  0.001609773    1.795    0.443
        50  -9.8195    157.5308     10.1696   6.9777734745e+01   4.4486106102e+01    0.3872205    0.1287176 -33.76  0.001552925    3.081    0.675
        51 -10.6077    151.3847      7.6392   6.9999644704e+01   4.6196669773e+01    0.4691447    0.2761234  64.08  0.001296155    1.464    0.317
        52  -9.6391      4.1019     10.9187   1.1660393188e+02   7.0714553612e+01    0.3126169     0.161059 -25.68  0.001363121    1.563    0.360
        53  -9.3761      5.3383      5.7296   1.1387021106e+02   7.1346357080e+01    0.1759928   0.07277919 -40.87  0.001056565    1.977    0.494
        54 -10.5950    169.0716      9.9192   6.7980942089e+01   4.1708081770e+01    0.3555091    0.2069159  49.74  0.001808953    1.631    0.387
        55  -9.4980    162.8602     10.1653   6.8959885024e+01   4.3196318554e+01    0.2467464    0.1788896  29.17  0.001176211    1.625    0.385
        56 -10.5793    157.9756      2.5108   6.7473061287e+01   4.5072790497e+01    0.3667525    0.2011952  59.11  0.001683999    1.515    0.340
        57 -10.1393    162.5985      5.7405   6.7730109005e+01   4.3673650045e+01    0.3562542    0.2670963   8.85  0.002043912    1.709    0.415
        58 -10.0274    162.5492      1.4445   6.6514585923e+01   4.4065660085e+01    0.2330102    0.1137019  73.95 0.0005774857    1.923    0.480
        59  -9.1382    116.1893      8.8537   7.6990555058e+01   5.4155362286e+01    0.2422438    0.1367114 -39.73  0.001237663    2.131    0.531
        60 -10.2426      1.3124      7.2641   1.1643844116e+02   7.1420194139e+01    0.1669076   0.06970739 -40.98 0.0002420361    1.844    0.458
        61 -10.4807    228.2471      3.9840   5.9832902530e+01   2.8080393997e+01    0.2776051    0.2404908 -24.02  0.001436107    1.510    0.338
        62 -11.0441    218.5964      3.1538   6.0528481259e+01   3.0414286935e+01    0.2895629    0.2440163 -62.92  0.001007693    1.163    0.140
        63 -10.9581    223.7840      1.9109   5.9777518941e+01   2.9332498855e+01    0.4416911    0.2173091  77.34  0.001407111    1.792    0.442
        64 -10.8198    174.4131      4.5953   6.5784764672e+01   4.0911850101e+01    0.6452268    0.2602091  74.01  0.002680738    2.400    0.583
        65 -11.1228     41.1460     14.3228   1.0192352875e+02   6.6695566466e+01    0.5325838    0.1601934  40.12    0.0023508    3.676    0.728
        66 -10.4694     42.6367      3.4732   9.6550644873e+01   6.7758447754e+01    0.4125866    0.2191334   5.73  0.002287536    2.180    0.541
        67 -10.5034    141.8401      3.6814   7.0356200312e+01   4.8799030489e+01    0.4477862    0.2067321  62.77  0.001691625    1.829    0.453
        68 -12.0792    133.7516      2.7035   7.1447234323e+01   5.0753967727e+01    0.3969665    0.2547755  61.71 0.0007112454    1.347    0.257
        69 -10.7920    114.5354      2.0503   7.4944768558e+01   5.5091118561e+01    0.6288031    0.2486653  64.92  0.002294373    2.616    0.618
        70 -11.0752    106.0611      1.8262   7.6705194325e+01   5.6908461515e+01    0.6227904    0.2531132  64.44  0.002669171    2.718    0.632
        71  -9.3470    184.2669      2.6232   6.4031927224e+01   3.8699460711e+01    0.2406222    0.1414596  62.73 0.0009297996    1.458    0.314
        72 -11.2185      2.7040      1.8582   1.1346098351e+02   7.2055031389e+01    0.3194598    0.1526587   9.64  0.002034371    2.212    0.548
        73  -9.0541     15.7755      1.3292   1.0700346019e+02   7.1035934655e+01    0.1418134   0.07848422  13.79  0.000940666    1.725    0.420
        74  -9.7415    122.7327      1.3797   7.3059275844e+01   5.3348921894e+01    0.3702008    0.1083684  62.73  0.001401579    3.047    0.672
        75 -10.3619     45.7399    120.5403   1.3104417867e+02   4.6136639104e+01    0.3380604    0.2402154 -85.14  0.001481739    1.503    0.335
        76 -11.2998      2.4704    123.1095   1.4280826395e+02   4.9205452134e+01    0.3665499    0.2566184 -61.21 0.0003800072    1.186    0.157
        77  -9.5211     18.8589    124.5340   1.3884480104e+02   4.7723374065e+01    0.2204221    0.1229746 -60.68 0.0006821205    1.404    0.288
        78 -11.6419    104.8892    120.9852   1.1488598736e+02   3.7489308172e+01    0.5440305    0.5010566 -69.25  0.002072413    1.058    0.055
        79  -8.5651     40.6787    122.2811   1.3272785693e+02   4.6267095552e+01    0.1240915   0.09011262  77.84 0.0004212068    1.587    0.370
        80  -8.9760    221.4403    120.5024   8.8329437326e+01   1.1868371498e+01    0.1494208    0.1400349 -49.11 0.0001365312    1.020    0.019
        81  -9.0062    148.3968    119.8389   1.0347663393e+02   2.8860491162e+01    0.2235757     0.147344 -33.20 0.0004759098    1.705    0.414
        82  -9.1897     72.2215    119.8712   1.2358582348e+02   4.3012119928e+01    0.1918163    0.1539655 -33.91  0.001051944    1.365    0.267
        83 -11.2636     34.3118    119.1957   1.3393131343e+02   4.7596738382e+01     0.514908    0.3016073 -48.79  0.002853603    1.562    0.360
        84 -11.3404     44.5868     85.1927   1.2399069497e+02   5.4096162221e+01    0.8649549    0.5645474  70.33  0.004228895    2.766    0.639
        85 -12.0040     37.3913     86.0435   1.2649367104e+02   5.4632673721e+01     1.270834    0.3235606  29.13  0.004846131    4.388    0.772
        86 -11.6205      9.8913     97.4381   1.3716555381e+02   5.4343636401e+01    0.7385135    0.4679802  48.60  0.004611397    2.042    0.510
        87 -12.0965      7.4420     88.8697   1.3642933778e+02   5.6322123224e+01    0.5020835    0.3844202 -60.34 0.0008790123    1.029    0.028
        88 -11.8209     24.6605     99.6821   1.3323117491e+02   5.2798409587e+01     1.298512    0.4818371  40.40   0.00591911    3.359    0.702
        89 -12.6999     24.4195    109.5227   1.3503752373e+02   5.0643809270e+01     1.555392    0.7093197 -33.46  0.006917687    3.182    0.686
        90 -11.9780     18.8782    106.1409   1.3603263092e+02   5.1825713406e+01    0.2657883      0.17597 -56.70 0.0002700764    1.197    0.165
        91 -11.8738     19.1250     95.8827   1.3417497032e+02   5.4049050781e+01    0.4633853     0.290672 -17.32  0.002047783    2.118    0.528
        92 -12.1911     18.3910     90.5536   1.3340045927e+02   5.5247603767e+01    0.4878736    0.2667463 -47.32 0.0006521463    1.507    0.336
        93 -11.3230     28.6939    112.9971   1.3443109784e+02   4.9507065524e+01    0.3087876    0.2659047  -0.09  0.001145661    1.482    0.325
        94  -9.3092     81.3045    117.7562   1.2059863086e+02   4.2170924947e+01     0.190053    0.1542623 -33.81 0.0005483094    1.325    0.245
        95 -10.2882    113.9637    115.9734   1.1124216557e+02   3.6926971477e+01     0.230942    0.2178428  44.19 0.0003508065    1.109    0.098
        96 -10.5484     67.0786    112.1242   1.2337164441e+02   4.5496795071e+01    0.5049387    0.2837999 -63.70  0.002374501    1.759    0.431
        97 -11.6811      2.6687    112.3368   1.4138679180e+02   5.1554426007e+01     0.417591    0.3017138  50.29  0.002080565    1.689    0.408
        98 -10.7180      5.6629    108.7058   1.4008557818e+02   5.2163972017e+01    0.1898839    0.1383471 -41.29 0.0005938079    1.433    0.302
        99 -10.4037    107.8325    112.5342   1.1203166931e+02   3.8860849724e+01    0.4568103    0.3254678 -84.34  0.001685438    2.008    0.502
       100 -10.8271    103.5555    108.5135   1.1218766294e+02   4.0544680438e+01    0.5790328    0.4765707 -20.61  0.002997953    1.395    0.283
       101  -9.3196     87.5733    114.5134   1.1810671209e+02   4.1933008784e+01    0.2402668    0.1290797  50.19  0.001019041    2.192    0.544
       102 -10.9857    171.2929    109.8122   9.5610091014e+01   2.5679055707e+01    0.6451488    0.4418278  34.19  0.002554939    1.707    0.414
       103  -9.7214     48.8554    112.0592   1.2857318910e+02   4.7735820613e+01    0.2035837    0.1962264  56.21  0.001365725    1.208    0.172
       104 -10.1127     14.6892    110.0478   1.3782371979e+02   5.1268847473e+01    0.3856106    0.1961568 -77.33  0.002037678    1.886    0.470
       105 -11.1654     79.5446    108.6326   1.1899823792e+02   4.4515831533e+01    0.6012668    0.4164338  52.00  0.002753668    1.683    0.406
       106 -11.1335     86.4176    105.2664   1.1620528397e+02   4.4201339639e+01    0.4613721    0.3634958  15.49  0.001617913    1.535    0.349
       107 -11.6623      3.2633    104.9781   1.4020467601e+02   5.3118955440e+01    0.3726501    0.3130725 -62.39  0.001048801    1.127    0.112
       108  -9.4661    119.9952    109.0350   1.0787032604e+02   3.7275653555e+01    0.1873175    0.1726264 -48.89 0.0005160656    1.050    0.047
       109 -10.2602    157.7355    105.5391   9.7540657415e+01   2.9745171002e+01    0.2948554    0.2817362   6.47 0.0006040411    1.129    0.114
       110  -9.8114    143.5976    105.7511   1.0096887167e+02   3.2941336167e+01    0.4063909    0.3091104 -30.20  0.001517753    1.434    0.303
       111  -9.3325    145.3196    101.3375   9.9354394010e+01   3.3469327815e+01    0.3000624    0.2329125  44.30  0.001428498    1.307    0.235
       112 -10.0968    146.7310     98.7504   9.8303662231e+01   3.3676541264e+01    0.4423627    0.2992372  81.20  0.001753649    2.293    0.564
       113  -9.9767     52.3812     96.5830   1.2423591340e+02   5.0796219518e+01    0.4913889    0.1534299 -49.09   0.00191592    2.628    0.619
       114  -9.0157     82.0076    102.7355   1.1685282289e+02   4.5456580338e+01    0.1887769     0.178667 -45.75 0.0005246184    1.040    0.039
       115  -9.4516     57.6058    102.7728   1.2406545989e+02   4.8813456098e+01     0.259788    0.1246532 -61.65  0.001152292    2.019    0.505
       116 -10.3450     57.6292     97.7637   1.2291245015e+02   4.9918220525e+01    0.3864834    0.2372525 -58.64  0.001500671    1.481    0.325
       117 -11.2180     67.5337     97.1305   1.1976163919e+02   4.8785877366e+01    0.6158465    0.3354148 -48.49  0.001775192    1.607    0.378
       118  -8.7106     61.9163    101.6217   1.2251936791e+02   4.8533614698e+01     0.211845    0.0920468  54.08 0.0007022283    4.497    0.778
       119  -9.8850     67.0669     55.0012   1.0777092647e+02   5.7189554825e+01    0.2544236    0.2264328  55.57 0.0007203493    1.518    0.341
       120 -10.3990     78.0208     97.0084   1.1658257929e+02   4.7318320607e+01    0.3960076    0.1800534 -53.62  0.001651775    2.075    0.518
       121 -10.7893     94.0567     75.8427   1.0582986025e+02   4.9057466192e+01    0.5065224    0.4323352  18.40 0.0008958914    1.214    0.176
       122 -10.2679     98.5312     62.2922   1.0023549543e+02   5.0726877854e+01     0.295179     0.246573  -9.97  0.001669969    1.195    0.163
       123  -9.9951    142.9876    249.1949   1.2870048254e+02   3.5241221915e+00    0.2001429    0.1363311  23.38  0.001090595    1.994    0.498
       124 -11.2861     82.1268     93.1728   1.1435474025e+02   4.7516001730e+01    0.6562725     0.404245  49.03  0.002446242    1.926    0.481
       125 -11.1128     90.1119     88.9998   1.1083729806e+02   4.7100937538e+01    0.8152252    0.4645251 -25.06  0.003318805    2.500    0.600
       126 -12.2435     74.4209     50.1676   1.0367297210e+02   5.6903025284e+01     1.066532    0.6659083 -49.28   0.00554782    1.878    0.468
       127 -11.3646     79.8530     82.6553   1.1215277824e+02   5.0062080030e+01    0.5968075    0.5060014 -69.14  0.002273235    1.400    0.286
       128 -12.3424     70.0391     79.7652   1.1440495077e+02   5.2101183564e+01       1.1714    0.7923858   4.12  0.005922345    1.973    0.493
       129 -11.5173     78.7565     67.1468   1.0786381156e+02   5.3253918954e+01    0.6809624    0.5512714 -89.84  0.003683436    1.964    0.491
       130  -9.7406    210.8087     98.2379   8.4798925078e+01   1.8450362454e+01    0.2660831    0.2477714 -62.51 0.0007165025    1.025    0.024
       131 -10.6021     48.4366    103.0394   1.2684869326e+02   4.9811627216e+01    0.3644804    0.2526605 -29.33   0.00037241    1.644    0.392
       132 -10.7408    125.2395     93.5878   1.0228496870e+02   3.9466009926e+01    0.5666921    0.2880719  38.94  0.001718529    2.142    0.533
       133  -9.2933    138.0574     93.4801   9.8966812164e+01   3.6702554324e+01    0.3996569    0.2541079  22.50  0.001562183    2.356    0.576
       134  -8.9857    160.2542     93.3976   9.3664786811e+01   3.1579010420e+01    0.2256837    0.1485693  63.51 0.0009523481    1.703    0.413
       135  -9.9202    152.7272     92.0487   9.5018520370e+01   3.3622712235e+01    0.2967715    0.2675731  79.12  0.001224448    1.181    0.153
       136 -10.0041    117.3035     93.0076   1.0424084089e+02   4.1224493948e+01    0.3371046    0.2204273  41.71  0.001140619    1.578    0.366
       137 -10.4669    121.8932     89.2633   1.0193970406e+02   4.1043122786e+01    0.4227264    0.2809438  17.59  0.001764326    2.198    0.545
       138 -10.6587    120.3448     85.2029   1.0117606836e+02   4.2172074927e+01    0.4509236    0.2123783  47.75  0.001761501    2.186    0.543
       139 -10.4567    101.6310     90.8232   1.0799208842e+02   4.4698791922e+01    0.4243909     0.338822  47.88  0.001699626    1.350    0.259
       140 -10.0510    104.7296     87.7479   1.0623408372e+02   4.4754939683e+01    0.3479754    0.2621736  52.99  0.001347239    1.484    0.326
       141  -9.6903    183.7051     86.9016   8.6928156059e+01   2.7105418830e+01    0.3862413    0.1771885 -44.45  0.001431805    2.178    0.541
       142  -9.8268    103.9917     77.0899   1.0329869140e+02   4.6998663814e+01    0.6284428    0.3614157 -28.69  0.002717369    2.000    0.500
       143 -11.0034    113.5303     83.1103   1.0241538225e+02   4.3972718599e+01    0.5365702    0.3169087 -37.14  0.002001183    1.693    0.409
       144 -10.9265    108.9162     80.7750   1.0300760620e+02   4.5340531997e+01    0.3857289    0.3238068 -26.76  0.001424279    1.184    0.155
       145 -11.6608     85.3873     73.4706   1.0773993563e+02   5.0993414286e+01    0.6222247    0.5356164 -49.52  0.003638953    1.221    0.181
       146  -9.2903    212.2084     87.0957   8.1768149740e+01   2.0116504065e+01    0.2146675    0.2005984  -0.42 0.0004955694    1.253    0.202
       147 -10.4616    165.7058     83.1522   8.9608323522e+01   3.2203973051e+01    0.4234229    0.3438048 -61.97   0.00155949    1.332    0.249
       148 -11.2857    143.5127     83.2907   9.4709934888e+01   3.7450683265e+01    0.4826025    0.3565917 -25.87  0.001803526    1.502    0.334
       149 -10.3073    127.3906     83.3726   9.8776193417e+01   4.1036844927e+01    0.3436211    0.2618792  46.96  0.001462823    1.324    0.244
       150 -11.6908     53.0671     76.6356   1.1903341125e+02   5.4926629739e+01    0.7395346    0.3818584 -54.60  0.003460283    1.810    0.447
       151 -11.1213     58.1386     78.0979   1.1777016404e+02   5.4018318134e+01    0.3764102    0.3313007  83.39   0.00117368    1.512    0.339
       152 -10.2708    120.6892     79.8565   9.9500974145e+01   4.3135473022e+01    0.4010606     0.200242  50.35  0.001610463    2.108    0.526
       153 -11.1586     34.2474     92.3791   1.2888268677e+02   5.3569597186e+01     1.035555    0.5318547  40.23   0.00511517    2.396    0.583
       154  -9.5468     52.0281     47.1242   1.1036298310e+02   6.0541409000e+01    0.5219089    0.3752127 -55.01  0.003100119    1.767    0.434
       155  -9.3093    175.3141    246.3057   1.2228842094e+02  -1.5652920494e+00    0.1229905   0.09041473  16.81 0.0004503941    1.622    0.383
       156 -11.2583     27.8773     47.0765   1.1935517492e+02   6.3098548257e+01    0.3891251    0.2162122 -10.77  0.002126854    2.233    0.552
       157 -10.2619     20.8759     47.1142   1.2205199350e+02   6.3670992288e+01    0.3354214    0.2094431 -40.57  0.001531916    1.236    0.191
       158 -11.5681     32.4973     42.1509   1.1598273208e+02   6.3525228554e+01    0.5933172     0.457888  42.20  0.002400984    1.836    0.455
       159 -11.7848     13.9027     74.4987   1.3157162118e+02   5.8904262466e+01    0.6416281    0.4853929  -8.26  0.004502897    1.532    0.347
       160 -12.0461      2.1147     70.8111   1.3472214712e+02   6.0338307092e+01    0.6436747    0.1567764 -60.47  0.002749995    2.751    0.637
       161 -11.4951     51.5218     61.6405   1.1523861192e+02   5.8026345842e+01    0.5273483    0.3494633 -64.27  0.002655277    2.082    0.520
       162 -11.4007     46.1088     58.3933   1.1614742941e+02   5.9248283574e+01    0.5271178    0.2932035 -46.04  0.002895264    1.553    0.356
       163 -11.8775      6.5950     62.3539   1.3136660393e+02   6.1768310240e+01    0.6052103    0.2501909 -47.12  0.003382941    1.753    0.430
       164 -11.6453     45.8634     48.9798   1.1323091746e+02   6.0956613619e+01    0.4218389      0.29685 -11.52  0.001358309    1.415    0.293
       165 -12.5097     41.7438     45.4635   1.1357978866e+02   6.2016760985e+01    0.3268159    0.2591407  -0.73 0.0002786769    1.213    0.176
       166 -11.8023     13.0510     65.9537   1.2994124129e+02   6.0671697486e+01      0.24529    0.2374366  82.96 0.0003966612    1.365    0.267
       167 -10.9481     12.8169     62.2012   1.2912923878e+02   6.1421270443e+01    0.2197681    0.1560691 -30.96 0.0006978862    1.273    0.215
       168 -11.4091     39.7130     55.5316   1.1756643820e+02   6.0455657854e+01    0.5935439    0.4712393  55.20  0.002113081    1.920    0.479
       169  -8.8618    134.6421     77.3023   9.5124035843e+01   4.0585378571e+01    0.1528311    0.1198176 -85.03 0.0007038245    1.716    0.417
       170  -9.3077     46.5120     72.9669   1.2022063339e+02   5.6403249868e+01    0.2868398    0.1161736 -58.64  0.001101488    2.727    0.633
       171  -9.3545    192.1518     65.5087   7.9608424652e+01   2.8698789616e+01    0.2477354    0.1936408 -67.05 0.0008504724    1.354    0.261
       172 -10.2058    183.9821     74.9958   8.3653334822e+01   2.9150526568e+01     0.335907    0.2715275  71.34  0.001136736    1.254    0.203
       173 -11.7791    187.0018     69.9753   8.1727795066e+01   2.9249291468e+01    0.7644397    0.5771081 -55.60  0.002914466    1.367    0.269
       174 -10.4269     38.6909     73.6759   1.2304616494e+02   5.7065196123e+01    0.1954751    0.1481304 -30.67 0.0009506238    1.211    0.175
       175 -11.1680     40.7351     70.6192   1.2154438644e+02   5.7474141649e+01    0.3573425    0.3107985 -65.68  0.002082131    1.331    0.249
       176  -9.3038     61.1909     72.9694   1.1532689571e+02   5.4656424568e+01    0.1698028    0.1361773  50.23 0.0004629183    1.591    0.371
       177 -11.8285    122.6648     68.2731   9.5432662850e+01   4.4837703188e+01     0.860599    0.4613459  45.16  0.003503857    1.843    0.457
       178  -9.8696    161.9794     70.4194   8.6777693094e+01   3.5369908946e+01    0.3597607    0.2625041  71.77  0.001685119    1.524    0.344
       179 -10.4196    172.0641     67.6909   8.3932143639e+01   3.3346415683e+01      0.41619    0.3188293 -54.28  0.002047945    1.375    0.273
       180 -10.0413    112.2387     67.4676   9.7987202501e+01   4.7153570784e+01    0.4446401    0.2700966  69.16  0.001536475    2.914    0.657
       181 -11.3947    219.6270     66.2542   7.5407106471e+01   2.1831209546e+01    0.6172515    0.3672208  62.51  0.002210135    1.678    0.404
       182  -9.7720    207.7874     68.2391   7.7720267994e+01   2.4386500937e+01    0.3958735    0.1783892  51.13  0.001542632    2.279    0.561
       183 -11.0243     58.4639     62.1592   1.1300479380e+02   5.7074575017e+01    0.6063492    0.3073528 -56.17  0.002774463    2.424    0.588
       184  -9.5318    199.0632    244.5084   1.1760160226e+02  -5.3516916133e+00    0.1994227    0.1046022  41.34  0.001035893    1.603    0.376
       185 -10.7558     60.6264     36.5105   1.0347928797e+02   6.1088928433e+01    0.3150664    0.2086163 -36.61  0.001084276    1.454    0.312
       186  -8.5678     69.6729     66.7289   1.1066918986e+02   5.4698033586e+01    0.1319101   0.09442727 -10.24 0.0002140153    1.580    0.367
       187 -10.1542     20.9793     65.0510   1.2694820143e+02   6.0298741310e+01    0.1767889    0.1475341 -30.12 0.0007352946    1.133    0.117
       188 -10.3131    105.9213     62.5145   9.8170901369e+01   4.9275698694e+01    0.4223439    0.3093118  75.67  0.002005209    2.149    0.535
       189  -9.3068    205.0148     63.0985   7.6843892346e+01   2.5892498292e+01    0.2373718    0.1787975  24.28  0.001128913    1.858    0.462
       190  -9.3929    198.1309     62.6738   7.7845515706e+01   2.7664099082e+01    0.2623386    0.1872496 -52.03 0.0008049604    1.405    0.288
       191  -9.8886    167.7083     63.0309   8.3467933835e+01   3.5188036842e+01    0.2487858     0.201886  61.06  0.001029706    1.191    0.160
       192 -10.6585    159.5218     61.7441   8.4763325222e+01   3.7407815188e+01    0.4718378    0.2867127  41.13  0.002064851    1.760    0.432
       193 -10.7842    128.4607    241.9408   1.3049042399e+02   7.2142255149e+00     0.414189    0.3591493  45.39  0.002758795    1.193    0.161
       194  -9.6699    150.3172    237.6722   1.2578301468e+02   4.1831250469e+00    0.1310913   0.09115697  69.69 0.0004237082    1.678    0.404
       195  -9.4084     15.3627    233.5654   1.4965719658e+02   2.4694382677e+01    0.2012472     0.104067 -77.59  0.001310509    1.625    0.385
       196  -9.3919    247.3043    231.3358   1.0666175734e+02  -1.1361441919e+01     0.126435   0.08085237   5.97 0.0004982902    1.667    0.400
       197 -11.6581    105.6494     33.0533   8.8180188737e+01   5.3753977316e+01    0.5514775    0.3197851  10.29  0.001083885    2.562    0.610
       198  -9.0981     23.4688    231.5297   1.4821609846e+02   2.4204416021e+01    0.1125489   0.07839663  77.46  0.000307507    1.018    0.017
       199 -12.8995    120.3457     38.9862   8.6466208163e+01   4.9883395767e+01    0.7271495    0.5386931 -85.33  0.001057445    2.105    0.525
       200 -11.1722     33.0991     71.8500   1.2447313849e+02   5.7955599085e+01    0.5128704    0.2552449  29.04  0.002753474    2.339    0.572
       201  -9.2697    146.9500     60.5341   8.7121890897e+01   4.0631959686e+01    0.2264331    0.1407313  54.52 0.0007409953    1.556    0.357
       202  -9.3096    228.4795     59.4529   7.2514995235e+01   2.0786420988e+01    0.1444732    0.1231766 -71.92 1.776059e-05    1.071    0.066
       203 -10.5826    139.5883     43.2144   8.3366695326e+01   4.4956299015e+01    0.7033077    0.3952955  19.49  0.002184847    3.124    0.680
       204  -9.9014    133.4714     37.2512   8.2803161125e+01   4.7173061481e+01    0.4199108    0.3075089 -78.01  0.002073138    1.962    0.490
       205  -9.1576    190.1169    229.8496   1.1694510412e+02  -1.6044872230e+00    0.1785392    0.1394036  21.14 0.0005208062    1.291    0.226
       206 -11.2422    136.6124     55.9294   8.8073198050e+01   4.3778368386e+01      0.60023    0.4464675 -18.67  0.002285913    1.505    0.336
       207  -9.7633      9.1408    227.2016   1.5027488789e+02   2.6555091818e+01    0.1506176    0.1150436  84.50 0.0003701802    1.183    0.155
       208 -10.5770    157.3973     56.7629   8.3730527019e+01   3.8711702639e+01    0.3940016    0.2982684  29.53 0.0007883873    1.515    0.340
       209 -11.3194    156.5149     53.4568   8.2925603932e+01   3.9431213573e+01    0.7912247    0.4211051 -44.39  0.003362856    2.013    0.503
       210  -9.8276      2.0269     56.0205   1.3152493322e+02   6.3234868303e+01    0.1693582    0.1216876 -43.62 0.0004917661    1.052    0.050
       211  -9.3718    187.8052     54.9986   7.7519899885e+01   3.1428822010e+01    0.2737419    0.1708048  48.10   0.00124935    1.654    0.395
       212  -9.3380    212.6267     53.8416   7.3347200813e+01   2.5446804225e+01    0.2638072    0.1673453 -46.89  0.001272149    1.525    0.344
       213  -9.9569    249.3560     53.1324   6.8480228521e+01   1.6948743727e+01    0.3036149    0.2044673 -77.52  0.001606586    1.532    0.347
       214  -9.9378    233.8957     44.8731   6.8415643578e+01   2.1666574371e+01    0.3286477    0.2398102 -81.96  0.001801774    1.331    0.249
       215 -11.0379    240.1057     50.3481   6.8930868863e+01   1.9444063824e+01    0.4005547    0.3236732  87.67  0.001185401    1.170    0.145
       216 -10.1454    244.5140     50.5145   6.8453601061e+01   1.8417229477e+01    0.2717159     0.191594 -55.74  0.001008062    1.271    0.213
       217 -10.9355    202.5043     47.9632   7.3330137915e+01   2.8800693993e+01    0.6423919     0.356169 -31.30  0.002880573    1.965    0.491
       218 -10.9312    173.8969     48.2208   7.8057287904e+01   3.5906521842e+01    0.6083125    0.4108262  61.33  0.002004255    1.391    0.281
       219 -10.1868    176.6564     43.4908   7.6237285504e+01   3.5883141641e+01    0.3648734    0.2838033  87.12   0.00138039    1.351    0.260
       220  -9.7705     90.6710     48.0889   9.7800662792e+01   5.4501871490e+01    0.2291327    0.2168408  49.60 0.0007025809    1.278    0.217
       221  -9.2961      3.5248     48.9782   1.2922469491e+02   6.4474073956e+01    0.1584093    0.1262687  -8.80  0.001221486    1.358    0.264
       222  -9.8665     13.9485     46.4150   1.2451980484e+02   6.4302361034e+01     0.316811     0.115566 -41.99   0.00163749    2.074    0.518
       223  -9.7476     17.8437     42.0541   1.2168714032e+02   6.4794856384e+01     0.303427    0.1687202 -17.18  0.001370676    1.935    0.483
       224  -9.1817    193.0306     45.8333   7.4208449371e+01   3.1461538569e+01    0.2373837    0.1518468 -83.02 0.0008915589    1.933    0.483
       225  -9.4066    132.1514     45.1979   8.5690573968e+01   4.6396744533e+01    0.2198855    0.1754295  27.82 0.0005261027    1.288    0.224
       226 -10.4698    100.5265     43.5426   9.3308514415e+01   5.3339869897e+01    0.4397818     0.323608 -77.50  0.002106672    2.530    0.605
       227 -11.2517     93.9084     41.4291   9.4480919396e+01   5.4905396436e+01    0.4899842    0.2992431  42.98  0.001674418    1.593    0.372
       228  -9.9410    162.0926     43.7230   7.8925157356e+01   3.9467495270e+01    0.4531329    0.2343019  64.68  0.001912977    1.943    0.485
       229 -11.6218    156.1700     41.7380   7.9469826557e+01   4.1190257162e+01    0.3997315    0.3652601  46.85 0.0008652099    1.062    0.059
       230 -11.1410    153.5255     36.4096   7.8366814436e+01   4.2535498768e+01    0.3512436    0.2957116 -86.84 0.0008076599    1.315    0.240
       231  -9.7440      4.2386     44.0316   1.2762696556e+02   6.5334646001e+01    0.3236736    0.1693764 -19.78 0.0008309418    2.030    0.507
       232 -11.4752     70.0426     32.5803   9.8743767876e+01   6.0253157715e+01    0.4493289    0.2687191  31.57 0.0005333978    1.629    0.386
       233 -11.1134     81.7047     39.4388   9.7495032235e+01   5.7371716464e+01    0.4491959    0.3212652  35.29  0.000776834    1.363    0.266
       234 -10.9092     77.9002     34.4049   9.6847427147e+01   5.8727956962e+01    0.3587211    0.3266455  29.47  0.001130061    1.243    0.196
       235 -11.0779     82.2009     31.5450   9.4409321038e+01   5.8381837058e+01    0.4071965    0.3641057  47.93  0.002656701    1.367    0.269
       236 -10.0339    189.4837     38.0008   7.2663303820e+01   3.3419741852e+01    0.3550064    0.1528023 -23.15  0.001296168    3.241    0.691
       237 -10.3266    190.0461     32.8563   7.1207631876e+01   3.3947248815e+01    0.3687694    0.2888523 -78.46   0.00127663    1.294    0.227
       238 -10.0802    189.5073     27.6221   6.9897043295e+01   3.4730755998e+01    0.3389899    0.3137809  17.14  0.001355961    1.315    0.240
       239  -9.7964    231.4387     39.0532   6.7364318833e+01   2.3052233682e+01     0.256384    0.1678963 -56.66  0.001041247    1.431    0.301
       240 -10.8069    176.8558     37.0133   7.4385421579e+01   3.6702159742e+01    0.3629546    0.3109154 -15.94  0.001335918    1.370    0.270
       241 -10.8519    172.3973     33.3414   7.4084902717e+01   3.8281723892e+01     0.419077    0.2990844  66.18  0.001692009    1.288    0.223
       242 -10.3530    176.0187     29.6871   7.2470056732e+01   3.7833223030e+01     0.341131     0.290264  60.92  0.001337248    1.094    0.086
       243  -9.6142    234.5226    222.5180   1.0737125866e+02  -8.1439276444e+00    0.1267593    0.1068994  13.37  1.33877e-05    1.007    0.007
       244 -10.1764     10.0370    217.6230   1.4954221742e+02   2.8334455056e+01    0.2020485    0.1227515 -80.27 0.0005854245    1.336    0.251
       245 -10.8498     22.5527     36.5158   1.1801171718e+02   6.5363416629e+01    0.3576652    0.2399048  40.72  0.002093945    2.181    0.542
       246 -10.1946    206.7807     37.0492   6.9951805679e+01   2.9256708031e+01    0.3060396      0.21969 -57.26 0.0008285269    1.376    0.273
       247 -11.0331      5.1355     36.0685   1.2496189029e+02   6.6681980418e+01    0.3635288    0.2724302 -12.18  0.002032711    1.295    0.228
       248  99.0000      6.6917     30.7743   1.2264715188e+02   6.7479128522e+01    0.3795537    0.1871174  14.00  0.002331609    2.287    0.563
       249  -9.5556    218.5064     38.9779   6.8905284207e+01   2.6139868607e+01    0.2155461     0.174128  78.35 0.0007769024    1.147    0.128
       250  -9.1868     94.1810     36.1707   9.2508351155e+01   5.5589939286e+01    0.1642297    0.1591537 -77.74  0.001053691    1.355    0.262
       251 -10.1894    160.4173     33.2037   7.6115572598e+01   4.1258558036e+01    0.3510232    0.2898017 -70.57  0.001068903    1.344    0.256
       252 -11.6380    163.6356     27.9377   7.3998099266e+01   4.1105909928e+01    0.7430577     0.333761  61.85   0.00209969    1.988    0.497
       253 -10.8148    157.2640     20.8129   7.2976814084e+01   4.3469308583e+01    0.6416869    0.2494667  53.93  0.002473865    2.183    0.542
       254 -10.7604    153.3880     25.8263   7.5168269702e+01   4.3851679557e+01    0.4817168    0.2879013  34.01  0.001847755    1.966    0.491
       255 -10.2978    156.9548     24.9825   7.4277477949e+01   4.3082297319e+01    0.2820954    0.2192141  52.66 0.0004140952    1.173    0.147
       256 -10.5648    240.8695     31.2358   6.4577601143e+01   2.1919835559e+01    0.4266881    0.3511014 -26.07  0.002583446    1.517    0.341
       257  -9.3501    166.4177    212.9360   1.1881408035e+02   5.6212622778e+00      0.18196    0.1195351 -77.99 0.0004308569    2.511    0.602
       258 -10.8443     57.0915     30.7661   1.0256518633e+02   6.2419198598e+01    0.4557649    0.2374473  24.64  0.001627926    2.078    0.519
       259 -11.8680     47.7820     30.5333   1.0591699362e+02   6.3676677174e+01    0.7229704    0.2736056  29.70  0.003338138    2.906    0.656
       260 -10.0528    203.4845     27.5141   6.7991865004e+01   3.1290463198e+01    0.3748533    0.2042756 -42.63  0.001329017    1.827    0.453
       261 -11.1294    197.9550     28.9165   6.9071912836e+01   3.2479265061e+01     0.423328    0.3829428  53.44  0.001658877    1.211    0.174
       262 -10.4253    199.5488     24.9580   6.7852835384e+01   3.2569195575e+01    0.3023106    0.2640624 -35.10 0.0008654396    1.294    0.227
       263  -9.4867    182.6962     32.0140   7.2077294981e+01   3.5884274794e+01    0.1876978    0.1749623 -78.34 0.0004344333    1.076    0.071
       264  -9.4364     35.9487     31.7928   1.1097395627e+02   6.4850712543e+01    0.1923329    0.1494113 -60.80  0.001224643    2.074    0.518
       265  -9.6386    210.8988     30.0947   6.7697537075e+01   2.9154043661e+01    0.2326741    0.1837631 -50.60 0.0007423658    1.252    0.201
       266  -9.8108    100.4034     30.0067   8.8503448437e+01   5.5189483935e+01    0.2942623    0.2021313  20.18   0.00141995    1.520    0.342
       267  -9.3843    152.5767    207.7385   1.2078064491e+02   9.2082429693e+00    0.1802273    0.1335836 -67.67 0.0006965439    1.575    0.365
       268 -10.8141      4.3388    204.5261   1.4966910778e+02   3.1508183472e+01    0.6579581   0.07775708 -65.96  0.002420581    4.946    0.798
       269 -10.4440     10.2648    187.0076   1.4734233699e+02   3.4605398674e+01    0.2522104   0.09176379 -72.76  0.000926599    2.124    0.529
       270 -12.5748      4.2493    184.4136   1.4827639123e+02   3.5689751786e+01    0.8867787    0.4069006 -87.53   0.00484337    1.807    0.446
       271 -10.5405    245.1379    200.8614   1.0141429733e+02  -6.7427921971e+00    0.1847199    0.1741735  -0.08 0.0006241499    1.198    0.165
       272 -10.6674    233.8705    197.2537   1.0274986381e+02  -4.2464013868e+00    0.3279481    0.2123069 -31.90  0.001106157    1.532    0.347
       273  -9.7644    230.4830     26.9673   6.4712189480e+01   2.4870873723e+01    0.1955999    0.1208987 -40.31  0.001030484    1.593    0.372
       274  -8.9300    221.5603     29.4975   6.6281820583e+01   2.6657925107e+01    0.1359372    0.1154454 -79.51 0.0001855329    1.023    0.023
       275  -9.7566    250.5259     25.3861   6.2380545917e+01   2.0509060590e+01    0.2346732    0.1154779 -36.70 0.0005887013    1.992    0.498
       276 -10.5199    143.4928     24.6787   7.6666869084e+01   4.6351339362e+01    0.5205665    0.2473701  60.07  0.002308141    1.898    0.473
       277 -10.8006     16.7666    192.5948   1.4656128066e+02   3.2803750212e+01    0.2082581    0.1616426 -89.74 0.0003494905    1.097    0.088
       278  -9.5627    169.0313    191.5559   1.1448804149e+02   9.1672619282e+00    0.2212386     0.133576  44.01 0.0004719805    1.548    0.354
       279 -10.0310    134.1974     24.7666   7.8562318082e+01   4.8515748877e+01    0.3987688    0.2831347 -63.05   0.00190611    1.895    0.472
       280  -9.3468    237.3903    188.1959   1.0031129419e+02  -3.4237217274e+00     0.185832    0.1209825 -44.77 0.0009438527    1.686    0.407
       281 -13.0442    117.6381     42.9981   8.8503847516e+01   4.9917582048e+01    0.9640036    0.6446653  64.39  0.004282062    1.792    0.442
       282  -9.5727    239.9681    184.7551   9.9150369230e+01  -3.3282915581e+00    0.1715296    0.1098121  39.44 0.0005400156    1.564    0.361
       283  -9.3588    169.2937     23.9299   7.1908871912e+01   4.0176280976e+01    0.1848641     0.177298  64.74 0.0006931867    1.089    0.082
       284  -9.6667    238.6720    203.6711   1.0311691631e+02  -6.0735171438e+00    0.1375029   0.09260638   5.23 0.0007051026    1.707    0.414
       285  -8.9949     57.4895    175.0258   1.3642678126e+02   3.2100724682e+01    0.1885457    0.1109991 -68.93 0.0005203355    1.486    0.327
       286 -10.1861    248.2881    173.7501   9.5416932266e+01  -3.0267969036e+00    0.2814386    0.1804928  30.08  0.001433311    1.672    0.402
       287 -10.3061    225.0913     16.8241   6.2977619107e+01   2.7374455816e+01    0.2790016    0.2078729  85.87  0.001054306    1.173    0.147
       288  -9.7184    223.2254     22.3813   6.4441120271e+01   2.7150319790e+01    0.2495288    0.1934558  89.32 0.0006611579    1.133    0.118
       289 -10.2010    220.6688     19.1115   6.3960087940e+01   2.8149936085e+01    0.2259328     0.201119  74.35 0.0004487316    1.178    0.151
       290  -9.5260     51.8301    173.6802   1.3750164683e+02   3.3120703701e+01    0.1849157    0.1424405 -71.89   0.00102002    1.158    0.137
       291  -9.7262     39.5013    173.5035   1.4015742000e+02   3.4609464276e+01    0.2163537    0.1267466 -55.66  0.001001453    1.740    0.425
       292 -11.0721     35.4914    170.9717   1.4073511240e+02   3.5620260839e+01    0.3583082    0.2049514 -89.63  0.001954011    1.653    0.395
       293  -9.9479      8.9827    155.9996   1.4488094897e+02   4.1457618633e+01    0.2348527    0.1568931 -68.85  0.001134358    1.229    0.186
       294 -11.8006      9.2766    166.7376   1.4582993835e+02   3.9069669858e+01    0.4977313    0.3175785 -79.43  0.002442308    1.187    0.158
       295 -11.5241     13.7075    158.2903   1.4408834819e+02   4.0559593037e+01    0.5358348     0.190658 -71.41  0.001415077    2.159    0.537
       296  -9.0924    149.2155    168.4126   1.1432235737e+02   1.7979842715e+01     0.218282    0.1367344  55.00 0.0009472977    1.656    0.396
       297 -10.0976     18.6734    165.3267   1.4373242161e+02   3.8557059108e+01     0.253972    0.1926178 -54.82  0.001582998    1.484    0.326
       298 -10.0292    205.8537    162.7231   1.0098301813e+02   7.2107782048e+00    0.4797297    0.2949552  23.70  0.001476897    2.231    0.552
       299 -10.1555     28.3436    162.8403   1.4138213412e+02   3.8194251737e+01    0.3309621    0.1367836 -64.77  0.001641629    1.933    0.483
       300 -10.3867     66.1866     21.8782   9.5859959227e+01   6.2260976134e+01    0.2278949    0.1607941  29.41  0.000444575    1.309    0.236
       301 -10.0099     80.6237    160.0538   1.2891280816e+02   3.2345084612e+01    0.3533516    0.2827643  42.90  0.002000794    1.359    0.264
       302 -10.4127    104.4805    153.5322   1.2194912511e+02   2.9979276428e+01    0.4276351    0.2551954 -62.34  0.001927716    1.666    0.400
       303 -10.6180     31.5672    154.0056   1.3962336413e+02   3.9881457177e+01    0.3733353    0.2763793  80.08  0.002026424    1.268    0.211
       304 -10.7821     30.4229    148.9685   1.3926089990e+02   4.1145907417e+01    0.2825233    0.1942853  73.93 0.0006058917    1.479    0.324
       305  -9.3597      1.7891     20.4229   1.2125539290e+02   6.9444909963e+01     0.140794   0.08047347  -7.76 0.0009484136    1.743    0.426
       306  -9.6766     22.9303    155.1323   1.4171880958e+02   4.0452427261e+01    0.2217756    0.1769194  11.99  0.001473952    1.849    0.459
       307 -10.0577     14.2762    133.3415   1.4115847913e+02   4.6100584596e+01    0.2599575     0.164919  86.48  0.001545866    1.552    0.356
       308  -9.8657    191.6673     16.7545   6.6766852226e+01   3.5452920274e+01    0.2654182    0.2340438  46.74   0.00138467    1.271    0.213
       309  -8.5236    171.2715     17.6896   6.9837876256e+01   4.0376784575e+01    0.1331215   0.09612828 -69.28 0.0004355182    1.548    0.354
       310  -8.6498     55.3405     17.2871   9.7791310500e+01   6.4442530839e+01    0.1222165   0.07621507   7.50 0.0007019694    1.640    0.390
       311 -10.7203     10.6765    127.1896   1.4127152285e+02   4.7746220628e+01    0.4499798    0.1618399 -55.29  0.001659948    2.210    0.548
       312 -11.3957     12.4307    138.6788   1.4224593712e+02   4.5045978577e+01    0.7705098    0.3558061  83.30  0.003534261    2.831    0.647
       313 -11.9697     22.6285    149.5412   1.4114281221e+02   4.1744648259e+01    0.5683939     0.312405 -36.14  0.002853625    2.849    0.649
       314 -10.6398     15.8918    148.0460   1.4251436459e+02   4.2665952000e+01    0.3471646    0.2087488  48.35  0.001476412    1.830    0.453
       315  -9.2784    140.9798    153.8215   1.1319799217e+02   2.2900552129e+01    0.2425416    0.1808693  13.32 0.0006725026    1.952    0.488
       316  -8.4657     27.3319     15.6645   1.0816498439e+02   6.8074806886e+01   0.09251865   0.08716598 -39.77 0.0007052177    1.734    0.423
       317 -11.0327      2.8143    141.3609   1.4477102167e+02   4.5157067122e+01    0.3584159     0.286097  48.09  0.002650382    1.495    0.331
       318 -11.6379      3.8416    136.5250   1.4401988325e+02   4.6153970398e+01    0.2469499     0.181823 -67.56 0.0004702049    1.132    0.117
       319 -12.0425      5.1938    147.7437   1.4488917213e+02   4.3575865448e+01    0.5549245    0.3628519 -66.21  0.002685591    1.256    0.204
       320  -9.8043      7.9858    144.2592   1.4390041280e+02   4.4139531689e+01    0.1645297    0.1232496 -79.67 0.0002953645    1.011    0.011
       321 -10.4878     81.2668     19.3701   9.0002283883e+01   6.0042019600e+01    0.3086455     0.192133  40.10 0.0009434828    1.466    0.318
       322 -10.9743     62.6224    149.8548   1.3162947370e+02   3.7279769510e+01    0.4398014    0.3889228  77.44  0.001889759    1.124    0.110
       323  -9.6112     48.0931    151.7094   1.3543735923e+02   3.8634985439e+01    0.2701614    0.1997941  44.74  0.001038145    1.495    0.331
       324 -10.6013     47.2045    146.4138   1.3488470989e+02   3.9969543388e+01    0.5294629    0.2667096 -70.57  0.002258308    1.765    0.434
       325  -9.8231     42.9567    148.4750   1.3621311214e+02   3.9964576673e+01    0.3052899    0.1837795  53.72  0.001660244    1.810    0.447
       326  -9.7172    188.9228    164.0684   1.0473287403e+02   1.0524546732e+01    0.2373819    0.1848835   2.88   0.00101476    1.650    0.394
       327  -9.2396     71.4157    151.4921   1.2973285114e+02   3.5700967111e+01    0.2723644    0.1343539  37.29  0.001226751    2.221    0.550
       328  -9.0930     85.6582    150.3165   1.2600262186e+02   3.3864203846e+01    0.1486197    0.1028634  77.77 0.0007048531    1.711    0.415
       329 -10.0521     56.3394    149.1440   1.3305981399e+02   3.8246782499e+01    0.2265472    0.1841522 -87.43 0.0006996208    1.119    0.107
       330  -9.0779    239.8380    146.8034   9.1114883480e+01   3.1718337089e+00     0.192523    0.1658292 -62.35 0.0008339217    1.336    0.251
       331 -10.7414    249.4317    142.4822   8.8536066535e+01   2.0431512830e+00    0.5893319    0.1694548 -40.74   0.00198158    3.134    0.681
       332 -10.8146     33.1777    144.3307   1.3799987686e+02   4.1939986712e+01    0.2735036    0.2102287  88.17 0.0007229888    1.197    0.164
       333  -9.8618    133.4342    140.4737   1.1207921103e+02   2.7473473981e+01    0.3247517    0.2624232 -22.98  0.001031275    1.535    0.348
       334 -11.7844     29.8718    132.9363   1.3723081473e+02   4.4871169630e+01    0.5742213    0.3190933 -79.31 0.0004697211    1.704    0.413
       335  -9.2514     26.2896    140.3323   1.3913343339e+02   4.3508414402e+01    0.1775991    0.1190691 -52.74 0.0007954689    1.449    0.310
       336 -11.7912     23.0682    135.5277   1.3928614698e+02   4.4887845550e+01     0.742833    0.4606108  53.60  0.004403232    1.829    0.453
       337 -10.7571     81.5813    135.2189   1.2419217233e+02   3.8056021905e+01    0.5387751    0.3768359   2.79  0.002395483    2.413    0.586
       338 -10.6286     47.6034    134.7397   1.3297722051e+02   4.2644632617e+01    0.3576065    0.1930758 -50.62  0.001119944    1.735    0.424
       339 -10.8057     72.6185    133.5126   1.2621978667e+02   3.9771090694e+01    0.5353687    0.3453838 -22.21   0.00235955    2.631    0.620
       340  -9.7185     62.3689    131.9669   1.2863966018e+02   4.1517083022e+01    0.3128016     0.140252 -54.27  0.001379532    1.929    0.481
       341  -9.0865    230.6888     30.3429   6.5455667390e+01   2.4389660013e+01     0.203749    0.1563674 -49.79 0.0006293985    1.247    0.198
       342 -10.6139     92.7664    129.0376   1.1995449521e+02   3.7730268892e+01    0.3613086    0.2931651 -89.18  0.001401467    1.362    0.266
       343 -10.2362     79.0402    127.5487   1.2332139917e+02   4.0238848987e+01    0.4636647    0.2401471 -44.37  0.001397441    1.988    0.497
       344 -11.0811     55.8269    123.2197   1.2877681106e+02   4.4370136391e+01    0.6637245    0.3622087  26.89  0.002846713    2.303    0.566
