#   1 NUMBER                 Running object number                                     
#   2 MAG_AUTO               Kron-like elliptical aperture magnitude                    [mag]
#   3 X_IMAGE                Object position along x                                    [pixel]
#   4 Y_IMAGE                Object position along y                                    [pixel]
#   5 X_WORLD                Barycenter position along world x axis                     [deg]
#   6 Y_WORLD                Barycenter position along world y axis                     [deg]
#   7 A_WORLD                Profile RMS along major axis (world units)                 [deg]
#   8 B_WORLD                Profile RMS along minor axis (world units)                 [deg]
#   9 THETA_WORLD            Position angle (CCW/world-x)                               [deg]
#  10 FWHM_WORLD             FWHM assuming a gaussian core                              [deg]
#  11 ELONGATION             A_IMAGE/B_IMAGE                                           
#  12 ELLIPTICITY            1 - B_IMAGE/A_IMAGE                                       
         1 -11.8674     43.0231     20.5272   9.0471397301e+01   6.4255588285e+01     0.461676    0.2589501  33.73  0.001517738    1.806    0.446
         2 -12.3069    215.9979     14.4933   5.0753835160e+01   3.0721741071e+01    0.4908164    0.4604498 -24.62     0.002357    1.454    0.312
         3 -13.4221    189.3796      8.5796   5.2596974945e+01   3.7396914474e+01    0.6556185    0.3420663  77.41  0.003335519    1.802    0.445
         4 -11.9459     58.5016      8.1833   8.0417295190e+01   6.3644048584e+01    0.3794317     0.265312  30.63  0.002345218    1.261    0.207
         5 -11.5952     55.0101      2.7755   7.9519728536e+01   6.4671183014e+01    0.3167703    0.2102035  54.83  0.001979288    2.364    0.577
         6 -11.9613     43.6947      8.3582   8.5660899586e+01   6.5599222663e+01    0.2798331    0.2095071  25.02  0.001255468    1.300    0.231
         7 -10.5752    109.1216      8.8842   6.6507355124e+01   5.4899667196e+01    0.3096294   0.09872266  46.61  0.001346075    2.501    0.600
         8 -11.7925    166.2189      1.8620   5.4087186982e+01   4.3299188468e+01    0.4422108     0.138937  66.14  0.001820087    2.659    0.624
         9 -10.9943    231.7191    223.4532   9.2656430368e+01  -8.4845074494e+00    0.2464383    0.1174668  43.40  0.001142936    2.136    0.532
        10 -11.9724    221.7066    248.5323   9.8879269596e+01  -1.0732470934e+01    0.5264519    0.3048725  43.76  0.002875782    1.709    0.415
        11 -10.9632    149.4974    221.0057   1.0873676340e+02   6.5151251192e+00    0.5123839     0.226747 -43.89  0.002077243    2.699    0.630
        12 -12.0821    226.7853    220.8057   9.3111605743e+01  -7.2491627355e+00    0.3815731       0.2068 -38.57  0.001893032    1.877    0.467
        13 -10.1306    173.6867    221.4814   1.0380104128e+02   1.9951005110e+00    0.2402087     0.127649 -48.31  0.001091397    2.055    0.513
        14 -10.4078    211.1386    217.7339   9.5584176284e+01  -4.0673974452e+00    0.2521619    0.1557183 -55.50  0.001137861    2.118    0.528
        15 -10.8482    239.5412    215.1353   8.9672518615e+01  -8.4088750237e+00    0.4427045    0.1115878 -47.57  0.001220077    6.395    0.844
        16 -11.4271    223.6069    213.2587   9.2336026962e+01  -5.4537136619e+00    0.3361763    0.2022134  17.22  0.001550593    2.174    0.540
        17 -10.0330    218.3776    212.4151   9.3192041789e+01  -4.4073258418e+00    0.2600588    0.1985159 -80.06  0.001308324    2.216    0.549
        18 -10.7730    115.8962    209.3060   1.1403778785e+02   1.4957323772e+01    0.3299079    0.1786317 -68.28  0.001461893    2.096    0.523
        19 -10.1467     56.3398    205.6679   1.2599811502e+02   2.4850109074e+01    0.1377801   0.08081745  72.78 0.0007051642    1.746    0.427
        20 -10.7001     48.7983    201.2598   1.2703292468e+02   2.6782219268e+01    0.3503717    0.1565607 -82.14   0.00155322    2.456    0.593
        21 -10.8308     41.6755    200.9794   1.2842529844e+02   2.7700837836e+01    0.2750897    0.1724947 -65.56 0.0007853113    1.452    0.311
        22 -10.4215    149.4654    198.9664   1.0506185936e+02   1.1072700508e+01    0.2047296    0.1268702 -79.62 0.0008095498    2.561    0.609
        23 -10.3694    112.7744    198.1673   1.1301525326e+02   1.7957089697e+01    0.2535652    0.1424588  75.93 0.0009579139    2.884    0.653
        24 -12.4288    159.7570    191.5882   1.0146701381e+02   1.0664898271e+01    0.7919819    0.5527012  83.34  0.003352644    2.083    0.520
        25  -9.9542    215.2155    193.3112   9.0171013381e+01  -3.9748179847e-01     0.211319    0.1079944 -51.89 0.0005926592    2.302    0.566
        26 -10.3767    183.3171    182.4398   9.4578704278e+01   7.9216701964e+00    0.3931686    0.1284635 -41.10  0.001229144    3.439    0.709
        27 -10.3406    224.3184    183.6674   8.6480836619e+01  -2.7988855339e-01    0.1373861    0.1130118 -83.11 0.0004441513    1.693    0.409
        28  -9.8434    105.6723    175.3412   1.1088058450e+02   2.4433766341e+01    0.1543742    0.1067112  78.53 0.0007051397    1.738    0.425
        29 -11.2220     38.3120    174.9733   1.2625167975e+02   3.3946205091e+01     0.184238    0.1388333 -76.47 0.0009082388    1.088    0.081
        30 -10.9819     45.0957    171.3011   1.2430079215e+02   3.4037880715e+01    0.4872464    0.2246203 -84.31  0.002024233    2.742    0.635
        31 -11.3355     55.4082    167.7243   1.2147322313e+02   3.3650500686e+01       0.4275    0.2368372 -88.41  0.001962367    2.183    0.542
        32  -9.9210    167.4123    168.2066   9.5162025369e+01   1.4207050910e+01    0.2243882    0.1437842 -60.21 0.0009562038    1.762    0.432
        33  -9.9161    138.6666    164.5141   1.0102719544e+02   2.0868295476e+01    0.2977404    0.1888726 -81.74  0.001146238    2.451    0.592
        34 -10.2888     92.4877    160.0018   1.1135173149e+02   3.0247318162e+01     0.210394    0.1207032 -83.57  0.000810388    2.601    0.615
        35 -11.7556    121.0742    166.3701   1.0558408615e+02   2.3800213052e+01    0.6675795    0.2269698 -49.86  0.002242276    2.886    0.654
        36 -11.6318    106.2181    157.7597   1.0755189539e+02   2.8494006672e+01    0.6202556    0.3957796  78.80  0.002575296    2.306    0.566
        37 -10.8354    167.6234    157.3238   9.2812921273e+01   1.6561881731e+01    0.3379394      0.25446  86.87  0.001457329    1.753    0.429
        38 -11.7189    118.8093    156.6125   1.0422556401e+02   2.6510849266e+01    0.5030403    0.3584221  61.68  0.002373938    1.554    0.356
        39 -10.3096    218.3020    156.1383   8.1930983806e+01   6.2069688202e+00    0.3825189    0.1146564 -50.25  0.001079848    4.171    0.760
        40  -9.7891      7.0000    156.0050   1.3094447609e+02   4.1109476508e+01    0.1973565   0.05203978 -70.73 0.0007728502    2.906    0.656
        41 -10.3592     40.0771    152.5429   1.2294620032e+02   3.8932546458e+01    0.2441726     0.153119 -85.22 0.0009652433    1.618    0.382
        42  -9.8151     23.4902    153.5376   1.2697035150e+02   4.0306960255e+01    0.1233746    0.0975223 -79.80 7.806393e-05    1.049    0.046
        43 -10.5147    189.7579    150.3074   8.6431148311e+01   1.3365813647e+01    0.3770964    0.2028868 -58.80  0.001411779    2.347    0.574
        44 -11.1092    107.2957    145.6250   1.0487803073e+02   3.1175850562e+01    0.5282725    0.3045896  76.53  0.001767345    3.643    0.726
        45 -10.3534    148.4957    145.0204   9.4550212689e+01   2.3342154573e+01    0.2216281     0.135222 -72.62 0.0008095201    2.496    0.599
        46 -10.2983     55.3336    145.6741   1.1815554127e+02   3.8830270214e+01    0.1367412   0.09446482  77.54 0.0007051331    1.714    0.416
        47 -10.5680     22.5854    159.5369   1.2789739779e+02   3.9027568839e+01    0.2058387   0.09089882  45.11  0.001033538    2.487    0.598
        48 -10.0039    124.4834    142.9721   9.9973725735e+01   2.8635376518e+01    0.2213169    0.1325406 -75.39 0.0008103272    2.592    0.614
        49  -9.9484    181.8157    141.9803   8.6268728379e+01   1.6859908295e+01    0.2614364    0.1784891 -73.35  0.001077212    2.019    0.505
        50 -10.5815     83.1497    132.1767   1.0842314300e+02   3.8264658794e+01    0.2858435    0.1829144  68.31  0.001264467    2.249    0.555
        51 -11.9540     99.3225    128.4857   1.0331293528e+02   3.6546258606e+01    0.7923821    0.4860552  85.97  0.002852183    3.367    0.703
        52 -10.6820     59.1946    124.7197   1.1342557119e+02   4.3221815271e+01    0.3518551    0.1960596 -84.58  0.001405073    3.071    0.674
        53 -10.7504     43.2376    123.4180   1.1753104088e+02   4.5291417830e+01    0.3319418    0.1901628 -87.27  0.001508391    2.567    0.610
        54 -11.2384     27.0594    120.6354   1.2141682351e+02   4.7414323620e+01     0.532755    0.2561474  87.47  0.001842746    5.048    0.802
        55 -10.8710     14.3416    120.9713   1.2482506044e+02   4.8324423678e+01     0.311139    0.1934938 -22.67  0.001820582    2.151    0.535
        56 -11.8192    193.4065    118.3487   7.8358943168e+01   1.9223582657e+01    0.5916626    0.4436193 -78.34  0.001982695    1.640    0.390
        57  -9.9886    130.3425    118.6533   9.2885541343e+01   3.2997702066e+01    0.1595991    0.1203756  88.71 0.0007045523    1.794    0.443
        58 -10.9941    140.5768    117.2997   8.9984662470e+01   3.1181010557e+01    0.3741636    0.1451271 -45.98  0.001280028    2.549    0.608
        59 -10.5287      2.0381    115.2261   1.2719975718e+02   5.0363148466e+01    0.2066764    0.1229079 -79.86 0.0009178038    1.579    0.367
        60 -10.5355    108.5347    113.1100   9.7265004167e+01   3.8398404346e+01     0.524789    0.2312534 -62.69  0.001606417    3.954    0.747
        61 -10.7309     78.6142    112.4129   1.0541704768e+02   4.3426419307e+01    0.4179024    0.2376971 -77.82  0.001553108    3.368    0.703
        62 -11.8563    159.7909    110.5985   8.3730193079e+01   2.8422654541e+01    0.7329734    0.4271188 -64.47  0.002758326    2.449    0.592
        63 -10.5947     91.8615    111.3012   1.0142259102e+02   4.1648088344e+01    0.4912384     0.180461 -59.06  0.001558246    3.674    0.728
        64 -10.7105    174.2503    111.0819   8.0619275555e+01   2.5057087191e+01    0.3612138    0.2441511 -48.42  0.001119083    1.474    0.322
        65 -11.3753     13.7881    108.9555   1.2312572460e+02   5.0965258093e+01    0.5437229    0.1932365 -66.94  0.002488968    2.404    0.584
        66 -10.2802     20.7987    109.3626   1.2125440925e+02   5.0377004272e+01    0.1417532    0.1090895 -10.08 0.0002980359    1.591    0.372
        67 -12.5046    140.8469    105.6197   8.6988748941e+01   3.3600636099e+01    0.4105811    0.3582425  46.61  0.002146942    1.150    0.131
        68 -11.9241     44.6898    101.5490   1.1288967355e+02   4.9960392503e+01    0.5976623    0.3587429 -88.43  0.002626211    3.151    0.683
        69 -11.8223    127.7193    101.2008   8.9165696030e+01   3.7247148364e+01    0.4049791    0.2651805 -55.05  0.001836217    1.655    0.396
        70 -11.8345    115.0142    102.5094   9.2858360140e+01   3.9470697298e+01    0.5259904    0.1695202  47.60  0.001672281    3.485    0.713
        71 -11.5779    107.5476     98.9062   9.3961279146e+01   4.1606824587e+01    0.5888588    0.3853978 -72.37  0.002493066    2.407    0.584
        72 -10.8786     81.9752    100.6335   1.0166631058e+02   4.5486767437e+01    0.2572103    0.1961542 -56.09 0.0006851467    1.305    0.233
        73 -11.0234     63.1063     96.2257   1.0618658339e+02   4.9005780341e+01    0.3421617    0.2105322 -83.65  0.001380244    3.462    0.711
        74 -12.8332    170.2012     90.7714   7.6405232990e+01   2.9977195058e+01    0.4505624    0.3433968  71.97 0.0009437245    1.441    0.306
        75 -11.6652     42.4385     87.7684   1.1053984435e+02   5.3059683112e+01     0.563772    0.3001425  -9.10  0.001354409    3.217    0.689
        76 -10.5240     45.1370     81.6790   1.0824451023e+02   5.4008876196e+01    0.2831943     0.176472 -58.55 0.0007723477    1.613    0.380
        77  -9.9755    151.7175     87.4195   7.9633006649e+01   3.4820534096e+01    0.2490088    0.1865007 -15.20 0.0006576047    1.735    0.424
        78 -11.1329     87.4648     87.1834   9.6597941591e+01   4.7399512404e+01    0.3365824    0.2492827  53.76  0.001787207    1.658    0.397
        79 -10.1562    140.6740     83.1916   8.1110246681e+01   3.8043032135e+01    0.3028111    0.1261786 -47.97  0.001091175    2.650    0.623
        80 -10.7333    104.4874     83.5019   9.0679680052e+01   4.5227138890e+01    0.3049622    0.2221067 -89.27  0.001376987    2.407    0.584
        81 -10.9193     82.4159     73.4364   9.4309582345e+01   5.0806053502e+01    0.4166071    0.2863383  81.83  0.001716778    3.649    0.726
        82 -10.8705     62.3913     72.0978   1.0020422086e+02   5.3869060365e+01    0.5380036    0.1199618 -50.50  0.001668089    4.771    0.790
        83 -11.6728    223.2757     71.1385   6.2138858921e+01   2.1118062321e+01    0.3221464    0.2547291 -70.85  0.001304929    1.202    0.168
        84 -10.5632     23.7686     79.6217   1.1460066910e+02   5.6314587206e+01    0.2958379    0.1403109 -69.33  0.001370244    2.830    0.647
        85 -10.0788     94.6148     70.8329   8.9913507096e+01   4.9292738581e+01    0.1933104      0.12296 -50.83 0.0009527179    1.773    0.436
        86 -10.4695     51.8898     70.7852   1.0325330706e+02   5.5372409051e+01     0.216035    0.1746642 -49.65  0.000877492    1.275    0.215
        87 -10.1550    195.8295     68.1114   6.5810711389e+01   2.7956780123e+01     0.343926     0.155137  59.03   0.00139006    2.141    0.533
        88 -10.8970     39.5107     52.7333   1.0236128400e+02   5.9883153653e+01    0.3151736    0.1908275 -23.73 0.0008044239    1.569    0.362
        89 -11.5368     20.4868     51.6805   1.0884603034e+02   6.1724183510e+01    0.5127854    0.2012851 -49.19  0.002730596    2.050    0.512
        90 -13.6299     30.4102     59.7836   1.0753393108e+02   5.9508136539e+01     1.047905    0.6899034  27.25  0.002998839    1.735    0.424
        91 -12.4866    232.2992     61.0543   5.8664428876e+01   2.0716774743e+01      0.60201     0.306681  76.55  0.002618843    2.335    0.572
        92 -11.4504     19.2310     59.5789   1.1137109210e+02   6.0427611502e+01    0.2819799    0.1849733 -35.20 0.0009890214    1.214    0.176
        93  -9.6477     75.4883     66.9064   9.4562278096e+01   5.3018725595e+01     0.179013    0.1177191 -39.69 -0.0001900972    1.428    0.300
        94 -11.4010      9.8753     58.3813   1.1433447345e+02   6.1263010692e+01    0.4146906    0.1748943  36.80  0.002172017    3.378    0.704
        95  -9.7301    119.3348     56.6682   7.8888705381e+01   4.7021686607e+01    0.1339476    0.1091414 -83.84 0.0004732592    1.732    0.423
        96 -12.6030    149.5239     52.3141   7.0548228296e+01   4.1194991610e+01    0.3245067    0.2824843  61.22 0.0004315643    1.095    0.087
        97 -10.3076     54.0103     53.7760   9.7653920085e+01   5.8115950966e+01    0.3693917      0.16097 -58.36  0.001201824    6.028    0.834
        98 -10.0749    161.6676     53.3139   6.8330383937e+01   3.8274536837e+01    0.1428316    0.1059991 -80.71 0.0007045477    1.681    0.405
        99 -10.0609     82.3421     47.6520   8.6514541793e+01   5.5106511102e+01    0.1174735    0.1032452 -85.55 0.0007044927    1.796    0.443
       100 -10.7134    156.8828     44.9997   6.7026753854e+01   4.0559642664e+01     0.230046    0.1796835  56.68 0.0004293344    1.163    0.140
       101 -11.5956     69.3640     41.8174   8.8723028251e+01   5.7942335193e+01    0.4752518    0.3003135  60.42  0.002244807    3.327    0.699
       102 -11.2935      7.6036     43.3010   1.1128357547e+02   6.4012695091e+01    0.4352522    0.2274158  34.74  0.002680089    2.637    0.621
       103 -12.2007     41.8755     37.4565   9.6755841082e+01   6.2060256892e+01    0.5572802    0.3032641  14.77 0.0009980522    2.005    0.501
       104 -11.1789     47.2927     35.9583   9.4308690990e+01   6.1671594095e+01    0.3303217    0.1889783  -4.67  0.001030231    2.110    0.526
       105 -11.2830    120.1421     34.3151   7.1912827250e+01   4.9963250977e+01    0.2877032    0.2276472  52.66 0.0008082708    1.209    0.173
       106 -10.2205     74.6567     33.3012   8.4175029055e+01   5.8326737063e+01    0.1060004   0.09869479  81.04  0.000660593    1.678    0.404
       107 -11.0956    106.1600     30.2805   7.4125710312e+01   5.3227186166e+01    0.3497018    0.1822941  53.19  0.001277704    1.894    0.472
       108 -10.1941    101.9922     30.4758   7.5282036410e+01   5.3994035592e+01    0.1945343    0.1806721 -57.63   0.00129592    1.407    0.289
       109 -10.0060    101.2823     27.3145   7.4441065901e+01   5.4501564525e+01    0.1864287    0.1534166  19.10 0.0002191319    1.107    0.096
       110 -11.0561     68.2167     24.4807   8.3178791139e+01   6.0415617060e+01    0.2405948    0.1711351 -16.45 0.0002425271    1.320    0.243
       111 -10.6654     37.0648     23.4870   9.3756852828e+01   6.4541866140e+01    0.3190237    0.1164579  38.33   0.00156727    3.224    0.690
       112 -10.1858    246.6716    244.3112   9.3564269240e+01  -1.3882717849e+01    0.1051847    0.0968186  63.36 0.0004773118    1.666    0.400
       113 -12.0547    203.7466     21.4135   5.3695876004e+01   3.2689211920e+01    0.4443785    0.1950942  81.93  0.001786112    2.902    0.655
       114 -11.1760    239.7937     20.5658   4.9493001609e+01   2.4760954231e+01    0.2517669    0.1828456  81.18 0.0006272774    1.185    0.156
       115 -12.1039     23.1511    239.9813   1.3508997716e+02   2.1656071799e+01    0.4460794    0.2019204  72.06  0.002440344    2.092    0.522
       116 -10.1735     46.5253     16.4931   8.7709845390e+01   6.4326910957e+01    0.2147495    0.1395011  -7.08  0.000906989    1.394    0.283
       117 -10.1435     89.2498     18.1527   7.4639779090e+01   5.7704802502e+01    0.2110763    0.1601253  74.65  0.001239455    2.155    0.536
       118 -10.2808     33.1622    242.3816   1.3360650134e+02   2.0033114182e+01    0.1620899   0.07900459  54.37 0.0009442113    1.733    0.423
       119 -10.7060      8.0074    240.5175   1.3755676509e+02   2.3170968198e+01    0.1460104   0.09143237  49.12 0.0006644528    1.582    0.368
       120 -10.9911     12.7483    227.4726   1.3594221655e+02   2.5262634457e+01     0.210472    0.1446392  83.15 0.0005705988    1.060    0.056
       121 -10.2298    104.5170    225.2527   1.1862466815e+02   1.3477363403e+01    0.2421321    0.1264131 -67.90  0.001135597    2.071    0.517
       122 -11.4139     95.6397    224.0676   1.2026172404e+02   1.5154603034e+01    0.3767517    0.2267209 -55.96  0.001972642    1.789    0.441
