#   1 NUMBER                 Running object number                                     
#   2 MAG_AUTO               Kron-like elliptical aperture magnitude                    [mag]
#   3 X_IMAGE                Object position along x                                    [pixel]
#   4 Y_IMAGE                Object position along y                                    [pixel]
#   5 X_WORLD                Barycenter position along world x axis                     [deg]
#   6 Y_WORLD                Barycenter position along world y axis                     [deg]
#   7 A_WORLD                Profile RMS along major axis (world units)                 [deg]
#   8 B_WORLD                Profile RMS along minor axis (world units)                 [deg]
#   9 THETA_WORLD            Position angle (CCW/world-x)                               [deg]
#  10 FWHM_WORLD             FWHM assuming a gaussian core                              [deg]
#  11 ELONGATION             A_IMAGE/B_IMAGE                                           
#  12 ELLIPTICITY            1 - B_IMAGE/A_IMAGE                                       
         1 -11.2021     53.9162     11.0608   4.7709036343e+01   7.0670460949e+01    0.3361161     0.244151  25.14  0.001738749    1.494    0.331
         2 -11.8401     84.3240      8.6756   3.5330111044e+01   6.3579331024e+01     0.267379    0.2048479 -87.24  0.001174475    1.449    0.310
         3 -11.3289     88.8298      4.9928   3.2191473750e+01   6.2764760968e+01    0.2515671    0.1416806 -50.65  0.001092115    2.022    0.505
         4  -9.8404     37.3263      1.3354   4.9320711818e+01   7.5467382590e+01    0.1410785   0.09484597  17.04 0.0007051571    1.719    0.418
         5 -10.5371    115.1056    247.4895   8.6885940473e+01   1.1379482247e+01    0.2200427    0.1305214 -32.41  0.001204639    2.409    0.585
         6 -10.1238    208.4811    249.9172   7.0293721038e+01   3.4924545314e-01    0.1265886   0.08560199 -18.95  0.000400182    1.480    0.324
         7 -11.3548     93.1248    249.1861   9.1405865470e+01   1.3708077043e+01    0.1660533    0.1487139  70.58 0.0003314055    1.381    0.276
         8  -9.7658     85.6806    250.7786   9.3018245560e+01   1.4319797768e+01    0.1021766   0.07062653  16.34 0.0001978642    1.493    0.330
         9 -16.4970    104.4841    148.9173   7.6614717764e+01   3.0806619255e+01     4.309494     2.212803 -49.07   0.01854414    2.081    0.519
        10 -15.8101     95.1623    194.4394   8.5667572567e+01   2.2762027373e+01     1.757628     1.304243  83.10   0.01021646    1.698    0.411
        11 -16.1909     67.8106    207.5617   9.3507883039e+01   2.3767359919e+01     4.471076    0.5147353  41.99   0.01399954    4.618    0.783
        12 -10.5185     83.2362    246.2159   9.3176464831e+01   1.5289068028e+01    0.2089666     0.128965  26.35 0.0007097354    1.358    0.263
        13  -9.8031     85.0771    243.5243   9.2598203405e+01   1.5494469742e+01    0.4298861    0.1350257  49.84  0.001818225    3.530    0.717
        14 -12.1159    103.3466    243.8465   8.8903268022e+01   1.3304998741e+01    0.3041649    0.1926759  62.64  0.001269175    2.073    0.518
        15 -11.1767    198.0113    242.9573   7.1121415056e+01   2.2034751619e+00    0.1572371    0.1112854  13.35 0.0003143544    1.015    0.015
        16 -10.0361     77.7464    241.6165   9.3967589597e+01   1.6634230866e+01     0.181245   0.09580954 -64.62 0.0005773929    2.427    0.588
        17 -11.8291    116.2372    240.2201   8.5966575908e+01   1.2286758610e+01    0.1966679    0.1440732  31.14 0.0003005638    1.030    0.029
        18 -10.7894    207.5301    238.0027   6.8895477548e+01   1.6782645964e+00    0.1385731   0.08969192 -23.49 0.0006098805    1.561    0.359
        19 -11.3705    102.3979    234.6492   8.8265019710e+01   1.4819893620e+01    0.2996989    0.1983988  -6.77 0.0008187121    2.237    0.553
        20 -10.0593     98.4600    234.9589   8.9114014677e+01   1.5251311212e+01    0.1874503    0.1250874  34.51  0.001217744    1.134    0.118
        21 -11.0118     81.8015    234.3440   9.2567649756e+01   1.7341181541e+01    0.3132596    0.1986635  60.06  0.001979095    1.690    0.408
        22 -11.4474     83.4092    228.1301   9.1717490300e+01   1.8183822943e+01    0.3180372    0.2474089 -52.34  0.002206635    1.649    0.394
        23 -10.1985     80.6799    224.7247   9.2026377929e+01   1.9092442714e+01    0.1735757    0.1061517  45.15 0.0005882627    1.341    0.254
        24 -11.0850     90.5297    236.4796   9.0903814015e+01   1.5964151304e+01    0.2489967    0.1563058  48.88  0.001444987    1.442    0.307
        25 -12.0127     88.1159    230.9667   9.0946483705e+01   1.7145486465e+01    0.3999136    0.2425125  86.53  0.002166908    2.492    0.599
        26 -10.6335    109.5071    236.5840   8.6979795455e+01   1.3651093409e+01    0.1952758    0.1352516 -14.90 0.0007584462    2.011    0.503
        27 -10.2092    128.0166    235.4645   8.3113619457e+01   1.1523483072e+01    0.1748733    0.1329578  12.56  0.000412085    1.253    0.202
        28 -10.1774    130.5045    232.5185   8.2292729780e+01   1.1637482566e+01    0.2508436     0.142181  26.80  0.001505714    1.422    0.297
        29 -11.8801    113.4887    229.8070   8.5481189511e+01   1.4194910031e+01    0.4503351     0.290197 -62.97  0.002838484    2.109    0.526
        30 -11.1406    181.5426    232.2585   7.2567907683e+01   5.3263517957e+00    0.2468041    0.1079825  21.84  0.001303496    2.184    0.542
        31 -11.1521    220.5869    231.0803   6.5847463609e+01   9.7197022410e-01    0.1719308    0.1139978  24.72 0.0005038196    1.338    0.253
        32 -17.0903     68.5144    188.2929   9.1578949717e+01   2.7538322301e+01     3.333752     2.802153  57.29   0.02119605    1.089    0.082
        33 -10.6875    194.0000    229.4756   7.0012443312e+01   4.1701618332e+00    0.2027817   0.05785296 -39.04 0.0009326621    3.918    0.745
        34 -11.2329    185.5633    227.7722   7.1253492427e+01   5.3826256622e+00    0.2138317    0.1082674  21.65 0.0006501814    1.722    0.419
        35 -12.2122    125.7485    222.6020   8.2140420043e+01   1.3735428881e+01    0.4128528    0.2844451 -67.94  0.002312536    2.149    0.535
        36 -14.6819     15.6587    238.4011   1.0668501804e+02   2.3523463668e+01    0.9704447    0.3598915  68.98  0.005233734    2.606    0.616
        37 -10.3335    138.2775    226.0115   7.9980148219e+01   1.1591195767e+01    0.1643412      0.13713  22.01  0.001180718    1.080    0.074
        38  -9.8028    222.2947    225.6534   6.4808573444e+01   1.3518084275e+00   0.08681382   0.07851952  11.57 0.0004906898    1.670    0.401
        39 -10.2443    215.1437    226.6499   6.6090903267e+01   2.0437089050e+00    0.1506065    0.1085679  26.52 0.0005897317    1.389    0.280
        40 -10.6472    158.9467    221.9522   7.5395113341e+01   9.4843667975e+00    0.2273743    0.1286768  40.89   0.00114862    1.724    0.420
        41 -17.1364     32.2392    233.5507   1.0307253547e+02   2.2829400653e+01     2.567167     1.515162  37.49   0.01699988    1.252    0.201
        42 -10.3230    139.1589    247.2118   8.2193110242e+01   8.5469774112e+00    0.1643493    0.1137675  19.39 0.0003592246    1.180    0.152
        43 -10.2647     95.5318    237.9532   8.9987778390e+01   1.5134844783e+01    0.2166068    0.1403683 -18.38  0.001247317    2.489    0.598
        44 -11.7108    173.2156    219.6168   7.2375213687e+01   7.9556160648e+00    0.2186976    0.1724486 -44.83  0.001430115    1.721    0.419
        45 -10.6907    193.3824    219.2278   6.8682573768e+01   5.4635121353e+00     0.133567    0.1007721 -35.16 0.0006966522    1.633    0.388
        46 -10.3052    139.5317    218.4246   7.8793481051e+01   1.2551678799e+01     0.204129    0.1717993  70.51  0.001376511    1.722    0.419
        47 -11.8087    116.1729    218.6113   8.3704763858e+01   1.5626772240e+01    0.1947145     0.176548 -55.43  0.001401388    1.391    0.281
        48  -9.8710    129.3059    217.3453   8.0774082008e+01   1.4083831932e+01     0.119974   0.08439603  -0.71 0.0007042281    1.693    0.409
        49 -10.2280    223.4848    220.4941   6.3871963558e+01   1.7672784020e+00    0.1066201   0.07779311   5.23 8.509358e-06    1.034    0.033
        50 -10.6677    184.4802    213.9384   6.9499826894e+01   7.2483231774e+00    0.1520506    0.1051602 -29.78 0.0004388222    1.539    0.350
        51 -11.3118    142.7074    211.8199   7.7286866835e+01   1.3127424764e+01    0.2297411    0.1813461 -24.58  0.001029338    1.418    0.295
        52 -12.1849    138.7747    209.8553   7.7840500886e+01   1.3973193302e+01     0.369444    0.3387272 -17.96  0.002645664    1.246    0.197
        53 -12.4066    124.9186    211.7050   8.1011778575e+01   1.5579587602e+01    0.3772355      0.33482 -31.18  0.002645415    1.326    0.246
        54 -10.7142    103.0763    213.9450   8.6044198469e+01   1.8134420938e+01    0.1847216    0.1454729  33.73 0.0003596068    1.024    0.023
        55 -12.1752    153.9203    210.5825   7.4843578099e+01   1.1779706494e+01    0.3617989    0.2245487  13.49  0.002069442    1.672    0.402
        56 -10.6313    209.5213    211.4758   6.4783691730e+01   4.4129700948e+00    0.1107124   0.08502783   7.08  0.000809221    1.054    0.051
        57 -11.7534    230.3321    205.7136   6.0563308837e+01   2.5926178216e+00    0.2869241    0.1619371  -9.40  0.001836278    1.671    0.402
        58 -11.5347    160.3296    206.8220   7.3036017834e+01   1.1453852132e+01    0.1576997    0.1542715  41.64 0.0006316649    1.401    0.286
        59 -11.7515    169.8514    205.8492   7.1037839637e+01   1.0285759986e+01    0.2711495    0.1346539  28.71 0.0008736389    1.752    0.429
        60 -10.9983    124.5194    205.9633   8.0374253366e+01   1.6585991191e+01    0.2404575    0.1527671  20.81 0.0007816795    1.525    0.344
        61 -13.3843    147.4203    203.5272   7.5173515633e+01   1.3757899484e+01    0.5298541    0.3338508  22.76  0.003054915    1.436    0.304
        62 -12.1952    142.9123    200.4085   7.5669925767e+01   1.4895693619e+01    0.2336057    0.1851799 -53.22  0.001052099    1.593    0.372
        63 -10.3848    212.4852    200.4961   6.2583826707e+01   5.3570850344e+00    0.1768563   0.09896324 -42.16  0.001028252    2.294    0.564
        64 -13.5188    136.5049    187.1593   7.5096864856e+01   1.8065964569e+01      0.79593    0.4139748 -19.60   0.00286701    4.386    0.772
        65 -13.0263    123.9201    196.0134   7.9186877205e+01   1.8381960987e+01    0.4382438     0.338823   1.21  0.002630093    1.461    0.316
        66 -11.8760    225.3707    198.8994   6.0252503272e+01   3.9509767574e+00    0.3036042     0.196802 -34.05  0.002056006    1.697    0.411
        67 -12.7905    134.4061    198.4462   7.7210959846e+01   1.6444254587e+01    0.3951603    0.2364884  18.82 0.0005875052    1.770    0.435
        68 -11.7280    114.8417    198.6753   8.1592783024e+01   1.9212831026e+01    0.3702497    0.2166115  56.94  0.001836137    2.188    0.543
        69 -10.4642    245.1578    197.8563   5.7104193165e+01   1.7453398626e+00    0.1497327    0.1179075  -6.07 0.0002942626    1.214    0.177
        70 -10.3129    238.0196    196.7754   5.7976275178e+01   2.6834028813e+00    0.1488849     0.107951   5.12 0.0002843543    1.076    0.071
        71 -12.5214    190.5494    194.4739   6.5405414035e+01   9.0240822730e+00    0.5004909    0.2515669  27.01  0.002691887    1.846    0.458
        72 -10.6398    212.1319    193.2262   6.1463344698e+01   6.2957187075e+00    0.1933117      0.15068 -51.76  0.001248712    2.186    0.543
        73 -10.7800    163.9547    193.0038   7.0228171606e+01   1.3012715253e+01    0.1569242    0.1262196  20.06   0.00101041    1.049    0.047
        74 -12.3509    149.2365    191.9024   7.3075544167e+01   1.5353378546e+01    0.2685755    0.2081641   2.83  0.001348862    1.314    0.239
        75 -12.6257    110.6679    188.3796   8.1199995067e+01   2.1711690812e+01    0.5098981    0.3101118 -65.56  0.002396883    2.108    0.526
        76 -10.6841    233.7982    192.3856   5.7892201627e+01   3.6773228142e+00    0.1529957   0.08423301  21.36 0.0009478307    1.693    0.409
        77 -10.6923     22.0506    192.0797   1.0360833994e+02   3.1832319451e+01    0.1724721    0.1499278  57.90 0.0007089155    1.121    0.108
        78  -9.5252      5.6394    190.7245   1.0761029614e+02   3.3529194534e+01    0.1046759   0.08903076 -29.94            0    1.660    0.398
        79  -8.8358      9.3628    188.3904   1.0661998946e+02   3.3724382096e+01    0.4355057    0.1530359  36.19  0.002124089    2.070    0.517
        80  -9.9411      1.4905    190.6054   1.0861984712e+02   3.3878106902e+01    0.1191912   0.09025904  53.37 9.465502e-05    1.023    0.022
        81 -10.8728    173.6650    189.0129   6.7674833773e+01   1.2199000478e+01    0.2174792    0.1666945  48.90   0.00133046    1.651    0.394
        82 -13.2295    127.4329    185.0320   7.6815878109e+01   1.9824389173e+01    0.5890228    0.3466643  12.47  0.002288543    2.342    0.573
        83 -10.3439    248.3049    185.9727   5.4704118018e+01   2.6695339596e+00    0.1561316    0.1090576  -9.46 0.0006496803    1.083    0.076
        84 -10.8094    186.0314    185.3314   6.4717657523e+01   1.0939185811e+01    0.1726775    0.1348443  17.74 0.0004501695    1.101    0.092
        85 -10.0998     18.4070    184.0156   1.0416271983e+02   3.3897416900e+01    0.1648868    0.1314129  68.90  0.001081565    1.109    0.098
        86 -11.2998    121.5589    200.2800   8.0288370217e+01   1.7974810014e+01    0.2263411    0.1881679  -0.03 0.0009422126    1.306    0.234
        87 -10.8076     36.2928    181.7844   9.9382425332e+01   3.2667257217e+01    0.2534621    0.1476485  51.75 0.0006690182    1.440    0.306
        88 -10.8066     23.9265    180.1286   1.0253683307e+02   3.4251475765e+01    0.2637698    0.1664468 -84.79  0.001132943    1.586    0.369
        89 -10.0888     22.4742    175.4539   1.0267209934e+02   3.5433220386e+01    0.2210327    0.1007621  79.51 0.0009356893    2.240    0.554
        90 -10.1808     84.4690    238.4764   9.2332608608e+01   1.6360234150e+01    0.2750091    0.1553988   3.80  0.001332369    3.158    0.683
        91 -11.6720    155.0223    177.4727   6.9520219538e+01   1.6861055728e+01     0.249828    0.1725692 -21.75  0.001219043    1.629    0.386
        92 -14.0034    121.3953    177.4714   7.7071349079e+01   2.2164977418e+01    0.7996502    0.3161453  30.66  0.003163777    2.515    0.602
        93 -14.1855    124.2144    168.9492   7.5032845007e+01   2.3361694517e+01    0.5819858    0.4919382 -12.71  0.003387149    1.325    0.245
        94 -10.9999    164.7802    177.5274   6.7506895375e+01   1.5323413879e+01    0.1722246    0.1128218  43.07 0.0002441519    1.572    0.364
        95  -9.8826     15.2530    176.3828   1.0464573685e+02   3.5863295001e+01    0.1767474    0.0901392  38.90 0.0009321967    1.586    0.370
        96 -11.1439     26.7644    172.5579   1.0134317943e+02   3.5690292043e+01    0.3272651    0.1837384  67.92  0.001003482    1.657    0.397
        97 -10.1733      5.5826    171.8824   1.0704763772e+02   3.7660170078e+01    0.4444094    0.1340768  72.97  0.001719719    3.324    0.699
        98 -12.4986    142.7330    171.9725   7.1250598014e+01   1.9783722470e+01    0.3263014    0.1835342 -46.05  0.001604078    1.942    0.485
        99 -13.4761    131.9464    169.2819   7.3256245264e+01   2.2037778246e+01    0.4857028    0.2887438  36.54  0.001901009    1.519    0.341
       100 -12.9155    152.9166    167.2043   6.8172184170e+01   1.8964880527e+01    0.5790632    0.1956268 -40.66  0.002180584    3.231    0.691
       101 -10.5575     40.6722    169.6846   9.7297489294e+01   3.4934693668e+01    0.1932117    0.1291177  57.98 0.0006084264    1.326    0.246
       102 -11.4616     40.6515    166.7097   9.7057548187e+01   3.5626976552e+01    0.3505673    0.1808012  85.94  0.001624772    2.138    0.532
       103 -11.6947    172.3941    168.1180   6.4300770669e+01   1.5636578888e+01    0.3508134    0.1205005 -45.81  0.001234665    3.370    0.703
       104 -11.7946    159.5016    167.6872   6.6856141389e+01   1.7798885490e+01    0.2913086     0.192584 -20.69  0.001510485    1.753    0.430
       105 -11.3288     33.6422    167.6049   9.9103636460e+01   3.6155439939e+01    0.2804709    0.2284712  23.85   0.00122138    1.323    0.244
       106 -10.6599     26.1586    166.9841   1.0116366864e+02   3.7034977450e+01    0.3000087    0.1199963 -53.76  0.001242462    3.095    0.677
       107 -10.3336     11.5304    168.0434   1.0528845326e+02   3.8071232503e+01    0.1816965    0.1429897  47.72 0.0003471713    1.106    0.096
       108 -10.2690     18.7662    166.6542   1.0321536085e+02   3.7784661380e+01    0.1683637    0.1542801   5.66 0.0005506853    1.360    0.265
       109 -10.7701    205.3997    164.8119   5.7606860975e+01   1.0998796574e+01    0.1732278    0.1018326 -21.68 0.0004899505    1.669    0.401
       110 -12.5845    170.9540    160.2881   6.3122205834e+01   1.7149580583e+01     0.357306    0.2917084   0.43  0.001837531    1.185    0.156
       111 -11.7442    139.8297    162.1860   7.0180761607e+01   2.2065000318e+01    0.1951632    0.1576648  -0.63 0.0008980071    1.358    0.264
       112 -10.7383     32.5750    177.8159   1.0010469189e+02   3.3929752794e+01    0.2270955    0.1835526 -13.96 0.0006632645    1.698    0.411
       113 -10.6752     35.7370    162.6052   9.8123358923e+01   3.7114008837e+01    0.1922899    0.1027069  39.31 0.0008260363    1.595    0.373
       114 -11.7067     27.8694    160.3943   1.0023383723e+02   3.8426332696e+01    0.2634365    0.2258981  75.46   0.00041736    1.083    0.076
       115 -11.6006     33.9784    149.5399   9.7545011164e+01   4.0455861744e+01    0.2968604    0.2137814 -25.88  0.001287653    1.933    0.483
       116 -11.7726     29.6606    146.9439   9.8659294659e+01   4.1530103265e+01    0.3980019    0.1970045  54.70  0.001827529    1.872    0.466
       117 -13.8646     22.1934    152.8102   1.0139101424e+02   4.0782198764e+01    0.9151786     0.749626  51.98  0.004695006    1.081    0.075
       118 -11.2610     24.8874    144.8548   9.9986822649e+01   4.2501632727e+01      0.25422    0.2260683 -79.42 0.0005184784    1.175    0.149
       119 -10.1046     40.4704    159.4913   9.6484040292e+01   3.7351101762e+01    0.2053618    0.1055651  39.88 -3.640835e-05    1.664    0.399
       120 -12.5519     46.4835    158.6410   9.4641038943e+01   3.6880425963e+01    0.4644291    0.3370004  -0.47  0.002421086    1.875    0.467
       121 -10.5007    197.4925    170.5051   6.0030709791e+01   1.1376398445e+01    0.1254342    0.1023233   1.21 -2.355948e-06    1.037    0.036
       122 -12.0876    127.0161    156.4375   7.2170361533e+01   2.5368981849e+01    0.2385959    0.2033038 -80.29 0.0004757764    1.455    0.313
       123 -12.2374     81.1784    155.6985   8.4210074281e+01   3.2979760627e+01    0.3568094    0.2256889  43.29  0.001142152    1.431    0.301
       124 -12.3412     60.0187    150.5657   8.9698152549e+01   3.7160680240e+01    0.4478008    0.2887651 -75.42   0.00114631    1.615    0.381
       125 -11.9121     37.4740    154.1970   9.6897499679e+01   3.8950172906e+01     0.429433    0.2267492  15.90  0.001026412    2.301    0.565
       126 -11.6535    212.1116    153.8402   5.4395052823e+01   1.1516928813e+01    0.2109956    0.1965112  -1.82 0.0008898785    1.246    0.198
       127 -10.7009      3.5042    153.5334   1.0698590346e+02   4.2090757416e+01    0.2657477    0.1632548   7.36  0.001423337    2.029    0.507
       128 -12.9241    126.2847    151.5620   7.1442568513e+01   2.6480968886e+01    0.4774109    0.2338837  38.04  0.001228794    1.908    0.476
       129 -11.4915    128.8205    147.1313   6.9959796303e+01   2.6933295900e+01    0.2319056    0.2121348  61.14 0.0002882251    1.181    0.153
       130 -12.7946     45.5271    150.0405   9.4044153244e+01   3.9074882040e+01    0.5567065     0.298873  81.91   0.00245945    2.142    0.533
       131 -11.2082    180.8195    150.8850   5.9340998670e+01   1.7027438449e+01    0.2393367    0.1792158  67.11  0.001244864    2.133    0.531
       132 -11.7985    171.0246    151.0153   6.1290020963e+01   1.8688505447e+01    0.3333372    0.1789264  51.90  0.001480566    2.355    0.575
       133 -12.7288    145.6211    149.5019   6.6436990578e+01   2.3450799730e+01    0.4293597    0.2604543  44.20 7.368992e-05    1.626    0.385
       134 -10.6291    223.9798    147.9825   5.1382731912e+01   1.0518939107e+01    0.2442366    0.1452449 -48.82  0.001152543    2.358    0.576
       135 -12.0701    133.0289    148.4723   6.9193770473e+01   2.5908310579e+01    0.2793662    0.1987968 -27.06  0.001381354    1.648    0.393
       136 -10.3874     40.3046    148.4501   9.5488301410e+01   4.0054501813e+01    0.2404015    0.1191271 -76.09  0.001071745    2.016    0.504
       137 -11.9963     53.8304    145.0930   9.0903815261e+01   3.9294691403e+01    0.4114547    0.2002113  52.87  0.001196137    2.066    0.516
       138 -10.8699     57.8268    143.7959   8.9489718740e+01   3.9103679500e+01    0.3191799    0.1582419  60.55  0.001271319    2.376    0.579
       139 -13.1185     31.8129    139.3312   9.7292324839e+01   4.3229658125e+01    0.7380903    0.3480256  65.13   0.00309541    2.281    0.562
       140 -11.5514     36.9805    138.7538   9.5550437238e+01   4.2843831674e+01    0.2590437    0.1944586  43.62 0.0009162148    1.233    0.189
       141 -11.7833     11.4984    143.2598   1.0409298176e+02   4.4018947671e+01     0.412941    0.1839731  80.47  0.001478779    2.165    0.538
       142 -11.0567     14.2634    150.3989   1.0363728903e+02   4.2043672643e+01    0.2951357    0.1660789  47.17 0.0009110388    1.519    0.342
       143 -14.3239     11.0667    203.0853   1.0667601315e+02   3.0528446219e+01     2.136947    0.8534268  30.50   0.01086946    1.990    0.498
       144 -10.4762     71.4065    143.0604   8.5188278021e+01   3.7409123778e+01    0.2395476    0.1994572  12.92 0.0004699268    1.396    0.284
       145 -11.0649    151.1125    141.6828   6.3594075530e+01   2.3926479170e+01    0.2027835    0.1721467  28.78 0.0005730134    1.134    0.118
       146 -11.6259    159.5780    137.2509   6.0794653919e+01   2.3170185936e+01    0.3342123    0.1328582 -39.39  0.001112792    2.558    0.609
       147 -11.9198     44.4400    137.1795   9.2933322978e+01   4.2415431060e+01    0.2970083    0.2503468 -39.98  0.000966611    1.415    0.293
       148 -12.0075     53.6336    135.8375   8.9751741018e+01   4.1636438540e+01    0.3775171    0.2097101  51.84  0.000915139    1.766    0.434
       149 -15.2750     64.2198    242.6765   9.6841091313e+01   1.7972051874e+01     1.370481    0.9176929 -85.64    0.0092684    1.872    0.466
       150 -13.6334    138.8341    132.0219   6.4353521481e+01   2.8125802590e+01    0.7351058     0.450623  52.53  0.002477366    1.802    0.445
       151 -12.7267     62.3418    134.1413   8.6669843856e+01   4.0903758030e+01    0.7198181    0.2975642  33.83   0.00216299    2.240    0.554
       152 -12.3484     70.6192    132.9824   8.3817628265e+01   4.0001687863e+01    0.4711558    0.2678431 -78.41   0.00127379    2.105    0.525
       153 -10.8911     19.1985    133.7693   1.0097554921e+02   4.5802595806e+01    0.3387547    0.1717705 -87.65  0.001279471    1.877    0.467
       154 -11.0137     12.1915    133.6641   1.0330287595e+02   4.6380943156e+01    0.3592971     0.175411  73.82  0.001640868    1.959    0.490
       155 -12.3902     76.5141    132.4286   8.1850997523e+01   3.9239877017e+01    0.4305785    0.2132956 -66.42  0.001728512    2.190    0.543
       156 -13.0546     34.2662    128.6324   9.5361646694e+01   4.5727643495e+01     0.736909    0.3800362 -82.43  0.001620398    1.941    0.485
       157 -11.8529     30.0837    129.3321   9.6880520171e+01   4.5965044806e+01    0.5256649    0.2177717  81.96  0.001891156    3.065    0.674
       158 -11.1010     38.3463    141.3198   9.5376975461e+01   4.2048338330e+01    0.2903751    0.1520828 -48.71  0.001132881    2.272    0.560
       159 -12.0086    126.6615    131.8904   6.7344504155e+01   3.0494256032e+01    0.3473697    0.2292617 -82.81  0.001364425    2.758    0.637
       160 -12.4429    151.1497    129.8316   6.1001382499e+01   2.6163104189e+01    0.3475438    0.3145218 -26.74  0.001329114    1.096    0.088
       161 -14.1714    157.6475    128.6387   5.9299027528e+01   2.5121679198e+01    0.8369073    0.6509877  67.85  0.004268904    1.678    0.404
       162 -12.3431     91.6329    129.5668   7.6639782974e+01   3.7448205487e+01    0.2768741    0.2466354 -48.05  0.001486783    1.194    0.163
       163 -11.8931     81.0054    130.0021   7.9997477138e+01   3.9121194060e+01     0.180619    0.1692962  61.97 0.0003999359    1.003    0.003
       164 -14.3323      5.6203    216.4469   1.0826433686e+02   2.8366871386e+01      1.06973    0.5050637  55.77  0.006428093    1.589    0.371
       165 -11.3180     16.0105    127.0458   1.0154635179e+02   4.7789869750e+01     0.343315    0.2734023 -54.06   0.00177158    1.390    0.281
       166 -12.8674     58.8164    126.7710   8.6677683092e+01   4.3259621306e+01     0.411596    0.3540661 -42.88  0.001764828    1.318    0.242
       167 -11.9042     53.4467    124.4669   8.8151139454e+01   4.4570644976e+01    0.3625636    0.2489607  22.37 0.0006207667    1.610    0.379
       168 -12.8162     40.5806    120.8642   9.2167932938e+01   4.7076417577e+01    0.9907446    0.4434822  14.19  0.002680405    3.163    0.684
       169 -10.0362     48.8423    122.6153   8.9476224827e+01   4.5638139747e+01    0.2797169    0.1920508  78.13  0.000720228    1.542    0.351
       170 -12.5379     54.7415    117.5732   8.6572331764e+01   4.6188206126e+01    0.5954247    0.3234353  45.46  0.002499223    1.788    0.441
       171 -13.4796    143.8190    132.2028   6.3212515208e+01   2.7126835755e+01     0.731378    0.4010492 -23.04  0.002702163    2.991    0.666
       172 -10.0532    178.4793    124.9569   5.4227695402e+01   2.1749646903e+01    0.2023072    0.1128067 -56.44 0.0008094838    2.725    0.633
       173 -10.3678     10.2114    123.4232   1.0331569079e+02   4.9154432262e+01    0.2233691    0.1418044  85.89  0.001164926    1.416    0.294
       174 -12.6402    101.2940    119.8015   7.1659785615e+01   3.8011807322e+01    0.5292366    0.3120407  48.86  0.002254574    1.717    0.418
       175 -10.1334    201.6869    120.3004   4.9077876754e+01   1.8169509320e+01    0.1253075    0.1018879 -61.72  0.000212685    1.608    0.378
       176 -11.1971     49.2941    116.0284   8.8283086854e+01   4.7303749897e+01    0.3003868    0.2814075   9.57 0.0008809575    1.221    0.181
       177 -11.4484     23.4233    117.4650   9.8030546917e+01   4.9687730227e+01    0.5099794    0.2166734 -89.86  0.001981652    2.522    0.604
       178 -11.2222    189.6789    122.1352   5.1530955359e+01   2.0096902458e+01    0.2927188    0.2564445  73.03  0.001196296    1.483    0.326
       179 -11.1921     30.2387    118.8032   9.5666077984e+01   4.8706080784e+01     0.421823    0.2608099  12.71  0.001996582    1.946    0.486
       180 -10.4324    250.3945    117.6771   4.1695250100e+01   1.0464166112e+01    0.2294387    0.0868768 -34.23  0.000909158    2.093    0.522
       181 -11.9834    155.0065    117.0370   5.7146435911e+01   2.7817507913e+01    0.2234221    0.2150334  -5.64 0.0004644082    1.006    0.006
       182 -11.6531     82.7472    113.5598   7.6085478619e+01   4.2874997526e+01    0.4080727    0.2974073  85.92  0.000821477    1.688    0.408
       183 -11.7502    105.4630    114.7983   6.9261085551e+01   3.8374182465e+01    0.2814442    0.2143991  41.61 0.0007183893    1.288    0.224
       184 -12.1207     67.5649    122.4397   8.2973730255e+01   4.3108160613e+01    0.2692994    0.2586082 -31.77 0.0007599143    1.176    0.150
       185 -11.6713     63.7970    113.9302   8.2676241964e+01   4.5848901339e+01    0.4306801    0.1804212  55.37  0.001374581    3.364    0.703
       186  -9.8527    165.2683    113.3527   5.4081849533e+01   2.6388732342e+01    0.1456981    0.1099894  -3.12 0.0004746757    1.628    0.386
       187 -10.1589     30.1702    112.8543   9.4966543070e+01   5.0289673619e+01    0.1892463    0.1622056 -45.94 0.0005259535    1.299    0.230
       188 -10.8219    136.9424    113.0000   6.0327891888e+01   3.2356038314e+01    0.2530074   0.08458417  45.36 0.0008084092    2.984    0.665
       189 -12.2356     59.0221    109.2953   8.3500489412e+01   4.7748952677e+01    0.3928648    0.3212726  86.75  0.001096488    1.242    0.195
       190 -10.4069     62.3095    108.3092   8.2093747349e+01   4.7522584273e+01    0.2377528     0.146316 -60.37  0.000516293    1.583    0.368
       191 -12.8538     53.5729    110.6767   8.5781425661e+01   4.8148286707e+01    0.5315171    0.3689654 -58.60  0.002130809    1.418    0.295
       192 -11.2486     51.0144    107.0472   8.6077867900e+01   4.9444429671e+01    0.2701311    0.1906882 -14.91 0.0009360725    2.018    0.505
       193 -12.3428    107.5192    122.0679   7.0351654207e+01   3.6312774345e+01    0.3912255    0.2629615  52.84  0.001208745    1.552    0.356
       194 -10.2760     74.8313    111.4113   7.8290150546e+01   4.4755160115e+01    0.2046489    0.1475284  20.45 0.0003035868    1.646    0.392
       195 -10.7002    122.4644    110.4527   6.3396926799e+01   3.5913706604e+01    0.1501808     0.147642  65.24 9.349547e-05    1.013    0.013
       196 -11.5413    141.7804    109.3850   5.8246773293e+01   3.2061875089e+01    0.2159621      0.13884  36.74 0.0006674727    1.662    0.398
       197 -12.7531    152.0792    107.2341   5.5339556435e+01   3.0282272884e+01    0.3867881    0.3422409  26.72  0.002087578    1.180    0.152
       198  -9.6313     19.3066    105.3007   9.8315788724e+01   5.3265629361e+01    0.1397438   0.09726833 -44.56 0.0003265092    1.596    0.373
       199 -10.3454    117.0080    103.9695   6.3208325570e+01   3.8465218935e+01    0.1833101     0.180575  74.92   0.00037488    1.001    0.001
       200 -12.0190     78.8722    100.4414   7.4329159777e+01   4.6809346131e+01     0.485543    0.3156979 -88.45  0.001945482    2.221    0.550
       201 -11.9575     59.7788     92.1545   7.9468985573e+01   5.2089623904e+01    0.3682568    0.2288438  42.57  0.001640263    1.609    0.379
       202 -12.6324     58.1605     99.8587   8.1877025125e+01   5.0333339179e+01    0.4546944    0.3868011 -63.74  0.001621064    1.146    0.127
       203 -10.6969     22.1535     99.2001   9.6422774008e+01   5.4670310600e+01    0.2574306    0.1576801 -60.35  0.001248498    1.541    0.351
       204 -10.8325    173.2183     98.2914   4.8728039707e+01   2.7358883517e+01    0.2225998     0.179901  25.17  0.001167566    1.391    0.281
       205 -10.5621     39.9633     96.0000   8.8441753165e+01   5.3753583766e+01    0.2326568   0.08314638  25.82 0.0008028644    2.945    0.660
       206 -10.6739     34.5299     94.4516   9.0460626423e+01   5.4773245753e+01    0.1435057    0.1329179 -84.20 8.046794e-05    1.017    0.017
       207 -10.8412    183.3789     91.9082   4.5269182512e+01   2.6247595530e+01     0.217524     0.195706  79.95 0.0004145842    1.273    0.215
       208 -10.4562    135.4849     91.4879   5.4908724516e+01   3.7005743673e+01    0.1510498    0.1494116 -45.25 0.0001176568    1.016    0.015
       209 -10.9973     41.0259     92.0000   8.7221786601e+01   5.4695312020e+01    0.2334675   0.08358707  26.36 0.0006351515    2.942    0.660
       210 -10.7701     21.3876     91.2767   9.5683031314e+01   5.6865448867e+01    0.1808141    0.1732642 -85.20 0.0007526244    1.075    0.070
       211 -10.6481      3.2169     90.4523   1.0364349251e+02   5.8266961743e+01    0.2895822    0.1653472 -74.98  0.001075814    1.529    0.346
       212  -9.6987    121.4129     90.4927   5.8234254869e+01   4.0395680491e+01     0.153479    0.1491801 -67.85 7.241822e-05    1.019    0.019
       213 -10.5980    171.4487     88.4795   4.6455339496e+01   2.9405408181e+01     0.144649    0.1353568 -37.97 0.0001179022    1.011    0.011
       214 -13.8082     53.3098     84.9455   8.0363635198e+01   5.4924109285e+01     1.063879    0.6078682  61.63  0.004211742    2.323    0.569
       215 -10.2720    164.2854     87.3428   4.7485739662e+01   3.1203644739e+01    0.1480303    0.1150908   5.21  0.000348533    1.641    0.391
       216 -15.0271     53.1883    224.8986   9.8098571275e+01   2.2215253520e+01     1.083305    0.9856306  41.43  0.006413115    1.214    0.176
       217 -11.7495     45.5093     86.8199   8.4181618976e+01   5.5509854572e+01    0.2552327    0.1974518  58.76  0.001222587    1.353    0.261
       218 -10.2726     11.6112     87.1963   9.9556722163e+01   5.8670934086e+01    0.1981727    0.1101492 -66.31  0.000290953    1.594    0.373
       219 -10.2712    208.4741     86.5322   4.0090534817e+01   2.1897051420e+01       0.1341     0.117288 -30.11 2.386112e-05    1.009    0.009
       220 -11.3853    211.9958     81.7400   3.8445061771e+01   2.1877748218e+01    0.2176771    0.1658855 -31.43 0.0003017234    1.138    0.121
       221 -10.6985    207.0014     80.7272   3.8851784795e+01   2.3021280161e+01    0.2726689    0.1843645 -24.45  0.001446344    1.404    0.288
       222 -11.5197    183.0154     78.1506   4.1677510830e+01   2.8503985562e+01    0.3620906    0.2905034  -8.72  0.001928852    1.410    0.291
       223 -10.9785    153.0542     80.1095   4.7651300823e+01   3.5060265861e+01     0.223752    0.2171125 -49.20 0.0004144196    1.010    0.009
       224 -12.4837     29.4944     79.8040   9.0001867164e+01   5.9213055603e+01    0.4405553     0.223812  27.84  0.001919663    2.029    0.507
       225  -9.8680     62.6320     82.7137   7.5856184528e+01   5.4047568948e+01     0.154419    0.1190847 -16.83 0.0007020563    1.702    0.412
       226 -10.6267     87.6484     79.1175   6.5186548129e+01   5.0253966423e+01    0.3156841    0.2364781  35.99  0.001466738    1.411    0.291
       227 -11.0937    160.9544     76.2431   4.4961974892e+01   3.3867926707e+01     0.332688    0.1661884 -56.17  0.001194857    2.713    0.631
       228 -11.4236    112.0284     75.9365   5.6353402296e+01   4.5572480493e+01    0.3088458    0.2879784  23.65 0.0005633042    1.170    0.145
       229 -10.9655    115.6767     74.6886   5.4910285508e+01   4.4973967734e+01     0.295562     0.249797 -25.20  0.001088584    1.310    0.237
       230 -11.3041     75.0420     75.7117   6.8770655343e+01   5.3557999082e+01    0.3179626    0.2671137  18.14 0.0008287696    1.382    0.276
       231 -12.4654     22.7473     74.7223   9.2321484104e+01   6.1193029873e+01    0.5059381    0.1618295 -73.82  0.001710286    3.065    0.674
       232 -10.0491     16.0347     76.2283   9.5952706808e+01   6.1316676095e+01     0.174009    0.1171473  15.97 0.0008798003    1.660    0.397
       233 -12.5159     31.8805     74.4798   8.7710500374e+01   6.0381383280e+01    0.4288103    0.2698024  -9.60  0.001890263    2.216    0.549
       234 -11.0530     31.0266     88.2315   9.0889998645e+01   5.6804903585e+01    0.1840698    0.1208477  23.34 0.0006178469    1.646    0.392
       235 -10.7030    219.6618     72.4052   3.5221171515e+01   2.1637326315e+01    0.2687204     0.170315 -41.79  0.001206736    1.371    0.271
       236 -12.0691    101.0482     69.0059   5.7320949305e+01   4.9548098884e+01    0.5820059     0.300365 -43.84   0.00226176    1.933    0.483
       237 -10.4409     94.4823     71.5255   6.0326650155e+01   5.0492164336e+01    0.1553796    0.1511769 -87.77 0.0002714252    1.010    0.010
       238 -11.3389    188.7289     67.3998   3.7882664859e+01   2.8846281436e+01    0.5328918    0.1766968 -35.65  0.001953519    2.555    0.609
       239 -11.6743    197.7604     66.8454   3.6499180264e+01   2.6930828688e+01    0.4147136    0.2570863  24.65  0.001787217    2.528    0.604
       240 -10.0578      2.2306     68.5575   1.0203291684e+02   6.4132446548e+01    0.1686417    0.1240284 -20.78 0.0005397698    1.545    0.353
       241 -11.8203     36.8457     67.2906   8.3423391130e+01   6.1697096774e+01    0.2411794    0.1765855  52.41  0.001203072    1.487    0.327
       242 -13.1101     24.1646     63.2812   8.9138485449e+01   6.4087209871e+01    0.6036218    0.3383123  23.01  0.002803159    1.913    0.477
       243  -9.6381     78.7163     65.7165   6.3950305667e+01   5.5140639141e+01    0.1481012    0.1227896  -6.01 0.0002356693    1.520    0.342
       244  -9.5968    177.7046     64.6945   3.8749297646e+01   3.1769491975e+01    0.1396434     0.111311  16.07  0.000409593    1.583    0.368
       245 -10.2097    240.0408     63.2376   3.0940356484e+01   1.8936488739e+01    0.1619377    0.1374912 -40.46 0.0002935728    1.073    0.068
       246  -9.8700    113.9519     63.0407   5.1402368757e+01   4.7675146617e+01    0.1849814    0.1756947  70.08 0.0003493984    1.043    0.041
       247 -10.9315    208.0314     61.5748   3.3847111076e+01   2.5449232026e+01    0.2463873    0.1789267 -12.19  0.000679506    1.547    0.354
       248 -10.6697     45.4988     61.1253   7.7149175252e+01   6.2108963413e+01    0.2463619    0.2064368 -14.47  0.001110065    1.368    0.269
       249 -10.3136    109.4629     59.6707   5.1439055274e+01   4.9410724171e+01     0.283238    0.1434084  53.51  0.001082098    1.969    0.492
       250 -10.6256      3.3366     59.1666   1.0023212570e+02   6.6559777619e+01    0.2300168    0.1759941 -22.00  0.001314994    1.440    0.305
       251 -11.3784    193.1038     57.4196   3.4550360533e+01   2.9273189321e+01    0.3100121    0.1481787 -45.16  0.001340964    1.930    0.482
       252 -11.9013    153.7684     57.2989   4.0487253523e+01   3.8704093466e+01    0.2664387    0.2454514 -53.22  0.000284836    1.030    0.029
       253 -11.5711     53.5052     57.4808   7.1887717662e+01   6.1747586973e+01     0.413711    0.2554108  58.14 0.0009715481    2.099    0.524
       254 -10.5677    225.2209     57.1913   3.0912699728e+01   2.2493728365e+01    0.1870322    0.1269715 -50.67  0.001068676    1.366    0.268
       255 -10.5139     99.6560     57.1532   5.3420460433e+01   5.2261218251e+01    0.2731004    0.2136178  69.39  0.001222421    1.393    0.282
       256 -11.3707     27.4889     55.2714   8.5132159488e+01   6.5824461225e+01    0.4525704    0.2003226  42.07  0.001654282    2.480    0.597
       257  -9.9016    127.6670     55.3546   4.5179583326e+01   4.5634647008e+01    0.1674163    0.1156854 -69.33 -1.361953e-05    1.789    0.441
       258 -10.2645     93.8110     51.9313   5.3237051554e+01   5.4656195951e+01    0.2453377    0.1814938  -0.72  0.000829451    1.966    0.491
       259 -11.5145    182.8784     51.2104   3.4117120927e+01   3.2486080025e+01    0.3458906    0.1753941  51.93  0.001501921    2.164    0.538
       260 -11.5244    172.5805     50.5758   3.5345091704e+01   3.5046248983e+01    0.4030364    0.2466801  76.08  0.001775458    1.835    0.455
       261 -10.2824    152.9992     50.7023   3.8480912101e+01   3.9908499123e+01    0.2023815    0.1845311  72.42 0.0002384246    1.112    0.101
       262 -10.6592     30.7564     50.8413   8.1821557354e+01   6.6575882197e+01    0.2556925    0.1979595  32.00 0.0006612178    1.364    0.267
       263 -10.9386     44.9821     49.4817   7.3221448618e+01   6.4987257171e+01    0.2163505    0.1416977  36.15   0.00102228    1.576    0.365
       264 -10.7323     18.4499     49.4731   8.8978774552e+01   6.8141046371e+01    0.2375767     0.123604 -66.20 4.460926e-05    1.737    0.424
       265 -11.2051    196.1157     44.3937   3.0591586898e+01   3.0306081395e+01    0.3231364    0.1814745 -66.53  0.001459724    2.125    0.529
       266 -10.6661     50.9939     43.5064   6.7498809605e+01   6.5354875095e+01    0.2389128    0.1886955 -46.91 0.0009544502    1.231    0.188
       267 -11.2383    143.4093     43.2017   3.7631881614e+01   4.3482941831e+01    0.2256733    0.1268598 -43.13 0.0009511178    1.710    0.415
       268 -10.3116    122.4884     41.5610   4.1228420858e+01   4.9208222104e+01    0.1520109    0.1446763 -85.62   5.6641e-05    1.012    0.012
       269  -9.8577    104.3669     40.2562   4.5198499680e+01   5.4112605157e+01    0.1571549    0.1138244  32.38 0.0006968481    1.635    0.388
       270 -11.5178     35.0390     39.8574   7.5030704679e+01   6.8660022573e+01    0.4924994    0.2558245  20.79  0.001635236    2.375    0.579
       271 -10.8375     60.6953     38.7006   6.0410835917e+01   6.4541615392e+01    0.3302239    0.2449668  85.45  0.001500152    2.036    0.509
       272 -11.6353     55.5904     37.3071   6.2224554036e+01   6.5818193888e+01    0.4537515     0.308957  19.96  0.001385869    1.882    0.469
       273  -9.9418    140.5150     37.5221   3.6127095300e+01   4.5046885284e+01    0.1511225      0.13924 -70.49 0.0008098854    1.031    0.030
       274  -9.8769    110.2768     37.6873   4.2564474412e+01   5.2994430138e+01    0.1550713    0.1136663 -65.96 0.0002221719    1.562    0.360
       275 -11.4963     10.2052     36.6578   9.0963097614e+01   7.1959035895e+01    0.3575766    0.2291925 -21.42  0.000857766    1.708    0.414
       276 -11.3300     44.0067     33.5267   6.6621386255e+01   6.8675927087e+01    0.2704427    0.2370732 -16.30  0.001521967    1.165    0.142
       277 -12.0183     31.5756     32.7099   7.4031222366e+01   7.0743549238e+01    0.4435938    0.2699597 -38.59  0.002135401    1.650    0.394
       278 -10.9438    106.5195     31.7090   4.0951343166e+01   5.4868020817e+01    0.3014478    0.2397249 -38.66   0.00130873    1.272    0.214
       279 -11.7409    169.5200     31.2046   2.9738259597e+01   3.8349988279e+01    0.2486796     0.235089 -71.05 0.0002421719    1.064    0.060
       280 -10.8082    213.7829     31.3211   2.5411735471e+01   2.7935940510e+01     0.189755    0.1399393 -45.59 0.0006934956    1.130    0.115
       281 -12.0780     77.0363     30.3968   4.9349905150e+01   6.2467407871e+01    0.7584748    0.2424948  61.43  0.002003905    4.939    0.798
       282 -11.2803     80.6730     28.4556   4.7055038942e+01   6.1908035990e+01    0.3213551    0.2044584  23.39 0.0008668275    2.223    0.550
       283 -12.0450     83.9470     23.5003   4.3421155896e+01   6.1840144657e+01    0.6282657    0.3689413 -61.00  0.002517688    2.416    0.586
       284 -10.8890     39.0566     28.8067   6.7152662459e+01   7.0465192804e+01    0.2517253    0.1976758 -27.61 0.0007314628    1.295    0.228
       285 -11.1197     47.1531     27.6925   6.1691079565e+01   6.9286850671e+01    0.2766433    0.1943589 -66.58  0.001299141    1.987    0.497
       286 -11.4777    118.8963     25.9673   3.5705998554e+01   5.2360153131e+01    0.2506525    0.2341173 -16.83 0.0003531367    1.162    0.140
       287 -10.0284     20.6195     23.1282   7.7310255831e+01   7.4215161143e+01    0.2026056    0.1050147 -45.08  0.000943554    1.771    0.435
       288 -10.1560    250.0113     22.0155   2.0798082795e+01   2.1675285536e+01     0.142781    0.1115878 -46.32  0.000601904    1.046    0.044
       289 -10.0329    134.7878     18.2205   2.9826704805e+01   4.8987000999e+01    0.1925834    0.1645437  39.80  0.000293698    1.305    0.234
       290 -10.6874     30.2124     15.6291   6.5286687513e+01   7.4452416472e+01    0.2465232    0.1768732 -41.95 0.0007874485    1.350    0.259
       291 -10.6604     41.3698     13.8116   5.6441681602e+01   7.2835790314e+01    0.1853718    0.1237771 -25.71  0.000456964    1.575    0.365
       292 -10.5574    238.1606    248.8636   6.5581664297e+01  -2.5444784042e+00    0.1395459     0.101859   8.04 0.0006363365    1.235    0.190
       293 -10.3493    177.3549    249.0974   7.5421325695e+01   3.8484941095e+00     0.139855    0.1077478   9.75 0.0005289852    1.118    0.105
       294 -10.8992    213.7595     10.4461   1.9994485825e+01   3.0126657388e+01    0.2325628    0.1158743 -89.87  0.001148099    2.158    0.537
       295 -12.1620    179.6310    244.5540   7.4471788638e+01   4.1057336753e+00    0.2091916    0.1646241   7.79 0.0005919702    1.140    0.123
