#   1 NUMBER                 Running object number                                     
#   2 MAG_AUTO               Kron-like elliptical aperture magnitude                    [mag]
#   3 X_IMAGE                Object position along x                                    [pixel]
#   4 Y_IMAGE                Object position along y                                    [pixel]
#   5 X_WORLD                Barycenter position along world x axis                     [deg]
#   6 Y_WORLD                Barycenter position along world y axis                     [deg]
#   7 A_WORLD                Profile RMS along major axis (world units)                 [deg]
#   8 B_WORLD                Profile RMS along minor axis (world units)                 [deg]
#   9 THETA_WORLD            Position angle (CCW/world-x)                               [deg]
#  10 FWHM_WORLD             FWHM assuming a gaussian core                              [deg]
#  11 ELONGATION             A_IMAGE/B_IMAGE                                           
#  12 ELLIPTICITY            1 - B_IMAGE/A_IMAGE                                       
         1 -13.4095    227.3583      6.7332   3.5246939282e+01   2.8215297647e+01     1.694995    0.8582875  54.48  0.009451658    2.483    0.597
         2 -13.2826    195.4207     41.3446   4.5831288313e+01   3.1141963125e+01     1.137778    0.8925188 -45.06  0.003664486    1.203    0.169
         3 -13.5816    203.6565     33.2642   4.2985150136e+01   3.0304821562e+01     1.077666    0.8054731 -27.50  0.001310078    1.468    0.319
         4 -12.2469     41.3736      7.1850   6.9824950997e+01   7.0345576067e+01    0.5512386    0.2867112  25.00   0.00272581    1.941    0.485
         5 -11.2321     60.0280      2.6543   5.9338346002e+01   6.7187761968e+01    0.4723659    0.1513188  55.08  0.001891274    2.704    0.630
         6 -11.2455     49.5008      2.8540   6.3599122697e+01   6.9290405538e+01    0.3454968    0.1772914  47.98  0.001779351    1.686    0.407
         7 -11.7859    162.7939    214.1508   9.1251585553e+01   7.2132908610e+00    0.4541641    0.3331533  13.36  0.002572247    1.213    0.175
         8 -11.4979    140.2556    249.4870   1.0138241293e+02   4.4103945938e+00    0.4302579    0.3765399 -49.39   0.00293863    1.495    0.331
         9  -8.1259     70.2805    202.2657   1.1196003932e+02   2.3034781478e+01     0.125195    0.1024454 -17.70 0.0006881887    1.485    0.327
        10  -9.4598     81.9159    195.0184   1.0804585337e+02   2.3137679283e+01    0.3199369    0.2567477 -38.93  0.001760788    1.390    0.281
        11 -10.3017    120.1569    194.3983   9.8062981921e+01   1.7614712174e+01     0.252592    0.2139514 -71.89 0.0009439346    1.462    0.316
        12 -10.3109    149.4138    187.6685   8.9685864041e+01   1.4281117315e+01    0.4245689    0.3260345 -78.39  0.002043146    2.146    0.534
        13 -11.9183    111.8535    205.0058   1.0179648208e+02   1.6645491201e+01    0.4384865    0.3382008 -57.21  0.001134262    1.473    0.321
        14 -11.1758    193.0899    195.2836   8.1460871522e+01   5.9528377324e+00    0.8835384    0.5464225 -61.65   0.00360108    3.697    0.729
        15  -9.4122     91.9262    183.8125   1.0376999461e+02   2.4294471435e+01    0.2330553    0.2103749 -55.08 0.0005693379    1.172    0.147
        16 -18.4518     15.3164    202.5456   1.2561744549e+02   2.8838008218e+01      14.8992     4.843423 -81.88   0.06086475    3.155    0.683
        17 -10.4190     99.4178    180.9207   1.0128173974e+02   2.3837384396e+01    0.2923228     0.253251   8.80 0.0005626889    1.179    0.152
        18 -10.8317     51.4263    164.4239   1.1247304109e+02   3.4410346571e+01     0.526019    0.2666605 -40.65  0.002156844    2.403    0.584
        19  -9.5534     42.0453    178.9975   1.1686482702e+02   3.1824273357e+01      0.23547    0.1998125 -42.11            0    1.315    0.240
        20 -11.7557     47.1717    171.6529   1.1460939640e+02   3.3079829167e+01    0.6871788     0.516158 -53.08  0.003012104    1.365    0.267
        21 -10.0107    146.3956    171.9680   8.7402017396e+01   1.8006560616e+01    0.3267671    0.2580762 -81.02  0.001503469    1.966    0.491
        22 -11.7956    107.8815    203.9389   1.0263035005e+02   1.7458841734e+01    0.4067159    0.3453844  60.85  0.001016617    1.337    0.252
        23  -8.7107    194.0692    171.6590   7.6669773716e+01   9.9057393297e+00    0.1962726    0.1657149   9.72 0.0009766675    1.107    0.097
        24  -9.3660    185.6282    169.5503   7.7974743567e+01   1.1688843471e+01    0.2664541    0.1669306 -40.85 0.0009741525    1.574    0.365
        25 -10.6536    240.9244    169.3522   6.7753513582e+01   3.1910347097e+00    0.2376731     0.143019  25.74  0.001335097    1.824    0.452
        26  -9.0975    137.5725    167.6704   8.8746061420e+01   2.0471930174e+01    0.3036892    0.1771157  37.21  0.001067781    1.654    0.396
        27  -9.8722    188.0940    176.3673   7.8840493123e+01   1.0039339055e+01    0.3171216    0.2890129 -28.06  0.001519724    1.232    0.188
        28 -11.5490     92.0824    151.8354   9.8199688761e+01   3.1962158789e+01    0.7815546    0.5471652 -18.32   0.00344665    1.828    0.453
        29 -10.7802    133.8833    145.5616   8.4991784698e+01   2.6015976926e+01     1.299382    0.3618284 -53.88  0.003049782    5.877    0.830
        30  -9.9370    135.4491    135.5486   8.2256804541e+01   2.7933208869e+01    0.3196168    0.2572134  47.86  0.001546115    1.329    0.248
        31  -8.9621    112.5157    150.9160   9.2038696418e+01   2.8725084972e+01    0.2360634    0.2035098  28.82 0.0004774897    1.127    0.113
        32  -9.1281    175.0205    149.2758   7.5913576747e+01   1.7411097482e+01    0.2062677    0.1835597  21.30 0.0004223727    1.121    0.108
        33 -10.3167    104.6408    138.1959   9.1580763327e+01   3.3159956341e+01    0.5805834     0.342866 -23.44  0.002130702    2.516    0.602
        34 -11.7033     92.3681    137.7472   9.5234300945e+01   3.5395041031e+01    0.3095308    0.2726703 -20.34 0.0005161337    1.172    0.147
        35 -14.2252     52.9114    202.0710   1.1635448153e+02   2.5182006478e+01      3.34654     1.326067  54.62   0.01274568    3.017    0.669
        36 -10.2506    105.9159    130.8436   8.9510039209e+01   3.4690716178e+01    0.3648447    0.3465176 -56.49  0.001177611    1.122    0.109
        37 -10.0114    135.9993    129.2564   8.0590413137e+01   2.9205797944e+01    0.4297606     0.219051 -48.94  0.001384137    2.055    0.513
        38 -10.3680    113.1820    128.9935   8.6899895555e+01   3.3765660291e+01    0.4095085    0.3243469  14.75 0.0009065075    1.365    0.267
        39 -10.9969    119.2591    123.5304   8.3783168658e+01   3.3843310898e+01    0.6708992    0.4199204 -13.13  0.002437057    2.611    0.617
        40  -9.2567    160.7926    127.8170   7.4110449490e+01   2.4450232554e+01    0.2093575    0.1892147 -78.09  0.001085837    1.366    0.268
        41  -8.0843     94.7185    127.3074   9.2150205731e+01   3.7556843112e+01    0.1519827    0.1247362  75.56 0.0002177293    1.560    0.359
        42 -10.2936    100.3308    125.1050   8.9858385321e+01   3.7086545560e+01    0.3081661     0.246859 -19.69 0.0007151063    1.368    0.269
        43  -9.9661    135.2440    119.2229   7.8265873855e+01   3.1538667367e+01    0.3679378    0.1317754 -45.75  0.001009899    2.827    0.646
        44  -9.3547    108.9452    118.1837   8.5475756082e+01   3.7097795371e+01    0.2311151    0.2175892   5.69 0.0003922269    1.031    0.030
        45  -9.9583    231.3871    113.8917   5.7878318925e+01   1.3347309128e+01    0.2625674    0.2070422 -33.49 0.0007326583    1.074    0.069
        46  -8.8887    168.0372    113.0263   6.8823213432e+01   2.5845715991e+01     0.246448    0.1905176 -78.42  0.001142706    1.847    0.459
        47 -11.5038    117.2149    108.8397   8.0530995508e+01   3.7553940972e+01    0.6614601    0.5660214 -72.22  0.003223212    1.428    0.300
        48  -9.5308    205.4819    110.1717   6.1037713157e+01   1.8710302495e+01    0.2738386    0.1980746  37.86 0.0009522245    1.550    0.355
        49  -9.5170    134.8549    104.4758   7.4438987440e+01   3.4730613349e+01     0.519902    0.1996169 -34.56  0.001609782    3.168    0.684
        50  -8.7118     67.3084    104.3560   9.5974881454e+01   4.7689755022e+01    0.1639781    0.1105558 -24.01 0.0005061154    1.726    0.421
        51  -9.4256    132.0299     99.1957   7.3711501630e+01   3.6429875699e+01    0.2986012    0.2226919  65.41  0.001340512    1.667    0.400
        52  -8.9056     93.2664    205.6265   1.0653947264e+02   1.9206546093e+01     0.271205    0.1897936   7.13 0.0009145094    1.692    0.409
        53 -10.6911    184.0897    212.3509   8.6377627137e+01   4.4166133869e+00     0.234581    0.1646608 -19.05  0.001250689    1.346    0.257
        54  -9.7225     89.8579    212.7190   1.0830037332e+02   1.8163909521e+01    0.2722885    0.2153716  75.12 0.0007607501    1.495    0.331
        55  -9.8141     39.4022     88.5221   1.0312430345e+02   5.5194150500e+01    0.2835397    0.1410661  20.99   0.00120058    2.139    0.533
        56  -9.2885    157.2365     82.5700   6.3009225017e+01   3.3837168356e+01    0.2037813     0.136913  41.72 0.0003660252    1.556    0.357
        57  -8.5686    184.6282     77.1456   5.6430376588e+01   2.8502113544e+01    0.1934672    0.1303442 -24.29 0.0006182238    1.647    0.393
        58  -9.4494     62.2313     69.0047   8.7617599240e+01   5.6619031497e+01    0.2408364    0.2009858  28.62 0.0005842131    1.204    0.169
        59  -8.5830     93.6133    249.2936   1.1150926539e+02   1.0549297905e+01     0.132794   0.07654808  50.75  0.000701411    1.768    0.434
        60 -13.0268    183.5784     51.0306   4.9806563372e+01   3.2568035934e+01    0.9221198    0.8880999 -60.22  0.000835386    1.079    0.073
        61 -15.4552     70.3330    147.8307   1.0414331065e+02   3.6236047302e+01     12.06199     5.916182  69.59   0.01279666    6.767    0.852
        62 -12.0132    196.8606    204.6598   8.2413537227e+01   3.8491279146e+00    0.6643749    0.3732515  10.65  0.003187555    2.030    0.507
        63  -8.5931     96.3969    202.2590   1.0528950654e+02   1.9491988916e+01    0.1772995    0.1366782 -77.77 0.0009387471    1.573    0.364
        64  -9.4505    189.3637     15.0046   3.9965882732e+01   3.5463904597e+01    0.1721291     0.145857 -56.46 0.0005359768    1.127    0.112
        65  -9.0247    157.8180    235.2032   9.5631541228e+01   4.3515945722e+00     0.182304    0.1317335   1.97 0.0007179027    1.314    0.239
        66  -8.3194    168.6207    233.7924   9.3116710450e+01   3.0994995177e+00    0.1445184     0.121549 -42.12   0.00042568    1.524    0.344
