#   1 NUMBER                 Running object number                                     
#   2 MAG_AUTO               Kron-like elliptical aperture magnitude                    [mag]
#   3 X_IMAGE                Object position along x                                    [pixel]
#   4 Y_IMAGE                Object position along y                                    [pixel]
#   5 X_WORLD                Barycenter position along world x axis                     [deg]
#   6 Y_WORLD                Barycenter position along world y axis                     [deg]
#   7 A_WORLD                Profile RMS along major axis (world units)                 [deg]
#   8 B_WORLD                Profile RMS along minor axis (world units)                 [deg]
#   9 THETA_WORLD            Position angle (CCW/world-x)                               [deg]
#  10 FWHM_WORLD             FWHM assuming a gaussian core                              [deg]
#  11 ELONGATION             A_IMAGE/B_IMAGE                                           
#  12 ELLIPTICITY            1 - B_IMAGE/A_IMAGE                                       
         1 -13.5075     24.6964    109.1472   1.2012863234e+02   5.0122999594e+01     2.232821     1.151806 -47.60   0.01230021    1.633    0.387
         2 -12.5441     74.6844     50.8630   8.9930571706e+01   5.5801895885e+01     1.119871    0.7114081 -46.47  0.006210067    1.786    0.440
         3 -11.4117    119.1133     58.6387   7.9531438412e+01   4.6759970077e+01      1.75033     1.247556 -72.24  0.008355948    2.303    0.566
         4 -12.1339    124.6981     27.7920   6.8860922655e+01   4.9799392856e+01    0.9408419    0.7416987 -33.89  0.005788923    1.425    0.298
         5 -12.9165    120.3123     38.6691   7.3205409228e+01   4.9376847339e+01    0.6766778    0.5229879 -69.63   0.00116768    1.872    0.466
         6 -10.4547     59.9888     24.5188   8.5914769242e+01   6.1592794300e+01    0.5296565    0.2259534 -25.68  0.002311628    2.530    0.605
         7 -12.1702     60.5384     45.3531   9.2800679257e+01   5.8635367175e+01    0.8584063     0.422163 -37.78  0.004536338    1.894    0.472
         8 -11.6939    145.6692     47.7278   7.0085049152e+01   4.2717465402e+01    0.9904659    0.4534745 -27.58  0.004063044    2.720    0.632
         9 -11.2265    178.6061     21.1351   5.7069596959e+01   3.8516819018e+01    0.5817938    0.2951407  45.90  0.002233814    2.121    0.528
        10  99.0000      6.3789     16.1540   1.0341654396e+02   6.8225023936e+01    0.3796377    0.1906209  21.79 0.0005327538    2.067    0.516
        11 -10.7356      5.2137      9.3006   1.0147978319e+02   6.9221925426e+01    0.5193279    0.3722133   1.25   0.00269358    1.245    0.197
        12 -11.1780      3.4130      1.7391   9.9428571425e+01   7.0300457387e+01     0.348469    0.1403596  15.08  0.002108176    2.571    0.611
        13 -12.3361     18.9763     22.5373   1.0045938914e+02   6.6389509371e+01    0.8458145     0.484836  22.98  0.005575594    1.791    0.442
        14 -12.3952     16.8048     13.5770   9.8162388537e+01   6.7773774228e+01    0.4395741    0.3000367 -26.63 0.0006329365    1.210    0.173
        15 -12.1238     22.6236     11.3289   9.4949231812e+01   6.7541796019e+01    0.5627643    0.3565257 -25.98  0.004132541    1.304    0.233
        16 -12.3072    104.6882     12.9164   6.8863758541e+01   5.5384823326e+01    0.5186833    0.3840922 -35.89  0.003318535    1.613    0.380
        17 -12.6862    112.8431     25.2068   7.0834017546e+01   5.2509259573e+01    0.7844418    0.3647805  49.40  0.003024268    1.864    0.464
        18 -11.0506    198.6781     28.4631   5.5958893766e+01   3.2999468919e+01    0.5375984    0.3725604 -20.59  0.002610711    1.992    0.498
        19 -10.9264    138.5120     21.5877   6.4095621309e+01   4.7536358904e+01     1.132751    0.2474814  49.38  0.003869794    3.637    0.725
        20 -10.3590    146.8765     15.9870   6.0925952735e+01   4.6280820078e+01    0.5303574    0.2277863  48.86   0.00246942    2.030    0.507
        21 -11.2235    154.0598     25.3638   6.2204892181e+01   4.3664191766e+01    0.6765426    0.4495329  54.43   0.00353375    1.306    0.234
        22 -10.6138     91.0752     21.1723   7.5161635384e+01   5.7056627448e+01    0.6208663    0.4711332  40.15  0.004045341    1.200    0.167
        23  -6.7598     87.7870      7.5972   7.1394411525e+01   5.9005851109e+01    0.5480885    0.2679226  48.25  0.002855224    1.772    0.436
        24 -11.4196     85.7429     13.6757   7.4073189008e+01   5.8779262734e+01    0.4070889    0.3052395  -1.73  0.002055241    1.311    0.237
        25  -9.6355     50.0247      6.5086   8.2677563854e+01   6.4983152031e+01    0.2365534   0.09484487  41.49  0.001046939    2.445    0.591
        26 -10.5986     32.6155     12.5653   9.1451940194e+01   6.6393954900e+01    0.1938724    0.1630055  28.59 0.0005166418    1.616    0.381
        27 -12.2705     48.8346     12.9126   8.5540974057e+01   6.4449433927e+01    0.5968985    0.2822064  35.94  0.003492701    1.984    0.496
        28 -11.6145     35.9011     18.0994   9.2250713358e+01   6.5362331309e+01    0.5572469    0.2482649 -22.02  0.002292092    2.453    0.592
        29 -10.0808     64.8252     10.5606   7.9237712954e+01   6.2476594679e+01    0.6045994    0.2572518  30.72  0.002960179    2.309    0.567
        30  -9.9465     63.2246      6.3612   7.8185327512e+01   6.3134937274e+01    0.2823077    0.1846511   6.60  0.001323429    1.435    0.303
        31 -11.9148     68.7496     18.4323   8.0853440041e+01   6.1040397929e+01    0.4714053    0.3802677  22.30  0.003097902    1.112    0.101
        32 -12.1722    239.5645     16.1070   4.8651885398e+01   2.5358514823e+01    0.7765015    0.3851108  64.02  0.002527194    1.859    0.462
        33 -11.2156    223.6889      1.8955   4.7396726869e+01   3.0415619174e+01    0.5419195    0.2010455  75.83  0.002462656    2.467    0.595
        34 -11.1970    165.1548     17.6764   5.8271735105e+01   4.1986850688e+01      0.41213    0.2641623  37.01  0.001535606    1.815    0.449
        35 -11.5631     26.4865     27.7753   9.9292187643e+01   6.4999858996e+01    0.4420019    0.2685878 -39.03  0.002084831    1.498    0.332
        36 -11.9277    244.5967      6.6511   4.6406569101e+01   2.5407744952e+01    0.7029324    0.4190509 -70.26  0.003497314    1.493    0.330
        37 -10.5693    193.1862     17.3429   5.4127306114e+01   3.5582373790e+01    0.4931515    0.3057982 -86.81  0.001442366    1.734    0.423
        38 -10.5104    186.4910     15.1732   5.4512479404e+01   3.7360490054e+01    0.2753812     0.199464  59.34 0.0005590377    1.256    0.204
        39 -11.6481    192.6297      7.0348   5.1840343978e+01   3.6815994687e+01    0.6104754    0.4457209  19.79  0.003553302    2.141    0.533
        40 -10.1662    225.9868     15.6264   4.9916038858e+01   2.8369063506e+01      0.31395    0.1628958 -43.17  0.001040419    1.927    0.481
        41  -9.6733    141.5964     12.2940   6.0852901642e+01   4.7809476071e+01    0.1851752    0.1505347  -1.24 0.0005928647    1.475    0.322
        42 -11.7707    133.2850     15.3208   6.3312197107e+01   4.9313977535e+01     1.159232     0.434497  65.42  0.004557819    3.080    0.675
        43 -10.1046    127.5189     12.0116   6.3492873635e+01   5.0860344681e+01    0.3041945    0.2148916 -83.75  0.001470684    2.085    0.520
        44 -11.9975    233.8078      6.9673   4.7434509916e+01   2.7665658023e+01    0.7786815    0.3355439  79.90  0.003788287    2.208    0.547
        45 -10.9890    218.7254      3.1632   4.8133162152e+01   3.1368763359e+01    0.3039496    0.2545908  86.03  0.001150587    1.108    0.097
        46 -11.3157    211.8674      9.7503   5.0209568428e+01   3.2180942868e+01    0.4076881    0.3092797   5.33  0.001653923    2.277    0.561
        47  -9.9465    168.9279     10.1120   5.5763021897e+01   4.1905287442e+01    0.2676096    0.1763157  48.45  0.001076245    1.470    0.320
        48  -9.0276    163.2242      9.9970   5.6594267017e+01   4.3210215615e+01     0.163228    0.1540488  80.83 0.0006491477    1.133    0.118
        49  -9.7055    162.8978      6.0059   5.5620016030e+01   4.3665888436e+01    0.1831803    0.1766152 -56.27 0.0004990126    1.222    0.182
        50  -9.9929    184.8881      6.7957   5.2756201778e+01   3.8600966958e+01    0.3169678     0.162047 -44.02  0.001433765    2.119    0.528
        51  -9.7360    151.9142      7.6928   5.7789508668e+01   4.5968055545e+01    0.3829933    0.1424021  52.45 0.0007497932    2.188    0.543
        52  -9.7659      1.2698      7.4096   1.0249953283e+02   6.9735971991e+01    0.1500129   0.06765605 -40.50 0.0001250101    1.835    0.455
        53 -10.7760     82.0824      1.3305   7.0733209142e+01   6.0553010682e+01    0.2344001   0.08867693  49.57 0.0003811489    2.256    0.557
        54  -9.0629     78.4891      7.4751   7.3944184237e+01   6.0614353423e+01    0.1961244    0.1433345  35.76 0.0007126551    1.168    0.144
        55 -11.1022     76.5839      3.7157   7.3136363344e+01   6.1274763050e+01    0.6048279    0.2715901  46.26  0.003327535    1.920    0.479
        56 -10.5860     41.2870      4.7109   8.5126373834e+01   6.6283127473e+01    0.3417239    0.1757525  -6.26  0.001506541    2.251    0.556
        57 -10.3701    174.9894      5.0170   5.3644132124e+01   4.1024888633e+01    0.5320107    0.2264157  78.14  0.002258243    2.700    0.630
        58 -11.3200    205.0460      2.6076   4.9437918653e+01   3.4466089935e+01    0.4077654    0.2659813  74.36  0.001156338    1.260    0.206
        59 -10.7156    142.6219      2.8168   5.8016684717e+01   4.8449846882e+01    0.3040307    0.2437548  50.63    0.0011457    1.090    0.082
        60 -11.7935    133.2909      2.6738   5.9628499328e+01   5.0473051026e+01    0.4079909     0.213893  57.24  0.001145144    1.542    0.352
        61  -8.7918     55.3969      4.4034   8.0017186806e+01   6.4459869765e+01    0.1068281   0.08447608  11.53 0.0001057141    1.069    0.064
        62  -9.3092    157.6441      2.6892   5.5558826470e+01   4.5146301748e+01    0.1850166    0.1494756  33.02  0.001207361    1.391    0.281
        63  -8.8539    161.4736      1.0000   5.4552927057e+01   4.4440236375e+01    0.3780915   0.09340493  63.59  0.001124817    3.114    0.679
        64  -9.6165    116.9785      2.4973   6.2767218916e+01   5.3883833266e+01    0.2503992    0.1405182  40.37 0.0009108585    1.571    0.363
        65 -10.7403    107.0451      1.8431   6.4710020036e+01   5.5915053010e+01    0.7722616    0.1624731  58.24  0.002594336    4.560    0.781
        66 -10.2888     13.0266      2.0432   9.5363338074e+01   6.9509230181e+01    0.2265436    0.1422415   7.94  0.001182122    1.344    0.256
        67  -9.3328    122.8747      1.1101   6.1147679415e+01   5.2790257255e+01    0.3223975   0.05111216  58.28  0.001047093    4.409    0.773
        68  -9.9308    214.7453    151.2908   8.1575434179e+01   7.8990022322e+00    0.2814875    0.2224294 -70.45 0.0008037009    1.498    0.333
        69 -11.4448     62.9640    149.9620   1.1694561756e+02   3.6881891517e+01     0.464293     0.418915   3.44  0.001950801    1.404    0.288
        70  -9.0866     85.2436    150.0014   1.1134021612e+02   3.3754236528e+01    0.1919612    0.1113442 -58.77 0.0004894662    1.582    0.368
        71 -10.0724    239.7143    146.8159   7.6011951663e+01   3.7770203381e+00    0.2237514    0.1932387  30.83 0.0005904518    1.293    0.227
        72 -10.7411    249.4796    142.6587   7.3476869845e+01   2.6920400203e+00    0.6433081    0.2641103 -43.27  0.002599468    2.185    0.542
        73  -9.7049    107.4062    146.0609   1.0493923457e+02   3.1053767713e+01    0.2383708    0.2096098  28.76 0.0008330908    1.278    0.217
        74  -9.9291     46.3209    144.6871   1.2025851460e+02   4.0087780412e+01     0.243974    0.2099034 -44.47 0.0006889365    1.256    0.204
        75 -10.6171     33.0748    144.2265   1.2346301068e+02   4.1548041888e+01    0.2717132    0.2186863 -88.99 0.0007683421    1.191    0.160
        76  -8.8430    104.5034    142.4613   1.0494002939e+02   3.2406895532e+01    0.1469221    0.1377931 -72.69 2.311135e-05    1.009    0.009
        77 -10.1239    133.6466    140.1926   9.7079939534e+01   2.7480754990e+01    0.3574018    0.3049983  -8.24  0.001168703    1.465    0.317
        78 -12.1050     23.8903    136.4682   1.2462656807e+02   4.4137295409e+01    0.7138847    0.4396363  49.02  0.002335558    1.914    0.477
        79 -11.7854     29.8764    132.8053   1.2258771334e+02   4.4444219814e+01    0.4388942    0.3112778 -78.26 0.0003927462    1.305    0.233
        80  -8.8111    186.4752    139.5019   8.4705433683e+01   1.6370075676e+01    0.1529901    0.1485166 -69.64 0.0008101694    1.002    0.002
        81 -10.5031     80.4643    136.3192   1.0996779505e+02   3.7695662785e+01    0.4691055    0.3546303 -11.55  0.001584518    1.852    0.460
        82 -10.2523     47.4267    135.3782   1.1847853260e+02   4.2121473175e+01    0.4443378    0.1383764 -53.93  0.001559672    2.575    0.612
        83  -9.2177     44.0355    132.9932   1.1896355528e+02   4.3030626432e+01    0.2363435    0.1486671  61.21 0.0009545199    2.031    0.508
        84  -8.6860     37.6529    138.3393   1.2145632889e+02   4.2452911956e+01    0.1311398   0.08804829  76.64 0.0007046926    1.786    0.440
        85  -8.6720    216.7514    135.0016   7.7618364409e+01   1.0738861862e+01    0.1929169    0.1213132 -43.39   0.00049716    1.512    0.339
        86  -9.6678     93.3628    135.1562   1.0632432634e+02   3.5982372306e+01    0.3110035    0.1339861 -57.92  0.001178488    2.291    0.564
        87 -10.4896     92.8527    129.4046   1.0524337059e+02   3.7400519669e+01    0.4127145    0.3121203 -81.27  0.001639578    1.564    0.361
        88  -9.9667     73.6679    132.8600   1.1109418599e+02   3.9470822275e+01    0.2559813    0.2064362  47.57  0.001142655    1.360    0.265
        89  -9.9692     62.1491    131.7656   1.1396151692e+02   4.1240196884e+01    0.3682315     0.202371 -44.12  0.001233332    1.823    0.451
        90  -8.7760    103.6546    130.7210   1.0265478803e+02   3.5290890727e+01    0.1451047    0.1154075 -12.72 0.0002187838    1.634    0.388
        91  -8.8581    223.6539    126.7949   7.4530404064e+01   1.0891270958e+01     0.209352    0.1261534 -50.79 0.0004043003    1.620    0.383
        92  -9.2461     41.7466    126.7604   1.1851495417e+02   4.4686399214e+01     0.172187    0.1339562 -84.25 0.0005601509    1.334    0.250
        93 -10.7526     18.5499    124.3879   1.2423727385e+02   4.7263255193e+01    0.3799944    0.1540235 -60.35  0.001703768    1.844    0.458
        94 -10.3766     82.7300    124.3002   1.0688975867e+02   4.0144539804e+01    0.4947268    0.3455902   4.90  0.002354789    2.100    0.524
        95 -10.7581     55.3634    123.4643   1.1423384470e+02   4.3960823804e+01    0.4783911     0.347612   4.13  0.001792498    1.844    0.458
        96  -9.2453     50.1871    122.6066   1.1549031327e+02   4.4739483946e+01    0.2613201    0.1974617  -7.96  0.001165196    1.724    0.420
        97 -10.4716     45.7262    120.2218   1.1627322696e+02   4.5754608835e+01    0.3898041    0.2598981  89.29  0.001572458    1.971    0.493
        98 -10.9904     33.3498    119.5721   1.1954350687e+02   4.7103121709e+01    0.3703996    0.2425309 -45.69 0.0003592721    1.395    0.283
        99 -11.5208     49.6224     99.8473   1.1105842278e+02   4.9807897249e+01     1.492861    0.4874138 -48.88  0.003911984    2.496    0.599
       100 -11.5125      9.7321     97.2844   1.2232676514e+02   5.3689566144e+01    0.7500652    0.5706284  82.38  0.005088418    1.647    0.393
       101 -11.4606     36.6134     93.3493   1.1357520645e+02   5.2465915206e+01    0.7010712    0.4687872  48.30  0.001184636    1.989    0.497
       102 -11.9852      7.4102     88.7495   1.2150293214e+02   5.5578904777e+01    0.5248072    0.4096794  19.31  0.002034544    1.599    0.375
       103 -10.2249    143.0602    249.1935   1.1416019189e+02   2.3270595185e+00    0.1975889    0.1683801  31.60  0.001238624    1.263    0.208
       104 -11.8964     18.8236    106.0964   1.2125027456e+02   5.1223784272e+01    0.2155118    0.1727828 -59.41 0.0002529273    1.037    0.036
       105 -11.7339     21.9517     95.1184   1.1835272798e+02   5.3310241055e+01    0.5695962    0.3604994  -4.86  0.002790873    2.032    0.508
       106 -12.1582     18.3489     90.2365   1.1849048491e+02   5.4576636294e+01    0.4190488    0.2371695 -43.42 0.0004576812    1.468    0.319
       107 -11.5710      2.4045    112.1152   1.2666774556e+02   5.1005133835e+01     0.818644    0.3756419 -81.01  0.004005781    2.462    0.594
       108 -11.9479      3.7998    105.6266   1.2533910335e+02   5.2297888522e+01    0.4908067    0.3249457 -78.39   0.00082581    1.452    0.311
       109 -11.8656     43.3110     85.3302   1.0969850372e+02   5.3465805356e+01    0.5176889    0.3407993  15.51   0.00149389    1.761    0.432
       110 -11.0285     37.3235     85.8327   1.1169715479e+02   5.3939290284e+01    0.3256344    0.2706477  20.52  0.001788645    1.386    0.278
       111 -11.6734    104.6759    121.8907   1.0039006725e+02   3.7130183935e+01    0.4679073    0.4508711 -85.09  0.001344578    1.067    0.063
       112  -9.6387     68.2351    123.9585   1.1079652107e+02   4.2256315866e+01    0.3395498    0.2035907   8.68   0.00147653    2.775    0.640
       113  -9.2692     72.3944    120.3401   1.0889946258e+02   4.2522524486e+01    0.2779638    0.1401428 -44.02 0.0008965169    1.926    0.481
       114  -9.0808    137.9758    122.8147   9.1971539495e+01   3.0518760874e+01    0.2475756    0.1778202  15.53  0.001057773    1.992    0.498
       115  -9.1566    221.1938    120.4009   7.3548391744e+01   1.2659533431e+01    0.2024208    0.1397857  66.91 0.0007103159    1.665    0.399
       116  -9.4278    148.2757    119.8472   8.8728804064e+01   2.8990414410e+01    0.2839058    0.2063176  15.36 0.0009051719    1.974    0.493
       117  -8.9685     81.5501    117.4708   1.0572656234e+02   4.1868800726e+01    0.1955168    0.1303079 -64.39 0.0001092708    1.573    0.364
       118  -9.3704     82.0572    102.6885   1.0214490964e+02   4.5037442181e+01    0.1968501    0.1821879 -64.38 0.0005076877    1.148    0.129
       119 -10.8532     90.5841    103.5100   9.9895899065e+01   4.3541491882e+01    0.4057113    0.3449567 -64.08 0.0007858715    1.258    0.205
       120 -11.2971     79.6708    108.4721   1.0420945254e+02   4.4140038306e+01    0.6942559    0.5977212  84.47  0.003985594    1.409    0.290
       121 -10.2305     85.7699    104.3434   1.0147712903e+02   4.4119743786e+01    0.4326775     0.259827 -31.15    0.0014605    1.952    0.488
       122  -9.9840    113.2858    115.9733   9.6683541932e+01   3.6898170925e+01    0.2544648    0.2182924  28.27 0.0003134015    1.255    0.203
       123 -10.1827     67.1692    112.2961   1.0864999040e+02   4.5021423666e+01    0.4976062    0.2901089 -64.45  0.002384227    1.814    0.449
       124 -10.5049    107.8186    112.3429   9.7272049548e+01   3.8695585319e+01    0.7119147    0.3930224 -67.00  0.002663145    2.784    0.641
       125 -10.8406    102.0016    109.6869   9.8213977022e+01   4.0303564344e+01    0.4661254    0.3557315  22.45   0.00232011    1.505    0.336
       126  -9.9062    103.1369    106.1103   9.7015982147e+01   4.0877241028e+01    0.2689569    0.2174001  35.89 0.0003957752    1.295    0.228
       127 -11.2559    170.9844    110.0861   8.1086824408e+01   2.6003325809e+01    0.6376988    0.4585426  31.70   0.00238831    1.669    0.401
       128  -9.6524     93.9154    111.6863   1.0094027468e+02   4.1229992616e+01    0.2963571    0.2067852 -59.11  0.001466367    1.466    0.318
       129  -9.6937     48.9803    112.0647   1.1379702561e+02   4.7227666666e+01    0.2219651    0.1858348  29.94 0.0009906532    1.385    0.278
       130 -10.0328    130.5152    109.2403   9.0506651840e+01   3.4997025957e+01    0.3254563    0.2557184 -44.32  0.001621651    1.257    0.205
       131  -9.9670    120.0221    109.1970   9.3223567949e+01   3.7094297115e+01    0.2639013    0.2113916 -44.12 0.0006883424    1.220    0.180
       132  -9.5915     58.4456    108.3933   1.1031586590e+02   4.6965492471e+01    0.3376758    0.1697061 -67.02 0.0009555955    2.382    0.580
       133  -9.9919     57.8550    102.5392   1.0920774086e+02   4.8304544797e+01    0.3375775    0.2291654 -52.54  0.001886726    1.289    0.225
       134 -10.5011     57.5724     96.8758   1.0800510605e+02   4.9541094816e+01    0.6103723    0.4242764 -77.51  0.003209694    1.966    0.491
       135 -10.6036     64.4445     99.3307   1.0651886344e+02   4.8183308452e+01    0.3311227    0.2487258   7.09 0.0005898601    1.578    0.366
       136 -10.6610     68.4467     95.6106   1.0443427427e+02   4.8447707589e+01    0.3870942    0.3130644 -10.19  0.001730959    1.347    0.257
       137 -11.0961    158.6193    105.9371   8.2830916041e+01   2.9642665684e+01     0.598194    0.3696802  30.25  0.002416903    2.152    0.535
       138  -9.2708    140.4742     96.4950   8.4715566832e+01   3.5533967618e+01    0.3475008    0.2428451  28.45  0.001581611    1.710    0.415
       139 -10.1767    139.0634     93.0744   8.4159572529e+01   3.6511068496e+01    0.3731241    0.3014169  42.55 0.0009651122    1.236    0.191
       140 -10.8425    143.1276    106.1485   8.6563302247e+01   3.3002938728e+01     0.368079    0.3333183  48.50  0.001247879    1.107    0.097
       141 -11.8611    145.9289    100.3052   8.4380978145e+01   3.3591265292e+01    0.5684999    0.5279179 -36.17  0.002307962    1.100    0.091
       142  -9.4704    175.5178    246.4761   1.0743262996e+02  -2.7823131847e+00    0.1300497    0.1125408  41.95 3.570458e-05    1.030    0.029
       143 -11.0784     89.7536     89.6321   9.6578828304e+01   4.6546921138e+01    0.6864709    0.3886829 -27.63  0.002985715    2.229    0.551
       144 -10.6275     58.4820     78.4854   1.0317936498e+02   5.3145232271e+01    0.5094696    0.3065052 -59.28  0.002376575    1.916    0.478
       145 -12.7833     52.6452     73.8345   1.0382521728e+02   5.4715837605e+01    0.4875602    0.2694275 -52.22 0.0008508254    1.740    0.425
       146 -10.9487     46.9538     74.3927   1.0582470203e+02   5.5233369124e+01    0.3283855    0.1812635 -50.82  0.001778042    1.631    0.387
       147 -10.4119     93.8002     76.4982   9.1781598352e+01   4.8406818635e+01     0.502493    0.3031594  27.30  0.001886367    1.860    0.462
       148 -11.6536     85.7056     73.4858   9.3327114159e+01   5.0282737003e+01    0.5988113     0.528778  36.73  0.003650684    1.227    0.185
       149 -10.7742     79.0149     67.3858   9.3604129252e+01   5.2410569992e+01    0.4306996    0.3966465  62.85  0.002442531    1.422    0.297
       150 -10.7894     80.3697     83.5389   9.7735715204e+01   4.9207691434e+01    0.4797462    0.4016927 -26.67  0.002863453    1.115    0.103
       151 -11.2783     66.8223     81.9323   1.0146277323e+02   5.1425053652e+01    0.7638784    0.3713099  20.47  0.003283362    2.834    0.647
       152 -11.5626     74.3930     77.9759   9.8045990885e+01   5.1150024460e+01    0.8618388     0.589969  43.52  0.004729448    1.678    0.404
       153 -11.1862     81.5500     92.7268   9.9802913195e+01   4.7196133502e+01    0.5758147    0.4378403  53.93  0.003059463    1.618    0.382
       154 -10.2130    120.9764    101.0426   9.0887900868e+01   3.8625446342e+01    0.2876755     0.193114 -19.17  0.001151177    2.071    0.517
       155 -10.0530    210.6906     97.6581   7.0231382169e+01   1.9321673330e+01    0.3573038    0.3036472  31.19   0.00188576    1.445    0.308
       156  -9.5753    160.5332     93.5083   7.9220000852e+01   3.1674100846e+01     0.424312    0.2483179  67.81  0.001662607    2.296    0.565
       157 -10.5727    152.6333     91.8630   8.0592600568e+01   3.3772131581e+01    0.5311626    0.3715371  54.59   0.00251238    1.435    0.303
       158 -10.2967    117.5344     93.2505   8.9750713273e+01   4.0879861603e+01    0.4307763    0.2811401  32.27  0.001281403    1.678    0.404
       159 -10.8441    120.6272     89.2238   8.7841217920e+01   4.1067376887e+01    0.4125203    0.3282976  11.96  0.001891338    1.483    0.326
       160 -10.9412    120.2755     85.4138   8.6893759376e+01   4.1870207780e+01    0.4238202    0.2626086  45.32  0.001978845    1.617    0.382
       161 -10.3931    126.2341     93.2903   8.7465362222e+01   3.9145777409e+01    0.3817099    0.3600733  70.98  0.002015401    1.136    0.120
       162 -10.3614    122.4902     93.5113   8.8503526305e+01   3.9854198415e+01    0.2864757    0.2308131 -31.40 0.0007536335    1.278    0.217
       163 -12.7216    101.7743     90.0882   9.3243142935e+01   4.4428464449e+01     0.508813    0.3836127 -28.43 0.0004892317    1.372    0.271
       164 -10.2372    104.8565     76.6286   8.8645057730e+01   4.6443056725e+01     0.542156    0.4069636 -23.74  0.002890008    1.402    0.287
       165 -11.3560    113.4831     84.5085   8.8468838204e+01   4.3363923187e+01    0.6271849    0.3455529 -35.49  0.001938156    1.911    0.477
       166 -10.2491    183.6133     85.9749   7.2454221577e+01   2.7741483182e+01    0.6522534    0.2534273 -45.21  0.002341223    2.597    0.615
       167  -9.6202     67.0609     88.2145   1.0301547927e+02   5.0146873818e+01    0.2361837    0.1753493  -7.27   0.00132015    1.549    0.354
       168  -9.4178    136.5348     85.8850   8.2854613955e+01   3.8431616478e+01    0.3691273    0.1641597  43.75  0.001413286    2.251    0.556
       169 -10.4338    165.6826     83.4330   7.5477926417e+01   3.2377629031e+01    0.4194186    0.3398324 -68.85  0.001534923    1.369    0.269
       170 -11.4032    143.1825     83.9295   8.0706545243e+01   3.7360163911e+01    0.3533792    0.3202137 -53.51 0.0008642952    1.144    0.126
       171 -10.4674    127.3875     83.2985   8.4454422945e+01   4.0833102665e+01    0.3103437    0.2801373 -17.30  0.001256551    1.148    0.129
       172 -10.7211    109.2784     80.6061   8.8536092532e+01   4.4893362807e+01    0.3442921    0.2866646 -11.64  0.001064879    1.281    0.220
       173 -10.3945    232.4304     77.2477   6.2143840326e+01   1.8059258403e+01    0.4982958    0.2787673 -54.02  0.002335269    1.735    0.424
       174 -11.7295     14.0051     74.8289   1.1669700286e+02   5.7933970948e+01    0.4304339    0.2990459 -57.22  0.002025965    1.254    0.203
       175  -9.8486    134.7016     77.5656   8.1024830048e+01   4.0349687971e+01     0.317666    0.2099034  60.52  0.001277249    1.714    0.417
       176  -9.5820     33.2592     77.6495   1.1109240959e+02   5.5926895114e+01    0.2145797    0.1417978 -49.07 0.0007388653    1.257    0.204
       177 -11.6552     40.7913     70.6306   1.0687621594e+02   5.6571213515e+01    0.4990519    0.2387056 -45.82  0.001948338    1.730    0.422
       178 -11.2858     32.5134     71.9975   1.0996888140e+02   5.7078976933e+01     0.479724    0.2596758  24.90  0.002749469    2.086    0.521
       179 -10.5009     22.6259     36.7867   1.0370247322e+02   6.3992057434e+01     0.320915    0.2849718  42.01  0.002476007    1.759    0.432
       180 -11.4205     21.5213     46.9532   1.0714963613e+02   6.2445152782e+01    0.5679862    0.2695799 -28.68  0.001201309    2.003    0.501
       181 -10.4333     27.7226     47.1269   1.0493348547e+02   6.1910870451e+01    0.4583389    0.2291833 -11.60  0.002324739    2.699    0.630
       182 -11.1937     33.9373     43.1587   1.0146901344e+02   6.1991324483e+01    0.5024089    0.3554294 -19.29  0.002124492    1.187    0.157
       183 -11.0171     58.1196     62.0495   9.8739898549e+01   5.6210867326e+01    0.6134218    0.4807356  71.21     0.003506    2.311    0.567
       184 -11.3178     32.9752     58.8067   1.0637695520e+02   5.9455730030e+01    0.6313583    0.2872513   7.17  0.002214053    3.426    0.708
       185 -11.9757     25.8338     54.2531   1.0763813914e+02   6.0862655988e+01    0.9742644    0.4939998   5.68  0.005301901    2.481    0.597
       186 -11.4271     40.2169     56.3110   1.0315532506e+02   5.9203788101e+01    0.4721782    0.3524642  57.23  0.002856466    2.320    0.569
       187 -11.7704      1.9664     71.5240   1.1989882279e+02   5.9264586516e+01    0.5829685    0.1338908 -59.09  0.002540842    3.023    0.669
       188 -12.4766      6.5705     62.1887   1.1636685938e+02   6.0764740858e+01    0.7436547    0.3765804 -28.04  0.003000269    1.911    0.477
       189 -11.4932     46.2325     49.3552   9.8984883913e+01   5.9734572195e+01     0.461089     0.327883  -1.96  0.001564387    1.368    0.269
       190 -11.8030     41.7480     45.3236   9.9321530976e+01   6.0864690383e+01    0.3530267    0.2835734   9.16 0.0003784332    1.221    0.181
       191 -11.9519     50.6876     61.0531   1.0093458854e+02   5.7264162458e+01    0.2759034    0.2490018  19.14 0.0004905485    1.279    0.218
       192 -11.5110     46.1310     58.3365   1.0169868890e+02   5.8240135259e+01     0.464702    0.2607051 -43.26  0.002180517    1.561    0.360
       193  -9.6264    126.8643     76.8727   8.2801141030e+01   4.2116289029e+01    0.2143418    0.1896117   8.61 0.0002991125    1.199    0.166
       194 -10.4667     13.9587     67.1674   1.1500856136e+02   5.9394467678e+01    0.3451635    0.2530794 -15.53   0.00207561    1.368    0.269
       195  -9.6433    192.4988     65.7926   6.5820386604e+01   2.9116517931e+01    0.2756729    0.2131928  87.77 0.0008078529    1.355    0.262
       196 -12.1207    186.7000     70.4519   6.8000460143e+01   2.9718196449e+01    0.8245816    0.6101263 -46.27  0.003054097    1.373    0.272
       197  -9.7102    184.3283     61.0273   6.6075890659e+01   3.1798862471e+01     0.271205    0.2032813  70.46 0.0008534193    1.294    0.227
       198  -9.1817    211.6223     88.1710   6.7868811945e+01   2.0840931889e+01     0.198749    0.1368639 -31.78 0.0006024208    1.663    0.399
       199 -10.7930     53.0661     49.3148   9.6602339972e+01   5.8954919298e+01    0.8060698    0.5805595  86.75  0.003435196    4.989    0.800
       200  -9.4820    151.7094     73.4678   7.5890951666e+01   3.7332410174e+01    0.3428445    0.1198115  44.21  0.001144397    3.005    0.667
       201  -9.2641    199.2487    244.4319   1.0248976690e+02  -6.4765987834e+00    0.1851745    0.1093052  46.90 0.0009561051    1.660    0.398
       202 -10.7664    127.7381    242.6649   1.1627760714e+02   6.1343596498e+00    0.3522854    0.2133705 -67.15  0.001840724    1.913    0.477
       203 -10.1072    123.3309     72.9544   8.2602736410e+01   4.3532701028e+01    0.2580509    0.2478165  31.22 0.0005017468    1.034    0.033
       204 -11.7868    122.2521     68.3467   8.1560869566e+01   4.4543990205e+01    0.8125389    0.3354008  41.89  0.003175928    2.423    0.587
       205 -12.7151    115.9869     41.4533   7.5130112330e+01   4.9885200495e+01    0.8463243    0.6376427 -88.84  0.004435337    2.144    0.534
       206  -9.1267     68.3221    240.3203   1.2729048268e+02   1.5894448902e+01    0.1054358   0.09625289 -42.91 0.0007039827    1.672    0.402
       207  -9.4925    204.9920     72.4858   6.5312260249e+01   2.5090628015e+01    0.2038926    0.1195733  86.65 0.0006958997    2.477    0.596
       208 -11.6210     77.9746     97.3902   1.0203735500e+02   4.6757800928e+01    0.4125496    0.2469254 -54.02 0.0003209256    1.627    0.385
       209  -9.3601    170.2238     77.8026   7.3064238837e+01   3.2328348514e+01    0.2234695    0.1974933 -84.94 0.0007015533    1.177    0.150
       210  -9.9341    162.0303     70.6427   7.2888887248e+01   3.5456438198e+01    0.3336279    0.2446871  78.40  0.001311496    1.610    0.379
       211 -10.7534    171.6504     66.7478   6.9908652095e+01   3.3864384474e+01    0.5925401    0.3270725 -48.66  0.002605055    1.946    0.486
       212 -11.2798    113.2777     49.5482   7.8311518868e+01   4.9292678846e+01    0.5822809    0.3344708  33.73  0.002204428    1.812    0.448
       213 -11.3833    219.7567     66.4582   6.1613107867e+01   2.2678312467e+01    0.6838294    0.3414638  56.89  0.002603197    1.967    0.491
       214  -9.2507    208.3295     68.4244   6.3817792079e+01   2.4986491586e+01    0.2592717    0.1261198  55.09 0.0008812561    2.002    0.500
       215  -8.9600     70.3494     66.8505   9.6168476111e+01   5.3761646404e+01    0.1728583     0.105328 -34.19 0.0003767561    1.538    0.350
       216 -10.2108     21.3069     65.2522   1.1207116330e+02   5.9242354376e+01    0.2550564    0.2040405  80.69  0.001099606    2.037    0.509
       217  -9.8212     25.9711     65.2589   1.1048594088e+02   5.8883736688e+01    0.1857579    0.1402024 -30.42 0.0002333919    1.099    0.090
       218  -9.3617     53.4860     65.9307   1.0138718671e+02   5.6077499380e+01     0.227151     0.154493  46.45  0.001298424    1.985    0.496
       219 -10.4182    106.3098     63.7738   8.4493395705e+01   4.8414229858e+01    0.3604584    0.2626944  17.21  0.001907517    1.537    0.349
       220 -10.1762     98.9556     61.7897   8.5974713880e+01   5.0081288447e+01    0.4460578    0.2868812  -5.44  0.001733393    2.190    0.543
       221  -9.6277     84.7104     61.9935   9.0249643945e+01   5.2453735293e+01    0.2866266     0.242827 -19.68  0.001775725    1.095    0.087
       222 -11.0849     91.2444     62.8962   8.8557663631e+01   5.1231614591e+01    0.3938208    0.3626955  -0.12 0.0009712808    1.042    0.040
       223 -10.8769     91.5021     57.9246   8.6971500607e+01   5.2004718491e+01    0.3100107    0.2452039  33.25 0.0008926811    1.233    0.189
       224 -10.8812     87.6548     57.0803   8.7860049687e+01   5.2783265094e+01    0.4906002    0.2200848 -39.09  0.001758983    2.200    0.545
       225  -9.4731    198.3262     62.9743   6.4152967687e+01   2.8198306953e+01    0.2662604    0.1881751 -84.31  0.001296016    1.610    0.379
       226 -10.5013    159.3824     61.7829   7.1071063052e+01   3.7509029485e+01    0.4419813    0.2558207  41.25  0.001717983    1.846    0.458
       227  -9.0862    205.9885     61.7215   6.2623751708e+01   2.6605438857e+01    0.1950751    0.1660229  82.72 0.0004239933    1.083    0.076
       228  -9.4219    147.4421     60.6220   7.3312574502e+01   4.0404088897e+01    0.3420329    0.1327689  57.05  0.001243394    2.683    0.627
       229 -10.9380    140.2717     43.3012   6.9989086156e+01   4.4523011131e+01    0.5875197    0.3962477  17.68  0.001520138    2.014    0.503
       230 -10.8597    138.5788     32.8895   6.7348372070e+01   4.6228977061e+01    0.4971824    0.4589047  89.85  0.002108864    1.211    0.174
       231 -10.5530    133.7446     49.6820   7.3302854585e+01   4.5055021043e+01    0.3842022    0.2660141 -62.66  0.001252454    2.014    0.503
       232 -11.5801    156.0174     41.9103   6.6353661022e+01   4.1176003165e+01    0.5071498    0.3876203 -60.62  0.002804562    1.519    0.342
       233 -10.9003    153.1187     36.1561   6.5338930595e+01   4.2583435212e+01    0.2774132    0.2440808  74.99 0.0004076517    1.129    0.115
       234 -11.1504    157.6043     54.9697   6.9594472915e+01   3.8964100618e+01    0.5253424    0.4669989  75.34  0.003057776    1.124    0.110
       235 -10.9340    155.1426     49.5500   6.8617755807e+01   4.0319832439e+01    0.4049847    0.2693279 -16.46 0.0005755674    2.007    0.502
       236  -9.4645      1.8692     56.4265   1.1666239573e+02   6.2063737806e+01     0.187353    0.1170836 -48.66 0.0005748543    1.208    0.173
       237 -10.4560    234.6499     45.6224   5.5105951405e+01   2.2515297810e+01    0.4785734    0.2464162 -88.59  0.001993722    2.618    0.618
       238  -9.1601    237.6376     54.3149   5.6550129118e+01   2.0576483929e+01    0.2717549    0.1776415 -70.67 0.0007672249    1.528    0.346
       239  -9.9911    244.7903     50.8136   5.4965680242e+01   1.9551020346e+01    0.2486259    0.1700755 -53.64 0.0008282926    1.321    0.243
       240 -10.9840    240.1893     50.3138   5.5409307548e+01   2.0618187725e+01    0.3486877    0.2814524  85.32 0.0005894933    1.123    0.109
       241  -9.6594    188.0335     55.1165   6.3962809192e+01   3.1833400781e+01    0.2898472    0.1686354  56.19  0.001373738    1.604    0.376
       242  -9.8868     66.9589     54.5818   9.3584096431e+01   5.6317494779e+01    0.2543149     0.172799 -48.07 0.0008712074    1.653    0.395
       243 -10.5827    149.2166    238.0565   1.1138521967e+02   3.2888270383e+00    0.3733425    0.1668692  33.76  0.001527827    2.532    0.605
       244 -10.5822    197.8969    232.8125   1.0083571107e+02  -4.3445465841e+00    0.3361923    0.2763918 -70.33  0.001959948    1.649    0.394
       245 -11.3697     48.4341     30.6376   9.2091436609e+01   6.2286490482e+01    0.5811309    0.2216839  29.23  0.002465941    2.711    0.631
       246 -11.6365     57.1700     31.5528   8.9343101137e+01   6.1062290782e+01    0.3340596    0.2666689  -3.75  0.001813102    1.022    0.022
       247  -9.7113    249.0194     52.9826   5.4910096208e+01   1.8326422046e+01    0.2188978    0.1331772 -72.91 0.0006508073    1.704    0.413
       248  -9.9062    210.6237     52.9821   5.9903004308e+01   2.6869759358e+01    0.2908744    0.1715768  56.50  0.000949507    1.649    0.393
       249 -11.1396    201.9580     47.1230   5.9826313830e+01   2.9740070916e+01    0.6911424     0.369853 -51.54  0.003238355    1.947    0.486
       250 -10.8367    174.1073     48.1419   6.4627818801e+01   3.6127152611e+01    0.5234622    0.3857856  73.31  0.002473702    1.337    0.252
       251  -9.7958    176.4422     43.3197   6.2983009445e+01   3.6252903888e+01    0.3383246    0.2151987  81.83  0.001624652    1.832    0.454
       252 -10.7708    136.5114     56.3386   7.4585027256e+01   4.3474712308e+01    0.5394496    0.3705936  -2.58  0.001678036    2.085    0.520
       253 -10.2450     90.8768     47.7780   8.3987345981e+01   5.3674178096e+01    0.2670414    0.2090219 -35.73 0.0009327114    1.345    0.257
       254  -9.5310      2.1668     48.5657   1.1466254428e+02   6.3429674535e+01    0.2298902    0.1899051 -36.56  0.001788638    1.160    0.138
       255  -8.6239      2.6729     44.6847   1.1348633317e+02   6.4064211435e+01    0.1600605   0.08705875  -4.17 0.0007084905    2.009    0.502
       256  -9.1796      6.4094     43.4006   1.1175651546e+02   6.4067608929e+01    0.2303075    0.1570926 -40.07  0.001550612    1.122    0.109
       257 -10.7207     16.1736     43.5099   1.0814238269e+02   6.3412755499e+01    0.7230088    0.2308643 -29.61  0.002842309    4.342    0.770
       258  -9.6390    209.5053     47.4301   5.8797905280e+01   2.7943009710e+01    0.2692638     0.121079  62.95  0.001103343    2.065    0.516
       259  -9.3719    193.3213     45.6942   6.0804895122e+01   3.1963264709e+01    0.2880735    0.1686192 -86.45  0.001244785    2.353    0.575
       260  -9.7482    162.6813     44.0752   6.5659767034e+01   3.9352765934e+01    0.2566908    0.2152801  75.07 0.0007915042    1.166    0.143
       261  -9.7467     15.0879    233.7458   1.3598387098e+02   2.3763937242e+01     0.203294    0.1285107 -78.65 0.0008437457    1.329    0.247
       262  -9.5542    101.3946     44.2467   7.9861008052e+01   5.2311195357e+01    0.2740641    0.2088099 -49.17  0.001581418    1.632    0.387
       263 -11.1105     94.6817     41.3210   8.0814863339e+01   5.3929829492e+01     0.605197    0.2710854  46.41  0.002810188    2.168    0.539
       264 -10.7184    189.0573     41.5498   6.0469721955e+01   3.3537478440e+01    0.4137075    0.2026057 -33.26 0.0009001807    2.313    0.568
       265  -9.5324     87.4631     27.5053   7.8330868270e+01   5.6961956403e+01    0.3969947    0.1525833 -21.94  0.001557875    3.742    0.733
       266 -10.6881     80.8292     39.8058   8.4429503327e+01   5.6477765256e+01     0.516847    0.2901207  41.25  0.002794757    1.739    0.425
       267 -10.8024     77.4678     34.3585   8.3652305418e+01   5.7749014631e+01    0.3734581     0.265579  39.30  0.001105522    1.402    0.287
       268 -10.3931     82.0081     31.5129   8.1299556596e+01   5.7385885087e+01    0.3646503    0.2969623  52.01  0.002360268    1.523    0.343
       269 -10.3680    231.6746     39.5075   5.4189469914e+01   2.4038021994e+01    0.2599762    0.1869165 -76.12 0.0005954994    1.281    0.219
       270  -8.8450    217.9837     38.9974   5.5769101194e+01   2.7183243338e+01    0.1615896    0.1379192 -84.07 0.0006405823    1.021    0.021
       271 -11.2578    176.0565     36.1414   6.1223501987e+01   3.7296276459e+01    0.6297759    0.4325537 -86.00  0.002388002    1.709    0.415
       272  -9.9170    182.4865     32.0555   5.9170399716e+01   3.6315555932e+01    0.2101741    0.1706227  52.43 0.0004828016    1.234    0.190
       273  -9.5169     23.5510    231.7861   1.3443581554e+02   2.3243572196e+01    0.2142848    0.1058007  58.73 0.0009718105    1.753    0.430
       274 -10.3531    176.6409     29.9550   5.9566809277e+01   3.7936020275e+01    0.3779251    0.2244603  52.19  0.001263808    1.567    0.362
       275 -11.5531    182.8037     25.1833   5.7437731542e+01   3.7077761591e+01    0.5908208     0.291646  51.64  0.002824068    1.921    0.479
       276  -9.8991    206.9238     37.2580   5.6845890321e+01   2.9955407545e+01    0.2397691     0.195132 -73.90 0.0006150347    1.154    0.133
       277  -9.5458    133.1936     36.9360   6.9692828531e+01   4.6894834783e+01    0.3578053    0.2469442 -79.87  0.001730354    2.367    0.577
       278  -8.7792     93.9909     35.9727   7.9275038675e+01   5.4766552991e+01    0.1722222    0.1538944  82.07 0.0006804543    1.614    0.380
       279 -10.1880      4.9881     35.7135   1.1015391333e+02   6.5405151466e+01    0.3959944    0.1818642  15.64  0.002458964    2.371    0.578
       280  -9.1934      8.4927     29.5215   1.0693057604e+02   6.6149575446e+01    0.5254599    0.2502409 -17.19  0.003087043    2.226    0.551
       281  -9.8023    247.0962    231.3357   9.1223906563e+01  -1.2085261335e+01    0.1718623    0.1438823  14.35 0.0004987658    1.078    0.072
       282 -10.3036    242.5285    231.2533   9.2043179915e+01  -1.1385398128e+01    0.2613193    0.1436981  47.90  0.001310376    2.225    0.551
       283  -9.1706    181.3071    228.3133   1.0339230914e+02  -6.4123785081e-01    0.1337027    0.1028309   5.16 0.0006159425    1.623    0.384
       284  -9.6836    234.2847    222.6071   9.2021543766e+01  -8.7629362945e+00    0.1775908    0.1115349  27.70 0.0009423505    1.566    0.361
       285 -10.6627     31.2958     28.0047   9.7522472348e+01   6.4515004084e+01    0.2671291    0.1625875 -31.33  0.001369083    1.377    0.274
       286  -9.3626      9.8357    217.8246   1.3575819333e+02   2.7519227794e+01    0.1601389   0.09851605  78.29 0.0005806196    1.295    0.228
       287 -10.3234    165.3274    212.5154   1.0401429850e+02   5.2774459279e+00    0.2996945    0.2034633  68.21  0.001076889    1.915    0.478
       288 -10.9088    240.4660     31.9943   5.1671914126e+01   2.3138941013e+01    0.4863451    0.4075034 -49.73  0.003202382    1.310    0.237
       289 -10.5442    103.9395     57.9505   8.3402678757e+01   4.9797403721e+01    0.5281596    0.3618648 -24.01  0.002814264    1.548    0.354
       290  -9.5929    152.7594    207.7824   1.0587439528e+02   8.5953292828e+00    0.1985894    0.1621554  72.59  0.001058111    1.321    0.243
       291 -12.3224    105.9339     20.1548   7.0914309589e+01   5.4412742202e+01    0.2545674    0.2239517  -4.03 0.0003564689    1.188    0.158
       292 -12.2522    105.7621     33.0028   7.5101895703e+01   5.2972255066e+01    0.5176371    0.2951448  19.55    0.0016301    2.365    0.577
       293  -9.2201     61.0285    207.0249   1.2520581240e+02   2.3931799721e+01    0.2038651    0.1273579  73.27 0.0005198884    1.579    0.367
       294  -9.7993    248.7269     33.2272   5.1049538964e+01   2.1207218687e+01     0.275741    0.1504625 -48.59  0.001502011    1.668    0.401
       295  -8.9721    161.5154     23.4819   6.0389711483e+01   4.2182469695e+01    0.1907282    0.1750764  67.32 -4.345138e-05    1.061    0.057
       296 -11.1370    160.2873     29.3575   6.2164456583e+01   4.1783613252e+01    0.4678945    0.2380592 -22.62   0.00212195    2.619    0.618
       297 -11.9700    164.1833     27.7284   6.1053127010e+01   4.1083106574e+01    0.4461943    0.3315746  -2.62 0.0002936348    1.855    0.461
       298 -10.3462     68.6239     32.8028   8.5938300968e+01   5.9300622299e+01    0.3542066    0.2428675  37.95  0.002215276    1.481    0.325
       299  -9.4243    216.5818     32.3914   5.4508090568e+01   2.8387977134e+01    0.2216964    0.1636455  33.66  0.001008492    2.019    0.505
       300 -10.7027      4.7680    203.6266   1.3560879830e+02   3.0950709312e+01    0.4652339    0.1037639 -64.54   0.00200146    3.296    0.697
       301 -10.6470    189.4436     28.7640   5.7327657649e+01   3.5104263847e+01    0.5020889    0.2777499 -28.86  0.002476121    2.214    0.548
       302  -9.5227    148.1486     31.8128   6.5100623337e+01   4.4240100439e+01    0.1946623    0.1681519  73.52 0.0007963586    1.162    0.139
       303 -11.2579     60.7709     36.1535   8.9685318204e+01   5.9949954928e+01    0.3371163    0.1940671 -29.39  0.001367701    1.628    0.386
       304 -10.1857    230.8746     27.8506   5.1877918287e+01   2.5778072838e+01    0.3782237     0.210428 -54.72  0.001972003    1.710    0.415
       305  -9.4900    221.3872     29.4537   5.3294968078e+01   2.7684029796e+01    0.2114885    0.1857684 -69.37 0.0006230882    1.148    0.129
       306  -9.0063    204.3334     30.6771   5.5703546972e+01   3.1414413377e+01    0.1390117   0.08892509 -74.99 0.0007050383    1.706    0.414
       307 -11.0398     98.4806     27.3145   7.5188943419e+01   5.5021932779e+01    0.3211591    0.2414535 -37.43 0.0006217687    1.544    0.352
       308 -10.4301    144.6904     25.2430   6.3927612826e+01   4.5776286893e+01    0.5095444    0.2756993  66.48  0.002468192    1.880    0.468
       309  -9.8520    238.5742    204.2686   8.7811595088e+01  -6.4540325470e+00    0.2479482    0.1218048 -43.30  0.001134948    2.048    0.512
       310 -10.1142     16.6951    203.5281   1.3344034965e+02   2.9842581151e+01    0.3113058   0.06317849 -66.62  0.001229916    3.498    0.714
       311 -10.5865    245.4663    200.9786   8.5915144885e+01  -7.0378224376e+00    0.1987187     0.170662  22.44 0.0007152064    1.157    0.135
       312  -9.9388    157.5041     20.5803   6.0304633044e+01   4.3415283400e+01     0.491252    0.1839759  58.48  0.002104711    2.205    0.546
       313  -9.0276     66.5540     27.9905   8.4951730999e+01   6.0226347923e+01    0.2683573    0.1260128  24.01  0.001276934    2.530    0.605
       314 -10.1460    250.5834     26.4712   4.9570549081e+01   2.1715074781e+01    0.2562014    0.1114902 -38.30 0.0006188715    2.383    0.580
       315  -8.8818     41.6105     27.1543   9.3357117309e+01   6.3552582913e+01     0.140624   0.08578337 -22.40 0.0002911664    1.445    0.308
       316  -9.9054    206.0963     18.0919   5.2670513672e+01   3.2542494114e+01     0.420482    0.2065743 -78.50  0.001760383    2.945    0.660
       317 -10.6750    214.2959     23.8035   5.2929217731e+01   2.9997341347e+01    0.3461774    0.3316205  -5.77  0.001960144    1.440    0.305
       318 -10.3994    211.3237     18.7797   5.2197785077e+01   3.1275222277e+01    0.2346614    0.1807401  75.71 0.0002870919    1.118    0.106
       319  -9.2804    169.3848     23.7951   5.9167115855e+01   4.0342169365e+01    0.2224844    0.1373954  58.39   0.00118857    1.397    0.284
       320  -9.5581     80.3988     19.1744   7.7534653429e+01   5.9107861962e+01    0.4686569    0.1270162  43.75  0.001910117    3.186    0.686
       321  -8.7456    207.3166    201.3306   9.3294570379e+01  -4.3301242548e-01    0.1438475    0.1067067  -0.36 0.0007046612    1.684    0.406
       322  -8.6705      1.3206    200.2990   1.3597679957e+02   3.1956547128e+01    0.1030665   0.07256193 -58.48 0.0004609842    1.621    0.383
       323  -9.7136     86.1887     23.6275   7.7381186014e+01   5.7633807884e+01    0.1711798    0.1063794  43.00 0.0001191975    1.476    0.323
       324 -10.1660    233.7456    197.1387   8.7344697683e+01  -4.4077235297e+00    0.3559096    0.2533455 -26.16  0.001192775    1.408    0.290
       325 -10.3895    242.6839     22.0929   4.9503596239e+01   2.3949971149e+01    0.3318757    0.1692586  62.28  0.001775346    1.882    0.469
       326  -9.5391    223.9095     22.4719   5.1542112874e+01   2.8001824012e+01    0.3552177    0.1823652  87.69   0.00169549    2.137    0.532
       327 -12.3718      5.2222    185.3958   1.3408002326e+02   3.4801712205e+01    0.7995318    0.4424332 -88.94  0.004495666    1.499    0.333
       328 -10.0182    239.8696    184.6436   8.3751724329e+01  -3.2597494672e+00    0.2315688    0.1747508 -26.01 0.0006040842    1.290    0.225
       329 -10.4077     47.1519     19.2274   8.8491592748e+01   6.3920903536e+01    0.2855797    0.2037115   5.55  0.001342395    1.179    0.151
       330 -10.2375    212.5488    181.4581   8.8339329747e+01   2.3608063392e+00    0.3734627     0.234961   0.36  0.001422148    3.019    0.669
       331  -9.9740     38.7153     21.8356   9.2545560766e+01   6.4578315023e+01    0.2665882    0.1615262 -23.05  0.001181907    1.431    0.301
       332  -9.3805    250.3086    179.1853   8.0786607685e+01  -4.0957861325e+00    0.2811939    0.1098937 -34.88  0.001085232    2.626    0.619
       333  -9.9055     51.9033    173.5318   1.2306284764e+02   3.2722860305e+01    0.3832015    0.1735324 -79.23  0.001597407    2.558    0.609
       334  -9.6984     28.7440    175.8141   1.2840436603e+02   3.4753175682e+01    0.1802755    0.1750083  -8.42  0.001312578    1.441    0.306
       335  -9.9111    169.1979    191.6298   9.9412980253e+01   8.8050270503e+00    0.2563452    0.1789962  35.54 0.0005647865    1.464    0.317
       336 -10.2882     74.2200     19.4609   7.9504359250e+01   6.0077152311e+01    0.2259085    0.1771992  20.44 0.0008476702    1.063    0.059
       337  -8.8257    230.4562    175.4924   8.3658613413e+01   1.1247946411e-01    0.1396979    0.1297654 -20.83 7.604803e-05    1.010    0.009
       338  -8.9310    224.6598    175.6678   8.4794359726e+01   1.1643387300e+00    0.1479005    0.1091892  -1.50 0.0007051541    1.747    0.428
       339  -9.0704     57.2792    174.9655   1.2204329254e+02   3.1726354549e+01    0.1835036    0.1490846 -76.62  0.000404351    1.055    0.052
       340  -9.9379    247.5965    173.9397   8.0216171308e+01  -2.6946649629e+00    0.4530314     0.189513  29.46  0.001483904    4.380    0.772
       341  -9.6326     39.4159    173.7623   1.2586543919e+02   3.4103720712e+01    0.1834573    0.1583081  67.66  0.000791774    1.203    0.169
       342 -10.5739     35.6438    170.8739   1.2634617367e+02   3.5169818707e+01    0.3699291    0.1910314 -84.84  0.001813864    2.002    0.501
       343  -8.4774    170.6581    172.2757   9.5277832719e+01   1.2650798808e+01     0.153127    0.1182194  78.33 0.0004004483    1.620    0.383
       344 -11.0797     10.5745    127.6851   1.2673013177e+02   4.7116703313e+01    0.5199603    0.2225932 -58.22  0.002419362    1.748    0.428
       345  -9.4255    115.3363     17.8275   6.7918419239e+01   5.2800218060e+01    0.2152943    0.1632291  43.25  0.001350749    1.122    0.109
       346 -11.0448     15.5594    147.8342   1.2810212364e+02   4.2264627953e+01    0.5213112    0.2863558  84.25  0.002139301    2.086    0.521
       347 -11.6932     12.4753    139.2223   1.2776661496e+02   4.4427654749e+01    0.9692986    0.4774516 -82.38  0.004989284    2.042    0.510
       348 -11.8793      9.8336    166.5700   1.3142425091e+02   3.8544654331e+01    0.5760887    0.3335018 -69.54  0.002543849    1.338    0.253
       349 -11.3676     14.0382    158.3947   1.2966234993e+02   4.0021202665e+01    0.5365518    0.2383687 -60.06  0.002859425    1.805    0.446
       350 -11.0041     21.2880    150.6923   1.2712664324e+02   4.1144523073e+01    0.2215303    0.1677135 -78.93 0.0002278746    1.087    0.080
       351 -11.5728     24.0125    148.5287   1.2621801184e+02   4.1397568365e+01    0.2831339    0.2176761 -61.73 0.0003912281    1.148    0.129
       352  -9.8146    219.8869     12.6204   4.9943740349e+01   3.0069033238e+01    0.3361323    0.1203123  64.96  0.001516566    2.345    0.573
       353  -8.9394    197.8421    167.8718   8.8523703061e+01   7.9968393260e+00    0.2021711    0.1767531 -78.16 0.0006822786    1.309    0.236
       354  -9.8059     40.4004    163.7978   1.2439464174e+02   3.6293254485e+01    0.5187395    0.1354402 -68.21  0.001804297    3.554    0.719
       355 -10.1899     18.7456    165.2055   1.2938334302e+02   3.8090961608e+01    0.2520559    0.2258035 -35.51  0.001820015    1.477    0.323
       356  -9.7903    208.7242    162.7317   8.5218815964e+01   6.8270714529e+00    0.5949218    0.1581969 -47.32  0.001711546    3.943    0.746
       357  -9.8761    188.8738    164.1677   8.9623764078e+01   1.0618834521e+01     0.321615    0.2134772 -38.32 0.0008894777    1.560    0.359
       358 -10.4923     28.4218    162.4073   1.2693227417e+02   3.7831890481e+01    0.5046085    0.1675955 -68.58  0.002161353    2.465    0.594
       359  -9.6195    204.9620    163.0006   8.6033622687e+01   7.5389716538e+00    0.2227092    0.2167922  -6.56 0.0005849462    1.040    0.038
       360 -10.3970    246.3852    158.9822   7.7383833156e+01   2.4613946495e-01    0.3342159    0.1226162 -41.43  0.001264604    2.487    0.598
       361  -9.4278     79.1995    160.1920   1.1464214208e+02   3.2233826985e+01    0.2023916    0.1540655  87.13  0.001074811    1.384    0.277
       362  -9.5882    215.3016    158.1778   8.2948553985e+01   6.4075539608e+00     0.288417    0.2228675 -15.50  0.001178641    1.560    0.359
       363  -9.0351    224.1212    156.8286   8.0968622438e+01   4.9065058571e+00    0.2016904    0.1716608  -8.24 0.0007183311    1.327    0.246
       364 -10.4254    105.0844    154.4848   1.0720249352e+02   2.9466146161e+01    0.4426322    0.3929579 -60.63  0.002442988    1.080    0.074
       365 -10.1427      8.7993    156.2242   1.3057515093e+02   4.0923194035e+01    0.2778305    0.1415265 -62.35  0.001600726    1.551    0.355
       366 -10.0127     23.1838    155.3686   1.2726466024e+02   3.9918838596e+01    0.2692262    0.1918633  37.25   0.00172343    1.671    0.401
       367 -10.9238     31.3107    153.0967   1.2509819467e+02   3.9683908060e+01    0.4841176     0.283381 -78.17   0.00265875    1.543    0.352
       368 -11.8895      3.7337    147.4134   1.3074489634e+02   4.3245767002e+01    0.7196099    0.3889056 -74.28  0.004296303    1.432    0.302
       369 -10.9580      5.2859    141.5874   1.2973778324e+02   4.4421404216e+01    0.2988747    0.2192237   3.49  0.001673631    1.974    0.493
       370 -12.3094      4.0163    137.0548   1.2950360738e+02   4.5504673075e+01    0.3515328    0.1770579 -57.40  0.000341761    1.577    0.366
       371  -9.6078     70.9119    151.4983   1.1521628395e+02   3.5468147532e+01    0.3183728    0.1310065  37.26  0.001111888    2.605    0.616
       372  -9.6846     47.8870    151.8736   1.2096532845e+02   3.8242049688e+01    0.2856481    0.2489983  33.86  0.001108455    1.377    0.274
       373 -10.9222     47.9686    147.8282   1.2033378280e+02   3.9175679350e+01    0.5558899    0.3617961  17.33  0.002970825    2.142    0.533
