#   1 NUMBER                 Running object number                                     
#   2 MAG_AUTO               Kron-like elliptical aperture magnitude                    [mag]
#   3 X_IMAGE                Object position along x                                    [pixel]
#   4 Y_IMAGE                Object position along y                                    [pixel]
#   5 X_WORLD                Barycenter position along world x axis                     [deg]
#   6 Y_WORLD                Barycenter position along world y axis                     [deg]
#   7 A_WORLD                Profile RMS along major axis (world units)                 [deg]
#   8 B_WORLD                Profile RMS along minor axis (world units)                 [deg]
#   9 THETA_WORLD            Position angle (CCW/world-x)                               [deg]
#  10 FWHM_WORLD             FWHM assuming a gaussian core                              [deg]
#  11 ELONGATION             A_IMAGE/B_IMAGE                                           
#  12 ELLIPTICITY            1 - B_IMAGE/A_IMAGE                                       
         1 -11.4262     89.5617     28.6826   4.4758049857e+01   5.7410341280e+01    0.4706813    0.3299552 -16.46  0.002580127    1.719    0.418
         2 -11.6202      6.3619     35.5706   8.4810610421e+01   7.0361760757e+01    0.5481406    0.4295747 -72.77  0.003366473    1.877    0.467
         3 -11.4609     78.2246     29.7350   4.8404028710e+01   5.9781116874e+01     0.553635    0.3990812 -61.95  0.001134171    1.956    0.489
         4 -11.3489      7.4527     17.0049   7.5885808300e+01   7.3452070469e+01    0.6190711    0.3719483  -7.36   0.00210541    1.659    0.397
         5 -10.9271     15.9150      9.7389   6.6382025957e+01   7.3478686878e+01    0.3470902    0.2125029  -0.08  0.001010555    1.733    0.423
         6 -10.6082     14.1109      3.7048   6.4013186179e+01   7.4479357086e+01    0.4287335    0.2384471  31.07  0.002563681    1.530    0.346
         7  -9.7056     24.6075      6.8361   5.9557230598e+01   7.2569930836e+01     0.184499    0.1509083 -34.69 0.0007209547    1.581    0.367
         8 -10.4723     20.5121      5.2347   6.0977609364e+01   7.3379714967e+01    0.2640303    0.1633073  36.03 0.0008653339    1.424    0.298
         9  -9.2233    152.6244     13.1216   2.8574288978e+01   4.4373270919e+01    0.3215568    0.1503733 -50.15  0.001602973    2.137    0.532
        10 -10.7426    152.0626     18.1206   2.9972343673e+01   4.4000697956e+01    0.2996857    0.2314147  58.02 0.0002583777    1.340    0.254
        11 -12.3197    105.0275     20.9208   3.8302052480e+01   5.4715596746e+01    0.2831936    0.2649085  33.40 0.0004289254    1.175    0.149
        12 -11.2097    133.5149     21.4953   3.3437472422e+01   4.7966506940e+01    0.4269777    0.2648525  78.11  0.001434079    1.497    0.332
        13 -10.5624     26.2920     21.8599   6.6628527965e+01   7.0378045800e+01    0.3410539    0.2291817   0.99  0.001625315    1.514    0.339
        14 -10.5776    238.1419     17.2382   2.2534863819e+01   2.6325106398e+01    0.2961212    0.2190985 -14.25  0.001531834    2.359    0.576
        15 -12.0009     62.1414     16.9178   4.8201041006e+01   6.4626370721e+01    0.7077661      0.25166  48.95 0.0002795994    2.286    0.563
        16 -11.3834     69.8921     11.5899   4.3359534507e+01   6.3530569788e+01    0.2411671    0.2385979 -44.36 0.0003662951    1.227    0.185
        17 -11.0069    174.2081     12.6940   2.6262819893e+01   3.9575067547e+01    0.4533426    0.2819356 -42.88  0.002665552    1.566    0.361
        18  -9.3218    209.6992     14.1760   2.3753214292e+01   3.2007474618e+01    0.2861178    0.1480689 -21.41  0.001455257    3.114    0.679
        19 -10.8586    125.3380     12.4840   3.1946437878e+01   5.0774166582e+01    0.4247547    0.2811384 -72.72 0.0008764836    1.639    0.390
        20  -9.4450    195.0491     15.0534   2.5022167944e+01   3.4881662961e+01    0.2163451    0.1382918 -68.26 0.0003839752    1.325    0.245
        21  -9.7093    184.8117      5.9676   2.3820440248e+01   3.7953899286e+01    0.3452021     0.126057 -49.66  0.001333298    2.372    0.578
        22  -9.7053    180.5037      1.8269   2.3216608821e+01   3.9263308634e+01    0.2901122    0.1483467  85.67   0.00150738    1.705    0.414
        23  -9.5133    191.6994     11.3893   2.4487154763e+01   3.5962001482e+01    0.2487628    0.1449277 -62.32  0.001024521    1.481    0.325
        24 -10.4134    191.4070      7.5251   2.3666991392e+01   3.6413771044e+01    0.3936804    0.2042994 -72.28  0.001478391    1.774    0.436
        25 -10.3706    145.5519     12.9030   2.9344562798e+01   4.6020967230e+01    0.4257263    0.2237784  79.97  0.001760863    1.744    0.427
        26  -9.2883    117.2241     14.8162   3.3971011094e+01   5.2461283151e+01    0.1922378    0.1852688 -55.27  0.001315253    1.194    0.162
        27 -11.2819    133.0441     12.5903   3.0872390448e+01   4.8959390261e+01    0.2365537    0.2094472 -78.35 0.0002905085    1.113    0.102
        28  -9.6105    200.1522     12.2212   2.4028910993e+01   3.4131246495e+01    0.2295875    0.1603236 -34.37  0.001041006    1.604    0.376
        29 -10.0989    178.0340      9.2454   2.5114309783e+01   3.9085958421e+01    0.2335858    0.1678215  72.20 0.0007026988    1.319    0.242
        30  -8.2118    103.5051      7.4932   3.3906811456e+01   5.6317791054e+01    0.1270022    0.1051778  63.16 0.0008104135    1.033    0.032
        31  -9.2229     97.8671      6.4028   3.4572987409e+01   5.7712669853e+01    0.2040761    0.1611909  38.83 0.0007063033    1.307    0.235
        32  -9.9312    107.4944      7.3705   3.3157158261e+01   5.5400014701e+01    0.2883691    0.1983957  70.66 0.0006777511    1.235    0.190
        33  -9.5773    107.2303      2.5101   3.1545094947e+01   5.5850698009e+01     0.375326    0.1400909  45.08  0.001598749    2.853    0.649
        34  -8.7104     97.2797      9.6557   3.5871971673e+01   5.7575743927e+01    0.2034564    0.1137093 -39.17 0.0003787775    2.045    0.511
        35  -9.2659     97.0997     12.8354   3.7069591828e+01   5.7335783934e+01    0.1891086    0.1806305  33.90 0.0005031407    1.167    0.143
        36 -10.1537    101.3494     11.0907   3.5582111351e+01   5.6509541155e+01    0.3655452    0.2031993  53.71  0.001397608    1.531    0.347
        37  -8.6672     32.6526     11.7152   5.7982617518e+01   7.0711007649e+01    0.2263481    0.1449843   6.14  0.001289161    1.711    0.416
        38  -8.6385     29.4491     10.9899   5.9245224444e+01   7.1320052543e+01    0.2057225    0.1539901 -42.43 0.0004017912    1.811    0.448
        39  -9.7642     55.0253      9.0489   4.7040206050e+01   6.6858160404e+01    0.3375855    0.2629631 -58.93  0.001439634    1.885    0.470
        40  -8.9385     87.9728      6.3200   3.6572692975e+01   5.9984804974e+01    0.1746771    0.1565472  44.41 0.0009039703    1.123    0.110
        41  -9.1245     89.7261      9.6745   3.7477880098e+01   5.9305106346e+01    0.1986793    0.1486399  48.60 0.0003943723    1.182    0.154
        42  -9.1596     93.0362      8.5113   3.6322150782e+01   5.8648636655e+01    0.2289876    0.1584486  81.17  0.001062051    1.490    0.329
        43 -10.5549      7.9214      9.2463   7.1418623701e+01   7.4544624833e+01    0.2270757    0.1532807  24.96 0.0005549376    1.353    0.261
        44  -9.7204      2.5660      6.8950   7.3946230256e+01   7.5465409580e+01    0.2763954    0.2344132 -28.94  0.001522012    1.423    0.297
        45  -9.7266      5.2397      2.0987   6.9121152675e+01   7.5815657463e+01    0.2756059    0.1603135  19.80 0.0009023694    1.468    0.319
        46  -9.9279    212.1637      8.4786   2.2445145111e+01   3.2122417458e+01    0.2059161    0.1805993  77.12  0.001050374    1.395    0.283
        47 -11.3445    207.6111      3.1560   2.1664782852e+01   3.3554846300e+01    0.5460793    0.2249762 -73.21  0.002483174    2.410    0.585
        48  -9.3074    151.3520      4.4425   2.6417484039e+01   4.5469737931e+01    0.4262179    0.2959711 -86.15  0.002671376    1.247    0.198
        49 -12.1748    160.1344      2.0353   2.4950733902e+01   4.3700933019e+01    0.4460299    0.3344065 -80.69  0.002986998    1.113    0.101
        50 -10.3198    156.1808      3.5681   2.5709676055e+01   4.4453351658e+01    0.1917041    0.1607429 -84.99 0.0004710233    1.051    0.049
        51  -9.7961     45.2317      6.4376   4.9475624828e+01   6.9020419094e+01    0.4380877      0.21045 -12.18  0.002086549    2.816    0.645
        52 -11.6620     77.0845      3.4773   3.7952826905e+01   6.2653059780e+01    0.6394827    0.3550532  70.18  0.002691212    1.753    0.429
        53  -8.7110     69.4363      2.4582   3.9487947476e+01   6.4407144253e+01    0.1699496    0.1051367  66.70 0.0005292228    1.524    0.344
        54  -9.7918    138.5545      6.8835   2.8510320646e+01   4.8194406523e+01    0.2511352    0.1476225  73.86 0.0005777602    1.433    0.302
        55 -10.1970    135.8997      2.4495   2.7563836323e+01   4.9186432974e+01    0.3233595    0.2011576 -64.83  0.001863064    1.649    0.394
        56  -8.9560     48.4219      6.8130   4.8400393164e+01   6.8372229351e+01    0.1611215    0.1075045   1.93 0.0009399922    1.699    0.411
        57  -9.0639    170.7500      5.9621   2.4967220665e+01   4.0990763297e+01    0.2304268    0.1033419  54.34  0.001110777    2.498    0.600
        58  -8.5545    112.5186      6.5179   3.2032456313e+01   5.4298794691e+01    0.1257985    0.1049222  71.83 9.088875e-05    1.000    0.000
        59 -11.3859    218.1227      3.3559   2.1087909326e+01   3.1492629710e+01    0.2764019    0.2046272 -84.59 0.0009814341    1.162    0.139
        60 -10.9784    195.8459      3.6401   2.2519910463e+01   3.5877456944e+01     0.291659    0.1790365  76.43 0.0004456377    1.479    0.324
        61  -9.9495     38.5079      4.2902   5.1195303334e+01   7.0477468263e+01    0.3579865    0.1784722  23.47  0.001738439    2.394    0.582
        62  -8.7357     42.3036      1.2909   4.7962835891e+01   7.0045555959e+01    0.1797819   0.09598387  39.26  0.000252024    1.539    0.350
        63 -10.3387    238.2375      3.6718   2.0092136019e+01   2.7756162280e+01    0.3093669    0.1373648  63.32  0.001845194    2.647    0.622
        64 -10.3120    232.0428      2.6141   2.0208920298e+01   2.8975699893e+01    0.2292063    0.1410552 -71.17  0.000363894    1.243    0.196
        65 -10.1064    115.9674      2.4552   3.0177083722e+01   5.3820869487e+01    0.2614262    0.1769247 -49.90 0.0009429987    1.629    0.386
        66 -10.7383     30.7157      2.8760   5.4070849133e+01   7.1992923887e+01    0.2702575    0.2435654 -77.96  0.001643469    1.859    0.462
        67 -10.4631    249.9701      1.5761   1.9188222286e+01   2.5936057899e+01    0.1565417     0.099671 -73.43  0.001195104    1.202    0.168
        68  -9.3889    142.1320      1.9002   2.6706279711e+01   4.7795524382e+01    0.1931489    0.1393676 -78.57 0.0007485076    1.259    0.205
        69  -9.9529     90.9668      1.8194   3.4223894102e+01   5.9653379335e+01    0.2757897    0.1564721  82.04  0.001320321    1.913    0.477
        70  -9.4655     23.4776      1.4094   5.7015831901e+01   7.3340047843e+01    0.1651569   0.09564423  40.03  0.000948467    1.486    0.327
        71 -10.5481      6.4596    120.5505   1.0410183562e+02   5.0429331812e+01    0.4260081    0.2163684  41.17  0.001914803    2.194    0.544
        72 -10.9683    200.7177    249.0968   7.1571233101e+01  -4.5597717793e+00    0.3605541     0.269169  42.71  0.002282219    2.021    0.505
        73 -10.5960    115.7672    248.3537   8.9305889072e+01   6.0258739827e+00    0.2671356    0.2464974 -48.01  0.001681045    1.268    0.211
        74  -9.6563    221.3365    119.6237   4.4359182037e+01   1.4665459785e+01    0.2222587    0.2015434 -34.19 0.0006534418    1.140    0.123
        75 -10.4338     28.3130    117.6555   9.5374085112e+01   4.9482259481e+01    0.5120167    0.2626208 -82.18   0.00198886    2.479    0.597
        76  -8.9148     93.9713    119.0390   7.2225326147e+01   3.9613751611e+01    0.2431367     0.188648 -12.70  0.000654853    1.594    0.373
        77  -8.8091     86.5882    118.2120   7.4391193897e+01   4.1166616606e+01    0.2166381    0.1415007 -40.80 0.0001222124    1.572    0.364
        78  -9.5057     80.5789    115.5633   7.5729007145e+01   4.2880381894e+01    0.2651585    0.2530043  21.31 0.0008044922    1.057    0.054
        79 -10.3003     35.5279    115.2792   9.2152765670e+01   4.9375513933e+01    0.4451804     0.189754  42.06  0.001664289    2.654    0.623
        80 -10.5546     10.4919    114.2652   1.0169817742e+02   5.1826728688e+01     0.476653    0.3532734  -5.41  0.002578581    1.512    0.338
        81 -10.9783     37.0403    110.1892   9.0531475204e+01   5.0536406457e+01    0.2871333    0.2573572 -64.34 0.0004164651    1.106    0.096
        82  -9.1152      4.8112    110.9155   1.0342696307e+02   5.3059587181e+01    0.2145383    0.1568877 -43.86  0.000551975    1.268    0.211
        83 -10.4528     90.1388    107.9639   7.0589374092e+01   4.2972947913e+01    0.4213899    0.3186139   5.51 0.0004889231    1.676    0.403
        84  -9.2848     52.0430    105.6604   8.3631434996e+01   4.9825253351e+01    0.2434542    0.1829034  48.73  0.001179867    1.505    0.335
        85 -10.2945     32.3875    106.1436   9.1541924347e+01   5.2080151724e+01    0.2856137    0.1801762 -19.46 0.0009791947    1.888    0.470
        86  -9.7787     71.1527    102.5022   7.5644228481e+01   4.7668190855e+01    0.3773417     0.259935 -35.98  0.001720596    1.519    0.342
        87  -9.9713     27.3554    103.5476   9.3056819789e+01   5.3248575858e+01    0.3939091    0.2248347 -28.28 0.0008051575    1.998    0.499
        88  -9.2885    161.6415    103.8599   5.0887162498e+01   2.8937724068e+01    0.2123248    0.1933189  44.96 0.0003139798    1.188    0.159
        89 -10.4211     56.5988    101.4086   8.0806258073e+01   5.0230631952e+01    0.5464147    0.2759364 -37.02  0.002099706    2.259    0.557
        90  -8.6919      2.4702    104.5121   1.0344340585e+02   5.4849820913e+01    0.1375677    0.1172556 -55.70  2.35797e-05    1.016    0.015
        91  -8.4968    142.3092    103.6819   5.4994065292e+01   3.3107671090e+01    0.1526376    0.1171568 -81.33 0.0007032833    1.638    0.390
        92  -9.7800    103.0451    101.6089   6.4812613903e+01   4.1883243938e+01    0.6128114    0.3764602   6.00  0.001981899    3.680    0.728
        93  -8.7956    112.0527    101.6858   6.2202673337e+01   4.0003397871e+01    0.2087357    0.1958593  39.39 0.0001887921    1.070    0.065
        94  -9.2459     34.3055    102.3165   8.9938656618e+01   5.2853408325e+01    0.1544163   0.09963606 -31.81 0.0003013122    1.627    0.385
        95  -9.9281     50.6924     99.9529   8.2748745855e+01   5.1427998337e+01    0.3271154    0.2185244 -40.54 0.0008296039    1.464    0.317
        96  -9.8556     53.1976     95.3408   8.0553417208e+01   5.2195726527e+01    0.3095827    0.2191083 -61.69  0.001480856    1.506    0.336
        97 -10.1286      7.0228     97.3099   1.0041642205e+02   5.6431079455e+01    0.6448681    0.3238118  52.47  0.002710081    2.750    0.636
        98 -10.6788      2.4062     86.6275   1.0057474421e+02   5.9364328863e+01    0.6183488    0.2023057 -58.23  0.002516422    2.288    0.563
        99  -9.4645    126.3393     97.4578   5.7201001034e+01   3.7834800691e+01    0.3381254    0.2200017 -75.78  0.001317706    2.484    0.597
       100 -10.0981    117.7825     97.9517   5.9583450276e+01   3.9581473740e+01    0.2380938    0.2155307  40.75 0.0003896446    1.115    0.103
       101  -9.5836    111.8551     97.9026   6.1209521939e+01   4.0854415865e+01    0.2207851    0.2161014 -59.30 0.0004252545    1.029    0.028
       102  -9.7724    165.5933     95.7444   4.8115965357e+01   2.9624391251e+01    0.3378467    0.2448805 -19.19  0.001449603    1.840    0.457
       103  -9.0360    141.7339     95.9497   5.3101459998e+01   3.4766632246e+01    0.2097908    0.1900709 -53.95 0.0004852513    1.075    0.070
       104  -9.5770     92.1245     95.8524   6.6592253888e+01   4.5345560128e+01    0.4360857    0.2544762  63.34  0.001585886    2.747    0.636
       105  -9.5596     61.9124     95.8931   7.7292427020e+01   5.0748133346e+01    0.5170125    0.1248102  41.34  0.001405144    4.482    0.777
       106  -9.5654     22.9592     93.1706   9.2724629623e+01   5.6275525391e+01    0.4531869     0.231281 -85.10  0.001653891    3.280    0.695
       107  -9.9303     14.0094     92.9880   9.6601702063e+01   5.7051719819e+01    0.4583465    0.1428673 -63.12   0.00168532    2.676    0.626
       108 -10.6247     17.9882     90.7702   9.4392544155e+01   5.7296206970e+01    0.2420758    0.2221974 -22.97  0.000308845    1.077    0.071
       109 -11.0382     32.0645     92.2526   8.8561949014e+01   5.5605356246e+01    0.4644367    0.3112455 -11.56  0.001478488    1.703    0.413
       110 -10.3759     47.6266     92.0910   8.1944647647e+01   5.3752893407e+01    0.3904263    0.2439101 -68.55  0.001559346    1.954    0.488
       111 -11.0944     42.8368     89.9186   8.3364470507e+01   5.4903356729e+01    0.4230102    0.3138742 -15.83  0.002129927    1.457    0.314
       112  -8.7370     89.4734     91.4712   6.6182624525e+01   4.6824610057e+01    0.1517958    0.1447286   2.04 0.0008089113    1.048    0.046
       113 -10.8248     65.2200     90.7747   7.4585926375e+01   5.1402981070e+01    0.4634543    0.3102867  15.51  0.001475454    1.759    0.432
       114 -10.5546     65.4393     86.0353   7.3109243185e+01   5.2435075033e+01    0.4043006    0.3098465 -14.41  0.001836312    1.483    0.326
       115  -9.7358     66.3235     80.0002   7.0920851885e+01   5.3599687821e+01    0.3119671    0.1975832 -48.24 0.0007251143    1.604    0.377
       116 -11.1270     67.2122     74.7282   6.8894878044e+01   5.4548030995e+01     0.599969    0.2820563  38.27 0.0007031422    2.077    0.519
       117  -9.6049     59.3149     72.8467   7.1396175197e+01   5.6296233179e+01    0.2596313    0.2012173  31.50 0.0002897033    1.259    0.206
       118  -9.0612     53.4109     91.1376   7.9325395535e+01   5.3163151516e+01    0.2746356    0.1884473  66.49  0.001184483    2.244    0.554
       119 -10.1781    127.2778     87.8045   5.4288525023e+01   3.9543622297e+01    0.4557375    0.2776932 -18.06  0.001708454    2.841    0.648
       120  -9.3846    111.4238     87.6381   5.8396565159e+01   4.3061869481e+01    0.3902256    0.1877121 -50.69  0.001478367    2.286    0.562
       121  -9.5912     86.3333     88.6215   6.6378699759e+01   4.8053945671e+01    0.2957484    0.2654541   1.69  0.001099183    1.171    0.146
       122  -8.8700      6.9821     88.8130   9.8913758317e+01   5.8563497852e+01    0.2618079    0.1220381  37.06  0.001140329    2.487    0.598
       123 -10.1205     57.1607     87.2231   7.6706737551e+01   5.3506279632e+01    0.3748448    0.2074985  48.07   0.00107951    2.191    0.544
       124 -10.8898     25.7107     87.7209   9.0265217941e+01   5.7358494240e+01    0.6549271    0.4414555 -87.77  0.003095051    2.052    0.513
       125  -9.7758    154.9566     84.7153   4.7361406285e+01   3.3938700268e+01    0.3698159    0.2221553 -35.29  0.001032274    1.759    0.432
       126 -10.2789    150.3798     79.7903   4.6964629829e+01   3.5828866717e+01    0.6456017    0.2458397  53.23  0.002408745    2.607    0.616
       127  -9.8815    143.4256     84.2209   4.9587736353e+01   3.6601458868e+01    0.4966469    0.1688226 -45.40  0.001689542    2.933    0.659
       128  -9.1621    117.1532     83.1405   5.5527930745e+01   4.2687265896e+01    0.2602317    0.2162377  68.45 0.0006713333    1.286    0.222
       129 -10.8896     73.2581     80.2437   6.8392341574e+01   5.2310341483e+01    0.4500796     0.322088 -31.51  0.001211719    1.484    0.326
       130 -10.0439     77.4113     83.6395   6.7948386148e+01   5.0823598358e+01    0.3674404    0.2957853 -56.60  0.001127268    1.365    0.267
       131 -10.0066     81.5371     82.3206   6.6091249591e+01   5.0316709603e+01    0.4102865    0.2753282 -30.17  0.001310917    1.679    0.404
       132 -10.3181     51.7218     82.1521   7.7438357375e+01   5.5478463222e+01    0.4069614    0.2659558 -23.16  0.001859104    1.795    0.443
       133 -10.2346     52.3593     77.1577   7.5650575418e+01   5.6487789928e+01    0.3748198    0.2949716  43.25  0.001383838    1.391    0.281
       134 -10.4866    120.3812     85.2207   5.5291191361e+01   4.1572666748e+01    0.3370973    0.2134663 -42.24  0.001521694    1.602    0.376
       135  -9.7781     42.4092     80.3862   8.0899544037e+01   5.7181278352e+01    0.4561227    0.2684913 -13.69  0.001889536    2.373    0.579
       136  -8.6389     38.3198     79.7040   8.2511156569e+01   5.7860573449e+01    0.2213985    0.1427958 -59.96 0.0006175418    1.647    0.393
       137  -9.5823    124.0318     80.1350   5.2897177951e+01   4.1717330723e+01    0.2172424    0.2102205 -79.89 0.0006646207    1.028    0.027
       138  -9.3899     92.3113     79.9798   6.1779615260e+01   4.8641259273e+01    0.3238139    0.2287636   6.34  0.001261145    2.051    0.513
       139  -9.5301     28.5881     84.7561   8.8245829937e+01   5.7785243077e+01     0.348039    0.2120651 -74.04  0.001356284    2.058    0.514
       140 -10.7587    166.8399     77.7865   4.3406430205e+01   3.2510143956e+01    0.2778305    0.2252607 -57.66  0.001555635    1.160    0.138
       141  -9.9867    169.8058     74.3973   4.2057950852e+01   3.2419440602e+01    0.2695756    0.2266926 -67.57 0.0005416345    1.118    0.105
       142 -10.5526    166.0376     72.4907   4.2203816571e+01   3.3559411017e+01    0.6159598    0.1956537 -37.81  0.002179423    3.104    0.678
       143  -9.5583    119.1439     76.5456   5.3065262857e+01   4.3474990270e+01    0.2484587    0.1919805 -53.40 0.0003405188    1.361    0.265
       144 -10.2544    109.2349     74.5885   5.5087121903e+01   4.6045148775e+01    0.5089738    0.3099839 -55.59  0.002211182    1.957    0.489
       145  -8.7286    100.0999     76.8822   5.8411194367e+01   4.7607388702e+01    0.1906703    0.1687329  -2.81  0.001007519    1.258    0.205
       146  -8.8861    145.3990     75.7682   4.6877622777e+01   3.7650466258e+01    0.1885271    0.1376323 -29.40 0.0005141132    1.560    0.359
       147  -9.3379     93.4875     67.4870   5.7400961475e+01   5.0764348754e+01    0.2595153    0.1884542 -38.31 0.0007194467    1.444    0.307
       148 -10.8797     89.1819     73.3565   6.0679856997e+01   5.0579289482e+01    0.6361451    0.4320524 -10.90   0.00275658    2.168    0.539
       149 -10.3836     95.1178     72.1998   5.8434287153e+01   4.9554028122e+01    0.3149242    0.2953033  16.91 0.0006867961    1.079    0.073
       150 -10.0376     29.1777     74.7496   8.5293038635e+01   6.0054831736e+01    0.3368778    0.2218646 -37.87  0.001009605    1.408    0.290
       151  -9.5332     18.9781     72.6503   8.9618060597e+01   6.1540173987e+01    0.3161638    0.1869932 -55.93  0.001584092    1.560    0.359
       152  -9.3938     35.8321     53.7763   7.5258935281e+01   6.3665394162e+01    0.3210202    0.2112627  -6.55  0.001613764    1.743    0.426
       153 -10.8012     22.4735     65.5972   8.5893139542e+01   6.2792759353e+01     1.109817    0.3871482 -59.92  0.004152124    3.059    0.673
       154 -10.3433     29.7326     68.0305   8.3046671728e+01   6.1488915270e+01    0.3957126    0.3489769  55.33  0.001697863    1.448    0.309
       155  -9.3224     26.6334     62.8120   8.2944079538e+01   6.2958706954e+01    0.2421298    0.1768568 -47.76 0.0006826373    1.317    0.241
       156 -10.5513     29.6018     52.0468   7.7759903780e+01   6.4807341527e+01    0.3842552    0.1776097  27.45 0.0008220772    2.105    0.525
       157 -11.1104     25.0381     55.2972   8.1276542797e+01   6.4697086557e+01    0.4447848    0.2735842 -64.59  0.001672932    2.164    0.538
       158 -10.9338     20.2563     53.3984   8.3161133759e+01   6.5592996927e+01    0.4558296    0.2469382  16.36   0.00101795    1.866    0.464
       159  -8.9253    152.0604     73.2336   4.4887981026e+01   3.6568884216e+01    0.1901294    0.1688615  72.06 0.0003005905    1.100    0.091
       160  -8.4231    177.3022     71.7354   4.0215117702e+01   3.1217505460e+01    0.1348369   0.09524351 -73.61  0.000240455    1.521    0.343
       161 -10.5676    143.3439     69.4545   4.5551966464e+01   3.9182113176e+01    0.5573354      0.43256 -70.77   0.00249628    1.389    0.280
       162  -9.6396    147.6358     66.0607   4.3781334255e+01   3.8748699885e+01    0.2631959    0.1900805 -47.28 0.0005798895    1.370    0.270
       163 -11.2837    135.7589     64.3896   4.5663681874e+01   4.1753667250e+01    0.5887145    0.3944018 -87.28   0.00270065    1.995    0.499
       164 -10.3719    135.4509     57.0809   4.3608133427e+01   4.2964417132e+01    0.4854393    0.2276556  47.64  0.001351891    2.217    0.549
       165  -8.8035    135.9795     72.0000   4.7796185836e+01   4.0444199925e+01    0.2347317   0.07942662  54.87 0.0007947405    2.889    0.654
       166 -11.0262     52.3444     69.2248   7.3100552696e+01   5.8170920061e+01    0.4250117    0.3914504 -66.03  0.002462229    1.312    0.238
       167  -9.3680     48.1094     63.7966   7.3100243791e+01   5.9928143720e+01    0.1959174    0.1878312  39.05 0.0005419658    1.222    0.181
       168  -8.7269    218.8100     70.1079   3.4473553299e+01   2.3072224428e+01    0.1453109    0.1391948 -52.59 0.0003585316    1.282    0.220
       169  -8.5811     81.5854     70.4710   6.2263886295e+01   5.2672473568e+01    0.1439235    0.1364598  13.61 0.0002291004    1.018    0.018
       170  -9.7900     64.3145     69.1554   6.8170057851e+01   5.6187009337e+01    0.2734878    0.2327524 -48.44  0.001088679    1.272    0.214
       171  -9.3165    173.0289     68.3813   4.0048103673e+01   3.2674761682e+01    0.2247152    0.1676806 -59.46 0.0007796848    1.268    0.211
       172  -8.9878    157.3427     68.7925   4.2743786833e+01   3.6101156903e+01    0.1933558    0.1296326 -29.10 0.0004243807    1.739    0.425
       173  -9.1423    102.3556     69.2387   5.5335777976e+01   4.8530427677e+01     0.201354    0.1832567  28.24 0.0006132452    1.121    0.108
       174 -10.0568     16.8385     46.8185   8.2744426678e+01   6.7251064461e+01    0.3222037    0.2486867 -10.25  0.001154678    1.149    0.129
       175 -11.0678      8.3889     50.7870   8.8885376163e+01   6.7191214877e+01    0.5840936    0.3059136   5.08  0.002826151    2.004    0.501
       176 -11.1264      2.2661     66.4106   9.6488668479e+01   6.4179657567e+01    0.3753671    0.1850208 -50.61  0.001389661    1.644    0.392
       177 -11.5862      5.7472     60.0446   9.3048206709e+01   6.5396831393e+01    0.6013384    0.4623229 -45.21  0.002786057    1.135    0.119
       178  -9.2434     11.3172     66.3276   9.1786538427e+01   6.3604247434e+01    0.2373277    0.1512782 -42.00 0.0008499377    1.350    0.259
       179 -10.3058     16.1715     64.3076   8.8726997013e+01   6.3662023285e+01    0.4554453    0.2321066 -16.75 0.0009492507    2.400    0.583
       180 -10.2176     82.9790     62.7268   5.9168026317e+01   5.3815918129e+01      0.51482     0.313255 -48.63  0.002370956    1.848    0.459
       181 -10.7493     76.1677     65.6164   6.2517327087e+01   5.4656959336e+01    0.4156249    0.3659042  11.85  0.001370225    1.137    0.121
       182  -9.6231     77.6410     61.7046   6.0638570475e+01   5.5078678306e+01    0.2610597    0.1722315  34.97 0.0007750696    1.488    0.328
       183  -8.5182    106.3398     66.2860   5.3276588659e+01   4.8167062092e+01    0.1469969    0.1111038  21.31 0.0004492452    1.636    0.389
       184  -9.7221     97.6193     63.6683   5.4896655075e+01   5.0544420648e+01    0.3148502    0.2356977 -69.56 0.0004437336    1.770    0.435
       185 -10.0742     65.7582     61.6854   6.5013790964e+01   5.7361422361e+01    0.4175478    0.3147066  47.44  0.001899236    1.392    0.281
       186  -9.6549     70.8401     60.1877   6.2551872282e+01   5.6681523830e+01     0.239929    0.2327971 -62.48 0.0007124344    1.201    0.167
       187 -10.2788     54.4813     63.0144   7.0063862913e+01   5.9072885623e+01    0.3180995    0.2550827 -45.28  0.001098944    1.321    0.243
       188 -12.0449     56.0366     56.8455   6.7183944020e+01   5.9979228629e+01    0.4438501    0.3281774  39.20 0.0003325328    1.335    0.251
       189  -8.8943    193.4991     62.5094   3.5793617929e+01   2.9195841502e+01    0.1293227    0.1109665 -67.02 0.0002413689    1.015    0.015
       190  -8.4497    108.7971     62.3811   5.1367673413e+01   4.8275898849e+01    0.2020442    0.1258556  43.84 0.0007927804    1.582    0.368
       191  -8.8604     43.5296     61.8480   7.4489078616e+01   6.0999662184e+01    0.1946675    0.1291788 -42.31 0.0009882989    1.477    0.323
       192  -8.8191    242.6924     61.6885   3.0469798721e+01   1.9992110586e+01   0.09841315   0.08874802 -15.20 0.0003371533    1.620    0.383
       193  -8.5405    177.3053     61.6639   3.7763330770e+01   3.2767102813e+01    0.1414552   0.09077814 -68.11  0.000703991    1.670    0.401
       194  -9.4021    156.1199     61.0377   4.0902777291e+01   3.7591271603e+01    0.2366452    0.1848021  66.73 0.0006031495    1.239    0.193
       195  -8.2967     12.3158     78.3243   9.4252229733e+01   6.0753460067e+01    0.1481072   0.08400172 -34.34 0.0007043069    1.667    0.400
       196  -8.5481     99.6176     59.3075   5.2870583162e+01   5.0838583692e+01    0.1475158    0.1118806 -89.42 0.0007022743    1.795    0.443
       197  -9.1644     94.9655     58.5148   5.3949923218e+01   5.1993078457e+01    0.2878579    0.1763445   7.92   0.00104303    3.410    0.707
       198  -9.0727     31.5892     58.6676   7.9096530752e+01   6.3244303952e+01    0.3001972    0.1853815  40.91  0.001495566    1.868    0.465
       199  -8.8720    143.1749     58.6220   4.2554100517e+01   4.0935895429e+01     0.199568     0.118518  50.48  0.000358254    1.700    0.412
       200  -9.9056    115.9139     56.6524   4.7753514717e+01   4.7569150557e+01    0.3486445    0.3081798  22.16  0.001460855    1.284    0.221
       201  -9.0598    226.5008     57.0858   3.1038742074e+01   2.3498510295e+01    0.1781286   0.09555354 -44.36 0.0007603198    1.530    0.347
       202  -8.7039     85.5582     57.5239   5.6510027394e+01   5.4177379990e+01    0.1399208    0.1326659  43.92 3.426813e-05    1.058    0.055
       203  -9.8008     82.8115     55.0522   5.6527328440e+01   5.5164208702e+01    0.3905978    0.2687355   5.16  0.001801629    2.081    0.519
       204  -9.6216    120.2323     67.5068   5.0076695910e+01   4.4816302361e+01    0.2576489    0.2117324 -43.43  0.001110506    1.261    0.207
       205  -8.9039    180.3360     54.0971   3.5516578617e+01   3.3207213711e+01    0.2565319    0.1229105 -29.14  0.001114122    2.595    0.615
       206  -9.2005     94.8897     53.0002   5.2079865613e+01   5.2895378547e+01    0.4354095    0.1886377  36.91  0.001564873    2.952    0.661
       207 -10.2745     61.8929     52.6627   6.3222018009e+01   5.9685290280e+01    0.3553407    0.2758243  74.42   0.00155316    1.991    0.498
       208  -9.6472     42.9733     52.1494   7.1221404033e+01   6.2949875952e+01    0.5021438    0.1991554 -47.42  0.002034746    2.650    0.623
       209  -9.0016    192.4274     53.2107   3.3801473985e+01   3.0751241470e+01    0.1777704    0.1013843 -50.08 0.0005506969    1.557    0.358
       210  -9.5958    145.8972     52.3365   4.0296276404e+01   4.1231512341e+01    0.2453519    0.1730826 -65.91 0.0006404716    1.522    0.343
       211 -10.1888    122.7438     51.8785   4.4696263923e+01   4.6703734888e+01    0.3123899    0.2723165 -74.99    0.0011128    1.197    0.165
       212 -10.2081     70.8138     51.6508   5.9436118500e+01   5.8160270370e+01    0.3915655    0.3152041 -54.46  0.002152502    1.513    0.339
       213 -10.0707     72.8889     44.5039   5.5972722316e+01   5.8877189722e+01    0.6126814    0.1973714 -37.43  0.001642053    3.339    0.701
       214  -8.8775    183.7459     52.1685   3.4617878538e+01   3.2740668451e+01    0.1536702     0.147746  64.87 0.0005169772    1.277    0.217
       215 -10.3798    110.8552     51.8440   4.7435276084e+01   4.9466003641e+01    0.2563858     0.203467  61.42            0    1.192    0.161
       216  -9.5556    198.7916     49.9048   3.2333418931e+01   2.9885125726e+01    0.3544587    0.1629013  77.88  0.001102659    2.528    0.604
       217 -10.0757    174.8621     49.1258   3.5030307333e+01   3.5098419330e+01    0.4198789    0.2722051  40.65  0.002149232    2.149    0.535
       218  -8.8412    133.4945     48.5580   4.1487171002e+01   4.4663211099e+01    0.1842149    0.1246703 -50.15   0.00017181    1.540    0.351
       219 -10.5967    140.9283     48.6224   4.0126830999e+01   4.2914175222e+01    0.5309712    0.2544266 -32.50  0.002043357    2.309    0.567
       220  -9.5039    136.8000     49.3768   4.1100776595e+01   4.3773899447e+01    0.2463302     0.192962  67.25 0.0003641142    1.188    0.158
       221 -10.6254    144.8938     40.6849   3.7196176271e+01   4.3053136961e+01    0.4592051    0.3279599  -5.55  0.002046049    2.138    0.532
       222 -10.0760    148.5481     38.5164   3.6014589082e+01   4.2478989257e+01    0.3779037    0.2049675 -59.94 0.0008492388    2.118    0.528
       223 -10.1248     87.1511     49.0724   5.2998140977e+01   5.5191307459e+01     0.409197    0.2516435  49.61  0.001995029    1.498    0.332
       224 -10.2127    128.3065     48.5598   4.2510220428e+01   4.5879251776e+01    0.2822153    0.2328295  86.23 0.0007607394    1.220    0.180
       225 -10.0879    151.2117     46.7804   3.7868302684e+01   4.0776075127e+01    0.3377517    0.1675801 -60.62 0.0009344644    2.585    0.613
       226  -8.6933     97.3775     47.8226   4.9579430181e+01   5.3126073944e+01    0.1832744    0.1334832 -16.95 0.0009322098    1.678    0.404
       227  -9.3498     87.2564     42.6077   5.0607712248e+01   5.6119761047e+01    0.2237259    0.1675812 -11.12 0.0003947695    1.615    0.381
       228  -8.7918    192.3030    248.3407   7.3063379779e+01  -3.5081983917e+00    0.1274977   0.07627746 -10.28 0.0003393418    1.675    0.403
       229  -9.7463     86.3247     37.4412   4.8960315706e+01   5.7033603510e+01     0.307072    0.2804521  83.18  0.001239903    1.236    0.191
       230 -10.5670     79.6739     44.5336   5.3690559968e+01   5.7468729617e+01    0.5639681    0.2989651 -27.79  0.002056821    2.240    0.554
       231  -9.7587     83.3620     41.1880   5.1259588558e+01   5.7165577278e+01    0.2524962    0.2130699  29.07 0.0008123517    1.159    0.137
       232  -9.8471     38.7951     47.1673   7.1289888954e+01   6.4477935308e+01    0.2325695    0.1875076  12.78 0.0006717479    1.126    0.112
       233  -9.1554     31.9369     47.4472   7.4831000027e+01   6.5382679023e+01    0.1927868    0.1533887 -28.89 0.0009193154    1.186    0.157
       234  -9.0724    235.1100     47.0981   2.8330264523e+01   2.3270922315e+01    0.1580392    0.1307987 -58.95 0.0004129673    1.142    0.124
       235 -12.7092     61.7660     44.4583   6.0085857026e+01   6.1063899468e+01    0.3871696    0.2707301  44.10 0.0003334429    1.363    0.267
       236 -11.2579     57.5862     45.5007   6.2181440352e+01   6.1669757023e+01     0.344331    0.2529072  56.43 6.598629e-05    1.674    0.403
       237  -9.9939     47.4088     46.9108   6.7139018741e+01   6.3188711751e+01     0.298091    0.1894007  17.89 0.0008602051    1.711    0.416
       238 -10.2483    115.4165     45.1528   4.4190245024e+01   4.9370185370e+01    0.2804523    0.2221417  56.94 0.0005260037    1.156    0.135
       239  -8.7458    165.9753     46.0000   3.5454120148e+01   3.7506375430e+01    0.2095488   0.06958275  64.91 0.0005539447    2.892    0.654
       240  -9.5749    122.8320     45.1567   4.2586509618e+01   4.7635586461e+01    0.2817951    0.1722086  65.20 0.0009290806    1.562    0.360
       241 -10.6312    105.6930     43.1268   4.5802293247e+01   5.1901627093e+01    0.5429026    0.3737573  66.68  0.002657925    1.454    0.312
       242  -9.5770     10.7482     43.8927   8.5209202525e+01   6.8391671188e+01    0.3983947    0.1633582 -36.97  0.001788485    2.285    0.562
       243 -11.1101     13.6818     36.9090   8.0827302147e+01   6.9444770008e+01     0.423342    0.2313128 -52.77 0.0007144937    1.970    0.492
       244 -10.3020      3.3442     43.1986   8.9399890829e+01   6.9109711801e+01    0.4923884     0.220106 -48.86  0.002362953    1.874    0.466
       245  -8.9836    240.4601    245.4728   6.3994532524e+01  -8.0814676537e+00    0.1123886   0.07981053 -12.64 0.0003968265    1.004    0.004
       246 -10.5850      9.6133     31.6792   8.1201428714e+01   7.0785754607e+01    0.2842526    0.2133664  29.36  0.001198665    1.492    0.330
       247  -9.0853    245.5137     44.4927   2.7037133470e+01   2.1783440140e+01    0.1767106   0.09238194 -88.61 0.0008093338    2.160    0.537
       248  -9.6300    249.1047     43.1209   2.6527410452e+01   2.1345989200e+01    0.1722103     0.148302 -86.20 0.0004117874    1.312    0.238
       249  -9.5173     91.8703     43.3387   4.9530968201e+01   5.5000356666e+01    0.2244808    0.1873333 -51.45 0.0008057124    1.365    0.268
       250  -9.4032    200.7309     43.1007   3.0628483860e+01   3.0391774387e+01     0.237419    0.1585874  70.59 0.0006170928    1.502    0.334
       251  -8.4840    189.4031     43.4763   3.1917870967e+01   3.2704763074e+01    0.1255912     0.103952 -69.52 7.516414e-05    1.020    0.019
       252  -9.4962     28.2360     42.5331   7.4830345636e+01   6.6761769972e+01    0.3101861    0.1850512  -2.34  0.001500161    2.056    0.514
       253  -9.1299    215.5763     41.4229   2.8862054564e+01   2.7647829250e+01    0.2613912    0.1242476 -67.49  0.001292149    2.290    0.563
       254  -9.2754     46.1985     42.1274   6.5749178232e+01   6.4192421732e+01    0.2761335    0.1545504  11.91  0.001150513    2.689    0.628
       255  -9.6958     22.3126     41.2234   7.7543511700e+01   6.7723224991e+01    0.2355465    0.1755813 -27.23  0.001169622    1.217    0.178
       256 -10.1482    229.0209     39.1691   2.7285912714e+01   2.5389847338e+01    0.2726852    0.2046997 -50.50  0.001919741    1.178    0.151
       257 -11.9730    238.6962     37.5861   2.6253949678e+01   2.3838587653e+01    0.2623552    0.2316061 -84.47 0.0002840871    1.304    0.233
       258  -9.2330    203.3105     39.0546   2.9494508336e+01   3.0385117211e+01    0.1697289    0.1282993 -59.66 0.0005234488    1.105    0.095
       259  -9.8236    130.2430     35.3876   3.8145012768e+01   4.7159074513e+01     0.320114    0.2087411 -41.51  0.001596675    1.615    0.381
       260  -9.2118    130.1029     39.6070   3.9447840821e+01   4.6662313487e+01    0.3010213    0.1925289  82.50  0.001489228    1.729    0.422
       261  -9.0235    125.3791     39.8089   4.0409218100e+01   4.7748189034e+01     0.355562    0.1125912  62.57  0.001262526    2.990    0.666
       262  -8.8186     93.9182     38.5788   4.7242965970e+01   5.5194614438e+01    0.1832641    0.1624648  19.60 0.0006146971    1.206    0.171
       263  -8.6432     40.8140     39.0038   6.6966816927e+01   6.5569708160e+01    0.2215578    0.1384029  -6.66  0.001068465    2.061    0.515
       264 -10.0309    247.4107     36.7820   2.5497432536e+01   2.2421402447e+01    0.2040994     0.174383 -32.21  0.001173037    1.570    0.363
       265  -9.0997    187.2540     36.9833   3.0656707080e+01   3.3993553562e+01    0.2698336    0.1301782 -78.52  0.001178013    2.731    0.634
       266  -9.5682    176.9431     36.8086   3.1767463209e+01   3.6251978775e+01     0.238491    0.1807863 -82.75 0.0008955506    1.185    0.156
       267  -9.2425    153.8897     37.1521   3.4847154890e+01   4.1413145655e+01    0.1990454    0.1541574 -79.22 0.0003392769    1.228    0.186
       268  -8.3949    134.6571     37.2343   3.7918614477e+01   4.5891144085e+01    0.1332943      0.09378 -83.97 0.0002510828    1.551    0.355
       269  -9.1450     34.3751     41.4378   7.1179327548e+01   6.6124693577e+01    0.2412554    0.1169091  26.16  0.001099406    2.070    0.517
       270  -8.7715    166.9846     35.9993   3.2777028347e+01   3.8569545676e+01    0.1543042    0.1278522  88.43 0.0003285928    1.067    0.063
       271 -10.1815    119.4201     30.9417   3.8772483794e+01   5.0241782171e+01    0.2619731    0.1961692  53.68 0.0005717721    1.244    0.196
       272 -10.8331    113.2817     34.5783   4.1200710380e+01   5.1247585996e+01    0.5440111    0.3223405  54.64  0.002750411    1.503    0.335
       273 -11.6584    107.2334     30.2507   4.1052364609e+01   5.3177703354e+01    0.4822451    0.3630177  22.75  0.002681539    1.639    0.390
       274  -9.1812    111.9991     29.1875   3.9679270598e+01   5.2187759862e+01     0.282395    0.1947966 -25.09 0.0008046728    1.703    0.413
       275 -10.5058     97.9391     34.9565   4.4889274863e+01   5.4751642223e+01    0.2919638    0.2230674  58.29 0.0003176925    1.180    0.152
       276 -10.5379     72.0455     30.3371   5.0617133810e+01   6.1018352666e+01    0.3807155    0.2883276 -40.22  0.001426141    1.527    0.345
       277 -10.3889     78.6429     34.9950   5.0352909872e+01   5.9022487760e+01    0.3191043    0.2576635  56.62 0.0007350451    1.210    0.174
       278  -8.7285    188.3180    244.6784   7.3283799222e+01  -2.4824237441e+00    0.1063463   0.09578533  43.04 0.0007043072    1.666    0.400
       279  -9.2944     56.6850     36.0960   5.8683836264e+01   6.3284453090e+01    0.1796737    0.1554625  -2.15  0.000410992    1.140    0.123
       280 -10.3198    146.3932     28.9690   3.3684967638e+01   4.4132192594e+01    0.2942166    0.2140148  59.07 0.0003516932    1.330    0.248
       281 -10.0459    140.0098     33.7645   3.6011546785e+01   4.5059745395e+01    0.2129858    0.2062157 -57.83  0.001394411    1.176    0.150
       282  -9.7446    141.9973     30.5351   3.4775917518e+01   4.4976987918e+01    0.2450801    0.1828759  40.42 0.0007921267    1.603    0.376
       283  -9.8488     60.8396     34.5631   5.6391309781e+01   6.2714796495e+01    0.2138648    0.1818253 -35.53 0.0002939035    1.335    0.251
       284  -9.2196     45.7803     33.7190   6.2349124259e+01   6.5581089734e+01    0.4108171    0.2548839  62.45  0.001293861    3.053    0.672
       285  -9.8535     31.0472     33.8661   6.9669805328e+01   6.7864975174e+01    0.2020949    0.1546526  20.47 0.0002879117    1.166    0.143
       286  -8.9763    223.8542     33.6501   2.6608697806e+01   2.7035249597e+01    0.2137015   0.08476608  62.66  0.001092141    2.685    0.628
       287  -8.7366     55.4973     32.5026   5.7627366777e+01   6.4018543679e+01    0.1855983     0.119024  51.86  0.000564707    1.651    0.394
       288  -9.0602     51.9678     33.0000   5.9311400488e+01   6.4597978125e+01    0.2918972    0.1190252  43.96   0.00125234    2.235    0.553
       289  -9.2003    158.2062     31.8987   3.2852871247e+01   4.1061007678e+01    0.2403972    0.1519236 -79.32 0.0007398813    1.664    0.399
       290 -10.1416     65.2167     30.0410   5.2850068998e+01   6.2458793264e+01    0.4376365    0.2192919 -27.41  0.001423124    2.298    0.565
       291  -9.6483     24.4760     31.6314   7.2267678327e+01   6.9122232410e+01    0.2889902    0.1691343  28.49  0.001267453    1.582    0.368
       292  -9.3554     29.6062     29.0192   6.8243935184e+01   6.8836789009e+01    0.3150866    0.1800604  -9.73  0.001437104    2.353    0.575
       293 -11.0375     37.2569     26.9000   6.3293209413e+01   6.7987389635e+01     0.490944    0.2850464  35.66  0.001248967    1.544    0.352
       294  -9.8433    248.7096     30.3606   2.4259779864e+01   2.2974326287e+01    0.1901354    0.1460494 -47.05 0.0006758695    1.291    0.225
       295 -10.0666    233.9655     30.6888   2.5294241524e+01   2.5525280950e+01    0.2609034    0.1633338  64.97 0.0008791084    1.841    0.457
       296  -9.0672    178.4971     30.9992   3.0196588292e+01   3.6619301665e+01    0.1777783    0.1167948 -36.89  0.001026805    1.584    0.369
       297  -9.2230    133.1254     31.1900   3.6383822632e+01   4.6983412295e+01    0.1923427    0.1683002  62.35 0.0008755242    1.119    0.106
       298  -9.8125    190.2176     29.2942   2.8598667054e+01   3.4297674512e+01     0.295787    0.1854895  78.53  0.001754041    1.481    0.325
       299  -8.6362    125.6624     30.6613   3.7519696308e+01   4.8803748927e+01    0.1370655   0.09367822  36.65 0.0007051034    1.758    0.431
       300 -10.2952    221.9755     26.4847   2.5338798808e+01   2.8246236682e+01    0.2679181    0.1526702 -59.39 0.0007691949    1.422    0.297
       301  -9.8668    221.5311     20.9741   2.4289887501e+01   2.8964047678e+01    0.2579655     0.175513 -71.41  0.000949804    1.177    0.151
       302 -10.1218    217.1372     17.5258   2.3912681064e+01   3.0190304769e+01    0.2345408    0.1570937 -61.63 0.0004122231    1.167    0.143
       303 -10.7649     18.7983     28.0585   7.3946966166e+01   7.0416868239e+01    0.3356187    0.2576372 -45.82 0.0009280749    1.553    0.356
       304  -9.9815     47.3235     26.1021   5.8218441957e+01   6.6386270677e+01    0.4132341    0.3021533  64.61  0.001393416    2.028    0.507
       305  -8.7270    119.9412     25.7810   3.7021891498e+01   5.0703578191e+01    0.1773034    0.1496213  68.61 0.0004551012    1.038    0.036
       306  -8.8291     82.7360     26.0230   4.5605530630e+01   5.9237628627e+01    0.1687138    0.1530946  39.94 0.0002046404    1.055    0.052
       307 -10.5806      1.8591     24.8786   8.3426741629e+01   7.2670035790e+01    0.3057437    0.1814256 -47.48   0.00113281    1.641    0.390
       308  -9.9810    158.3584    244.3113   7.9359811847e+01   1.2336454456e+00     0.196674    0.1278933  -8.49 0.0003425143    1.656    0.396
       309  -8.7870     44.0273    244.2252   1.0541548918e+02   1.5743655942e+01    0.1726579   0.09262893  29.47 0.0008803656    1.677    0.404
       310  -9.2894      1.4836    243.9784   1.1477894940e+02   2.0049684522e+01    0.1652638     0.103286  89.91 0.0004338015    1.514    0.340
       311  -8.9304    244.5562    242.2086   6.2821297213e+01  -8.0224306948e+00     0.151717   0.07755537 -26.02 0.0004086234    1.560    0.359
       312  -9.3509    145.5197    242.4702   8.1867274088e+01   3.2107100711e+00    0.1321106    0.1088695   5.13 5.131803e-05    1.060    0.057
       313 -10.5497     62.1347     23.1957   5.1001380625e+01   6.3924997234e+01    0.3604369    0.2420074   9.07  0.001936462    1.812    0.448
       314  -9.8819    189.0315    240.4708   7.2496343501e+01  -1.8998036292e+00    0.1819598    0.1064121  25.45  0.001025682    1.581    0.368
       315  -9.5063    153.8355     23.2861   3.1134273394e+01   4.3045651066e+01      0.27239    0.1793341 -45.78  0.001513874    1.517    0.341
       316  -9.9313    247.5689    239.0347   6.1843085045e+01  -7.8727756377e+00     0.199228    0.1278519  38.66  0.001280296    2.452    0.592
       317  -9.8399    109.3519     23.9021   3.8441602795e+01   5.3393592996e+01    0.2148788    0.1905883  67.89 0.0004233388    1.020    0.020
       318  -9.3413    167.8251    237.8213   7.6392073458e+01   1.1456317503e+00    0.1607681    0.1471751  23.70 0.0005720147    1.309    0.236
       319  -9.3649    188.5067     22.7468   2.7280647920e+01   3.5414578981e+01    0.2075389    0.1498463 -64.76  0.001313896    1.176    0.149
       320  -8.2024    144.3131     21.2195   3.1811909462e+01   4.5470234144e+01    0.2820282    0.1443638  86.89 0.0008218845    2.164    0.538
       321 -10.2287    221.3933    236.3768   6.5817238241e+01  -4.9036114724e+00     0.329385    0.1155615 -35.65  0.001561014    2.482    0.597
       322 -10.0299    139.9057     20.3240   3.2165086102e+01   4.6591515903e+01    0.2767268    0.2187729  50.42 0.0009354056    1.361    0.265
       323 -10.4306     86.1344     22.1401   4.3162109685e+01   5.8912796353e+01    0.2765329    0.1874618  60.46 0.0004734895    1.326    0.246
       324 -10.5751     50.4945     21.9994   5.4956453050e+01   6.6331075488e+01    0.2672999     0.203824   1.69 0.0007437458    1.361    0.265
       325  -9.8254    188.4807    235.5208   7.1829675286e+01  -1.0353326234e+00    0.1263862    0.1009167  -4.81 4.767882e-05    1.004    0.004
       326 -10.4379    172.6275     22.1402   2.8688583919e+01   3.8926792827e+01    0.3959918    0.1665667  65.13  0.001922277    2.141    0.533
       327  -9.4462    117.0214     22.2583   3.6420298579e+01   5.1768225563e+01    0.2299749    0.1594494  40.30 0.0003573941    1.580    0.367
       328  -9.2908    121.5193     21.0521   3.5236770508e+01   5.0835059855e+01    0.3738957    0.1724442 -73.63  0.001194352    5.043    0.802
       329  -9.4483     41.0455     21.2039   5.8740096352e+01   6.8129179204e+01     0.197465    0.1648215 -44.85  0.001250506    1.589    0.371
       330  -9.4295    244.1060     20.8860   2.2845663159e+01   2.4866115084e+01    0.1813954    0.1245405  86.13  0.001330737    1.421    0.296
       331  -8.3883     18.2848     21.7200   7.1238755265e+01   7.1478273603e+01    0.1038582    0.0938924  37.19 0.0002475508    1.516    0.340
       332  -9.0055     31.8858    232.1437   1.0733010121e+02   1.9685177749e+01    0.1548622    0.1490462 -31.59 0.0003577686    1.281    0.219
       333  -8.9704     90.5585     20.2779   4.1325384127e+01   5.8111408701e+01    0.1564915    0.1246511   3.50 0.0007710647    1.502    0.334
       334  -9.4160     80.0066     19.2641   4.3677625369e+01   6.0576680779e+01    0.1972566    0.1819764  16.36 0.0008294825    1.160    0.138
       335  -9.5776     73.1769     18.3769   4.5283478415e+01   6.2155550489e+01    0.3008415    0.2503826  70.38  0.001084182    1.307    0.235
       336  -8.7835    178.5148    231.5090   7.3194872649e+01   8.6848528287e-01    0.1307799    0.1047445  -4.52 0.0002439379    1.048    0.046
       337  -8.6516    163.3438    227.2859   7.5700859810e+01   3.5933088715e+00    0.1373955   0.09085666  -6.06 0.0004457586    1.645    0.392
       338  -9.1742     36.1713     19.7521   6.0369007095e+01   6.9138969091e+01    0.2519161    0.1613241 -18.66  0.001432716    1.670    0.401
       339 -10.8905    182.3297     18.4455   2.6864236119e+01   3.7209029754e+01     0.231371    0.1896794  84.22 0.0004044087    1.148    0.129
       340  -9.1505    199.3090     18.5771   2.5442773183e+01   3.3622675161e+01    0.2037836    0.0994819  81.80 0.0008994181    1.933    0.483
       341  -9.9563     15.4855     17.6941   7.0946105552e+01   7.2429231308e+01    0.2642784    0.1620766   7.30 -0.0002060166    1.616    0.381
       342  -8.9236    224.0170    225.4590   6.3594329138e+01  -3.5528858289e+00    0.1869089    0.1296275 -27.86  0.001074875    1.197    0.165
       343  -8.8466    207.4891     21.5383   2.5425504546e+01   3.1637387859e+01    0.2174974   0.06837458 -46.21 0.0007558431    2.494    0.599
       344  -9.0761    207.6687    226.5484   6.6707655476e+01  -1.8722566418e+00     0.216313    0.1077895  22.02   0.00111759    2.042    0.510
       345  -9.0645    143.7479     16.4283   3.0547546046e+01   4.6093462903e+01    0.2441976     0.110261  77.16  0.001122294    2.110    0.526
       346  -8.5489    235.2821    225.3274   6.1658203003e+01  -4.7350737146e+00    0.1202794   0.06953995 -15.29 0.0003379793    1.602    0.376
       347  -9.8275     44.9275     15.4624   5.4170332963e+01   6.8133590986e+01    0.3824748    0.1691966  40.56  0.001846319    1.935    0.483
       348  -9.7149    193.3265     20.1003   2.6265595833e+01   3.4693687013e+01    0.1706695    0.1406768  87.25 0.0002964172    1.162    0.139
       349  -9.4435    230.6515     15.3080   2.2621699014e+01   2.7891773420e+01     0.119998   0.05863251 -64.25 0.0007043683    1.706    0.414
       350  -8.1265    132.2952    225.2782   8.2344253470e+01   8.2668989294e+00    0.1354681   0.09814385  -8.15 0.0001783448    1.531    0.347
       351  -8.7069    109.5891    221.7797   8.7253278550e+01   1.2208064343e+01    0.1727295    0.1370628 -76.52 0.0004358578    1.567    0.362
       352  -9.1500     89.0895    221.0985   9.2230659153e+01   1.5212725615e+01    0.2122312    0.1801406 -10.64 0.0008158087    1.322    0.244
       353  -9.3058    174.9019    217.7145   7.1688339959e+01   3.7726374804e+00    0.2238469    0.1569064 -26.22   0.00050268    1.338    0.252
       354  -8.1634     56.1636    216.6515   1.0004322468e+02   2.0498622267e+01    0.1631558    0.1238665  15.42 0.0008732519    1.447    0.309
       355  -8.6250    117.6941    211.7105   8.3784456794e+01   1.3210691770e+01    0.1425252    0.1055372 -11.67 0.0002728371    1.572    0.364
       356  -8.0700    123.9913    205.9921   8.1331313819e+01   1.3517583529e+01    0.1608203    0.1481829  11.00 0.0009138518    1.006    0.006
       357  -8.5992     12.6731    203.3046   1.0998421685e+02   2.8319197878e+01    0.1425894   0.08100228  58.23 0.0002960178    1.648    0.393
       358  -9.0040    112.6236     13.9263   3.4470668372e+01   5.3623688367e+01    0.2150355     0.147281  56.55 0.0006352529    1.284    0.221
       359  -9.3033     90.9988     13.6764   3.8716871310e+01   5.8657233461e+01    0.3027742    0.1421916  69.18  0.001379008    2.120    0.528
       360  -8.2571    132.9686    199.2041   7.8001414390e+01   1.3621924249e+01     0.178868    0.1096782  31.72            0    1.568    0.362
       361  -9.1485    184.6307     12.8502   2.5383006091e+01   3.7304594963e+01    0.1633232    0.1250794 -60.33 0.0007724196    1.155    0.134
       362  -8.5124     81.0048    198.7687   9.1351716516e+01   2.1545417244e+01    0.1881393     0.116017  30.25 0.0004571732    1.553    0.356
       363  -8.1850    109.6474    196.6770   8.3442872498e+01   1.7811073615e+01    0.1556597    0.1109917 -15.06 0.0007047582    1.756    0.430
       364 -10.1893      5.7349    195.5283   1.1123792113e+02   3.0823298243e+01    0.3123359    0.1327304 -45.91  0.001266185    3.072    0.674
       365  -9.1258    248.3722    191.1922   5.3833383568e+01  -9.9478816134e-01    0.1676423   0.08965735 -44.20 0.0009465977    1.723    0.420
       366  -9.7345      4.9921    174.9978   1.0999812163e+02   3.6092129770e+01      0.16693    0.1423833  88.93 0.0007191334    1.029    0.028
       367 -10.4873     17.3676    173.1368   1.0629843851e+02   3.5580451502e+01    0.4164746    0.1249087 -75.86  0.001413431    3.182    0.686
       368  -8.3419    230.3430    168.7505   5.2576099696e+01   4.8646908899e+00    0.1085738   0.09483931 -67.25 0.0002671114    1.574    0.365
       369 -11.6391     39.3588    160.0044   9.8120001297e+01   3.6935424462e+01    0.7547244    0.3991403  63.67  0.002944647    2.464    0.594
       370 -10.7199    166.1225     18.3683   2.8444169887e+01   4.0781872293e+01    0.3091709    0.2035449  49.28 0.0009488412    1.815    0.449
       371 -12.4953     33.9425    157.4773   9.9499165226e+01   3.8194606405e+01      1.24101    0.4729307  53.15  0.004025958    3.571    0.720
       372 -10.9145      9.8423    158.2595   1.0714880016e+02   4.0129595577e+01     0.469582    0.2266662  86.16  0.001753069    2.259    0.557
       373  -9.4958     20.5006    157.9694   1.0380807833e+02   3.9342566181e+01    0.2142618    0.1282513 -72.44  0.000392667    1.520    0.342
       374 -10.0987      2.3030    156.3296   1.0928552607e+02   4.1173660234e+01    0.3709651    0.2046123 -82.00 0.0009879105    1.635    0.388
       375  -9.0905    249.0169    153.9672   4.7117407679e+01   4.8182444265e+00    0.1503535    0.1113604 -36.02 0.0005581926    1.035    0.034
       376  -9.5802     58.2921    150.9729   9.0659553193e+01   3.7069368990e+01    0.2300151    0.2092956  32.94 0.0003375649    1.131    0.116
       377 -11.0390     14.3473    150.7464   1.0496740629e+02   4.1793594968e+01    0.4067694    0.2217264  22.88  0.001409115    1.973    0.493
       378 -10.0769     10.3355    147.3273   1.0589680295e+02   4.3015070521e+01    0.2570332    0.2287705 -47.75 0.0007372595    1.161    0.139
       379 -10.1331     23.9355    163.2150   1.0332386065e+02   3.7627870546e+01    0.2307379    0.2105962 -88.79 0.0004497598    1.008    0.008
       380  -9.3785    236.4983    145.9926   4.7376738499e+01   7.8396118846e+00    0.1905405    0.1000041 -40.87 0.0004211585    1.516    0.340
       381  -9.8464      4.5050    144.9710   1.0755007364e+02   4.4047751203e+01    0.2627078    0.1555294 -45.56  0.001278647    1.714    0.416
       382  -9.2511     36.4809    144.0528   9.6774340594e+01   4.1564204462e+01    0.2028082    0.1955266  28.14 -6.341065e-06    1.108    0.097
       383  -9.8316     29.0461    144.0109   9.9280798935e+01   4.2329921701e+01    0.2156083    0.1979667 -65.92  0.001221097    1.022    0.022
       384 -10.1442     13.4793    141.9942   1.0426603596e+02   4.4214243438e+01    0.3488778    0.2041318 -41.38  0.001268645    1.802    0.445
       385 -10.1748    239.7509    140.2638   4.5837367285e+01   8.3253095160e+00    0.2621275      0.13539 -35.58 0.0009959857    1.640    0.390
       386  -9.9203      1.7082    139.9598   1.0797371705e+02   4.5558621715e+01    0.3353092    0.1480931 -83.36  0.001027547    2.186    0.543
       387 -10.0676     41.0052    137.2296   9.4132301013e+01   4.2914517845e+01     0.352111    0.2343721  44.07  0.001029668    1.596    0.374
       388  -8.7994     38.3514    134.2687   9.4564504875e+01   4.4008970359e+01    0.2275538    0.1400909 -62.02 0.0003788575    1.492    0.330
       389  -9.7432     34.9838    137.0019   9.6194676480e+01   4.3631528139e+01    0.2155943    0.2032045 -72.88            0    1.025    0.024
       390  -9.8198     60.4249    133.6376   8.6729749519e+01   4.1411347931e+01    0.5199691    0.2986834 -34.70  0.001551409    2.090    0.521
       391  -8.9286     15.6185    135.2159   1.0270454537e+02   4.5874729878e+01    0.2050392    0.1123866 -60.54 0.0005790179    1.586    0.369
       392  -8.9466    225.6091    133.7304   4.6570778034e+01   1.1553669418e+01    0.1834832    0.1004501 -47.94 0.0007119593    1.603    0.376
       393  -8.8026     24.4985    133.9934   9.9420307121e+01   4.5463143377e+01    0.2111837    0.1138806  78.32 0.0008104909    2.551    0.608
       394  -9.5332      8.0581    133.2952   1.0510025164e+02   4.6934564709e+01    0.3680962    0.1920249 -30.30  0.001595573    2.305    0.566
       395  -8.8494    249.0000    133.0290   4.3264284580e+01   8.1858116875e+00    0.2079749   0.05419443 -41.05  0.000804242    2.955    0.662
       396  -9.9882      2.9267    130.3259   1.0655148190e+02   4.8049440137e+01    0.3163278    0.1780465  67.09  0.001439407    2.071    0.517
       397  -9.1261     16.9540    129.3016   1.0144214415e+02   4.7359842859e+01    0.3581194     0.154548 -36.49  0.001341515    2.774    0.640
       398  -9.1255     33.9598    126.9461   9.4893097733e+01   4.6445858117e+01    0.2346617    0.1678591  64.03 0.0008620432    1.653    0.395
       399  -8.7412     12.7604    126.6781   1.0259868554e+02   4.8377754389e+01    0.2193563    0.1088803 -86.89 0.0008757776    2.286    0.563
       400 -10.3341     41.5983    129.4328   9.2561209436e+01   4.4944522687e+01    0.2962261    0.2609241  32.32  0.001597455    1.197    0.165
       401 -10.1521    241.4287    124.3924   4.2598537832e+01   1.0681644800e+01    0.2066569    0.1859957 -37.91 0.0009965143    1.154    0.133
       402 -11.7460     21.5844    119.0707   9.8186658014e+01   4.9714029585e+01     0.539903    0.4203449  75.75 0.0007258423    1.451    0.311
       403 -10.5466     20.8015    109.6896   9.6891257266e+01   5.2248445629e+01    0.3559358    0.2552299 -62.85 0.0004063147    1.264    0.209
