#   1 NUMBER                 Running object number                                     
#   2 MAG_AUTO               Kron-like elliptical aperture magnitude                    [mag]
#   3 X_IMAGE                Object position along x                                    [pixel]
#   4 Y_IMAGE                Object position along y                                    [pixel]
#   5 X_WORLD                Barycenter position along world x axis                     [deg]
#   6 Y_WORLD                Barycenter position along world y axis                     [deg]
#   7 A_WORLD                Profile RMS along major axis (world units)                 [deg]
#   8 B_WORLD                Profile RMS along minor axis (world units)                 [deg]
#   9 THETA_WORLD            Position angle (CCW/world-x)                               [deg]
#  10 FWHM_WORLD             FWHM assuming a gaussian core                              [deg]
#  11 ELONGATION             A_IMAGE/B_IMAGE                                           
#  12 ELLIPTICITY            1 - B_IMAGE/A_IMAGE                                       
         1 -11.2943    183.0510     26.6310   7.1621455059e+01   3.6260797088e+01    0.6582789    0.4340958  40.54  0.002386055    1.704    0.413
         2 -12.0310    190.7741     19.9297   6.8570178360e+01   3.5003481989e+01    0.9661998     0.844063 -21.75  0.004887961    1.275    0.216
         3 -10.7874    196.9428     11.6783   6.5451448176e+01   3.4286308173e+01    0.4737878    0.3544379  17.58  0.001371756    1.767    0.434
         4 -11.2651    203.3747      3.5391   6.2516971160e+01   3.3447040665e+01    0.7698852    0.4349904  77.69  0.003260271    1.632    0.387
         5 -11.3252     42.3113      4.5774   9.9282242957e+01   6.9888311570e+01    0.4627288    0.3611665 -11.19   0.00320763    1.056    0.053
         6  -8.7924     58.6393      2.8252   9.1540920406e+01   6.7609952890e+01    0.1725954   0.09931045 -33.36 0.0009543939    1.795    0.443
         7  -9.2171    115.0000    245.4574   1.3384933534e+02   1.0996460174e+01    0.2085842   0.06566911 -58.96 0.0009356856    3.942    0.746
         8 -10.4059    139.5163    249.5343   1.2996204369e+02   6.5712909043e+00    0.3462921    0.1666389  48.24  0.001935977    1.608    0.378
         9  -9.9593    109.7690    246.9675   1.3491452897e+02   1.1554295101e+01    0.2307554     0.154984 -66.53  0.001035106    1.798    0.444
        10 -11.1648    104.6307    244.3052   1.3556276365e+02   1.2743933128e+01    0.5668511    0.3262283  85.41  0.002394297    2.286    0.563
        11 -11.3968    100.1788    244.6478   1.3637492587e+02   1.3349160643e+01    0.5032468    0.4175495 -87.75  0.002982278    1.329    0.248
        12 -10.3676     83.1529    243.9380   1.3927136321e+02   1.5909087357e+01    0.3873607    0.1294526 -66.01  0.001906922    3.403    0.706
        13 -10.2941     79.5151    246.0711   1.4006550280e+02   1.6062793397e+01    0.2323372    0.1517278  61.76 0.0009216432    1.161    0.138
        14  -9.0221     73.9850    250.0501   1.4129976703e+02   1.6166042390e+01    0.1381231    0.1351914  23.49   0.00112931    1.704    0.413
        15  -9.9596     60.0876    248.5406   1.4349880072e+02   1.8229946791e+01    0.2873963     0.151913 -86.29  0.001855733    1.936    0.483
        16 -18.6664      5.0848    128.4282   1.4522632905e+02   4.8113413540e+01     16.83724     1.567011 -75.26   0.03923452    9.693    0.897
        17 -11.2167    152.3112    228.5221   1.2511157159e+02   7.6046659798e+00    0.6493044    0.2078613  37.59  0.002519691    3.087    0.676
        18 -11.2872     95.7893    227.0426   1.3548889873e+02   1.6952994887e+01    0.5591477    0.3440771  64.36  0.002334504    1.459    0.314
        19  -8.2077     66.6652    232.8919   1.4126397237e+02   2.0035818149e+01    0.2017302   0.08633385 -62.43  0.001104965    2.611    0.617
        20  -8.5711    227.2244    202.8987   1.0729300715e+02  -1.6980094102e+00    0.1697744    0.1624824   7.70 0.0007199025    1.291    0.225
        21 -10.6360     76.8493    191.2590   1.3543511989e+02   2.6555773334e+01    0.4006453    0.2717565 -47.55  0.001503733    2.002    0.501
        22 -10.2219     80.8156    184.7385   1.3384058520e+02   2.7329515383e+01      0.30501    0.2583058 -60.00 0.0009489704    1.390    0.281
        23 -12.6240    127.9177    229.8973   1.2982725562e+02   1.1437753100e+01     1.092694    0.5377523  46.68  0.005830656    1.613    0.380
        24 -12.5958    109.8279    229.0567   1.3309486666e+02   1.4460355349e+01     1.260259    0.3839361  44.55  0.005461796    2.558    0.609
        25  -9.3934    114.4203    174.6124   1.2506114889e+02   2.4027828454e+01    0.2444183    0.1800153 -64.61  0.001330423    1.414    0.293
        26  -9.6771     88.4172    173.3163   1.3069636648e+02   2.8605929546e+01    0.2354888    0.2168131  76.84 0.0003672562    1.136    0.120
        27 -11.7572     76.5911    170.0966   1.3292954717e+02   3.1075711972e+01    0.4888533    0.3217268 -48.12  0.001481038    1.878    0.467
        28 -12.2422     59.2069    134.1257   1.3203041148e+02   4.1596279274e+01     1.546704    0.3115975 -64.79  0.004543815    4.787    0.791
        29 -12.7609     68.5539    145.2707   1.3134745447e+02   3.7786277414e+01     1.743227    0.8526913  88.74  0.006392291    3.525    0.716
        30  -9.8210     49.7305    152.0225   1.3688193344e+02   3.8641457056e+01    0.1850431    0.1420218 -82.15 0.0005495818    1.107    0.096
        31  -9.5926    105.1338    148.6046   1.2281977291e+02   3.1294906944e+01    0.3342114    0.1995731 -48.60  0.001554452    1.782    0.439
        32 -10.5518     94.2671    148.0741   1.2539887790e+02   3.3261225867e+01      0.27941    0.2650367   3.07 0.0004511176    1.344    0.256
        33 -11.3020     44.2889    144.4137   1.3726018034e+02   4.0992827967e+01    0.3555994    0.2358326  77.30  0.002050983    1.463    0.316
        34  -8.1067    134.0000    145.9845   1.1533990527e+02   2.6428710411e+01    0.2451266   0.08415285 -49.69 0.0008117391    3.007    0.667
        35  -9.6952     49.5077    173.5326   1.3934429033e+02   3.3908021947e+01    0.2476754    0.1054369 -71.55  0.001143349    2.128    0.530
        36 -12.2835     40.2456    127.7473   1.3609272915e+02   4.5259820490e+01     1.402839    0.2148286 -68.55  0.003568652    6.826    0.854
        37 -10.1770     72.5423    133.9146   1.2849376757e+02   3.9856551663e+01    0.2744727    0.2495691  30.28  0.001678146    1.322    0.244
        38  -9.3434    101.7704    131.9724   1.2046213597e+02   3.5653506683e+01    0.3083023    0.2760794   4.87 0.0005488918    1.423    0.297
        39 -10.4197     49.3025    131.6967   1.3426373797e+02   4.3354461668e+01    0.2405607    0.1815462  82.91  0.001439047    1.259    0.206
        40  -8.2394    109.9242    122.6858   1.1633369981e+02   3.6284089346e+01    0.1977951    0.1837521  64.64 0.0004506591    1.071    0.066
        41 -11.5647     44.5278    129.8105   1.3524973553e+02   4.4326133538e+01    0.6098608    0.1831152 -64.82  0.002422214    2.730    0.634
        42 -10.8034     94.2727    165.3449   1.2820406694e+02   2.9410560039e+01    0.5510901    0.4007646 -43.33   0.00155601    1.726    0.421
        43  -8.9880    114.2185    134.8662   1.1786885760e+02   3.2728506525e+01    0.2711338    0.2011377 -35.64  0.001317057    1.617    0.382
        44  -8.6747    168.1307    113.2693   9.9749425920e+01   2.5754531895e+01    0.3036003    0.2226187 -51.99 0.0008903419    1.440    0.306
        45  -8.7854    115.0000    101.5164   1.0977808226e+02   4.0021739360e+01    0.3389283   0.08385429 -47.27 0.0009353161    3.939    0.746
        46  -9.4081     83.2723    232.0757   1.3824433472e+02   1.7899535263e+01    0.2455694    0.0973905 -70.57  0.001217164    2.921    0.658
        47  -9.8884     59.1340     78.1597   1.2061311773e+02   5.4477112229e+01    0.4856551   0.05274506 -52.47  0.001209803    6.039    0.834
        48  -8.7439    161.0000    249.0203   1.2612935876e+02   3.2196074642e+00    0.1553469   0.06856626 -48.24 0.0008077226    2.979    0.664
        49  -8.6506    186.7123    248.6685   1.2159511067e+02  -8.5329244650e-01    0.1134623   0.07755584  18.05 0.0005038605    1.621    0.383
        50 -10.4975    127.4365    245.7696   1.3168437210e+02   9.0248870435e+00    0.3448659    0.2160226 -56.11  0.002195339    2.027    0.507
        51 -11.1302     72.1713    241.1607   1.4094222549e+02   1.7878207254e+01    0.5017787    0.3064676 -44.71  0.002868002    3.185    0.686
        52  -9.2429    163.6169    245.8355   1.2527704171e+02   3.2289389039e+00    0.1402205    0.1115885 -73.18 0.0009490431    1.760    0.432
