#   1 NUMBER                 Running object number                                     
#   2 MAG_AUTO               Kron-like elliptical aperture magnitude                    [mag]
#   3 X_IMAGE                Object position along x                                    [pixel]
#   4 Y_IMAGE                Object position along y                                    [pixel]
#   5 X_WORLD                Barycenter position along world x axis                     [deg]
#   6 Y_WORLD                Barycenter position along world y axis                     [deg]
#   7 A_WORLD                Profile RMS along major axis (world units)                 [deg]
#   8 B_WORLD                Profile RMS along minor axis (world units)                 [deg]
#   9 THETA_WORLD            Position angle (CCW/world-x)                               [deg]
#  10 FWHM_WORLD             FWHM assuming a gaussian core                              [deg]
#  11 ELONGATION             A_IMAGE/B_IMAGE                                           
#  12 ELLIPTICITY            1 - B_IMAGE/A_IMAGE                                       
         1 -11.1464     80.3841     35.5588   6.8028911380e+01   5.9360814988e+01     1.013545    0.7114054 -16.93  0.005514307    1.439    0.305
         2 -12.4493     75.1915     52.2900   7.6423465614e+01   5.7622587973e+01     1.382513     0.920903 -50.07  0.006937788    1.779    0.438
         3 -13.3746     42.4929     45.6693   8.7172971858e+01   6.3581333527e+01     1.042701    0.5991789  43.34 0.0006705201    2.346    0.574
         4 -12.6106    116.1454     41.4946   5.9572537546e+01   5.1035824848e+01    0.9229994    0.6524944 -74.53  0.004231476    2.278    0.561
         5 -12.6773    119.2947     37.7508   5.7430260274e+01   5.0824020883e+01    0.8614872     0.631754  89.69   0.00374371    1.954    0.488
         6 -11.2888    165.0691     17.9269   4.2229392752e+01   4.2040448523e+01    0.5656291    0.3305575  32.07  0.002620638    2.312    0.568
         7 -12.4752    131.4199     14.9247   4.6741792762e+01   5.0553767946e+01     1.366025    0.5375814  63.54  0.002889997    2.269    0.559
         8 -11.2900    156.7155     53.2039   5.4257562870e+01   3.9680155524e+01     1.381658    0.9731196 -16.99  0.006629494    1.699    0.411
         9 -12.2672    139.9628     23.5347   4.8048876228e+01   4.7607951767e+01     2.315937    0.8930809  71.50  0.008093883    3.277    0.695
        10 -11.1017    154.7553     23.3666   4.5424079680e+01   4.4001539456e+01     1.047931    0.5805708  26.05  0.004374533    2.784    0.641
        11 -11.5046      7.4291     32.2484   9.9304967857e+01   6.9231015863e+01     2.122755    0.3432993 -49.49  0.008282345    3.416    0.707
        12 -10.3688     47.1455     19.0242   7.3780498898e+01   6.7246325601e+01     0.338297    0.2733611 -19.56  0.001348931    1.213    0.176
        13 -11.8793     26.3453     27.7691   8.7746378719e+01   6.8499400589e+01    0.4999184    0.4191124  -2.38  0.002419729    1.173    0.148
        14 -11.8618     20.1962     21.7205   8.8349618023e+01   7.0094735515e+01    0.6963875    0.2489943 -42.79  0.003357139    2.343    0.573
        15 -12.1315     36.7170     17.9386   7.8120912937e+01   6.8833988049e+01    0.8096236    0.5385821 -26.18  0.005058198    1.330    0.248
        16 -12.3008     48.8467     12.9091   7.0064523523e+01   6.7775871944e+01    0.5488066    0.2987153  38.69  0.001945762    1.751    0.429
        17 -12.7273     17.1111     12.2279   8.5651395528e+01   7.1869123415e+01     0.859703    0.5012087 -23.12  0.003769572    1.444    0.308
        18 -11.1254    105.8607     20.5178   5.4366193205e+01   5.5944039146e+01    0.3730721     0.306046 -35.85  0.001117456    1.384    0.277
        19 -12.3524    113.0856     25.3022   5.4399911358e+01   5.3782604169e+01    0.8551066    0.4057388  49.99  0.003534146    1.842    0.457
        20 -10.9795    198.6234     29.1952   4.0972380014e+01   3.2646442885e+01    0.5375664    0.3544692 -27.46  0.002180076    1.679    0.404
        21 -10.5422    146.9199     16.5770   4.4574876702e+01   4.6631425756e+01    0.4719303    0.3065911  48.11  0.002483387    1.459    0.315
        22 -12.2547     61.3602     48.3454   8.0229777340e+01   6.0549186791e+01     1.152108    0.7277908 -54.64  0.005655313    2.110    0.526
        23 -10.7434    214.4744     23.6947   3.7891915916e+01   2.9607050535e+01    0.4845372    0.3525791  15.73  0.002611455    2.212    0.548
        24 -11.1631     87.2270      7.4592   5.3954973023e+01   6.1264974208e+01    0.5567697    0.3306889  56.71  0.002080146    1.594    0.372
        25 -11.3207     90.5823     20.9442   5.8712336603e+01   5.9202278731e+01    0.5931337    0.3774672 -27.48   0.00237919    1.653    0.395
        26 -11.2804     86.1232     14.2469   5.7200737941e+01   6.0844457956e+01    0.7849155    0.4054455  17.45  0.003405891    2.667    0.625
        27 -10.8950    178.9619     21.0376   4.1240133182e+01   3.8311398771e+01    0.5888798    0.2585621  47.91  0.002032251    2.510    0.602
        28 -11.9374     68.1890     17.9753   6.4771713063e+01   6.3916825789e+01    0.4909738    0.4162425  12.67  0.002036058    1.041    0.039
        29 -12.1353    237.2654     16.0268   3.4149961050e+01   2.5465721816e+01    0.6277753    0.3831379  73.97  0.002717841    1.585    0.369
        30 -12.2404    245.6533      6.5386   3.1573018732e+01   2.4753573227e+01     0.672469     0.559341 -50.19  0.004304648    1.213    0.176
        31 -10.8273    226.2228     15.1073   3.4843018901e+01   2.7949768231e+01    0.4335676    0.2413525 -55.23  0.001982115    1.618    0.382
        32  -9.7157    191.5670     16.6400   3.8557566592e+01   3.5743657142e+01    0.2960303    0.2148666   9.57  0.001596388    2.037    0.509
        33 -11.5429    192.2506      8.2822   3.6345681476e+01   3.6433255653e+01    0.6265631    0.4518851   8.33   0.00241508    2.056    0.514
        34 -12.1032     22.7931     11.5465   8.2156409283e+01   7.1390805862e+01    0.5071721     0.326068  -8.39  0.002100143    1.372    0.271
        35 -12.2788    104.6293     12.7466   5.1630349430e+01   5.7002285237e+01    0.5496813    0.4533537  -7.90  0.001869001    1.294    0.227
        36 -10.7887    115.1736      3.4197   4.5754423448e+01   5.5397164657e+01    0.5299832    0.3432971  50.65  0.001828505    1.303    0.232
        37  -9.7233      4.3890     12.5904   9.3261071475e+01   7.2860935989e+01     0.232683    0.1772462   8.20  0.001717139    1.370    0.270
        38  -9.1838      5.3265      9.3226   9.1183963688e+01   7.3313299046e+01    0.2049743   0.09835301 -34.41 0.0007644647    1.628    0.386
        39 -11.5289    211.9754      9.2816   3.4735330671e+01   3.1754113387e+01    0.5490125    0.3445335   0.90  0.002070081    2.871    0.652
        40  -9.9974     66.0207     10.4001   6.2029466174e+01   6.5155114410e+01    0.5674207    0.1820064  47.49  0.002370644    2.748    0.636
        41  -9.9373     62.6500      7.0219   6.1628745896e+01   6.6112761390e+01    0.3333009    0.2037324  21.13  0.001876893    1.564    0.361
        42  -9.4037     78.4927      7.5205   5.6538477865e+01   6.3048828027e+01    0.2321247    0.1546983  49.51 0.0006971403    1.373    0.272
        43 -11.2650     75.2568      3.4180   5.5659016460e+01   6.4061027750e+01    0.6487293    0.3061041  45.79  0.003302535    1.753    0.430
        44  -9.7145    168.7510      9.6723   3.9363045556e+01   4.1953487631e+01    0.3446336    0.1389153  51.77   0.00146988    2.385    0.581
        45  -9.2629    163.1032     10.1130   4.0216768415e+01   4.3290100311e+01    0.2005467     0.163171  49.82 0.0007369098    1.243    0.196
        46  -9.3858      1.1241      7.5199   9.2932728915e+01   7.3891460614e+01    0.2685198   0.06546428 -48.99   0.00115413    3.457    0.711
        47 -11.2366      3.0560      1.8580   8.8888334149e+01   7.4610884715e+01    0.5233829     0.178655  18.58  0.002603351    3.095    0.677
        48 -10.3412     12.6785      1.6177   8.2753122449e+01   7.3806241794e+01      0.31896    0.1497735  23.60  0.001580209    2.053    0.513
        49 -10.6556    232.5574      7.4975   3.2686834457e+01   2.7395891720e+01    0.3974301    0.2340357 -78.23  0.002287855    1.583    0.368
        50 -10.9216    236.7421      5.2294   3.1908809402e+01   2.6744085944e+01    0.4627338    0.2194897 -63.77  0.002404921    1.999    0.500
        51 -10.2006    228.3776      3.2068   3.2072144283e+01   2.8737460897e+01    0.3093348    0.1987369 -47.35  0.001627491    1.394    0.282
        52 -10.9267    218.7335      3.6375   3.2888484212e+01   3.0807283055e+01     0.304771    0.2487396 -46.70 0.0009163505    1.242    0.195
        53 -10.5245    223.4712      1.9923   3.2166174103e+01   2.9926154226e+01    0.3300092    0.1905387  79.77  0.001251079    1.563    0.360
        54 -10.3770    183.8522      4.9124   3.6339465251e+01   3.8751007885e+01    0.4229831    0.2668844 -35.95  0.002060858    1.654    0.395
        55  -9.8130    154.2694      7.3120   4.0582506967e+01   4.5702310281e+01    0.4253246    0.1592003  68.85  0.001752195    2.352    0.575
        56 -11.0066     41.7123      4.1678   6.8758512860e+01   6.9876948328e+01    0.4074801    0.2256721   3.15  0.002173226    2.054    0.513
        57 -10.9897    176.8765      5.7305   3.7309552173e+01   4.0349797894e+01    0.3679955    0.2035268  83.31  0.001502993    1.747    0.427
        58 -10.5590    169.2722      2.4093   3.7257760699e+01   4.2481249098e+01     0.260698    0.1792918 -67.48 0.0001914278    1.506    0.336
        59 -12.3925    134.1875      2.5474   4.2064484722e+01   5.0968584080e+01    0.4933346    0.2634784  70.48 0.0007120089    1.702    0.412
        60  -9.9613    142.7803      3.4002   4.1016906596e+01   4.8828161902e+01    0.3725531    0.2218922  63.94  0.001808025    1.424    0.298
        61 -10.5295    122.1441      5.0598   4.5016222106e+01   5.3635250033e+01     0.216799    0.1619721  62.46 0.0002920869    1.180    0.152
        62  -9.2499     54.6859      4.0792   6.3192023658e+01   6.7803739726e+01    0.1767118    0.1619039  54.10 0.0006834518    1.551    0.355
        63 -10.9898    207.6648      2.6198   3.3548107376e+01   3.3398921358e+01    0.2968544    0.1939883  86.88 0.0004416635    1.358    0.264
        64  -9.9661    203.6880      1.6628   3.3658268756e+01   3.4400638955e+01    0.3302923    0.1418001  61.31  0.001284229    2.163    0.538
        65  -9.7505    158.3558      2.4016   3.8572233023e+01   4.5128821510e+01    0.3770337    0.1549222  49.69  0.001649891    2.352    0.575
        66  -9.3874    151.9905      1.3057   3.9070276293e+01   4.6764303913e+01    0.2580906    0.1087998  77.77  0.001077595    2.419    0.587
        67 -11.0638    106.7269      1.9015   4.6907120584e+01   5.7454249125e+01     0.624526    0.2257071  65.40  0.002197917    2.657    0.624
        68 -10.1897     82.2496      1.3015   5.2637122399e+01   6.2822345815e+01    0.2000191   0.09654393  53.77 0.0003467023    1.778    0.437
        69  -9.8981    139.5139     43.5252   5.4741473182e+01   4.5258695368e+01     0.278114    0.2086596  40.76 0.0008547911    1.322    0.243
        70 -10.1807    143.0640    249.3757   1.0078436286e+02   3.7971659390e+00    0.1941681     0.171381 -13.67  0.001321087    1.328    0.247
        71 -11.6305      3.7136    147.4668   1.2110215617e+02   4.3376285589e+01      0.76487    0.2928036 -78.95  0.002943924    2.162    0.537
        72 -11.7365      3.5804    141.4760   1.2060863076e+02   4.4811207995e+01    0.6513481    0.3135979  66.95  0.001562691    2.331    0.571
        73 -10.7992     63.2491    150.6873   1.0547673828e+02   3.6878369471e+01     0.403167    0.3090273  -9.87  0.001449131    1.795    0.443
        74 -11.2238     46.3835    146.7418   1.0957779877e+02   3.9865926706e+01    0.8045748    0.3078771 -64.10  0.003299142    2.227    0.551
        75  -9.4205     41.9309    149.0000   1.1112148293e+02   3.9781599983e+01    0.2371999    0.1884004  33.51 0.0009417906    1.414    0.293
        76  -9.7754    215.1753    151.1881   6.8351513584e+01   8.9430385687e+00    0.1882806     0.171017 -59.10  0.000675212    1.314    0.239
        77 -10.0203     71.5102    150.9073   1.0321829095e+02   3.5722586427e+01      0.29686    0.2615855  10.09  0.001670678    1.352    0.260
        78  -9.5611    234.3213    150.3862   6.4737583527e+01   5.5854046949e+00    0.2206716    0.1560653  -1.06  0.001120779    1.684    0.406
        79 -10.2331    239.6770    146.6014   6.3019670500e+01   5.2857321098e+00    0.2456216    0.1885519 -27.23   0.00061421    1.139    0.122
        80 -10.7824    249.6168    142.8020   6.0605305032e+01   4.2028377472e+00    0.6276798    0.2216248 -37.20  0.002503767    2.423    0.587
        81 -10.6571     33.3820    144.5628   1.1289529155e+02   4.1727983009e+01    0.4575988    0.2850923  43.64  0.002133102    1.712    0.416
        82  -8.8840    234.2861    143.6255   6.3278888751e+01   6.7510394089e+00    0.1378322    0.1033752 -59.56 0.0007017642    1.717    0.418
        83 -10.0394    133.0506    140.8672   8.4348064124e+01   2.7646180375e+01    0.3607492    0.2596048 -55.45 0.0009549747    1.441    0.306
        84 -10.9253     22.7398    127.1471   1.1366386224e+02   4.6941307459e+01    0.3605021    0.2891251 -57.60 0.0002872579    1.146    0.127
        85  -9.7238     27.4692    140.1116   1.1397730243e+02   4.3360567916e+01    0.3146712    0.1872355 -60.05  0.001056774    1.450    0.310
        86 -11.4058     25.5137    135.4763   1.1394478141e+02   4.4668125730e+01    0.5457177    0.3407802  28.94  0.003007475    1.841    0.457
        87 -12.2789     30.0549    132.9162   1.1229611838e+02   4.4909969646e+01    0.6395295    0.5927497  -2.39 0.0003451706    1.315    0.240
        88  -9.9227     80.2588    136.6939   9.8131324996e+01   3.7999631200e+01    0.4479833    0.2800284 -29.14  0.001896595    2.201    0.546
        89 -10.5827     67.2460    135.8863   1.0180333156e+02   4.0047826524e+01    0.3879664     0.241738 -46.90 0.0008382149    1.586    0.370
        90 -10.3562     47.3781    135.6591   1.0762731374e+02   4.2519501431e+01    0.4686265    0.1875675 -62.43  0.001366923    2.119    0.528
        91  -9.9972     39.9309    138.0488   1.1015777978e+02   4.2704843101e+01    0.2418012    0.2045465  33.04  0.000776344    1.347    0.258
        92 -10.4771     94.0125    131.9990   9.3133201656e+01   3.6976978535e+01    0.3466294    0.2023086 -49.08 0.0008021531    1.638    0.389
        93  -9.1465     92.4771    128.5354   9.2820281529e+01   3.8079607710e+01     0.240348    0.2325922 -87.11  0.001042083    1.058    0.055
        94  -9.9715     74.1720    132.4996   9.9100492423e+01   3.9933716013e+01    0.3226545    0.2544577 -15.90  0.001639182    1.585    0.369
        95  -9.6380     78.8419    128.8639   9.6961937302e+01   4.0153379661e+01    0.2984069    0.2032108 -37.68 0.0003672179    1.594    0.373
        96  -9.8015     81.1584    124.8648   9.5407567790e+01   4.0789764853e+01    0.4121651    0.2853946  41.25  0.001988533    1.530    0.346
        97 -10.0458     61.9509    132.1249   1.0268944421e+02   4.1679842176e+01    0.4307052    0.2879293 -39.76  0.002112516    1.617    0.381
        98  -9.8456     39.0337    133.0261   1.0967805469e+02   4.4043798493e+01    0.2554278    0.2010527  17.45 0.0008358113    1.534    0.348
        99  -9.4832    103.9389    130.8583   9.0007240984e+01   3.5537321480e+01    0.2198036    0.2019254  -8.37 0.0003562831    1.186    0.157
       100 -10.8454     10.4097    127.8966   1.1735499486e+02   4.7642183506e+01    0.6206459    0.2149961 -59.30  0.002781828    2.209    0.547
       101  -9.1098    107.6907    145.9742   9.2251702662e+01   3.1220155651e+01    0.2118058    0.1941236 -65.02 0.0005008909    1.078    0.072
       102  -9.1585    223.9892    126.9233   6.1298698959e+01   1.1614805654e+01    0.2153523    0.1632575 -61.61 0.0005132619    1.601    0.375
       103  -9.9150      2.8608    126.2287   1.1932866214e+02   4.8504478432e+01    0.3192204     0.188626  70.35  0.001763299    1.830    0.453
       104  -9.6137     53.4938    124.9740   1.0395731736e+02   4.4496804063e+01    0.3353699    0.1982041 -61.44  0.001098205    1.494    0.330
       105  -9.9365     56.4693    122.4815   1.0256295038e+02   4.4764161887e+01    0.3729608    0.2578974  56.26  0.001871275    1.704    0.413
       106  -9.8427     49.5530    123.1551   1.0485116059e+02   4.5398633344e+01    0.2957736    0.2437117 -15.09  0.001005169    1.443    0.307
       107 -11.0487     45.3506    120.1425   1.0562789273e+02   4.6602689253e+01    0.6432368    0.3464212 -86.65  0.002259088    2.626    0.619
       108 -10.0445    216.6678    137.8638   6.5091693570e+01   1.1081667546e+01    0.3771152    0.2250839 -44.33  0.001658573    1.618    0.382
       109 -12.0439     18.8220    122.2598   1.1418174357e+02   4.8435119624e+01    0.2626015     0.197415 -70.67 0.0003129599    1.093    0.085
       110 -12.1062    104.0255    122.5101   8.8023457398e+01   3.7524410464e+01    0.4720521    0.4054518 -32.54  0.001720806    1.194    0.163
       111  -9.0698     94.4191    123.4477   9.1085294062e+01   3.8990053842e+01    0.1502163     0.142001 -49.72 0.0001454807    1.009    0.009
       112  -9.3918      4.6494    121.4535   1.1829957266e+02   4.9548872584e+01    0.2611772    0.1544694  77.60  0.001417253    1.808    0.447
       113  -9.2033     71.3335    120.8758   9.7578763416e+01   4.3218461701e+01    0.2102784    0.1734001 -51.65 0.0006775822    1.118    0.106
       114  -9.2364    221.2155    120.3915   6.0264082365e+01   1.3327724025e+01    0.1858886    0.1401132  65.09  0.000593135    1.638    0.389
       115  -9.1386    148.2146    120.1873   7.5425718781e+01   2.9126855157e+01    0.2686652    0.1756318  -1.36 0.0009489334    2.810    0.644
       116  -9.2037     62.9392    120.2697   1.0008990191e+02   4.4503690303e+01    0.1811759    0.1738735 -54.35 0.0001742705    1.061    0.058
       117 -10.3827     33.2583    118.6736   1.0919360043e+02   4.8146396934e+01    0.3802674    0.2327535  63.68  0.001690272    2.084    0.520
       118  -9.2569    186.4756    119.0000   6.6441476656e+01   2.0939143387e+01    0.3321472   0.08779683  48.83 0.0009371926    3.955    0.747
       119  -9.4582     58.5442    117.8389   1.0099071174e+02   4.5661341670e+01    0.2869637    0.1178705 -55.69  0.001139992    2.087    0.521
       120  -9.6958    113.8478    115.7353   8.3484157109e+01   3.7266358555e+01    0.3417807    0.2395373 -34.87  0.001532501    1.504    0.335
       121 -10.6474    107.5064    111.9772   8.4356256165e+01   3.9355346308e+01    0.6060983    0.3617927 -65.96  0.002342598    2.293    0.564
       122 -10.9459    102.7597    109.2832   8.5067003489e+01   4.0869188241e+01    0.6744007    0.5388055 -29.74  0.003321767    1.309    0.236
       123  -9.6797     79.7670    114.9437   9.3597986645e+01   4.3427916886e+01    0.3834584    0.2672328 -80.93  0.001728328    1.893    0.472
       124  -9.2850     67.2579    114.2609   9.7434385605e+01   4.5408796456e+01    0.3446637    0.2451809 -84.99  0.001639961    1.777    0.437
       125  -9.6895     65.6954    110.6762   9.7140810310e+01   4.6494986606e+01    0.4502503    0.2057311  27.69  0.001802348    2.517    0.603
       126 -11.1783     50.8907     96.4540   9.8897097936e+01   5.1761673639e+01     1.548167     0.500244 -53.39  0.005789691    2.521    0.603
       127 -11.7039     17.0418    101.0074   1.1161027791e+02   5.3709449408e+01    0.3669228    0.2688172  19.46 0.0003549193    1.643    0.391
       128 -11.0082     16.4712    109.8710   1.1317396616e+02   5.1613794605e+01    0.3713293    0.2600061  35.89   0.00138289    1.679    0.404
       129 -10.9968     42.2376     94.0201   1.0141744356e+02   5.3275193871e+01    0.4155275    0.3106037  84.45  0.001506544    1.752    0.429
       130 -11.1212      9.7162     97.4251   1.1353261396e+02   5.5012226033e+01    0.6142596    0.5141063  19.64  0.001556373    1.465    0.318
       131 -11.7014      7.0378     88.6925   1.1307564033e+02   5.7208665996e+01    0.5389385    0.4190688  13.98  0.002083928    1.573    0.364
       132 -10.3230     18.6245    106.0942   1.1189643245e+02   5.2379600079e+01      0.19727    0.1899885  17.65 0.0002576851    1.255    0.203
       133 -11.9358     34.8095     93.3917   1.0395143953e+02   5.4138653367e+01     1.400754    0.7710233 -65.69  0.005384581    1.688    0.408
       134 -10.6656     26.5477     85.5927   1.0531825940e+02   5.6666555588e+01    0.7902189    0.4646906  15.72  0.004204281    2.003    0.501
       135 -11.8269     24.8437    113.6728   1.1106600609e+02   5.0080659702e+01    0.8862287    0.3514164   8.40   0.00335847    4.184    0.761
       136 -12.2216     25.1196    108.3736   1.1012309797e+02   5.1350470826e+01    0.8862967    0.5304158 -48.65  0.004270456    1.482    0.325
       137 -11.6529     18.1714     90.3090   1.0934970577e+02   5.6172599829e+01    0.3923241    0.2528674 -65.04 0.0005173771    1.303    0.233
       138 -12.0509     44.3132     84.7685   9.8450445027e+01   5.5214910852e+01    0.5632958    0.4504222  12.84  0.002504355    1.384    0.277
       139 -10.6471     37.6619     86.1446   1.0127732566e+02   5.5570129732e+01    0.3203818    0.2498821  41.95 0.0008890168    1.538    0.350
       140 -10.0649      7.0386    114.4711   1.1676188958e+02   5.1090715674e+01    0.2264576    0.2178821 -68.53 0.0008304605    1.204    0.169
       141 -12.2480      2.1010    111.3610   1.1790076467e+02   5.2103608226e+01    0.3723519    0.2158001 -75.78 0.0006422245    1.402    0.287
       142 -11.3326      4.0818    105.2538   1.1651417763e+02   5.3456774669e+01    0.4211003    0.3593863  69.33  0.002882711    1.320    0.243
       143  -9.1467    126.7232    113.9699   7.9412674023e+01   3.5076681524e+01    0.2241316    0.2026638 -45.68 0.0007001444    1.089    0.081
       144 -11.7149     22.6135     94.8627   1.0860695830e+02   5.4786948436e+01    0.5489366    0.3745437   3.02  0.002054912    1.787    0.440
       145  -9.7027     94.1469    112.1207   8.8422888331e+01   4.1750435290e+01    0.3404904    0.2627229 -57.36  0.001671295    1.293    0.227
       146  -9.7457     48.7531    112.4352   1.0307689059e+02   4.8138533231e+01    0.2476599    0.2081015 -69.56   0.00100739    1.127    0.113
       147 -11.0841    170.2427    110.4888   6.7720258922e+01   2.6249968845e+01    0.4546419    0.3532221 -38.20  0.001338626    1.255    0.203
       148 -10.1680    120.6563    109.1124   7.9800422279e+01   3.7414586670e+01    0.3821713    0.2841691 -21.22  0.001384099    1.601    0.375
       149 -11.4863     79.7352    108.3134   9.2014255325e+01   4.5028446202e+01    0.6395489    0.3843898  31.04 0.0008998483    1.810    0.448
       150 -10.5867     89.9394    104.4909   8.7771882084e+01   4.4266582446e+01    0.3930232    0.3146472  10.18  0.001268586    1.441    0.306
       151 -10.4689     85.9113    103.8688   8.8895460244e+01   4.5088587067e+01    0.5552936    0.3332501 -20.25  0.001858997    2.637    0.621
       152  -9.5357     58.6053    108.8755   9.9077461615e+01   4.7852632883e+01    0.2675354    0.1661593 -72.17  0.001226638    1.807    0.446
       153 -10.0765    131.8592    110.3740   7.7062815065e+01   3.4795183310e+01    0.3697303    0.1788603 -56.91  0.001238792    2.746    0.636
       154 -10.6984    143.4964    105.9838   7.2836577686e+01   3.3205309126e+01    0.3787267    0.3064275 -59.43  0.001464853    1.355    0.262
       155 -11.6980    145.3732    100.2307   7.0771781956e+01   3.3981836167e+01     0.496538    0.4523809 -34.43   0.00036861    1.085    0.078
       156 -10.2073    157.1555    106.8571   6.9738724672e+01   2.9953716267e+01    0.4054111     0.315477   0.26  0.001839663    1.653    0.395
       157 -10.2144    209.2332     99.9895   5.7420400671e+01   1.9474679442e+01    0.4962034    0.2334949 -28.42 0.0006634518    2.511    0.602
       158  -9.4532    120.8051    101.1753   7.7570497164e+01   3.9136281184e+01    0.2223702    0.1864356  -5.61 0.0009160475    1.360    0.265
       159 -11.0444     90.0444     89.3350   8.3523267892e+01   4.7678615304e+01    0.7269464    0.3714247 -32.90  0.002787609    2.330    0.571
       160 -11.6001     76.5515     80.0023   8.5306144764e+01   5.1974071317e+01     1.028107    0.7779943 -89.85  0.004829862    2.169    0.539
       161  -9.7419    174.8433    247.1104   9.4181595641e+01  -6.3979574685e-01     0.230885    0.1872157  25.48  0.001526586    1.018    0.018
       162 -11.2889     67.6133     95.5960   9.2836536710e+01   4.9825845759e+01    0.5421513     0.458409   5.58   0.00271822    1.288    0.224
       163 -11.7897     79.3164     93.9105   8.8391382691e+01   4.8457725628e+01    0.8150793    0.6564732  26.77  0.004304937    1.316    0.240
       164 -10.1477     66.6683     88.6731   9.1316411902e+01   5.1550676681e+01    0.3624412    0.2262482 -28.29  0.001010931    1.821    0.451
       165 -10.3540     67.2526     81.8937   8.9186861370e+01   5.2981702671e+01      0.42131    0.3608859 -12.00  0.002386964    1.166    0.143
       166  -9.2076    248.0000    240.9396   7.9619797431e+01  -9.9982000915e+00    0.1707593   0.05778046 -34.62 0.0007947495    2.889    0.654
       167 -11.4594     86.4987     73.5443   7.9828128443e+01   5.1632434745e+01     0.856062    0.5364117  32.60  0.004004356    1.661    0.398
       168 -10.9197     79.4658     67.7232   8.0342324012e+01   5.4017196097e+01    0.5871433     0.450157  31.62  0.003133762    1.328    0.247
       169 -11.2068     91.2619     62.8813   7.4638840867e+01   5.2811233471e+01    0.6820751    0.3855259  53.61  0.002835613    2.228    0.551
       170 -11.9695     89.4680     57.2757   7.3254676911e+01   5.4161417243e+01    0.9756287    0.6705535  52.90  0.004802017    1.709    0.415
       171  -9.5300     57.1378     97.6658   9.6993642743e+01   5.0728004930e+01    0.2487721    0.1876408 -64.32  0.001101754    1.324    0.245
       172  -9.7758     57.3997    102.9270   9.8144181382e+01   4.9440676101e+01    0.3644043    0.1558687 -57.06  0.001474362    2.077    0.519
       173 -10.0158    117.2193     93.2645   7.6319840754e+01   4.1580392262e+01    0.3838013    0.2881925   6.36  0.001614816    1.717    0.418
       174 -10.9220    124.4403     93.7675   7.4426278795e+01   3.9947380646e+01    0.6462322    0.3415306  43.79  0.002067653    1.916    0.478
       175  -9.5790    160.1121     93.6382   6.5420435688e+01   3.1903900772e+01    0.4772323    0.2656098  71.97  0.001580427    3.259    0.693
       176 -10.7089    152.1748     91.6565   6.6693858258e+01   3.4137370797e+01     0.497496    0.4120925 -73.18  0.002235523    1.435    0.303
       177 -10.7960    100.8463     91.3826   8.0674753200e+01   4.5250334332e+01    0.6100205    0.3828973  54.68  0.002607849    1.970    0.492
       178 -10.4423    104.5112     86.7887   7.8168833361e+01   4.5521520453e+01    0.5247197    0.3364663 -20.41  0.002179061    2.059    0.514
       179 -11.1436    113.6650     83.5049   7.4415944996e+01   4.4341412942e+01    0.4609473    0.3693188 -42.89  0.002206251    1.244    0.196
       180 -11.3795    120.6144     86.9464   7.3469350130e+01   4.2173743832e+01    0.6607406    0.4133158 -44.56  0.002885826    1.598    0.374
       181  -9.0519    200.5647     88.5894   5.6043754130e+01   2.3404825880e+01    0.3156437    0.1911305 -85.08  0.001154462    3.097    0.677
       182 -10.5682    183.6085     85.9107   5.8408533584e+01   2.7804951323e+01     0.714788    0.2884672 -45.43  0.002540335    2.510    0.602
       183  -8.7108    214.6914     86.2775   5.3151263587e+01   2.0628015346e+01    0.1424676    0.1049403 -68.75 0.0001927252    1.555    0.357
       184 -10.3887    165.7354     83.6629   6.1376843771e+01   3.2445192192e+01    0.3919641    0.3219161 -55.56  0.001308244    1.272    0.214
       185 -10.4022    127.2974     82.7232   7.0336953178e+01   4.1557262162e+01    0.3039419    0.2865237  52.69  0.001177973    1.102    0.093
       186  -9.5172     60.4219     83.2523   9.2062696336e+01   5.3629247333e+01    0.2708899     0.183627 -51.58  0.001008768    1.364    0.267
       187 -11.5892     53.0754     75.9965   9.2750735252e+01   5.6175143511e+01     0.616626    0.3902005 -56.47  0.003087638    1.564    0.361
       188 -10.9627     58.0103     77.7913   9.1397645410e+01   5.5155302449e+01    0.3478514    0.2656105 -60.88 0.0007134716    1.423    0.297
       189 -10.9442     47.0333     74.7378   9.4728801972e+01   5.7166375756e+01    0.3753935    0.2315873 -53.15 0.0008788792    1.472    0.321
       190  -8.6533      3.2760     83.5889   1.1359546256e+02   5.8574027898e+01    0.1217014   0.08324821  78.45 0.0005362947    1.785    0.440
       191  -9.9258    103.2478     79.2146   7.6213655642e+01   4.7329872107e+01    0.4158401    0.2720321 -25.82  0.001115076    1.729    0.422
       192 -10.1915    103.8247     74.4413   7.4505637300e+01   4.8160212582e+01    0.3462763    0.3165582  83.09 0.0009726068    1.345    0.257
       193  -9.4993     21.2802     80.8089   1.0629038304e+02   5.8164401254e+01    0.1959375    0.1704049 -26.05 0.0006638623    1.179    0.152
       194 -10.7156    109.0215     80.7012   7.4920761745e+01   4.5866431114e+01    0.3872792       0.3324 -17.97  0.001383318    1.186    0.157
       195 -10.3740    232.9250     77.7621   4.8495779187e+01   1.8069181623e+01    0.3758068    0.1911791 -36.44  0.001720293    1.775    0.437
       196  -9.2148      8.6794     76.1750   1.1021613416e+02   5.9999844097e+01    0.2614976   0.08500315 -46.56  0.001117098    2.359    0.576
       197 -11.8491     14.1470     74.6662   1.0775999493e+02   6.0030310459e+01    0.4854714    0.3069278 -61.51  0.001741615    1.318    0.241
       198  -9.6670     14.9228     67.4305   1.0582725999e+02   6.1593158770e+01    0.3478865    0.2590407  -4.90  0.002113544    1.474    0.321
       199 -11.6281      1.9976     71.2801   1.1190140237e+02   6.1421448144e+01     0.576086    0.1664874 -64.53    0.0024733    2.523    0.604
       200 -12.4186      6.2364     62.6454   1.0837645096e+02   6.3125981439e+01    0.7314895    0.4292465 -19.55  0.004060591    1.808    0.447
       201 -11.2677    142.7326     84.2184   6.6803299856e+01   3.7762723867e+01    0.5649278    0.3489845  42.00  0.001062426    1.660    0.397
       202  -9.5283    139.4727     77.4928   6.5580503528e+01   3.9780285648e+01    0.1499444    0.1491989  14.77 -7.522065e-06    1.023    0.023
       203 -10.1905    127.2688     77.0397   6.8584798740e+01   4.2654264992e+01    0.2803144    0.2257894  54.86  0.000463434    1.298    0.229
       204  -9.7079    192.4389     65.7490   5.1435371213e+01   2.9075346572e+01    0.2782422    0.2108105 -75.09 0.0008469353    1.478    0.324
       205 -12.2117    186.5637     70.6591   5.3744263666e+01   2.9693906480e+01    0.9279104     0.647022 -39.44  0.003270302    1.395    0.283
       206 -10.0995     63.6258     74.7901   8.8395560634e+01   5.5038377430e+01    0.5036441    0.3540082  39.84  0.002626264    1.600    0.375
       207  -9.9393    184.3772     61.7558   5.1687677668e+01   3.1627756090e+01    0.3017394    0.2514264 -42.10  0.001061183    1.184    0.155
       208  -9.6131    152.6072     73.1646   6.1175576792e+01   3.7453089540e+01    0.5013561    0.2040302  39.92  0.001623229    3.132    0.681
       209  -8.8894     24.5619     72.8233   1.0317199272e+02   5.9727522974e+01    0.3868826    0.1748913 -72.39  0.001578251    2.970    0.663
       210  -9.1605     22.0829     66.1188   1.0251491402e+02   6.1390663055e+01    0.3940288    0.2238874 -77.55  0.001869953    2.496    0.599
       211  -8.9708     25.5978     65.5002   1.0087627822e+02   6.1253424935e+01    0.2383443    0.1449151 -16.17   0.00107824    1.836    0.455
       212 -11.0767     40.9833     71.1917   9.6119888489e+01   5.8599894929e+01    0.5243761    0.2680868 -51.38  0.001973369    1.674    0.403
       213 -11.5995     32.0883     72.1626   9.9966966992e+01   5.9248704018e+01    0.6306552    0.2701313  25.78  0.001703571    2.574    0.612
       214 -11.8449    122.8892     68.9661   6.7189412916e+01   4.5120095833e+01    0.5560129     0.511925  25.97  0.001759243    1.062    0.058
       215  -9.9855    172.2197     68.5938   5.5782536862e+01   3.3487037342e+01    0.3493064    0.3030531  34.86  0.001586377    1.253    0.202
       216  -9.2164    172.2361     64.9888   5.4750730210e+01   3.4066064604e+01    0.3111376    0.2430972 -19.29 0.0009846068    1.460    0.315
       217  -9.6359    169.4904     63.4843   5.4835746287e+01   3.4974267995e+01    0.3140119    0.2361221 -42.84  0.001363339    1.329    0.248
       218  -9.7452    162.1789     70.7936   5.8413514101e+01   3.5554713486e+01    0.3070951    0.2535901 -75.15  0.001229626    1.383    0.277
       219 -11.4197    220.1297     66.3520   4.7495110324e+01   2.2594214409e+01    0.5604599    0.3811387  55.96  0.002594272    1.575    0.365
       220  -9.5664     53.1051     66.0077   8.9707905202e+01   5.8296353858e+01    0.2577449    0.1801112  41.46  0.001073133    1.713    0.416
       221 -10.3566    200.2571     63.9013   4.9720643408e+01   2.7513678390e+01    0.5092749    0.3154266  87.46  0.002244615    2.137    0.532
       222  -9.9081    106.1391     64.2249   7.0398960303e+01   4.9597260806e+01    0.3536592    0.2500864 -32.81  0.001236179    1.416    0.294
       223 -10.9296    106.6602     58.6198   6.8310275725e+01   5.0467538224e+01    0.3695655     0.324435  69.79 0.0007949786    1.378    0.274
       224 -10.8385     59.4795     63.5445   8.6390068727e+01   5.7947922958e+01    0.7043828    0.3430983  17.46   0.00277779    2.972    0.664
       225  -9.8178     57.3237     61.3076   8.6490203210e+01   5.8692149055e+01    0.2596191      0.19014  -9.86 0.0006587578    1.429    0.300
       226 -10.6128     14.7589     44.9791   9.9811983012e+01   6.6307876021e+01    0.9033072    0.2016971 -38.14  0.003043758    4.453    0.775
       227  -9.4394     67.9052     32.1344   7.1125720504e+01   6.2105114927e+01    0.4862921    0.4470343  45.20  0.003107871    1.386    0.278
       228 -10.6369     25.9565     48.4072   9.5640758362e+01   6.4760492961e+01    0.2929803    0.1572542 -41.92 0.0004507078    1.513    0.339
       229 -10.3487     22.4854     37.0044   9.3329377596e+01   6.7235330343e+01      0.58446    0.2890601  43.45   0.00270659    3.439    0.709
       230 -12.0033     21.9578     46.4002   9.6846887063e+01   6.5490794326e+01     0.648563    0.3899525 -10.27  0.001892465    1.784    0.439
       231  -9.8209     68.0050    240.4999   1.1482015490e+02   1.6112376984e+01    0.1805194    0.1020918  38.39 0.0008818214    1.581    0.367
       232 -12.2419     26.0270     56.4440   9.8129076059e+01   6.3132303079e+01     1.037834    0.6478851   4.90  0.005860338    1.782    0.439
       233 -10.7756     34.0869     57.8861   9.5041847988e+01   6.2105884886e+01    0.4018653     0.218454 -22.76  0.001943718    2.094    0.522
       234 -11.9885     58.0067     30.1231   7.4175331937e+01   6.4027972677e+01    0.4025855    0.2778604   0.02  0.001144123    1.466    0.318
       235 -11.6104     48.8970     30.2731   7.8117931372e+01   6.5364159232e+01    0.6307822    0.2701018  28.92  0.002390501    2.471    0.595
       236 -11.4200     60.9108     36.5941   7.5741742136e+01   6.2584185164e+01    0.4563147    0.3014999 -38.07   0.00134279    1.531    0.347
       237 -12.2346     48.8419     60.5086   8.9651991262e+01   5.9951368267e+01    0.7643054    0.5490716  31.21  0.002551276    1.528    0.346
       238 -11.1956     41.0977     57.1718   9.1798709534e+01   6.1523446536e+01    0.3966434    0.2925291  34.24  0.001484728    1.583    0.368
       239 -11.4867    234.1648     60.9203   4.4446332394e+01   2.0343794204e+01    0.5352712    0.3820476  70.50  0.002583116    1.489    0.329
       240 -10.1582    159.0654     62.4688   5.6586826174e+01   3.7678447566e+01     0.580368    0.2190044  46.58  0.002009221    2.749    0.636
       241 -11.8898    120.9506     57.4724   6.3891097963e+01   4.7525706826e+01     1.271545    0.8353386  56.96  0.005941606    1.601    0.375
       242 -10.5493    109.2211     43.1555   6.2034765795e+01   5.2349587896e+01    0.4906323    0.3444262 -31.90   0.00201039    1.475    0.322
       243 -11.7070    114.1596     49.3169   6.2894566012e+01   5.0339862053e+01    0.9989488    0.4184369  36.89  0.003534197    2.906    0.656
       244  -8.6821    221.5160    239.4967   8.4099055822e+01  -6.3260977560e+00    0.1227395   0.09511595   8.42  0.000810444    1.011    0.011
       245 -10.2633    150.3893    237.7706   9.7759062478e+01   4.5922404470e+00    0.2216477    0.1938974 -27.27  0.001412342    1.308    0.236
       246 -10.5145    146.8712    237.3187   9.8417583561e+01   5.2173067389e+00    0.2499929    0.1913615 -63.73   0.00150206    1.674    0.403
       247 -11.1603    127.7531    241.9807   1.0294296480e+02   7.3572696154e+00    0.3521839    0.2826691  20.79  0.002220474    1.315    0.240
       248 -10.7407    198.6193    232.8613   8.7345689080e+01  -2.0808508451e+00    0.4160522    0.3063937  22.27  0.002573465    1.148    0.129
       249 -10.7589    138.2562     33.6580   5.1741457167e+01   4.6850119457e+01    0.5094207    0.3298229 -57.13  0.001756585    1.950    0.487
       250 -10.0491    242.6452    231.8497   7.9024068499e+01  -8.1659145118e+00    0.2346736    0.2088507  29.91  0.001673926    1.579    0.367
       251  -9.4716     15.2505    233.6991   1.2434848323e+02   2.3439054210e+01    0.2094325    0.1231149 -75.11  0.001224069    1.626    0.385
       252 -11.1421    155.6848     42.2072   5.1080982185e+01   4.1485811191e+01    0.6793485    0.4239708  66.07  0.003216289    1.583    0.368
       253 -12.0731    153.0498     35.9599   4.9628584373e+01   4.2945711420e+01    0.3420978    0.3056392  29.98 0.0003496117    1.198    0.166
       254 -11.9073    160.0221     29.5520   4.6454538315e+01   4.2003855563e+01    0.4452246     0.344155 -17.89  0.001196056    1.492    0.330
       255 -11.3004    164.0347     27.8714   4.5311354317e+01   4.1209278009e+01    0.3390724    0.2749927 -36.53 0.0004500664    1.310    0.237
       256 -10.5353    136.0827     55.3519   5.9392632119e+01   4.4348173243e+01    0.8974746    0.4877798 -33.24  0.003856553    1.905    0.475
       257 -11.4418    145.8245     47.2756   5.4619255369e+01   4.3203347650e+01    0.9618101    0.4331575 -20.81  0.003424497    3.157    0.683
       258 -10.0852    145.5056     39.4860   5.2185958839e+01   4.4344574855e+01     0.234948    0.2224497  45.37 0.0006046423    1.041    0.040
       259  -8.6512    219.6612     56.7335   4.5230560702e+01   2.4121191493e+01    0.1277462    0.1039736  32.30 0.0004222393    1.595    0.373
       260  -8.2589      2.2871     56.3109   1.0864212123e+02   6.4672423243e+01    0.1270998   0.06450503 -40.73  0.000198631    1.578    0.366
       261 -10.7909    239.8152     51.2519   4.1624625264e+01   2.0515790538e+01    0.4940802    0.3217305 -18.54  0.002548045    2.060    0.515
       262 -10.7101    244.9597     51.0636   4.1048855903e+01   1.9471958654e+01    0.3393576    0.1831671  77.68  0.001698414    2.124    0.529
       263  -9.6730    187.5618     55.1756   4.9369753068e+01   3.1847391694e+01     0.292341    0.1921553  57.39   0.00143005    1.502    0.334
       264  -9.7844    211.5146     52.9773   4.5357284332e+01   2.6508386745e+01    0.2488953    0.2364576  85.07  0.001541076    1.111    0.100
       265 -10.6722    201.6128     48.7681   4.5612875775e+01   2.9405992289e+01    0.5425759    0.3623383   0.01  0.002447571    2.510    0.602
       266 -11.1231    200.6481     45.3107   4.4853192169e+01   3.0108500031e+01    0.5274844     0.281069  81.67  0.002269187    2.290    0.563
       267 -10.0218    176.0049     43.8127   4.8048739871e+01   3.6263893658e+01    0.4318903    0.2191913  56.08  0.001897975    1.862    0.463
       268  -9.8775    149.1730     60.8502   5.8178842481e+01   4.0339928991e+01    0.5252427    0.1837437  58.04   0.00173093    2.985    0.665
       269  -9.8658     90.9973     47.7664   6.9249668447e+01   5.5462097510e+01    0.3055128    0.2126516 -47.95  0.001329965    1.710    0.415
       270  -8.8604    163.6500    243.3236   9.5857311466e+01   1.6372312234e+00    0.1242435   0.09101427  58.40  0.000704872    1.750    0.429
       271  -9.6315     23.9203    231.9472   1.2265948707e+02   2.2911715841e+01    0.1913746   0.09597758  61.87 0.0008828795    1.670    0.401
       272 -10.2635    247.6832    231.8118   7.8140215701e+01  -8.8154901934e+00    0.2495768    0.2161746 -51.39  0.001684904    2.067    0.516
       273 -10.3552     13.9660     23.3693   9.2425926309e+01   7.0359103377e+01    0.2254304    0.1533618 -14.91 0.0005108036    1.251    0.201
       274  -9.4743    108.4893    229.9608   1.0547050763e+02   1.2470025717e+01    0.1758234     0.126724 -64.93  0.000506027    1.566    0.362
       275  -9.2656    181.3289    228.3197   9.0034737381e+01   1.2856971895e+00    0.1339568    0.0914702   3.92 0.0007047796    1.687    0.407
       276  -9.6861    233.8873    223.2192   7.9091616966e+01  -5.8212253556e+00    0.2402617    0.1360592  -9.15   0.00112588    2.019    0.505
       277  -8.9522    153.6387    219.3191   9.4357387776e+01   7.3023949416e+00    0.1363098   0.09994412  63.24 0.0007042473    1.769    0.435
       278 -10.9191     93.7862     41.2664   6.5881036642e+01   5.5900752100e+01    0.6876845    0.2754375  47.00  0.002749338    2.369    0.578
       279  -9.6401     95.0392     36.4335   6.3618580953e+01   5.6333152071e+01    0.2937074    0.2243342  66.84  0.001184639    1.684    0.406
       280 -10.3246    189.1198     41.6472   4.5475232538e+01   3.3356572449e+01    0.4703533    0.2069259 -26.89  0.001071812    2.617    0.618
       281 -10.4597     94.2512     76.4987   7.8205641174e+01   4.9616799424e+01    0.5479839    0.3514485  30.23   0.00172401    1.672    0.402
       282  -9.9589    231.6464     38.7039   3.9646535857e+01   2.3937153832e+01    0.2596745    0.1843682 -51.98  0.001102652    1.236    0.191
       283 -10.1867    193.7225     39.0265   4.4142880912e+01   3.2591315063e+01    0.2375161    0.1878601  71.15 0.0003247981    1.210    0.173
       284 -10.6959    176.5472     30.1521   4.4104196941e+01   3.7864067988e+01    0.4519009    0.2349994  49.91  0.001636877    1.963    0.490
       285 -11.3002    183.2891     25.3619   4.1863190196e+01   3.6777157241e+01     0.524011    0.3162225  51.75  0.002642104    1.689    0.408
       286 -11.1051    176.7310     36.3885   4.5834017878e+01   3.7054737791e+01    0.4017904    0.3375326 -24.56  0.002294536    1.327    0.246
       287 -10.1269    171.7841     33.0269   4.5624174297e+01   3.8687597220e+01    0.3802376    0.2543245  81.25  0.001804438    1.558    0.358
       288  -9.4379    217.0131     38.0407   4.1045481382e+01   2.7272797565e+01    0.2596007    0.1033568 -52.65  0.001034367    2.657    0.624
       289  -8.7959    184.2889     38.6387   4.5348705847e+01   3.4920833393e+01    0.1474582   0.09630533 -63.70 0.0007025211    1.692    0.409
       290  -9.4324    206.9222     37.0510   4.1967365632e+01   2.9722235380e+01    0.2049947    0.1815692 -74.39 0.0006417895    1.005    0.005
       291  -9.4460    133.3957     37.2001   5.3957148617e+01   4.7575164412e+01    0.3642787    0.2135888  82.38  0.001457108    2.669    0.625
       292  -9.5922      9.6452    217.8117   1.2455414727e+02   2.7150506570e+01    0.1615755   0.08274383  85.87 0.0009359233    1.673    0.402
       293 -11.8706    106.1005     32.5501   5.8933037979e+01   5.4479537790e+01    0.4835035    0.2957143  19.71  0.001725505    2.064    0.515
       294  -9.5630    227.0620    216.0870   7.9074326801e+01  -3.8290551834e+00    0.1657302    0.1570449  52.02 0.0004603288    1.620    0.383
       295 -10.8105    240.2393     31.6259   3.7259273460e+01   2.2995115377e+01    0.4092002    0.3335542 -40.30  0.002533625    1.249    0.199
       296 -10.5201    164.9202    212.4400   9.0838885529e+01   6.6742300860e+00    0.2944371    0.2135399  47.08 0.0008514807    1.419    0.296
       297 -11.8908    124.8641     27.9524   5.2630690794e+01   5.0739581750e+01    0.6499837    0.4016907  46.66  0.001637152    1.475    0.322
       298  -9.2748    221.5379     29.9703   3.8659079863e+01   2.7264108292e+01     0.189385     0.119098 -34.79  0.001025417    1.581    0.367
       299  -9.2573    204.6645    208.3289   8.1942770980e+01   8.0822301089e-01    0.1211758    0.1080201  72.80 0.0003411908    1.726    0.421
       300 -10.6180    189.5060     27.6242   4.1676916885e+01   3.5011849514e+01    0.3706115    0.2827736  14.38  0.001732135    1.839    0.456
       301  -9.0904     99.5151     30.4813   5.9966848204e+01   5.6175173015e+01    0.2188071    0.1238969  50.74 0.0005794998    1.648    0.393
       302  -9.7650     97.8105     26.7251   5.8969255622e+01   5.7002999194e+01    0.2866499    0.2238494 -45.68 0.0009804426    1.562    0.360
       303 -10.2011    230.5660     27.5395   3.7235822827e+01   2.5566006384e+01    0.3149522    0.1842281 -45.75  0.001239691    1.507    0.336
       304  -9.7359    153.2916    207.8534   9.2588870820e+01   9.4956661262e+00    0.2465501     0.179262  46.07   0.00106637    1.348    0.258
       305 -10.7218    211.3795     18.6812   3.7005320901e+01   3.0883808139e+01    0.2385391    0.2051049 -46.50 0.0002131857    1.198    0.165
       306  -9.6103    211.4857     27.4967   3.9109043149e+01   2.9844171014e+01    0.1930152    0.1718493 -27.40  0.000846621    1.312    0.238
       307  -9.5304     61.1168    206.6577   1.1311241120e+02   2.3932829129e+01    0.2084777    0.1570759  82.72 0.0007157273    1.230    0.187
       308  -8.7224      1.2821     26.6734   1.0066160896e+02   7.0612375596e+01   0.09463892   0.08773617 -81.70 0.0007001336    1.600    0.375
       309 -10.1854    238.1441    204.6107   7.4968690740e+01  -3.7601796700e+00    0.2594016    0.1636047 -23.74  0.001468423    1.439    0.305
       310 -10.2501     17.3549    204.1376   1.2222755136e+02   2.9311799786e+01    0.2430391    0.1374682 -54.57   0.00138422    2.111    0.526
       311 -10.4065      4.5218    204.4830   1.2482578574e+02   3.0386396635e+01    0.3488531   0.08736231 -68.46  0.001517334    3.223    0.690
       312  -9.2587     44.9098     24.4094   7.7293926380e+01   6.6805337248e+01    0.2010382     0.156122 -33.86 0.0007331952    1.381    0.276
       313  -9.4879    168.8693     23.8205   4.3400826209e+01   4.0476405984e+01     0.210002    0.1712272  47.21 0.0007226531    1.274    0.215
       314  -9.6358     59.6684     23.9565   7.0763735396e+01   6.4632970495e+01    0.2084147    0.1671504   0.47 0.0004760899    1.068    0.064
       315 -10.1208     60.2085     19.8275   6.8659377417e+01   6.5083894103e+01    0.3153449    0.2392018 -49.81  0.001231502    1.964    0.491
       316 -10.8237      5.8315    199.0322   1.2425741402e+02   3.1442684054e+01    0.2787676    0.1562137 -71.27  0.001698519    1.603    0.376
       317  -9.0997    223.4468     22.0479   3.6650034123e+01   2.7779276643e+01    0.1934438    0.1471769  85.40 0.0006315844    1.217    0.178
       318 -10.8997      5.9997    194.5082   1.2395605724e+02   3.2411746425e+01    0.2426944    0.1724113 -42.70  0.001554147    1.987    0.497
       319 -10.4904    245.6256    200.8777   7.2954635565e+01  -4.2934418754e+00     0.214717     0.150743  14.71 0.0006941329    1.336    0.251
       320  -8.5129    207.2858    201.3339   8.0137950764e+01   1.5318392382e+00    0.1382294   0.09434389  -2.94 0.0006403573    1.623    0.384
       321  -9.2499     36.0460     31.9507   8.4731164521e+01   6.6748460531e+01    0.1594646    0.1544072  59.27 0.0004926656    1.615    0.381
       322 -10.6154    234.1648    197.0272   7.4254416229e+01  -2.0249439949e+00    0.4036681     0.289616   3.11   0.00151215    1.334    0.250
       323  -8.7920    195.3198    199.6652   8.2217699650e+01   3.8021351910e+00    0.1268677    0.1116054  79.14 0.0007049401    1.702    0.412
       324  -9.3003     82.7862    196.1793   1.0697985208e+02   2.3329806437e+01    0.3285122    0.2016616  20.95  0.001547191    2.157    0.536
       325 -10.0220    170.1649    191.4076   8.5978793889e+01   9.7022494164e+00    0.4225259    0.2243417  26.02  0.001637525    2.210    0.548
       326 -10.1745    186.3865     15.2355   3.8774822874e+01   3.7131263056e+01    0.2458572    0.2022648  84.68 0.0004694174    1.081    0.075
       327  -9.0432    174.2314     15.8890   4.0419398410e+01   4.0007346440e+01    0.1740934     0.140397  50.07 0.0004912363    1.292    0.226
       328 -12.2047      4.9204    184.2409   1.2354642702e+02   3.4772117774e+01    0.6133878    0.4523951  80.83  0.003238837    1.072    0.067
       329 -10.1783    239.6002    184.9461   7.0944494090e+01  -9.8135367224e-01    0.3655174    0.2186765 -11.89  0.001312258    1.904    0.475
       330  -9.6314     74.5333     19.5619   6.3238920745e+01   6.2555350859e+01    0.2302112     0.179456  22.51 0.0005549768    1.115    0.103
       331 -10.0147    213.1933    184.0248   7.5636675923e+01   3.4685635546e+00    0.3850283    0.2617718  89.33  0.001140278    7.001    0.857
       332 -10.3784    250.2273    178.4453   6.7836666895e+01  -1.5971339937e+00    0.4826912    0.1383982 -31.99  0.001674237    3.628    0.724
       333  -9.1852    205.4877     17.5061   3.7304209316e+01   3.2372176024e+01    0.1281374    0.1112128 -81.60 -1.475761e-06    1.017    0.017
       334  -9.6704    230.9539    175.5321   7.0600286920e+01   1.9191575912e+00    0.3900123    0.1561618  37.81  0.001616017    2.638    0.621
       335  -9.1161     94.3031     12.3732   5.4102919775e+01   5.9306888463e+01    0.1705251    0.1162917  62.57 0.0006549713    1.543    0.352
       336 -10.2846     52.1257    173.7512   1.1159464344e+02   3.2601660723e+01    0.4734497    0.2225969 -86.11  0.001920228    2.667    0.625
       337  -9.9570     27.9037    175.9023   1.1770898732e+02   3.4677881126e+01    0.2245368    0.1650357  61.10  0.001107018    1.276    0.216
       338  -9.8929    247.7699    173.9077   6.7343383060e+01  -5.1383355437e-01     0.419659    0.1654618  27.39  0.001482763    4.177    0.761
       339  -8.9156     57.9483    175.0000   1.1029662565e+02   3.1599011125e+01    0.2076809   0.07493547  31.25 0.0007992488    2.920    0.658
       340  -9.8222     39.2544    173.4099   1.1473241703e+02   3.4123166753e+01    0.2677671    0.2003248  68.76  0.001463927    1.253    0.202
       341 -10.7357     35.4970    170.3802   1.1533383204e+02   3.5235552441e+01    0.3767788    0.2036143 -78.85  0.001894227    1.682    0.406
       342  -8.7753    170.6473    171.7255   8.2000952703e+01   1.3511159550e+01    0.1515609    0.1125233   4.58 0.0007003453    1.640    0.390
       343  -9.9117      9.4584    156.1149   1.2040400051e+02   4.0923271383e+01      0.29153    0.1584021 -64.54  0.001271298    1.567    0.362
       344 -11.7135      9.5795    167.0585   1.2127678017e+02   3.8338062296e+01     0.484112    0.3785656  87.10  0.001922508    1.033    0.032
       345 -11.1603     13.5787    159.6893   1.1969858997e+02   3.9761280603e+01    0.5054204    0.2264185 -66.89  0.001760915    1.825    0.452
       346  -8.8987    197.9798    168.0178   7.5372317446e+01   9.0603354562e+00    0.1775632      0.15759 -19.53 0.0007187144    1.056    0.053
       347  -9.6535    188.8447    163.9779   7.6407787503e+01   1.1561849046e+01    0.2967757    0.1868558 -17.91  0.001085776    2.058    0.514
       348  -8.6777    156.4835    166.4608   8.4153875812e+01   1.7329094177e+01    0.1486456    0.1437675  15.05 0.0002646259    1.016    0.016
       349  -9.3400    152.2503    166.5938   8.5178842319e+01   1.8117261268e+01    0.1989341    0.1412873  28.75 0.0003556591    1.476    0.322
       350 -10.2445     19.0493    164.9218   1.1882806318e+02   3.8071635641e+01    0.2853195    0.2609683  -1.74  0.001383257    1.462    0.316
       351 -10.0944    205.1013    162.9838   7.2866341594e+01   8.6692311438e+00    0.4216631    0.2339576  47.82  0.001295499    2.020    0.505
       352  -9.7603    208.4821    160.5055   7.1667648966e+01   8.4954016261e+00    0.2756872    0.1319252 -42.36 0.0008751655    2.026    0.506
       353 -10.4092     28.1284    161.9418   1.1628825734e+02   3.7976881836e+01    0.4844854     0.200981 -64.38  0.002248324    2.016    0.504
       354  -9.4246     78.9900    160.1605   1.0270853520e+02   3.2379947299e+01    0.2570918    0.1983601 -71.36  0.001301872    1.251    0.201
       355  -9.3633    215.3914    157.8212   6.9759591393e+01   7.7025857229e+00    0.2124049    0.1233529 -27.54  0.000949705    1.765    0.433
       356  -9.3500    223.9519    156.9883   6.7991794104e+01   6.2916048843e+00    0.1751067    0.1491625 -22.58  0.000743686    1.044    0.042
       357 -10.8414     22.3078    155.2841   1.1708186086e+02   4.0101427177e+01    0.4889589    0.3472035  37.03 0.0008564793    1.556    0.357
       358 -10.7864    173.9392     48.5083   4.9726313655e+01   3.6124510637e+01    0.5144578    0.3533916  80.65  0.002066605    1.606    0.377
       359 -11.8670     15.7427    147.5239   1.1799556275e+02   4.2508743445e+01    0.6938521    0.4849211  63.96  0.004180705    1.444    0.307
       360 -11.4488     12.7947    138.2714   1.1782591029e+02   4.4965562260e+01    0.7584504    0.4653738  87.54  0.003713259    1.535    0.349
       361  -8.7253     33.0954    154.5063   1.1418846925e+02   3.9312315903e+01     0.263686    0.2080663  39.15  0.001026087    1.395    0.283
       362 -10.4773     28.1742    153.9594   1.1541880211e+02   3.9905639727e+01     0.556727    0.2811392 -33.55  0.001924138    3.236    0.691
       363 -11.1857     21.3075    150.7082   1.1686488304e+02   4.1293168658e+01    0.2192131    0.1677806  70.63 0.0005071124    1.268    0.211
       364 -11.8893     24.1779    147.7107   1.1577821840e+02   4.1780750947e+01    0.3685929    0.2066827 -55.00   0.00108303    1.667    0.400
       365 -10.4167    104.6572    154.1238   9.4716880712e+01   2.9783296653e+01    0.3769074    0.3498939 -60.70  0.002067066    1.059    0.055
       366 -10.9436    135.2563     45.6107   5.6369623121e+01   4.5991825318e+01    0.5053841    0.2266839  56.07  0.001162629    2.102    0.524
