#   1 NUMBER                 Running object number                                     
#   2 MAG_AUTO               Kron-like elliptical aperture magnitude                    [mag]
#   3 X_IMAGE                Object position along x                                    [pixel]
#   4 Y_IMAGE                Object position along y                                    [pixel]
#   5 X_WORLD                Barycenter position along world x axis                     [deg]
#   6 Y_WORLD                Barycenter position along world y axis                     [deg]
#   7 A_WORLD                Profile RMS along major axis (world units)                 [deg]
#   8 B_WORLD                Profile RMS along minor axis (world units)                 [deg]
#   9 THETA_WORLD            Position angle (CCW/world-x)                               [deg]
#  10 FWHM_WORLD             FWHM assuming a gaussian core                              [deg]
#  11 ELONGATION             A_IMAGE/B_IMAGE                                           
#  12 ELLIPTICITY            1 - B_IMAGE/A_IMAGE                                       
         1 -12.3826     96.7551     22.1408   2.7716358819e+01   5.8365754053e+01    0.4342347    0.3281693  66.10 0.0006572993    1.413    0.292
         2 -11.3636     20.7075     17.0840   5.9466746721e+01   7.2744128066e+01    0.3474856    0.2692803   9.67  0.001878308    1.303    0.233
         3 -11.1977     49.4511     13.7032   4.1148949223e+01   6.9325588674e+01    0.3184826    0.2761651  27.65 0.0009446543    1.169    0.145
         4 -10.7122     45.5023     12.0186   4.2153639784e+01   7.0238762619e+01    0.2454876    0.1915373 -14.11 0.0007729912    1.175    0.149
         5 -10.9305    119.6066      8.9242   1.6582928597e+01   5.4147966478e+01    0.4542228     0.243372 -23.38  0.001618369    1.988    0.497
         6 -10.9570    115.0662      8.9404   1.7481185934e+01   5.5313302625e+01    0.4484099    0.2666703   1.82 0.0003875955    2.181    0.541
         7 -11.4673    123.7942      6.3517   1.4767103840e+01   5.3303998700e+01    0.3566147    0.2591175 -77.37  0.000637627    1.562    0.360
         8 -10.6252     35.0583     13.3488   4.8604214435e+01   7.1640423811e+01    0.2674328    0.2070557  -3.67  0.001120888    1.207    0.171
         9 -10.2275     32.4579     10.5171   4.8486795647e+01   7.2458553524e+01    0.2157624    0.1777118 -26.53 0.0005678659    1.150    0.130
        10 -10.6881     79.5267     11.9940   2.8101346013e+01   6.3568323212e+01     0.245079    0.1913284  71.51 0.0007421878    1.530    0.346
        11  -9.9307     27.8050     11.4288   5.1867596574e+01   7.2928456071e+01    0.2179007    0.1555953 -34.99 0.0008242601    1.268    0.211
        12  -9.7054    201.3281     10.2518   6.5323118173e+00   3.2866645781e+01    0.2863403    0.1789781   0.47  0.001352331    2.369    0.578
        13 -11.4451    104.5460      8.8195   1.9691685532e+01   5.7982286474e+01    0.4259945    0.3873689 -33.06   0.00230417    1.192    0.161
        14 -11.6458     97.5893      7.1879   2.0593984518e+01   5.9857461144e+01    0.5036581    0.3020765 -55.80  0.001852287    2.269    0.559
        15 -11.1780     69.7721      7.8457   2.9250999538e+01   6.6163776983e+01    0.3746845    0.2526641   2.79  0.001713052    1.643    0.391
        16 -11.6816     74.5571      9.7547   2.8598274563e+01   6.4919281035e+01    0.3841752     0.255401 -16.88  0.001543092    1.558    0.358
        17 -11.0334     78.1721      7.7714   2.6350654292e+01   6.4344218443e+01    0.2551662    0.2016471  28.36 0.0004822261    1.186    0.157
        18 -11.8497     56.3635      8.9658   3.5226418235e+01   6.8724697771e+01    0.4173734    0.3416708  13.82  0.001379579    1.110    0.099
        19 -10.9061    213.2311      8.6311   5.1448003576e+00   3.0180388499e+01    0.2342858    0.2015897  65.78 0.0005369202    1.284    0.221
        20 -10.2109      3.5045      8.4653   6.7371250335e+01   7.5817395493e+01    0.2061047    0.1630597 -31.63  0.000739062    1.014    0.014
        21 -11.3278    177.9869      7.5167   7.9230324889e+00   3.8990037225e+01    0.2075177    0.1827218 -43.53 0.0005422008    1.152    0.132
        22 -11.8247    174.1535      3.2123   6.9982430757e+00   4.0380473590e+01    0.3977898    0.2617876 -78.08  0.002039476    1.502    0.334
        23 -10.7698    178.8323      1.6560   6.0822490609e+00   3.9320784983e+01    0.2447304    0.1945097   8.98 0.0006284761    1.599    0.375
        24 -10.0798    203.3685      4.7088   4.8720154872e+00   3.2922466526e+01    0.2088581    0.1681556  81.02 0.0006299347    1.202    0.168
        25 -11.0213     20.2650      3.5392   5.2066137825e+01   7.5135337758e+01     0.267429    0.2016532 -12.10 0.0008445688    1.146    0.128
        26 -10.7872    131.6157      3.8946   1.2505947707e+01   5.1478733444e+01    0.3739523    0.1771792  71.19  0.001586515    1.958    0.489
        27 -12.2598     87.0783      6.4147   2.2979869251e+01   6.2447657096e+01    0.5878984    0.3409267  32.11  0.002221972    1.819    0.450
        28  -9.6289    230.0375      1.8439   2.3319712411e+00   2.7017461812e+01    0.1565786     0.139654  64.06  0.000544488    1.338    0.252
        29 -11.4587    114.2086      1.8440   1.4631515726e+01   5.6175205342e+01    0.4777681    0.1888323  67.73  0.001038805    2.307    0.567
        30 -10.1397     37.5022      1.7854   4.0082732694e+01   7.2967830938e+01    0.2239019    0.1630633  33.17  0.001374328    1.329    0.248
        31  -9.4311    143.4654      1.5139   9.9267344997e+00   4.8562966121e+01    0.1388568    0.1256985  71.67 0.0001515767    1.031    0.031
        32 -10.0449    242.5099      5.4891   2.4473987562e+00   2.3956133162e+01    0.1237847   0.09929451 -56.77 0.0002175156    1.001    0.001
        33  -9.7684     18.1460    108.2184   8.3968486705e+01   5.1882004237e+01     0.188348    0.1547092 -56.17 0.0004650413    1.220    0.180
        34  -9.1977     27.2936    250.3628   9.1592757990e+01   2.0402782118e+01   0.08469482   0.07969319 -43.43 0.0007029737    1.706    0.414
        35 -11.1899     10.1665    248.0221   9.4528875225e+01   2.2482958967e+01    0.4202109    0.1390205  63.18  0.001955025    2.395    0.582
        36  -9.5362      1.2703    250.3184   9.6122416525e+01   2.2920681257e+01    0.1397259   0.08226102  89.16 0.0005292692    1.623    0.384
        37  -9.9744      1.5911    246.4876   9.5972129358e+01   2.3531668190e+01     0.167012    0.1199645 -65.68  0.001224306    1.909    0.476
        38  -9.0567     13.6319    106.7821   8.5331557115e+01   5.2564445356e+01    0.1871695    0.1030557  89.43 0.0009291479    1.732    0.423
        39 -10.7122      2.4048    104.4968   8.8895141382e+01   5.3817746439e+01    0.2780276    0.1693034 -56.03 0.0008295972    1.541    0.351
        40  -9.2141     49.6217    101.1062   7.1829477979e+01   5.0604662561e+01    0.2046431    0.1126914 -53.52 0.0005077202    1.673    0.402
        41  -9.9918     26.5838    100.7671   8.0013777019e+01   5.3068036750e+01    0.2787479    0.1812043 -29.50   0.00119073    1.935    0.483
        42  -8.8724    159.5143     98.4490   3.8470156991e+01   3.0158189419e+01    0.1512436    0.1501604 -29.50 0.0001009659    1.007    0.007
        43 -12.0957      3.6795     96.3768   8.7655154690e+01   5.5743467203e+01    0.2309093    0.2166382 -77.57 0.0002892008    1.150    0.130
        44  -9.8885     63.9653     96.0866   6.5638630999e+01   4.9945192735e+01    0.2225269    0.2097844 -60.69  0.001275755    1.024    0.023
        45  -9.3411     20.6332     95.3154   8.1360213028e+01   5.4914362995e+01     0.139025   0.08749659  63.82 0.0007038307    1.773    0.436
        46 -10.5352     90.0603     94.0715   5.6210534664e+01   4.6117182043e+01    0.2185245    0.2138614 -58.70 0.0003161855    1.012    0.012
        47 -10.2591    132.6077     92.6948   4.3321093774e+01   3.7524527746e+01    0.2778157    0.2597351  78.07 0.0004933316    1.124    0.111
        48  -9.4949      2.2682     88.6522   8.7331322255e+01   5.7711380063e+01    0.1273919   0.08112963  71.25 0.0006989102    1.617    0.382
        49 -10.4182     11.4985     85.3997   8.3381925672e+01   5.8004229531e+01    0.2851753    0.1084407  25.06  0.001239185    2.844    0.648
        50 -10.7161     54.7254     78.8307   6.4759974857e+01   5.5428979766e+01    0.3176702    0.2303788 -84.93 0.0008771271    1.708    0.415
        51 -10.0045     29.5277     80.4870   7.5310113519e+01   5.7859561717e+01    0.1342748    0.1175615 -64.68 9.597751e-05    1.009    0.009
        52 -10.0257      5.7586     80.0612   8.4906810450e+01   5.9639447598e+01    0.1791627    0.1397871 -74.20 0.0004983573    1.067    0.063
        53  -9.4337     77.9910     77.8111   5.5669148008e+01   5.2047264667e+01    0.1889421    0.1859294  30.28            0    1.058    0.055
        54 -10.8439      3.0765     75.0913   8.5316345713e+01   6.0982041284e+01    0.3684211    0.2125271 -52.06  0.002053177    1.519    0.342
        55 -10.2711     37.6930     71.0339   6.9722816948e+01   5.9356451219e+01    0.1899809     0.159013 -54.03   0.00045637    1.059    0.055
        56  -9.1982     64.0492     69.7166   5.8426832202e+01   5.6202463307e+01    0.1595791    0.1283272  36.28 0.0004011408    1.317    0.241
        57 -10.0163     34.2781     69.1914   7.0733103944e+01   6.0150703119e+01    0.2288068     0.145065 -45.78  0.001179611    1.445    0.308
        58 -10.2685      7.9462     68.8384   8.2272858684e+01   6.2252237079e+01    0.2078237    0.1535346 -68.53 0.0003369563    1.126    0.112
        59  -9.4724     83.1993     68.0677   5.0674268677e+01   5.3252720086e+01     0.197335    0.1812017 -45.94 0.0002159257    1.069    0.065
        60  -9.8316    192.0316     65.8768   2.3184674190e+01   2.8016807749e+01    0.2105256     0.196663 -53.98 0.0003504705    1.018    0.017
        61  -9.6485    152.2016     66.1607   3.0575124949e+01   3.7845038145e+01    0.2142604    0.1801893 -69.99 0.0005024892    1.305    0.234
        62 -10.7415      4.2723     64.1534   8.3121915595e+01   6.3562410173e+01    0.2594801     0.176443 -57.33 0.0006409374    1.212    0.175
        63 -11.2629      3.3762     59.4493   8.2720782538e+01   6.4723320050e+01    0.3364981    0.2550269 -39.26  0.001231721    1.281    0.219
        64 -10.1347     85.0381     63.6830   4.8510706896e+01   5.3824614616e+01     0.279712    0.2027669 -36.95 -0.000430966    1.371    0.271
        65  -9.0171     75.4982     64.6110   5.2323246844e+01   5.5413779748e+01    0.1419258    0.1387513 -19.16 0.0001166542    1.035    0.034
        66 -10.2908     99.1048     61.3608   4.2933361151e+01   5.1394567911e+01     0.437396    0.2821185 -70.87  0.001535474    2.626    0.619
        67  -9.9739     43.4689     62.3083   6.4772733486e+01   6.0751909814e+01    0.2531627    0.1924441  58.14  0.001151669    1.649    0.394
        68 -10.8999    231.9758     60.5050   1.6447744820e+01   1.9683733687e+01    0.2865619    0.2039329  31.14  0.001510139    1.874    0.466
        69  -9.8139     35.2214     60.9057   6.8085923716e+01   6.2007319021e+01    0.2269289    0.1859396   4.71 0.0006564767    1.358    0.263
        70 -10.1598     14.1075     61.3846   7.8049345549e+01   6.3676748095e+01    0.2490731    0.1248463  14.81  0.001227629    2.352    0.575
        71  -9.6851     57.6771     59.6235   5.7734611350e+01   5.9433880527e+01    0.2993181    0.1756019  17.61   0.00129429    2.279    0.561
        72  -9.8283     23.3893     50.2006   7.0691659008e+01   6.5592596850e+01    0.2673016    0.1206539 -47.29   0.00106431    1.874    0.466
        73 -11.1541     22.4785     58.4189   7.3388065218e+01   6.3771021379e+01     0.316453      0.19778 -50.71  0.001032978    1.356    0.262
        74 -10.8291     24.8758     55.8126   7.1544418032e+01   6.4178129267e+01    0.3815757    0.2571364  59.37  0.002008541    2.006    0.501
        75  -9.1130     77.8216     55.6190   4.8222419809e+01   5.6859493908e+01    0.1998579    0.1359609  53.46 0.0004481895    1.695    0.410
        76 -10.1989     63.8542     52.4810   5.2572972814e+01   5.9980962982e+01    0.3402929    0.1961307 -38.29  0.001551173    1.705    0.414
        77 -10.1121     69.2661     51.3916   4.9941782682e+01   5.9274396135e+01    0.2521089    0.1833932  47.49 0.0007645641    1.509    0.337
        78 -11.7934     94.0679     48.5973   3.9778073917e+01   5.4884579953e+01    0.2544732    0.2226776 -30.08 0.0001996157    1.136    0.120
        79  -9.9848     34.7798     48.0135   6.4263684720e+01   6.4969302194e+01    0.2319493    0.2031112 -32.98  0.001001417    1.034    0.033
        80 -10.3722     38.1191     43.8585   6.1109696009e+01   6.5481393143e+01    0.3164869    0.2179268  38.11  0.001726598    1.644    0.392
        81 -10.2960     32.5352     44.1634   6.4055508673e+01   6.6051819113e+01    0.2977327    0.1982857  29.41  0.001234195    1.643    0.392
        82  -9.8795    142.1923     44.1593   2.5400470021e+01   4.3929659917e+01    0.3083317    0.2092587 -14.95  0.001087067    1.782    0.439
        83  -9.6909      7.4621     45.0534   7.7619696951e+01   6.7872607027e+01    0.1951105    0.1017968 -63.64  0.001024333    1.579    0.367
        84  -9.7568    249.0311     44.0484   1.0832568630e+01   1.8262352265e+01    0.2197723    0.1238865 -56.13  0.001143453    1.727    0.421
        85 -10.9330    118.8933     42.9419   3.0334062289e+01   5.0024642081e+01    0.2937523    0.2360635 -41.61 0.0003766413    1.281    0.219
        86  -8.7619     20.2956     44.6935   7.0642997688e+01   6.7089331099e+01    0.1183858   0.09675339  74.69 0.0004776466    1.585    0.369
        87  -9.0627     71.4864     42.5166   4.5473862096e+01   6.0583274701e+01    0.1429422      0.13073  -6.27 -0.0001364295    1.038    0.037
        88  -9.0420    134.2238     40.0322   2.5627762313e+01   4.6589196696e+01    0.1919826     0.124396 -29.59 0.0004122265    1.601    0.376
        89 -10.0225      1.3394     39.7241   7.9679089598e+01   6.9375782777e+01    0.2026449   0.09831247 -70.44 0.0003450436    1.816    0.449
        90 -11.6381     38.2359     37.0981   5.8401643790e+01   6.6868060152e+01     0.541589    0.3288917   8.90   0.00195508    2.098    0.523
        91  -9.3753     96.1945     38.1560   3.4855524920e+01   5.6183096835e+01    0.1834105    0.1693221 -81.52 0.0002814092    1.259    0.206
        92  -9.2226     55.0265     38.7755   5.0911265705e+01   6.4144816907e+01     0.168287    0.1108797  35.57 0.0003047569    1.576    0.366
        93  -9.1397     12.7854     37.4477   7.2533814070e+01   6.9251201460e+01    0.1596723    0.1089998 -13.72 0.0006698502    1.572    0.364
        94 -10.1799     20.7065     35.8282   6.7463183758e+01   6.8990297244e+01    0.2241628    0.1996317  37.89  0.001192687    1.365    0.268
        95  -9.1113    119.4495     35.4326   2.7302516917e+01   5.1009681199e+01    0.1458037    0.1412232  63.42 0.0001189342    1.033    0.032
        96  -9.5106    174.0848     34.3260   1.6622063004e+01   3.6990701154e+01    0.2014174    0.1740342  87.06 0.0005338615    1.127    0.113
        97  -9.0588     13.3440     34.3212   7.1197011233e+01   6.9892619708e+01    0.1364128   0.07482915 -33.90 0.0007049984    1.728    0.421
        98 -10.2881     50.5915     32.6796   5.0288267673e+01   6.5988085375e+01    0.3729395    0.1960972  45.35   0.00126119    2.214    0.548
        99  -9.6246    154.3287     31.9450   1.8925863279e+01   4.2448405444e+01    0.1971568    0.1895951 -38.16 0.0004066274    1.087    0.080
       100  -8.9247    139.6765     32.7258   2.1859041127e+01   4.6188364278e+01    0.1515703    0.1081374  34.79 0.0006982012    1.578    0.366
       101  -9.8701     83.2368     31.7106   3.6339789123e+01   6.0062831863e+01    0.3346847    0.1774289  38.52  0.001130286    1.958    0.489
       102 -10.3519     17.5685     31.3895   6.7658340856e+01   7.0193782123e+01    0.2141035    0.1751236 -38.44 0.0004792064    1.014    0.013
       103 -10.0992      4.5140     31.5143   7.5591780335e+01   7.1042656070e+01    0.2957383    0.1602582  38.18  0.001082138    2.346    0.574
       104  -9.6347     64.5482     29.9487   4.2708738902e+01   6.4087125680e+01    0.2089955    0.1290294 -35.32 0.0005787219    1.575    0.365
       105  -9.1557    104.4230     28.4178   2.8325003325e+01   5.5697121633e+01     0.141051    0.1365606  45.47 5.522228e-05    1.044    0.042
       106  -8.7788     42.2649     28.6587   5.2583847410e+01   6.7966439173e+01    0.1198258      0.10449 -73.67  0.000697767    1.597    0.374
       107  -9.7893    160.8022     27.1152   1.6279403732e+01   4.1348094825e+01    0.2203766    0.1818232 -63.36 0.0005068725    1.218    0.179
       108  -9.3615    153.0081     27.5585   1.7655403729e+01   4.3344359556e+01    0.2147227    0.1381827  69.20 0.0003585548    1.504    0.335
       109 -10.0321     46.9233     26.8825   4.9352319075e+01   6.7601331551e+01     0.192295     0.171325 -12.76 0.0003535118    1.030    0.029
       110 -10.5107    217.3177     25.9930   9.2760865373e+00   2.7336727020e+01    0.1893543     0.152248 -41.73 0.0004042471    1.140    0.123
       111  -9.2998     60.4824     26.4738   4.2781118188e+01   6.5404192494e+01    0.1362213    0.1223047  -1.79 0.0008098448    1.001    0.001
       112  -9.2835     56.2159     25.9235   4.4421610855e+01   6.6249207846e+01    0.1733709     0.103119 -38.15 0.0004323683    1.629    0.386
       113  -8.6895     32.2977     26.3334   5.6911686311e+01   6.9711314277e+01    0.1349832   0.08686993 -20.91 0.0003315627    1.647    0.393
       114  -9.1959    121.4868     25.4632   2.2898432799e+01   5.1831660625e+01    0.1444891    0.1380134  64.87 0.0003742372    1.029    0.028
       115  -9.6236     17.5032    248.4725   9.3257250208e+01   2.1701602306e+01    0.1046477   0.07318369  57.07 4.711136e-05    1.023    0.023
       116 -10.1840    240.4921     24.0005   6.8621792473e+00   2.2406229511e+01    0.2969276   0.09612146  59.10  0.001218111    3.307    0.698
       117  -9.4731    111.5307     24.5579   2.4854206732e+01   5.4460954960e+01    0.1431876    0.1361903  51.02 3.636811e-06    1.023    0.022
       118 -10.6984     87.3656     23.6817   3.1268324171e+01   6.0331567815e+01    0.2454295    0.2230395 -64.44  0.001136208    1.315    0.239
       119 -10.3416     84.9933     20.4765   3.0519889673e+01   6.1294732570e+01     0.302271    0.2009909 -71.87  0.001141173    2.695    0.629
       120 -10.6407      3.0187     23.4940   7.3940750467e+01   7.2833461621e+01    0.2146459    0.1453519 -55.03  0.001350808    1.225    0.183
       121  -9.2535    128.8375     24.1906   2.0840645861e+01   5.0094046575e+01    0.1956589    0.1623457  31.64  0.000497086    1.278    0.217
       122 -10.5758     38.4855     22.5526   5.1620493004e+01   6.9600436164e+01    0.2228061    0.1894614  -1.57 0.0005355979    1.089    0.082
       123  -9.4060     72.9092     22.3505   3.5668311651e+01   6.3634884690e+01    0.1917024    0.1637956  32.42 0.0004642373    1.112    0.101
       124 -10.2909     28.1514     20.8024   5.6673627990e+01   7.1239940407e+01    0.3383774    0.1844592 -13.44  0.001053505    2.655    0.623
       125 -10.0900     66.4070     20.6703   3.7366094560e+01   6.5184615381e+01    0.2823262     0.226675  82.81  0.001237126    1.908    0.476
       126 -10.6944     66.0893     16.3323   3.5237912036e+01   6.5859651245e+01    0.2513508     0.212787   0.63 0.0001684447    1.114    0.103
       127  -8.7790    159.2684     20.3419   1.4262868047e+01   4.2538203376e+01    0.1430634    0.1062266  31.06 0.0006986064    1.605    0.377
       128  -9.5794    109.6286     19.1741   2.3040283534e+01   5.5593427293e+01     0.194829     0.135979  -6.71 0.0004706323    1.662    0.398
       129  -9.4433     48.6975     19.6031   4.4758367363e+01   6.8547770907e+01    0.1617092    0.1224844  44.11 0.0003312672    1.481    0.325
       130  -8.6879     53.7115    246.6808   8.6584621894e+01   1.8131496708e+01   0.08982888   0.08364692   4.64 0.0003049468    1.597    0.374
       131 -10.0571     14.4921     17.4998   6.3783310932e+01   7.3251459182e+01    0.2005097     0.114781  19.11  0.001030319    1.872    0.466
       132 -10.8300     11.5045     17.5307   6.5826077523e+01   7.3491308068e+01    0.4623392    0.1733263 -28.14  0.001763326    3.784    0.736
       133  -9.7396    147.4948     18.0420   1.5236399299e+01   4.5899674398e+01    0.2050196    0.1428974 -25.36 0.0004744719    1.526    0.345
       134 -10.9962     85.3443     15.7913   2.8141496084e+01   6.1808653834e+01    0.3520459    0.2144939  54.90  0.001713736    1.576    0.366
       135 -10.7767      6.7436     15.5676   6.8270429122e+01   7.4225346760e+01    0.2063721     0.176177 -60.91  0.000216117    1.321    0.243
       136 -10.5748    183.3256     14.9606   9.5925365894e+00   3.6871546686e+01    0.1882022    0.1724083 -53.05 0.0004058908    1.087    0.080
       137  -9.4588     94.7555     14.9724   2.4985472175e+01   5.9713635253e+01     0.169715    0.1182815 -21.28 0.0003401723    1.504    0.335
       138 -12.0248     17.7294    234.6346   9.2712603879e+01   2.4069507526e+01    0.6360729    0.1552427  35.55  0.003099266    2.846    0.649
       139 -12.6333      3.0371    214.0130   9.4768620292e+01   2.9242187854e+01    0.6372256    0.3093449  72.69  0.003953915    1.677    0.404
       140  -9.7996    248.6741     14.6776   4.1552291035e+00   2.1714920104e+01    0.1116201   0.09280473  28.37 0.0007047948    1.686    0.407
       141 -10.1423    128.0039     14.0666   1.7071039737e+01   5.1452061709e+01    0.2175351    0.1952912  56.74 0.0004730329    1.047    0.045
       142 -10.2736    116.6392     14.2602   1.9388740450e+01   5.4370017709e+01    0.4105419    0.1810632  71.68  0.001067707    2.527    0.604
       143 -12.4614      7.2834    227.1158   9.4389899848e+01   2.6413033485e+01    0.4639077    0.2693446  52.87  0.001016419    1.241    0.194
       144 -11.1182      3.6808    221.9783   9.4901780989e+01   2.7683524061e+01    0.3334383    0.2032456  30.08  0.001689013    1.744    0.427
       145 -10.8557      1.8862    239.9848   9.5751778444e+01   2.4614690357e+01    0.3021977    0.1424633 -78.40  0.001757345    2.175    0.540
       146 -11.7878      2.1560    234.1584   9.5544790801e+01   2.5609873314e+01    0.3532522    0.2941907  63.93 0.0006566787    1.251    0.201
       147  -8.7637     19.7146    241.6509   9.2615032536e+01   2.2644516655e+01   0.08583938   0.07913882 -57.73 0.0006431888    1.655    0.396
       148 -11.5126      9.4102    240.3633   9.4426581772e+01   2.3859818020e+01    0.2620091    0.1326271  68.98   0.00176614    1.569    0.363
       149 -10.9174     31.1798    238.0622   9.0350674946e+01   2.2099387320e+01    0.2369629    0.2053376  25.00 0.0009851799    1.551    0.355
       150 -10.9740     17.3656    227.5590   9.2504390610e+01   2.5381673603e+01    0.2756653    0.1512753  74.84  0.001422667    1.556    0.357
       151 -10.0910    162.9469     11.5252   1.0867540222e+01   4.2503943179e+01    0.2181583    0.1297958  72.97 0.0006183621    1.573    0.364
       152 -10.7590     22.0095    218.6824   9.1220176215e+01   2.6581138964e+01    0.1621401    0.1427772 -85.55 0.0009950887    1.366    0.268
       153 -10.9481     19.8321    214.8380   9.1477959783e+01   2.7531726301e+01    0.2046653    0.1501344  75.02  0.000653334    1.145    0.127
       154  -9.5201     10.9943    216.7283   9.3310493478e+01   2.8009508956e+01    0.1532254    0.1097913  60.26 0.0003495637    1.028    0.027
       155  -9.7231     15.9596    211.0203   9.2087025906e+01   2.8645612568e+01    0.1392487    0.1027651  66.42 0.0007957347    1.035    0.034
       156 -11.6802      4.7972    198.3761   9.3855483948e+01   3.2170936401e+01    0.3374332    0.1441368  76.43  0.001829649    2.051    0.512
       157 -10.0666    244.6663    198.6652   4.4161413084e+01  -1.7748308058e+00    0.1242284   0.07318819   4.00 0.0007052192    1.737    0.424
       158 -10.9148     30.8059    188.2037   8.7639373175e+01   3.1846266355e+01    0.2716544   0.05010587  36.17  0.001038154    3.502    0.714
       159 -10.6324      8.8176    187.4430   9.2531970020e+01   3.4087544290e+01    0.2081844    0.1732258 -89.07   0.00152378    1.227    0.185
       160 -10.2957    244.5931    180.7684   4.0968233037e+01   4.3703453487e-01    0.1639342    0.1002348 -36.31 0.0009545558    1.722    0.419
       161  -9.0629     20.4784    174.5054   8.9148373064e+01   3.5848178279e+01    0.1241415   0.09585305  69.80 6.902422e-05    1.041    0.039
       162  -8.9546      3.4746    156.5436   9.2248589251e+01   4.1320048453e+01    0.1205183   0.09516604  77.54 0.0008085121    1.005    0.005
       163  -9.1483     25.7111    146.3156   8.5645135653e+01   4.1883498454e+01    0.1347077   0.08034389  65.80 0.0007001825    1.591    0.371
       164  -9.4353      1.5157    144.5175   9.2083620585e+01   4.4239255273e+01    0.1215451   0.09733953  83.11 8.199112e-05    1.020    0.020
       165 -10.0190      3.4555    138.5122   9.1191702501e+01   4.5522223267e+01     0.221443     0.119892  21.63  0.001209072    2.162    0.537
       166  -9.7843     17.5241    132.4842   8.6716557068e+01   4.5936400010e+01    0.1282912     0.106744  86.63 0.0001652133    1.001    0.001
       167  -8.9352     58.9737    129.2293   7.3775640994e+01   4.2391298481e+01    0.1690949    0.1141075  35.23 0.0003200035    1.531    0.347
       168 -10.1043      6.5864    121.2882   8.9020057314e+01   4.9460469582e+01    0.1777195   0.09626458 -69.42 0.0007954264    1.563    0.360
       169  -9.0710     14.2042    117.3906   8.6280894268e+01   4.9895760511e+01    0.1693147    0.1074885  41.45  0.000943024    1.631    0.387
       170  -9.1971    153.4776    114.0103   4.3954716823e+01   2.8464004098e+01       0.2143    0.1320673 -64.60 0.0008077262    2.426    0.588
