#   1 NUMBER                 Running object number                                     
#   2 MAG_AUTO               Kron-like elliptical aperture magnitude                    [mag]
#   3 X_IMAGE                Object position along x                                    [pixel]
#   4 Y_IMAGE                Object position along y                                    [pixel]
#   5 X_WORLD                Barycenter position along world x axis                     [deg]
#   6 Y_WORLD                Barycenter position along world y axis                     [deg]
#   7 A_WORLD                Profile RMS along major axis (world units)                 [deg]
#   8 B_WORLD                Profile RMS along minor axis (world units)                 [deg]
#   9 THETA_WORLD            Position angle (CCW/world-x)                               [deg]
#  10 FWHM_WORLD             FWHM assuming a gaussian core                              [deg]
#  11 ELONGATION             A_IMAGE/B_IMAGE                                           
#  12 ELLIPTICITY            1 - B_IMAGE/A_IMAGE                                       
         1 -14.8086      8.0192    147.3060   1.4261725520e+02   4.3531146930e+01     5.372499     1.426619 -85.48   0.02337033    3.747    0.733
         2 -12.7853      2.6963     42.9916   1.3271481927e+02   6.5686292944e+01     1.228327    0.1633221 -68.69  0.003932724    5.224    0.809
         3 -13.4183      4.6874     11.9471   1.2353489296e+02   7.1951203776e+01     1.702761    0.4756465 -56.80    0.0080275    2.423    0.587
         4 -13.6145    207.7018      7.1695   6.5024780849e+01   3.1469777379e+01      1.41871     1.077168  28.22  0.007307084    1.460    0.315
         5 -13.7874    192.2645     25.2619   7.2613678815e+01   3.3643998619e+01     1.827109     1.586279 -10.03  0.007891143    1.163    0.140
         6  -9.8051     19.4931    247.3578   1.4519433353e+02   2.6010150815e+01    0.2875223    0.1273991  43.76   0.00224748    1.765    0.433
         7 -11.1339    174.5805    250.0460   1.2279408305e+02   6.5350900832e+00     0.266139     0.118846  46.26  0.001278485    1.615    0.381
         8 -12.4607    124.1147    249.4967   1.3018717701e+02   1.3573793649e+01    0.6834174    0.1989213  44.16  0.003713601    2.415    0.586
         9 -12.6216    140.6452    248.4138   1.2764029119e+02   1.1452443311e+01     0.479755    0.3451626 -83.82  0.003862985    1.963    0.490
        10 -13.1376    132.6283    245.9035   1.2861210546e+02   1.2840903566e+01    0.7322327    0.2416794  47.30  0.004141844    2.157    0.536
        11 -11.4564    186.5332    240.5195   1.2000133880e+02   5.7616088770e+00    0.2129717    0.1644495  48.62  0.001116093    1.229    0.186
        12 -11.0400    184.5357    237.4872   1.1995292793e+02   6.3542303463e+00    0.1921544    0.1444735  33.73  0.000873147    1.131    0.116
        13 -11.1023    237.9127    246.3538   1.1332704869e+02  -2.0197549675e+00    0.1781034    0.1249601   8.78  0.001313405    1.403    0.287
        14 -11.3588    199.5909    246.1118   1.1872633736e+02   3.3578601179e+00    0.2263395    0.1346572  45.49  0.001560436    1.308    0.236
        15 -10.4260     95.8561    239.7870   1.3366760391e+02   1.8485196433e+01    0.1944105    0.1193993 -44.41  0.001341983    2.999    0.667
        16 -14.3012    108.4857    229.9376   1.3093333190e+02   1.8128960550e+01     5.396537          nan  45.17   0.01330755   11.035    0.909
        17  -9.9293      3.9903    227.4722   1.4674799812e+02   3.0261028397e+01     0.239902    0.1527141  32.81  0.002015416    2.115    0.527
        18 -10.4848    173.3846    222.3535   1.1988274319e+02   9.6404555465e+00    0.2287572    0.1062505  45.31  0.001362059    1.631    0.387
        19 -10.8160     31.4602    219.8551   1.4234886281e+02   2.8791635030e+01    0.3688053    0.2500357  36.42  0.003013159    1.810    0.448
        20 -12.8563     38.0927    236.4783   1.4211964759e+02   2.5666774880e+01    0.2239238    0.1869573  74.94 0.0007430637    1.397    0.284
        21 -10.7070     37.6487    213.2823   1.4104903014e+02   2.9163899319e+01     0.279233    0.2152593  50.91  0.002439706    1.369    0.270
        22  -8.8434     25.1977    215.2172   1.4310691517e+02   3.0130003200e+01    0.1322748   0.07173216  66.67 0.0003544696    1.329    0.248
        23  -8.2361    221.3619    213.6860   1.1133496925e+02   3.1430673603e+00   0.09953815   0.07931612  61.02 0.0007041593    1.757    0.431
        24 -10.3223     20.9841    211.0057   1.4357990335e+02   3.1197426997e+01    0.3308166    0.2170704  41.11  0.002605518    1.630    0.386
        25 -12.4336     10.7414    206.7589   1.4501770505e+02   3.2827018906e+01    0.4793829    0.2943689  40.34  0.002898523    1.701    0.412
        26 -11.5531     63.5873    201.5238   1.3601499511e+02   2.8118375174e+01    0.1910938     0.157761  88.05 0.0005400637    1.269    0.212
        27 -10.4633      1.8248    199.2306   1.4615310246e+02   3.4823996698e+01    0.4550542   0.06784791 -75.90  0.002060467    5.077    0.803
        28 -10.1077    194.8028    198.4154   1.1325951865e+02   8.9875782604e+00     0.272668    0.1632351 -59.07  0.001445805    3.201    0.688
        29 -10.2016     10.7727    196.2453   1.4458684390e+02   3.4530108687e+01    0.2440693    0.1644527  43.13    0.0020365    1.557    0.358
        30 -11.9596     69.6760    192.8988   1.3427134512e+02   2.8789003123e+01    0.2105798    0.1853451  85.08 0.0004858982    1.286    0.222
        31 -13.2186     66.4574    177.8441   1.3353741302e+02   3.1775731896e+01    0.3829688    0.2447461 -48.18  0.001739704    2.328    0.571
        32  -8.7047    209.4673    179.9569   1.0797393937e+02   8.6628411430e+00    0.1494524     0.115637 -28.13 0.0004081597    1.480    0.325
        33  -8.7734    103.7821    179.8892   1.2673572195e+02   2.6332772219e+01    0.1557305    0.1091359  67.72 0.0002586042    1.318    0.241
        34 -10.9206     79.5202    179.5730   1.3125066878e+02   2.9792096865e+01    0.2000136    0.1627815  68.94 0.0003308957    1.050    0.048
        35 -11.8650     86.7138    170.0194   1.2885399607e+02   3.0499214790e+01    0.5031118    0.4764019  58.98  0.003842049    1.318    0.241
        36 -13.0095     51.6737    217.9595   1.3907856143e+02   2.6921188641e+01    0.8075117    0.6708744  88.87  0.006066252    1.375    0.272
        37 -10.0945     98.7522    153.7982   1.2438812435e+02   3.1710530759e+01    0.2445683    0.2235854 -86.60 0.0007443102    1.153    0.133
        38 -13.9964     43.9089    229.1745   1.4090142573e+02   2.6101970573e+01    0.7088197    0.3767858  52.45  0.002807071    1.334    0.250
        39 -11.9612     87.5868    153.0189   1.2660051854e+02   3.3507566142e+01    0.2262795    0.2206584  89.09 0.0006630454    1.304    0.233
        40  -9.1155      2.0966    249.6322   1.4762280028e+02   2.7302408738e+01    0.1445248   0.07379027  70.54 0.0009220363    1.337    0.252
        41  -9.8506    134.0000    145.9832   1.1590094638e+02   2.7299082082e+01    0.4004287    0.1656758 -52.06  0.001737008    2.661    0.624
        42  -9.1883    101.9023    149.3365   1.2309311913e+02   3.2060544342e+01    0.1678857    0.1421466  59.42  0.000460699    1.089    0.081
        43 -12.4438     67.1702    143.6558   1.2975739062e+02   3.8105191492e+01    0.5900697    0.3456604  64.75  0.002805825    1.685    0.407
        44  -9.9099    110.1255    138.1683   1.1958347069e+02   3.2857507836e+01    0.3435051      0.24715 -25.37  0.001583297    2.283    0.562
        45  -8.8395    155.3186    136.6486   1.0986189104e+02   2.4946436933e+01    0.1357312    0.1033823  87.67 0.0006436313    1.741    0.426
        46 -10.6647     97.3782    135.4383   1.2193057169e+02   3.5438676390e+01     0.240125    0.2080531  58.60  0.001293258    1.121    0.108
        47  -8.8442     85.2489    135.4715   1.2464292924e+02   3.7261421637e+01    0.1676912    0.1022266  57.21 0.0006755426    1.597    0.374
        48  -8.4881    192.2173    144.0208   1.0435104590e+02   1.6543931081e+01    0.1587097    0.1068602 -33.03 0.0004673961    1.609    0.379
        49 -11.3608    148.3410    229.7366   1.2464673165e+02   1.2527390002e+01    0.2478925    0.1385377  40.59  0.001666538    1.430    0.301
        50  -9.1730    107.1677    124.5131   1.1783569429e+02   3.6010104111e+01    0.1739612     0.123194  46.69 0.0003485072    1.392    0.282
        51 -10.9682    154.7091    228.9992   1.2357185000e+02   1.1679091865e+01    0.3016036    0.1003308  48.00  0.001547209    2.338    0.572
        52 -10.1325    167.8735    112.9599   1.0225080431e+02   2.6415882241e+01    0.2981386    0.2450611 -66.62 0.0007637853    1.446    0.308
        53  -9.5641    203.5233    111.3516   9.5208805001e+01   1.8962102751e+01    0.2472343    0.1530378  32.53  0.001155755    1.737    0.424
        54  -9.3098    178.3486    228.6642   1.1986452298e+02   8.1908280620e+00    0.1035526    0.0713178  63.37   0.00070475    1.780    0.438
        55  -9.2554    156.4962     75.5378   9.4830870600e+01   3.5387082052e+01     0.145936    0.1442017  -8.52  0.000107084    1.003    0.003
        56 -11.5261      9.4880     63.8401   1.3396626149e+02   6.0805053179e+01    0.2653745    0.1550677  53.79  0.001593842    2.004    0.501
        57 -10.3725     26.5633     59.9033   1.2742695990e+02   6.0377202998e+01     0.283587    0.1287163  47.61  0.001360133    2.768    0.639
        58 -11.1192    190.4771    246.4878   1.2009224243e+02   4.6214834584e+00    0.2807351    0.2008261 -78.99  0.001906157    3.114    0.679
        59 -10.3686     98.8742    248.8749   1.3387371168e+02   1.6939498174e+01    0.1412177    0.1079493  48.21 0.0006686967    1.255    0.203
        60  -9.7767     81.8547    249.0809   1.3638723311e+02   1.9018334513e+01     0.154263   0.09030885  61.08 0.0008263469    1.285    0.222
