#   1 NUMBER                 Running object number                                     
#   2 MAG_AUTO               Kron-like elliptical aperture magnitude                    [mag]
#   3 X_IMAGE                Object position along x                                    [pixel]
#   4 Y_IMAGE                Object position along y                                    [pixel]
#   5 X_WORLD                Barycenter position along world x axis                     [deg]
#   6 Y_WORLD                Barycenter position along world y axis                     [deg]
#   7 A_WORLD                Profile RMS along major axis (world units)                 [deg]
#   8 B_WORLD                Profile RMS along minor axis (world units)                 [deg]
#   9 THETA_WORLD            Position angle (CCW/world-x)                               [deg]
#  10 FWHM_WORLD             FWHM assuming a gaussian core                              [deg]
#  11 ELONGATION             A_IMAGE/B_IMAGE                                           
#  12 ELLIPTICITY            1 - B_IMAGE/A_IMAGE                                       
         1 -11.3191     55.1707    146.6732   1.0572081958e+02   3.8633758837e+01     3.318463    0.9386555 -50.96   0.01088905    3.396    0.706
         2 -14.4173     68.6677    144.2219   1.0141579946e+02   3.7469467619e+01      4.90236     2.412521  68.67  0.007377879    4.532    0.779
         3 -13.4313    199.1577     41.5087   4.3032849015e+01   3.0466104280e+01     1.200806     1.158218 -53.19  0.003824609    1.183    0.154
         4 -13.6685    209.1878     31.6192   3.9432412205e+01   2.9416345559e+01     1.216858    0.9093775 -14.27  0.001640017    1.837    0.456
         5 -12.8325    234.2114      5.8025   3.1517204883e+01   2.6893701550e+01    0.8270077    0.5908425 -88.28  0.005162435    1.208    0.172
         6  -9.2033     60.5125      7.5147   6.0986049252e+01   6.6120081048e+01    0.1247135   0.09995811  20.69    2.705e-05    1.011    0.011
         7  -9.3693     58.8414    220.2066   1.1381350690e+02   2.0631752323e+01    0.3175315    0.2628521 -12.96  0.001919827    1.893    0.472
         8 -10.2671    139.9951    249.8910   1.0015552026e+02   3.0165837707e+00    0.3824074    0.1695937  49.80  0.001709722    2.432    0.589
         9 -10.6520    139.9808    244.8019   9.9496752135e+01   3.8780020346e+00    0.2408375    0.1916908 -36.82  0.001504292    1.498    0.332
        10 -10.2379    102.1501    249.1598   1.0773303129e+02   8.8277007549e+00    0.3230984    0.1912646 -71.84  0.001449696    2.085    0.520
        11 -10.8519    101.2350    244.2255   1.0738821644e+02   9.8673252211e+00     0.332498    0.2150142 -69.26  0.001472157    1.803    0.445
        12 -13.0820     55.2590    186.2919   1.1108891249e+02   2.8792900889e+01      2.84604     1.511674  63.91   0.01294233    2.106    0.525
        13 -10.8661    193.7773    196.1747   8.0344217804e+01   3.6579125935e+00     1.039174    0.5336843 -61.58  0.003258365    5.217    0.808
        14 -10.9655    111.6483    204.4891   1.0005562985e+02   1.6260905513e+01    0.3982253    0.2883948  85.38 0.0009181789    1.708    0.415
        15  -8.6189     32.5132    205.4607   1.1817139011e+02   2.7025785165e+01    0.1777964   0.09996917 -65.22 -2.004844e-05    1.730    0.422
        16  -9.3404     30.6242    202.0960   1.1830783046e+02   2.7987350654e+01     0.287053    0.1558163  48.98 0.0008434166    1.653    0.395
        17  -8.6407    114.7679    200.4025   9.8711727647e+01   1.6633515098e+01    0.1965501    0.1314043  27.56  0.000858415    1.621    0.383
        18  -9.5345    187.3135    208.3406   8.3923428851e+01   2.5828845037e+00     0.142288   0.09879816  -2.00 0.0007046964    1.700    0.412
        19  -9.5266    120.9668    195.5431   9.6480981553e+01   1.6648172428e+01    0.2972569    0.2023617 -78.57  0.001074797    1.915    0.478
        20 -10.5352     60.7299    198.2309   1.1114743400e+02   2.5280481149e+01    0.3046471    0.2257417  51.25 0.0009009993    1.245    0.197
        21 -11.0908    107.5156    203.4994   1.0087267890e+02   1.7151768922e+01    0.4838488    0.2386465  53.84  0.001995128    2.263    0.558
        22 -16.2550      6.7742    203.7217   1.2345427366e+02   2.9973972160e+01     15.87825     1.148781 -76.19    0.0238928    9.846    0.898
        23 -13.6497     44.0386    197.7866   1.1494107213e+02   2.7462032392e+01     2.253181    0.9325011  62.52  0.007709231    2.925    0.658
        24  -8.6256     72.2083    188.2213   1.0720046556e+02   2.6061874046e+01    0.1916995    0.1430419  73.53 0.0005304512    1.332    0.249
        25 -11.2787     48.4998    217.9259   1.1580374930e+02   2.2424721134e+01    0.5837666    0.3309672  23.11  0.002947571    2.382    0.580
        26  -8.4336     77.2430    185.6391   1.0561578729e+02   2.5953388193e+01    0.1408543    0.1281322  86.60 0.0007242513    1.035    0.034
        27  -8.7765     79.8681    183.5755   1.0467439113e+02   2.6060391164e+01    0.2396028    0.1412654  62.04 0.0005945158    1.924    0.480
        28  -9.8868     99.3885    180.6923   9.9336524666e+01   2.3691416123e+01    0.2548897    0.2461312  21.82 0.0006199132    1.151    0.131
        29  -8.4734     90.0208    180.9977   1.0174453934e+02   2.5126199129e+01    0.1852251    0.1684568 -32.96 0.0003044187    1.293    0.227
        30  -9.4777     37.8496    181.1553   1.1473583791e+02   3.2084534559e+01    0.1917675    0.1500252  80.31 0.0003154932    1.117    0.105
        31  -9.6948    187.8551    176.2660   7.7640869446e+01   8.4476833463e+00    0.3573734    0.3167765  72.31  0.001950554    1.457    0.314
        32  -8.7535    148.3970    175.1550   8.6259412036e+01   1.6156187448e+01    0.2402954    0.1892374 -69.22 0.0005882621    1.521    0.342
        33  -9.1008    146.3307    171.6810   8.6058928762e+01   1.7314788250e+01    0.2390165    0.1917541 -70.56 0.0007665553    1.475    0.322
        34 -11.2114    119.7660    244.6443   1.0363174077e+02   7.0128152105e+00    0.3287691    0.2494165 -23.90    0.0019268    1.851    0.460
        35 -13.0645     70.6262    154.2805   1.0259610245e+02   3.4643111499e+01    0.6521809      0.55544 -49.12   0.00107167    1.220    0.180
        36 -11.5328    116.5952    245.1832   1.0434749735e+02   7.3971914594e+00    0.5284997    0.3592448 -23.52  0.002777294    2.404    0.584
        37 -11.4308     69.7226    172.2941   1.0563830330e+02   3.0268423741e+01    0.4599331     0.293354 -35.86  0.001401191    2.153    0.536
        38 -12.1390     82.1097    159.5008   1.0031733519e+02   3.1629134654e+01     1.095118    0.6429646  69.33 0.0005845014    2.411    0.585
        39  -8.2601    193.6780    171.2957   7.5397875428e+01   8.3276376577e+00     0.136786      0.11802  89.17 0.0007019481    1.618    0.382
        40 -10.0294    240.0531    169.4921   6.6295431370e+01   5.5770323022e-01    0.1859445    0.1283429  34.69 0.0005501222    1.576    0.366
        41  -8.8653    185.3966    169.2353   7.6699616761e+01   1.0292417331e+01    0.2071932    0.1368626 -51.33 0.0009331411    1.664    0.399
        42  -9.1979    110.6247    167.7403   9.4210681956e+01   2.4864543454e+01    0.2691028    0.1928613 -68.60  0.001133092    1.510    0.338
        43 -17.1800     15.7246    242.9872   1.2391404442e+02   2.0962604886e+01     5.950415     2.145891  27.31   0.02081523    3.854    0.741
        44  -8.6355    135.8367    164.6426   8.7193650332e+01   2.0919775655e+01    0.2181832     0.137412  48.84 0.0004364906    1.641    0.391
        45  -8.3703     29.5836    164.5464   1.1503879447e+02   3.6988148250e+01    0.1321565    0.1090103 -88.93 9.446868e-05    1.021    0.021
        46 -11.5283     89.3877    152.4522   9.7043898006e+01   3.2240670018e+01    0.7640343    0.4872755 -26.65  0.003091615    2.378    0.579
        47 -10.6900    133.7292    144.3766   8.3360038603e+01   2.6041779693e+01     1.097979    0.3022865 -54.58  0.002672809    5.033    0.801
        48  -9.3013    174.6744    149.1289   7.4625559027e+01   1.6540196167e+01    0.2610261    0.2126595  56.18 0.0006094609    1.364    0.267
        49  -8.8119    111.0200    149.2253   9.0447261349e+01   2.9279012635e+01     0.339604    0.1791308  61.08   0.00113988    3.013    0.668
        50 -10.3581     38.7124    146.1065   1.1032304231e+02   4.0662381520e+01    0.3342934    0.2458906  72.78 0.0007729496    1.410    0.291
        51 -10.2699    102.9390    138.3911   9.0364306162e+01   3.3413127993e+01     0.625181    0.3837618 -24.25  0.002326094    2.634    0.620
        52 -11.7140     90.2550    138.0993   9.3943571155e+01   3.5693337137e+01    0.3024504     0.272898 -40.06 0.0004763756    1.145    0.126
        53  -9.9957    105.8441    130.8694   8.7836520220e+01   3.4724414231e+01    0.3758002    0.3309446 -70.63  0.001229611    1.171    0.146
        54  -9.8782    135.8162    128.9797   7.9171548779e+01   2.9185194347e+01    0.4212021    0.1823997 -52.65  0.001418895    2.501    0.600
        55  -9.6970    111.8849    129.4396   8.5781402460e+01   3.3925688531e+01    0.3430332    0.2640832  12.61 0.0008691351    1.640    0.390
        56 -10.8135     43.4122    129.3905   1.0638411370e+02   4.4392417958e+01    0.2996081    0.2557849  50.82  0.001212226    1.279    0.218
        57 -11.0691     30.9588    128.8249   1.1010432829e+02   4.5786000858e+01     0.454822    0.3896691  74.46  0.002776922    1.216    0.178
        58 -10.3124     99.0898    125.2425   8.8480414692e+01   3.7338607203e+01    0.3175424    0.2659894 -15.51 0.0009537199    1.401    0.286
        59 -10.5898    118.6002    123.1368   8.2356677192e+01   3.4103569650e+01    0.5441104    0.3597491  -0.34  0.001971428    2.789    0.641
        60  -9.0176     91.3121    124.2149   9.0561151327e+01   3.8964724039e+01    0.2654533    0.1838355  64.16 0.0006430615    1.857    0.462
        61  -9.1277    107.9995    118.4761   8.4206958387e+01   3.7300805512e+01    0.2191057    0.2045852 -45.97 0.0003419648    1.040    0.038
        62 -11.1694     35.0135    118.9393   1.0724914218e+02   4.7882284750e+01    0.3076694    0.2426548  16.80  0.001218926    1.505    0.336
        63 -11.3983     73.8311    167.9096   1.0390896199e+02   3.0768177883e+01    0.4250457    0.3227414 -65.74 0.0008897663    1.251    0.200
        64  -9.9362    231.3078    113.8034   5.5755471380e+01   1.1786050365e+01    0.2855785    0.2478214 -46.32 0.0008491713    1.049    0.046
        65 -12.2934     44.9076    108.0248   1.0191193180e+02   4.9573744954e+01    0.8221245    0.3510533 -45.14  0.003351808    2.244    0.554
        66 -10.3951    116.1358    109.1733   7.9425864613e+01   3.7844311385e+01    0.4489106    0.2748561  47.19  0.001882335    1.700    0.412
        67  -8.2869    139.5221    106.4573   7.2357079476e+01   3.3407101237e+01    0.1573798     0.152909 -75.20 0.0003564029    1.054    0.051
        68  -9.7164     40.0328    103.1392   1.0257310990e+02   5.1288194709e+01    0.2643428    0.1741813  84.77  0.001245278    2.105    0.525
        69 -11.6405     17.5729    107.0656   1.1099261494e+02   5.2280628071e+01    0.4299149    0.2860709  70.48  0.002314668    1.845    0.458
        70 -10.7521     32.7309    100.0081   1.0449055321e+02   5.2759865720e+01    0.3106197    0.2152038 -52.76  0.001631287    1.221    0.181
        71  -9.0369    127.8552     95.0842   7.2223813722e+01   3.8427493181e+01    0.2390849    0.2136055  86.77 0.0006834241    1.276    0.217
        72  -9.3170    205.4455    110.2407   5.9202271448e+01   1.7761714916e+01    0.2658216    0.2352543  85.67 0.0006293563    1.263    0.208
        73  -9.2857    155.5788     87.4818   6.3189558224e+01   3.3549421406e+01    0.3040749    0.2215237 -68.89 0.0008497451    1.710    0.415
        74  -8.5669    116.2473     85.3695   7.2563767932e+01   4.2977039767e+01    0.2129661    0.1445431  54.52 0.0009385213    1.603    0.376
        75  -8.9651    158.2124     82.7878   6.1274302703e+01   3.3803339072e+01    0.2055328    0.1823435  15.08 0.0004914228    1.297    0.229
        76  -8.2482    184.3754     77.2859   5.4597509966e+01   2.8510862488e+01     0.149729    0.1149836  25.36 0.0007016965    1.719    0.418
        77  -8.9982     56.2767     66.4553   8.6764157872e+01   5.7671499514e+01     0.174612    0.1285325  40.55 0.0009347037    1.559    0.358
        78 -13.0110    188.4124     49.5980   4.6585616291e+01   3.1905573539e+01     1.078018     0.863021  42.25 0.0008735528    1.459    0.315
        79 -10.2442     44.0058    216.5238   1.1663326799e+02   2.3270835665e+01    0.2784352    0.2222554 -89.26  0.001114438    1.147    0.128
        80  -9.0123     68.1345     52.3364   7.7245040002e+01   5.8562838773e+01    0.1872381    0.1641182  24.19 0.0007243202    1.154    0.133
        81 -11.5804     21.3605     33.7790   9.0665158265e+01   6.7904744246e+01    0.3648038    0.2280691  36.26  0.001668952    2.030    0.507
        82 -10.6478    184.3064    213.3959   8.5439992675e+01   2.1965284263e+00    0.2426517    0.2269293 -66.03  0.001375581    1.404    0.288
        83  -9.1014    198.0385     23.4541   3.8669413111e+01   3.3000636971e+01     0.217251    0.1873328  -6.89 0.0006564084    1.549    0.354
        84  -8.8365    189.4839     15.0367   3.7500577344e+01   3.5965154335e+01    0.1803836    0.1232933 -35.81 0.0006274659    1.545    0.353
        85  -9.2584     89.9037    212.1740   1.0609577056e+02   1.8017228934e+01    0.2136278    0.1805327 -85.02 0.0004634232    1.193    0.162
        86  -8.9860     50.1878    213.2157   1.1502378833e+02   2.3243471364e+01    0.2531352    0.1778618 -76.03  0.001171993    1.363    0.266
