#   1 NUMBER                 Running object number                                     
#   2 MAG_AUTO               Kron-like elliptical aperture magnitude                    [mag]
#   3 X_IMAGE                Object position along x                                    [pixel]
#   4 Y_IMAGE                Object position along y                                    [pixel]
#   5 X_WORLD                Barycenter position along world x axis                     [deg]
#   6 Y_WORLD                Barycenter position along world y axis                     [deg]
#   7 A_WORLD                Profile RMS along major axis (world units)                 [deg]
#   8 B_WORLD                Profile RMS along minor axis (world units)                 [deg]
#   9 THETA_WORLD            Position angle (CCW/world-x)                               [deg]
#  10 FWHM_WORLD             FWHM assuming a gaussian core                              [deg]
#  11 ELONGATION             A_IMAGE/B_IMAGE                                           
#  12 ELLIPTICITY            1 - B_IMAGE/A_IMAGE                                       
         1 -14.8903    165.7595     49.8181   6.9688895470e+01   3.7636756543e+01     1.243278     0.957927  -0.63  0.003832018    1.511    0.338
         2 -15.0961    181.2472     20.1156   5.7118644419e+01   3.7476300856e+01     1.086284    0.9446723  38.92  0.005826283    1.189    0.159
         3 -11.3228    135.7675    237.4203   1.1428300887e+02   1.1779669045e+01    0.2384858    0.2222255 -63.63  0.002028772    1.430    0.301
         4 -11.4880    114.8058    250.4929   1.1881246708e+02   1.3046597165e+01    0.1277195     0.086758  46.97 0.0005370695    1.151    0.132
         5 -19.9093     70.3251    165.8429   1.1865555392e+02   3.3157778361e+01      14.3479      4.55212 -68.44   0.06043149    3.239    0.691
         6 -11.8923    133.0607    195.0225   1.0987535245e+02   1.8393976010e+01    0.1843469    0.1502363  56.01  0.000430567    1.027    0.026
         7 -13.6854    151.5027    181.0118   1.0440961045e+02   1.7535602345e+01    0.3297476    0.2869792 -78.63 0.0008515845    1.320    0.243
         8 -12.7661    150.3325    193.0960   1.0642226633e+02   1.5821627712e+01    0.2995279    0.1629048  47.59  0.001223584    1.552    0.356
         9 -13.8198    149.4967    187.9432   1.0583206205e+02   1.6772203789e+01    0.3414297    0.3084652  67.91  0.001355212    1.128    0.114
        10 -13.6995    174.9729    185.6807   1.0079041105e+02   1.2648989997e+01    0.5093217    0.1722137 -50.28   0.00193116    4.290    0.767
        11 -12.4375    117.1760    233.7967   1.1696336251e+02   1.4969518753e+01    0.1844497    0.1541184 -71.48 0.0007718778    1.481    0.325
        12 -11.5667    150.5291    229.8093   1.1105147413e+02   1.0560684914e+01    0.2227735    0.1857367 -46.85  0.001724302    1.582    0.368
        13 -13.7209    166.0583    217.6185   1.0697559753e+02   9.7184166235e+00     0.322825    0.2484199 -46.98  0.000577198    1.653    0.395
        14 -12.5164     30.5883    182.4734   1.2798613089e+02   3.4570247178e+01    0.2343158    0.1596646  62.98 0.0005967236    1.162    0.139
        15 -11.6275     28.0264    179.6715   1.2828205073e+02   3.5358839610e+01     0.190045    0.1705614 -10.59  0.001481358    1.989    0.497
        16 -12.7661    162.8501    181.0725   1.0228136336e+02   1.5511058732e+01      0.19513    0.1639065  67.49 0.0007747377    1.280    0.219
        17 -14.7086    125.5147    172.2204   1.0814886456e+02   2.3546020371e+01    0.5957174    0.4428863  84.92  0.002220857    1.525    0.344
        18 -15.4625    142.9129    175.7580   1.0524673420e+02   1.9920445949e+01    0.7152417    0.6239585 -51.54  0.004342211    1.310    0.237
        19 -13.5809    150.1265    173.2348   1.0344236622e+02   1.9064724953e+01    0.3397227    0.2361281  82.23  0.001185125    2.055    0.513
        20 -15.2976    136.7398    169.4004   1.0546641558e+02   2.2110684860e+01     1.132362    0.3848487  37.07  0.004007026    3.648    0.726
        21 -13.4560    185.5156    170.0027   9.6187329973e+01   1.3047279128e+01    0.3273904    0.2480522 -50.66  0.001668091    1.592    0.372
        22 -13.8115    186.9510    175.1537   9.6843995861e+01   1.2018962748e+01    0.3673261    0.3192928  40.73 0.0009063637    1.055    0.053
        23 -11.8441     26.0022    172.2253   1.2817289386e+02   3.6986530821e+01    0.2383109    0.1460289  57.98 0.0008757397    1.351    0.260
        24 -11.5074     18.2705    173.2992   1.2972722633e+02   3.7517815249e+01    0.1442678    0.1252286  57.37 0.0008179837    1.390    0.281
        25 -12.4980    193.4705    170.5052   9.4833391497e+01   1.1483986454e+01    0.2298898    0.2061819  27.41 0.0007005651    1.033    0.032
        26 -14.3977    164.7653    226.1381   1.0826350747e+02   8.8273838716e+00    0.4236217    0.3742755  53.63  0.002858945    1.184    0.156
        27 -11.9246     33.9543    169.3094   1.2640243669e+02   3.6752897652e+01    0.2309806    0.1720469  77.56 0.0008608573    1.005    0.005
        28 -13.0756    158.8789    227.6763   1.0942336085e+02   9.5492797869e+00    0.2792541    0.2498503  66.55  0.001214987    1.257    0.205
        29 -12.7609     12.3647    173.6256   1.3086430131e+02   3.7991905098e+01    0.4093898    0.2059035  63.21  0.002256026    1.581    0.367
        30 -12.8152    158.8692    223.1298   1.0887872041e+02   1.0139135546e+01    0.2197695    0.1746648  56.01  0.001022208    1.185    0.156
        31 -11.6048     18.1751    154.7454   1.2852890482e+02   4.1187038924e+01    0.2487291    0.1488098  84.99 0.0007834323    1.320    0.242
        32 -15.4546    133.8708    145.9682   1.0203807708e+02   2.6960523642e+01     1.444032     0.502139 -58.81  0.004551088    4.549    0.780
        33 -13.4241    183.4701    206.2977   1.0245465625e+02   8.3388120812e+00    0.3097562    0.2207458 -43.36  0.001286228    1.743    0.426
        34 -11.2301     23.0108    156.0985   1.2762370300e+02   4.0470398243e+01    0.1661834    0.1267159  80.89 0.0004901288    1.037    0.036
        35 -11.8526    191.9803    152.5229   9.1658027102e+01   1.4462247235e+01     0.355353    0.1664618 -54.46  0.001285301    3.803    0.737
        36 -12.1127    188.1815    153.1935   9.2499313519e+01   1.5110301061e+01    0.1835906    0.1645517  82.03  0.001088299    1.366    0.268
        37 -15.3531    147.8624    148.3815   9.9530290397e+01   2.3859557753e+01     1.067626    0.6296501  76.44  0.004082772    3.356    0.702
        38 -12.9234    161.6629    149.3577   9.6892086501e+01   2.0998426116e+01    0.2821588    0.2175242  86.91 0.0008734955    1.724    0.420
        39 -11.1266      7.3643    149.7643   1.3044261318e+02   4.3113822315e+01    0.1934215    0.1260739 -44.93 0.0007467802    2.346    0.574
        40 -12.2881    174.8810    149.1406   9.4228629916e+01   1.8412872788e+01    0.2098771    0.1864665  75.97 0.0007210691    1.281    0.220
        41 -13.4325     27.6234    145.5913   1.2578494353e+02   4.2196371038e+01    0.2651092    0.2135231  72.92  0.001176431    1.129    0.114
        42 -14.3273    136.5840    134.8646   9.9291802265e+01   2.8597736499e+01    0.8582905    0.2509656 -54.47  0.002518668    4.722    0.788
        43 -15.9848    186.5230    214.9824   1.0318035335e+02   6.7417881516e+00    0.9786221    0.6926285   1.84  0.006218083    1.908    0.476
        44 -15.1262    174.8172    220.1908   1.0583892392e+02   7.9844685515e+00    0.5458405    0.4798419  17.09  0.004176325    1.256    0.204
        45 -12.8276    160.4577    128.1109   9.2701467689e+01   2.5062718069e+01    0.3217009    0.2442866 -58.78  0.001647332    1.482    0.325
        46 -11.2260    127.1754    227.9548   1.1473537704e+02   1.4334810180e+01    0.2387255    0.1579363  34.69  0.001597714    1.574    0.365
        47 -13.7175    135.2301    121.9465   9.6856294307e+01   3.1418681292e+01    0.6641591     0.188936 -48.41  0.002112336    3.613    0.723
        48 -11.0046    231.1519    113.8420   7.6225204602e+01   1.2128254877e+01    0.2020325    0.1896514 -36.41 0.0007915281    1.185    0.156
        49 -12.3882    168.3055    113.3195   8.7593697057e+01   2.6076446716e+01    0.3780573    0.2896921 -79.73  0.000925176    1.763    0.433
        50 -12.5608    114.1524    116.7184   1.0068514588e+02   3.6538599269e+01     0.241775      0.18511 -68.23 0.0005390729    1.337    0.252
        51 -12.6866    207.8136    223.9460   1.0097241518e+02   2.3200438822e+00    0.2447783    0.1437399 -35.29  0.001576893    2.125    0.529
        52 -11.2280    205.8104    110.1933   7.9596512394e+01   1.8194979805e+01      0.20471    0.1651842  18.09 0.0005609587    1.316    0.240
        53 -12.6629    140.0150    218.6220   1.1154178758e+02   1.3705958061e+01    0.3828025    0.1935025 -63.38  0.001399118    2.842    0.648
        54 -12.0697    152.1297    218.6918   1.0947741175e+02   1.1795900245e+01    0.2030515    0.1623332  62.73 0.0009273655    1.252    0.201
        55 -10.5484    109.5496    244.4485   1.1913284499e+02   1.4569051145e+01    0.1048612   0.07484093  55.09 8.731463e-05    1.010    0.010
        56 -13.6637    153.6558     63.4423   7.6632702936e+01   3.8482726931e+01    0.4262863    0.4037344  51.65 0.0009058071    1.078    0.072
        57 -12.2539    101.5411    243.0608   1.2028596099e+02   1.5848250787e+01    0.1851205     0.139972  75.68  0.001324529    1.276    0.216
        58 -11.8980     11.3113    206.1538   1.3262422888e+02   3.2195985246e+01    0.2327725    0.1529919  50.34  0.001774853    1.378    0.274
        59 -10.8938     98.7047    249.0528   1.2119626264e+02   1.5405645669e+01    0.1006513   0.08617798 -71.81 0.0004157773    1.559    0.358
        60 -13.1968    170.6052     41.3927   6.5977809500e+01   3.7609395717e+01    0.4440072    0.4066526   0.57 0.0008507608    1.129    0.114
