#   1 NUMBER                 Running object number                                     
#   2 MAG_AUTO               Kron-like elliptical aperture magnitude                    [mag]
#   3 X_IMAGE                Object position along x                                    [pixel]
#   4 Y_IMAGE                Object position along y                                    [pixel]
#   5 X_WORLD                Barycenter position along world x axis                     [deg]
#   6 Y_WORLD                Barycenter position along world y axis                     [deg]
#   7 A_WORLD                Profile RMS along major axis (world units)                 [deg]
#   8 B_WORLD                Profile RMS along minor axis (world units)                 [deg]
#   9 THETA_WORLD            Position angle (CCW/world-x)                               [deg]
#  10 FWHM_WORLD             FWHM assuming a gaussian core                              [deg]
#  11 ELONGATION             A_IMAGE/B_IMAGE                                           
#  12 ELLIPTICITY            1 - B_IMAGE/A_IMAGE                                       
         1 -16.1768    232.2862     50.8309   6.5139015624e+01   2.1786341712e+01     3.689503     2.504284 -88.31   0.02031835    1.445    0.308
         2 -17.4230    182.6469     88.4783   8.1713052964e+01   2.7210377295e+01     4.907785     2.411063  62.79   0.01875219    2.278    0.561
         3 -19.2563    205.1326    114.3075   8.3941790758e+01   1.7016784177e+01     7.881379     7.360947  28.51   0.04313513    1.230    0.187
         4 -12.3062    201.6957     18.5006   6.1344481804e+01   3.3037436095e+01    0.3793633    0.3104867 -45.88  0.001471764    1.320    0.242
         5 -12.3861    189.3008     19.2134   6.2950482835e+01   3.5871705270e+01    0.4258131    0.2319923 -43.05 0.0007414752    1.867    0.464
         6 -10.9607    247.8379     16.5912   5.6608056678e+01   2.2998207611e+01    0.3375461    0.1504829 -45.47  0.001780579    1.936    0.483
         7 -11.3405    154.3905     14.0761   6.6363391288e+01   4.4694932074e+01    0.2688896    0.2244988  13.37 0.0001303709    1.490    0.329
         8 -11.7531    219.5280     11.3736   5.7972384651e+01   2.9757522679e+01    0.2442411    0.1852702 -82.67 0.0004258333    1.069    0.065
         9 -12.1215    234.1156      7.2559   5.5881259080e+01   2.7005896651e+01     0.320087    0.2336438 -39.31 0.0005960889    1.544    0.352
        10 -10.3139    213.1086     10.5802   5.8401397845e+01   3.1293708783e+01    0.2020086    0.1431482 -62.09 0.0005324538    1.284    0.221
        11 -10.4779    178.0437     10.4860   6.2169553700e+01   3.9456631249e+01    0.1863841    0.1770148 -14.00 0.0005647988    1.338    0.253
        12 -10.1887     45.0197     11.3014   9.2718334628e+01   6.6718844994e+01    0.1593479    0.1239746  12.07 0.0008022817    1.054    0.051
        13 -10.3609     23.1735     11.1601   1.0172407987e+02   6.9447458096e+01    0.1408255     0.131391 -13.84 0.0005739066    1.654    0.396
        14 -10.6065     20.0341      7.6091   1.0155075200e+02   7.0205794054e+01     0.174462    0.1296828 -29.98   0.00051708    1.484    0.326
        15 -10.9903    192.7139      7.3623   5.9731999581e+01   3.6327134008e+01    0.3167674    0.1691492  62.14   0.00114265    1.659    0.397
        16 -10.2059     66.3153      6.7790   8.3364168125e+01   6.3842585293e+01    0.1612172    0.1344902  18.37  0.000883745    1.077    0.071
        17 -11.5386    215.9083      5.2463   5.7002674925e+01   3.1235016556e+01    0.3179555    0.1788153  79.34  0.001093212    1.516    0.341
        18 -10.0507    248.7214      4.1620   5.4190596833e+01   2.4265842230e+01    0.2033627    0.1268847  55.69  0.001045154    2.059    0.514
        19 -10.3865    205.5379      4.6480   5.7824687628e+01   3.3644562588e+01    0.2115069   0.09878378  74.66 0.0009679748    1.828    0.453
        20  -9.9467    167.6233      7.9540   6.2838412688e+01   4.2160249370e+01    0.2139231    0.1272404 -10.03  0.001080688    2.500    0.600
        21  -9.6602    173.9757      4.0266   6.1038892605e+01   4.1031638796e+01      0.14631    0.1271452  85.99 0.0003462241    1.064    0.060
        22 -11.9363    238.0501      9.7636   5.6061452343e+01   2.5876453549e+01    0.3831047    0.2282704  51.80  0.002147441    2.227    0.551
        23 -10.5715    141.5696      3.0085   6.5163623929e+01   4.8668667538e+01    0.2444912    0.1602145  65.82 0.0005691593    1.276    0.216
        24 -10.9643    131.1230      2.3274   6.6640628213e+01   5.1099347317e+01    0.2861637    0.1928503  84.55  0.001487401    1.623    0.384
        25 -10.9992    228.0102      2.0127   5.5323820608e+01   2.8900948855e+01    0.1849179    0.1410237 -81.32 0.0004324462    1.010    0.010
        26 -11.3581    222.1263      1.4839   5.5690653808e+01   3.0246158113e+01      0.23386    0.1171345  78.26 0.0003689304    1.703    0.413
        27 -10.2668    166.5695      1.6299   6.1327475493e+01   4.2979641368e+01    0.2561501    0.1245946  64.14  0.001306099    1.670    0.401
        28  -9.8498     49.1532    226.1189   1.3947811454e+02   2.1327613545e+01    0.1733066    0.1508633  85.44 0.0005495321    1.209    0.173
        29 -12.0527    229.7387    250.1872   1.0708001359e+02  -1.1938617915e+01    0.4517009    0.1559249  35.86  0.002010332    2.618    0.618
        30 -10.8656    222.6707    250.2939   1.0839251951e+02  -1.0919825510e+01    0.2116884    0.1305876  41.93 0.0006625844    1.650    0.394
        31 -10.5125    221.4886    225.2460   1.0429664478e+02  -7.0168993800e+00    0.2452126    0.1501455   6.20 0.0009281879    2.179    0.541
        32 -13.9527    177.3274    220.8884   1.1225188834e+02   1.2817408156e+00    0.8256305    0.5399345  53.59  0.001930019    1.679    0.404
        33 -11.1564    165.9986    223.9951   1.1511780957e+02   2.7428105149e+00    0.2646022    0.1798202  47.89  0.001370652    1.400    0.286
        34  -9.3715     98.4612    222.5118   1.2910926855e+02   1.4861529764e+01    0.1359472    0.1162954  70.22 0.0001064548    1.003    0.003
        35 -10.8313    234.1046    220.8492   1.0114785391e+02  -8.3170592402e+00    0.3119688    0.1945798  32.28   0.00118205    1.544    0.352
        36  -9.7969     41.4372    221.4324   1.4054404955e+02   2.3313912485e+01    0.1245004    0.0956313  79.17  3.30743e-05    1.009    0.009
        37 -11.0265    130.1115    218.4308   1.2180559921e+02   1.0307639450e+01     0.325712    0.1909339 -58.97  0.001039853    1.856    0.461
        38 -11.1711    142.8955    216.1091   1.1869643129e+02   8.4792871906e+00    0.3010083    0.2180506 -51.59 0.0005639662    1.491    0.329
        39 -11.5255    123.1516    216.1901   1.2296191691e+02   1.2010957659e+01    0.4703747    0.3205112  18.80  0.002190591    2.181    0.541
        40 -11.3243     59.2826    216.9939   1.3657235584e+02   2.1957997597e+01    0.3550471    0.2943197 -56.92  0.001051827    1.484    0.326
        41  -9.6478     17.6755    217.3035   1.4471173106e+02   2.6933591829e+01    0.1256059   0.06703033  69.63 0.0003936271    1.640    0.390
        42 -11.7512    203.0776    214.2257   1.0585072208e+02  -2.0984114939e+00    0.4544581    0.1785282 -49.01  0.001733156    3.076    0.675
        43 -10.6502     90.5380    214.9690   1.2980632094e+02   1.7772741190e+01    0.3513658    0.2629957  -1.60  0.001701134    2.557    0.609
        44 -10.7458     94.9323    212.1034   1.2848165333e+02   1.7699166291e+01    0.2274215    0.1883538 -65.79 0.0003159389    1.255    0.203
        45 -10.5966     24.2077    214.8572   1.4329466731e+02   2.6756485560e+01    0.1538941    0.1234802 -73.24 0.0004234002    1.331    0.249
        46 -10.3114     13.0084    215.0553   1.4541234926e+02   2.7901000436e+01    0.1442236      0.10327  86.19 0.0003446482    1.043    0.041
        47 -10.1405    236.2033    214.3891   9.9566732414e+01  -7.6326774322e+00    0.1974616    0.1421821  16.53  0.001135185    1.376    0.273
        48 -10.9106    196.8011    213.5228   1.0697369750e+02  -8.6768096757e-01    0.2376452    0.1891358 -36.48 0.0006413759    1.298    0.230
        49  -9.8023      1.4815    214.5082   1.4747616316e+02   2.9146032664e+01    0.1154678    0.0832368  84.73 -4.391249e-05    1.023    0.023
        50 -10.4030    214.0315    210.6188   1.0303154549e+02  -3.3695453447e+00    0.2568073    0.1757482 -20.20  0.001043546    1.595    0.373
        51 -12.2495    164.6252    209.4183   1.1290193773e+02   5.8058569290e+00    0.4485676    0.3301724  44.04  0.001293637    1.278    0.218
        52 -10.5090    222.3190    207.6168   1.0087335284e+02  -4.2657231654e+00    0.3654911    0.2572388 -63.08  0.001428309    2.242    0.554
        53 -10.6769    242.0687    207.9051   9.7281342221e+01  -7.5200601729e+00    0.1851091    0.1616555  -3.92 0.0003150813    1.040    0.038
        54 -15.8928    192.2140    198.8479   1.0514010433e+02   2.6874553805e+00      5.07075     2.364694  31.23   0.01944227    2.595    0.615
        55 -12.3040    242.1918    247.5293   1.0439071850e+02  -1.3343170698e+01    0.2703195    0.1716949  18.46  0.001605908    1.443    0.307
        56 -15.0373    234.4068     78.0995   7.0881484924e+01   1.7042716570e+01     1.326256    0.8697543  52.82  0.006823226    1.730    0.422
        57 -15.5221    175.4023    100.2815   8.6216734377e+01   2.6692385622e+01     2.299834     0.663771  54.95  0.006588122    3.792    0.736
        58  -9.8544    165.2968    248.6847   1.1912803662e+02  -1.5005725678e+00    0.1244761   0.09489162  66.59 0.0002404212    1.606    0.377
        59 -12.0980    132.4130    246.7543   1.2536443511e+02   4.3892269692e+00    0.2373067    0.2045369  58.49 0.0003168355    1.052    0.049
        60 -10.6057    244.5074    185.6165   9.2493945381e+01  -4.2283331691e+00    0.4034858    0.3186925  71.00  0.002209201    1.983    0.496
        61  -9.9623     11.6713    207.7214   1.4512588152e+02   2.9622392374e+01    0.1044995   0.08153487 -58.28 0.0002290843    1.597    0.374
        62 -11.0348    147.5733    198.7159   1.1470347717e+02   1.1247011795e+01    0.2669613    0.2375476  88.63   0.00064356    1.196    0.164
        63  -9.9539     76.0061    185.7356   1.2904453921e+02   2.6771410455e+01    0.1980399     0.166363  60.16 0.0005650054    1.160    0.138
        64 -10.4569    238.6943    183.9221   9.3182861141e+01  -2.9599997054e+00    0.4119369    0.2419141   4.04  0.001631601    3.149    0.682
        65 -10.7047     67.9765    201.4777   1.3296667368e+02   2.4244608482e+01     0.251377    0.1775518 -75.56 0.0004976464    1.291    0.226
        66 -10.4147     89.7345    206.0860   1.2879582157e+02   1.9886772135e+01     0.185683    0.1634573 -86.69 0.0003471245    1.085    0.078
        67 -11.8348    129.4960    179.3075   1.1526907054e+02   1.9065806756e+01    0.3077269    0.2536119 -85.56  0.001459422    1.304    0.233
        68 -10.3374     33.3198    177.3985   1.3782163016e+02   3.4296977347e+01    0.3371555   0.07601531 -63.30  0.001212336    3.276    0.695
        69 -10.5169    236.5190    176.8456   9.2131170546e+01  -1.3343882944e+00     0.214114      0.18315  37.83 0.0002811028    1.274    0.215
        70 -11.5610    123.0714    176.3370   1.1623760052e+02   2.0987003458e+01    0.2855785    0.2136024 -69.32 0.0005436423    1.394    0.283
        71  -9.7685     73.7698    201.2232   1.3166410607e+02   2.3460127101e+01    0.1633034    0.1513669 -65.40 0.0002275888    1.275    0.215
        72 -10.5592     87.9581    172.9613   1.2418486441e+02   2.7997664331e+01    0.2248683    0.1946403 -83.46 0.0005459405    1.056    0.053
        73 -12.2555    245.8340    166.8615   8.8444833869e+01  -1.1847545791e+00    0.4600944    0.2434754 -28.59 0.0006922538    2.016    0.504
        74 -10.4499    233.7347    171.9713   9.1623301887e+01   3.9958116545e-02    0.2008313    0.1912127  85.98 0.0005707608    1.286    0.222
        75 -11.2682     79.6660    170.8622   1.2588015054e+02   2.9817765440e+01    0.3882232     0.230649 -68.66 0.0008893447    1.621    0.383
        76 -11.1415    118.8503    169.7415   1.1599923554e+02   2.3350147907e+01     0.252325    0.2371504  84.48 0.0005077338    1.011    0.010
        77 -10.8802     70.5987    168.3490   1.2772016032e+02   3.1784871353e+01    0.2719223    0.2302655  39.05  0.001101114    1.334    0.250
        78 -11.4801     22.7108    165.5256   1.3891636566e+02   3.8195990136e+01    0.2896503    0.2144113  78.04 0.0003309285    1.256    0.204
        79 -10.1712    228.7247    166.6601   9.1416504950e+01   1.9368231750e+00    0.2451256    0.1869226 -42.31   0.00118332    1.233    0.189
        80 -12.3678     28.2162    166.1884   1.3770449762e+02   3.7497639952e+01     0.277223    0.2237895  77.00 0.0003806722    1.169    0.145
        81 -10.1831     35.5786    160.4416   1.3522334713e+02   3.8112036142e+01    0.3201967    0.1733757  86.72  0.001133152    2.143    0.533
        82  -9.7351      7.2087    201.0641   1.4548195374e+02   3.1511792450e+01    0.1568931   0.07372916 -76.66 0.0006996331    1.680    0.405
        83 -10.4676     91.3364    159.0734   1.2087535289e+02   3.0846995397e+01    0.2125191    0.2049468  31.36 0.0002760227    1.196    0.164
        84 -10.2587    128.8719    200.2758   1.1916147528e+02   1.4422287277e+01    0.2104488    0.1760123  48.71 0.0009899723    1.137    0.120
        85 -10.2343     42.0447    157.9545   1.3328583742e+02   3.8004633901e+01    0.2084594    0.1737464 -80.53  0.001072679    1.016    0.016
        86 -11.0138     15.3483    155.0753   1.3946997421e+02   4.1333366081e+01     0.362378    0.1284125 -65.27  0.001646708    2.122    0.529
        87 -10.0150    250.6233    153.7477   8.4918598162e+01   3.1031656743e-01    0.1763701    0.1140311 -46.50 0.0001478616    1.437    0.304
        88 -11.2987     90.5190    151.2442   1.1959104707e+02   3.2909288451e+01    0.5055887    0.2325232 -51.82  0.001006777    2.038    0.509
        89 -12.8282    155.7861    194.7806   1.1215915714e+02   1.0507117873e+01    0.5112308    0.3972418  23.02  0.001724176    1.478    0.323
        90  -9.8979     34.0573    150.2315   1.3421913646e+02   4.0736204438e+01    0.1725254    0.1501852 -84.32 0.0004339929    1.079    0.073
        91 -10.3806     26.2271    150.0517   1.3617925727e+02   4.1550663342e+01     0.220187    0.1267799  81.19  0.001091076    1.990    0.497
        92 -11.3612    120.9243    148.5775   1.1111820537e+02   2.8032216710e+01    0.3760597    0.2099257 -38.45  0.001456336    2.118    0.528
        93 -10.4017     80.5203    147.8828   1.2159340172e+02   3.5343611569e+01    0.2255079    0.1337912 -60.04  0.000708416    1.548    0.354
        94 -10.8212    243.3208    145.5979   8.4389903204e+01   3.1135548176e+00    0.4814792    0.2907632  56.07  0.001554265    2.018    0.504
        95 -10.2887    246.3762    145.1739   8.3799971062e+01   2.6237195701e+00    0.4040948    0.1641228 -42.91  0.001436482    2.162    0.537
        96 -11.6369    111.0596    144.1337   1.1269949677e+02   3.1001056783e+01     0.444256    0.2070021 -58.97  0.001210723    2.290    0.563
        97 -11.3890     21.8475    145.7810   1.3672652979e+02   4.2971266630e+01    0.2189703    0.1736031 -79.04 0.0002415565    1.047    0.045
        98  -9.6781     63.4240    144.4366   1.2555102868e+02   3.8673249072e+01    0.1410062    0.1230823 -73.03 6.164207e-05    1.018    0.018
        99 -13.5100    142.0317    192.6460   1.1484769228e+02   1.3629019443e+01    0.9152622    0.5850154 -55.80  0.002839005    1.632    0.387
       100 -10.9618     92.6915    140.4620   1.1681370470e+02   3.5188275665e+01    0.4430598    0.2878935 -16.73  0.001324459    2.846    0.649
       101  -9.6639     44.6100    140.7594   1.3000744272e+02   4.1898576502e+01    0.1817979    0.1138737 -74.58 0.0003174497    1.491    0.329
       102 -10.1687     39.0394    139.9045   1.3137256627e+02   4.2713339474e+01    0.2486806    0.1465436 -64.60  0.001184772    1.411    0.291
       103 -11.7025    149.7000    195.5241   1.1365029469e+02   1.1525019354e+01    0.3463076    0.2670116 -79.89 0.0009095251    1.574    0.365
       104 -10.0713     30.8795    140.1893   1.3359886150e+02   4.3471015822e+01    0.1906147    0.1490735  89.72  0.000350979    1.233    0.189
       105 -11.4523    109.9214    133.5038   1.1060426665e+02   3.3770556605e+01    0.3944246    0.2746699 -48.85  0.001315951    1.380    0.275
       106 -11.1668    100.7319    134.4301   1.1330522979e+02   3.5246420193e+01    0.2858911    0.2584662 -62.56 0.0005810839    1.043    0.041
       107  -9.9253     72.2012    134.1748   1.2116969692e+02   3.9954850839e+01    0.1942992    0.1587109 -86.93 0.0003672542    1.299    0.230
       108 -10.0052     74.1349    129.1049   1.1957066707e+02   4.0900027929e+01    0.2119787    0.1790692 -43.43 0.0003153613    1.176    0.150
       109 -11.4334    101.3604    127.0041   1.1141836454e+02   3.6907953658e+01    0.3611647    0.3258176  24.76  0.001029619    1.229    0.186
       110  -9.6872     87.5727    128.5065   1.1562354867e+02   3.8940770156e+01    0.1485092    0.1358192 -62.70 -0.0002216023    1.020    0.019
       111 -10.6483     80.0789    125.8474   1.1716171879e+02   4.0780326272e+01    0.2643313    0.1964142 -41.29 0.0007377794    1.351    0.260
       112 -10.8932    134.7019    197.9792   1.1745540250e+02   1.3844835904e+01    0.3095711     0.214734 -80.58  0.001424588    1.839    0.456
       113 -10.6364     92.6948    119.3037   1.1201914764e+02   4.0258425532e+01     0.235084    0.2038118 -75.45  0.000195932    1.222    0.181
       114 -10.8625     91.7796    116.3292   1.1155721362e+02   4.1108974959e+01     0.292673    0.2446727  -1.84 0.0007958994    1.449    0.310
       115 -12.1191    130.0169    192.2369   1.1751389956e+02   1.6004656997e+01     0.305975    0.2514216 -86.45 0.0003016688    1.307    0.235
       116 -11.0884     69.9815    116.8977   1.1810115586e+02   4.4413009156e+01     0.358316    0.2037504  39.79  0.001615585    1.928    0.481
       117  -9.6745     57.2744    114.3151   1.2134460540e+02   4.6728051057e+01    0.1393416   0.09522822 -34.81  0.000216185    1.562    0.360
       118 -10.5242     91.0398    111.7301   1.1062689329e+02   4.2295057049e+01    0.2004384    0.1945053 -24.23 0.0004041644    1.061    0.057
       119  -9.3980     44.2899    112.6718   1.2494432385e+02   4.8634072040e+01    0.1298702    0.0986059  84.64 0.0007016069    1.619    0.382
       120 -11.8183    128.4401    188.4980   1.1721137300e+02   1.7149716540e+01    0.3502722    0.2922337  27.38  0.001462021    1.367    0.268
       121 -10.1993      3.3173    108.9617   1.3659998688e+02   5.2891697021e+01    0.1722554    0.1232702 -62.71 0.0004456557    1.066    0.062
       122 -12.9764    100.7916    105.0508   1.0605767502e+02   4.2053503451e+01    0.7124965    0.4865562 -48.51  0.003379954    1.402    0.287
       123 -11.1081    206.2882    202.4138   1.0298645872e+02  -5.6128734831e-01    0.2421371    0.2303936  73.78 0.0006282258    1.282    0.220
       124 -11.5406     94.0985    101.7386   1.0712121968e+02   4.3997007096e+01    0.4052449    0.3007318 -17.73  0.001947409    1.659    0.397
       125 -10.4764      2.7649    103.8582   1.3597547081e+02   5.4062859895e+01    0.1818216    0.1251191 -51.90 0.0005075983    1.195    0.163
       126  -9.9893     82.4799     95.7958   1.0901475771e+02   4.7267782854e+01    0.2107517    0.1325405 -48.10 0.0009966393    1.486    0.327
       127  -9.3762    107.2907     91.3080   1.0037760298e+02   4.3735880779e+01    0.1473814     0.115194  -5.61 0.0002673652    1.579    0.367
       128 -16.2572    184.1532    112.2862   8.7487633406e+01   2.2238318657e+01     2.442082      1.07342  60.50  0.008202331    2.895    0.655
       129 -10.7341    103.0516     89.4964   1.0107087533e+02   4.4928570901e+01    0.2283175    0.1860499 -40.34 0.0004102197    1.189    0.159
       130 -10.8138     68.1838     89.9048   1.1191890807e+02   5.0720352553e+01    0.2247618    0.1929474   6.54 0.0003163845    1.242    0.195
       131 -10.4674      3.0034     89.5364   1.3347343027e+02   5.7176423818e+01    0.2378674    0.1121344 -50.73 0.0008903698    1.593    0.372
       132 -10.8524     52.0920     88.1816   1.1675460980e+02   5.3213424004e+01    0.2306979    0.1714839 -50.93 0.0003051281    1.212    0.175
       133 -10.7219     87.9411     87.8368   1.0509743125e+02   4.8023148554e+01    0.2978542    0.2228432 -24.16 0.0009160397    1.431    0.301
       134  -9.7733     27.7908     87.2209   1.2473047778e+02   5.5926530836e+01    0.1739909    0.1214457 -36.05 0.0006708297    1.302    0.232
       135  -9.5332    110.2773     86.6382   9.8176282821e+01   4.4081324058e+01    0.1472889    0.1169458 -76.91 0.0003911744    1.667    0.400
       136 -11.6643    118.1269    190.9266   1.2002826366e+02   1.8503425054e+01    0.5179518     0.277402 -57.18   0.00170286    1.889    0.471
       137 -10.7514    101.0302     82.9807   9.9742340016e+01   4.6615079149e+01    0.2000142    0.1896356  -7.67 0.0003308825    1.018    0.018
       138 -11.7925    101.8444     79.2053   9.8367719857e+01   4.7187481397e+01    0.3904888    0.3127722  89.01   0.00152995    1.793    0.442
       139 -10.8115     85.5792     82.6182   1.0430015401e+02   4.9482206940e+01    0.3025627    0.2189599  17.75 0.0007006121    1.594    0.373
       140  -9.8277     59.0488     82.9465   1.1300714112e+02   5.3430789277e+01    0.2182309    0.1466138 -20.22 0.0008960335    1.702    0.412
       141 -10.0019     73.6101     81.2976   1.0771777463e+02   5.1687000013e+01    0.1340481     0.109569  78.11 7.783652e-05    1.787    0.441
       142  -9.8478     52.4849     81.0979   1.1471895205e+02   5.4644260330e+01    0.1965971    0.1152336 -48.79 0.0005096151    1.508    0.337
       143 -11.8337    107.9937     76.0364   9.5636949182e+01   4.6569835106e+01    0.4384237    0.2868121 -65.78   0.00187158    2.364    0.577
       144 -10.7728     94.2859     77.4980   1.0008638941e+02   4.8936088973e+01    0.2689183    0.1887765 -41.15 0.0008511523    1.387    0.279
       145 -11.0859     67.1314     77.5700   1.0875016839e+02   5.3396137370e+01    0.2382816    0.2080038 -34.13 0.0003020366    1.059    0.055
       146 -10.3150     85.1188     77.0108   1.0275536194e+02   5.0656965806e+01    0.2867931    0.1977226  49.28  0.001446642    1.665    0.399
       147 -12.7210    130.7513     71.2697   8.8164350003e+01   4.2561630752e+01    0.7846711    0.4920915 -71.92  0.001293599    2.891    0.654
       148 -12.0587    135.7865     66.8269   8.5613023535e+01   4.2173937749e+01    0.3940273     0.307496  34.01 0.0003902213    1.356    0.263
       149 -11.1357    142.2524     63.7335   8.3201746710e+01   4.1184822414e+01    0.3580275    0.2162203  51.12 0.0007486386    1.574    0.365
       150 -11.1917     96.8150     72.3214   9.7724461554e+01   4.9429518388e+01    0.2439115    0.2335954   7.56 0.0003116063    1.050    0.047
       151 -11.6218    101.2377     70.8203   9.5951534960e+01   4.8854372159e+01    0.3263809    0.2223387 -20.40  0.001492594    1.702    0.412
       152 -10.0099      9.5826    193.2743   1.4441167828e+02   3.3020147366e+01    0.1683335   0.08657867 -68.20 0.0009462025    1.627    0.386
       153 -12.0353    118.8585     68.5249   9.0353323245e+01   4.5648395859e+01    0.3803487    0.3072786 -46.64 0.0003414525    1.310    0.237
       154 -11.3586     32.0596     66.9463   1.1803193196e+02   5.9681386107e+01     0.205468    0.1761621 -41.08 0.0003412647    1.133    0.117
       155 -10.6678     10.9528     66.0013   1.2566591109e+02   6.1553197220e+01    0.1764742    0.1330156 -41.16 0.0003230267    1.025    0.024
       156 -10.6281     45.2478    202.5215   1.3795303225e+02   2.7044719120e+01    0.3453504      0.16345 -50.64  0.001573007    2.653    0.623
       157 -12.8437    111.2340     59.4124   8.9501943621e+01   4.8773390092e+01     0.369279    0.2906472 -25.67 0.0006456508    1.313    0.238
       158 -10.9835    115.9943     55.8731   8.7101724385e+01   4.8323016789e+01    0.2540462    0.1958502 -31.42  0.000443324    1.345    0.256
       159 -10.7772     17.5639     61.9744   1.2211456470e+02   6.1870455163e+01     0.200401    0.1364995 -20.04 0.0003663705    1.418    0.295
       160 -11.7996    140.0858     56.3573   8.1478378391e+01   4.2845774406e+01    0.4587616    0.3333209 -70.56  0.001900185    1.796    0.443
       161 -12.0470    141.0096     50.5079   7.9513483300e+01   4.3493576270e+01    0.5632764    0.3326131  79.28  0.001846603    2.522    0.603
       162 -13.6420    151.3254     52.6384   7.8006114240e+01   4.0746391633e+01     0.899223    0.6348447  71.30   0.00161285    1.478    0.323
       163 -12.3050    145.6588     54.8997   7.9838586404e+01   4.1757736889e+01    0.4985315    0.3087202 -36.32 0.0003134606    1.699    0.412
       164 -11.5015     88.6238     60.9171   9.6534219111e+01   5.2939533227e+01    0.3306862    0.2229601  30.17 0.0002465753    1.512    0.338
       165 -11.2243     89.7235     57.6841   9.5119901778e+01   5.3274275832e+01    0.2471658    0.1729364  10.41 0.0004427786    1.700    0.412
       166 -10.3778     95.5086     59.0051   9.3818653856e+01   5.1978625336e+01    0.2182439    0.1683734  38.67 0.0005294941    1.264    0.209
       167  -9.2650     11.2917     58.2964   1.2354191203e+02   6.3015622173e+01     0.119697   0.06642903 -32.79  0.000285126    1.558    0.358
       168 -10.8023     89.4632    190.8708   1.2667317013e+02   2.3453292146e+01    0.3329547    0.1922669  33.61  0.001514248    1.976    0.494
       169 -10.0840     52.1247     57.1249   1.0758604471e+02   5.9255874848e+01    0.1880473    0.1491318 -13.97  0.000332921    1.135    0.119
       170  -9.8396      7.4643     57.5188   1.2482932200e+02   6.3409435838e+01    0.1163381   0.08663978 -38.81 5.404875e-05    1.019    0.018
       171 -11.5899    134.7532     53.1762   8.1702720548e+01   4.4556181738e+01    0.2937259    0.2426956 -46.88 0.0002105135    1.303    0.233
       172  -9.9648     49.1897    191.1382   1.3585079341e+02   2.9187270462e+01    0.1935608    0.1307363  83.22  0.001067131    1.377    0.274
       173 -11.3850    121.5263     53.0106   8.4781857946e+01   4.7556397188e+01    0.3170912     0.223131  78.16 0.0009485807    1.977    0.494
       174 -10.6545    124.9800     49.5060   8.2825785047e+01   4.7303705593e+01    0.4103242    0.2191362  16.50  0.001259184    4.924    0.797
       175 -10.6798     95.0963     52.9943   9.1926939638e+01   5.3011126592e+01    0.2449423    0.1799804 -64.09  0.001233877    2.062    0.515
       176 -10.9194     24.7595     52.8059   1.1664102223e+02   6.2984512301e+01    0.1864809    0.1539227   6.36 0.0003641756    1.280    0.219
       177 -11.0572    106.1191     49.7024   8.7698044084e+01   5.1319318371e+01    0.3416859    0.1913956 -40.07  0.001295035    1.899    0.473
       178 -10.0824      1.6515     49.1101   1.2488686712e+02   6.5310061005e+01    0.1571183    0.1042719 -44.34 0.0004006646    1.138    0.121
       179 -11.0502     64.1876     43.9626   9.8682106594e+01   5.9708362545e+01    0.3338451    0.1867376 -35.28  0.001389032    1.711    0.416
       180 -11.8125    138.2750     42.9951   7.7810770775e+01   4.5170891093e+01    0.4855464    0.2771813 -47.56  0.002252205    2.020    0.505
       181 -10.6811     95.1781     44.7626   8.9078710850e+01   5.4211613070e+01     0.190429     0.144407  17.74  0.001066151    1.348    0.258
       182 -10.5027    151.8133     43.7254   7.5314175246e+01   4.1880459441e+01    0.2215678    0.1902427  -7.16 0.0006765216    1.385    0.278
       183 -12.2257    189.6846     39.6302   6.7953642457e+01   3.3283794732e+01    0.4764279    0.3550031  64.63  0.001254153    1.252    0.201
       184 -10.7322    115.0347     41.5215   8.2653112719e+01   5.0584590127e+01    0.2066895    0.1242701  52.38 0.0006540018    1.552    0.356
       185  -9.4465      6.4642     40.9742   1.2048448062e+02   6.6458549421e+01    0.1379925    0.0945722 -75.16 0.0008094509    2.575    0.612
       186 -10.8132    156.0124     38.5711   7.3047948765e+01   4.1552062159e+01    0.4126644    0.1553957  62.79  0.001576186    2.509    0.601
       187  -9.9022    128.0564     39.4923   7.8931052064e+01   4.7972797156e+01    0.1983146    0.1240298  55.06 0.0003215738    1.463    0.317
       188 -10.1009    106.7520    190.4019   1.2258318082e+02   2.0655117182e+01    0.1935611    0.1391752  32.14  0.000942122    1.587    0.370
       189 -11.8852    146.2063     36.1057   7.4144092652e+01   4.4196870265e+01    0.4884675    0.2249123  61.51  0.002107711    2.005    0.501
       190 -10.2222    134.5462     29.0279   7.4270137254e+01   4.7757974192e+01     0.177128    0.1319985 -28.76 -8.33162e-06    1.493    0.330
       191 -10.1642    121.3261     32.2936   7.8121873153e+01   5.0366664653e+01    0.1383003   0.09216959  30.39 0.0002160911    1.622    0.384
       192 -10.0939    242.2279    188.9992   9.3571324458e+01  -4.4274899706e+00    0.2464368    0.1899606  53.08  0.001390461    1.650    0.394
       193 -10.9719    133.8841     32.8518   7.5593071063e+01   4.7465204540e+01    0.3527772    0.2296973  -5.32 0.0009567584    2.100    0.524
       194 -16.3823    193.6180    166.3269   9.8178384011e+01   8.9026639617e+00     4.273979     2.026017  34.42   0.01144526    2.614    0.617
       195 -10.9296     36.8018     29.9546   1.0372968458e+02   6.5443952239e+01    0.1842153    0.1582342  -0.24 0.0003957583    1.199    0.166
       196 -10.8393     70.4693     26.4346   8.9937342911e+01   6.1075497794e+01    0.3307173    0.1819789  -1.13   0.00155425    2.589    0.614
       197 -11.6877    130.6076     25.0115   7.3803183975e+01   4.9104746626e+01    0.3480476    0.2605455   0.97  0.001518033    1.630    0.387
       198 -11.3612    241.7290     24.3278   5.8639579108e+01   2.3334931224e+01    0.4062803    0.2519615 -73.15  0.001839305    1.433    0.302
       199 -11.2488    125.2400     22.4750   7.4088294668e+01   5.0586617862e+01    0.4877967    0.1298992 -22.04  0.001450356    5.996    0.833
       200  -9.5456     99.3712     25.2860   8.1047267930e+01   5.5826505265e+01    0.1374113   0.08397494  28.46 0.0007019053    1.709    0.415
       201 -10.7623    168.1298     23.1949   6.6804203650e+01   4.0479040041e+01    0.2949545    0.1945078 -19.30 0.0007707343    1.945    0.486
       202 -10.5445     83.6581     23.1706   8.4599613892e+01   5.9113441273e+01    0.2330473    0.1945279 -60.54  0.001084359    1.773    0.436
       203 -10.2784     43.5689     22.9853   9.8227394809e+01   6.5542228459e+01    0.1853308    0.1493296  34.58 7.550343e-05    1.487    0.327
       204 -10.6782     17.2399     22.0083   1.0896673014e+02   6.8607679456e+01    0.1696211     0.127723  -0.39 0.0003599445    1.160    0.138
       205 -10.7722      1.3510     21.2511   1.1603579113e+02   6.9968862205e+01    0.1684429   0.07575183 -42.77 0.0003540268    1.750    0.428
       206 -11.6841    232.7549    245.4948   1.0574392196e+02  -1.1730340798e+01    0.2155191    0.1569164 -26.57 0.0009439972    1.369    0.270
       207 -11.4680     20.2207    244.4244   1.4612616848e+02   2.1058790541e+01    0.3225802    0.1383051 -65.59  0.001238062    2.297    0.565
       208 -10.4573    158.0766     20.1644   6.7497540678e+01   4.3205205170e+01    0.3557471    0.2089897  30.37  0.001672732    2.406    0.584
       209 -10.0933     98.0230     20.5369   7.9692856559e+01   5.6605121832e+01    0.1917979    0.1112597  52.78 0.0007479319    1.565    0.361
       210  -9.9932    174.9459     19.3006   6.4815500592e+01   3.9276708007e+01    0.1870536    0.1479286  73.98 0.0003667125    1.090    0.083
       211 -10.6715    121.1309    243.6038   1.2719630468e+02   6.8626144150e+00    0.2604246    0.1780495  78.31 0.0008426719    1.737    0.424
       212  -9.9753    111.8235     17.8405   7.5438736950e+01   5.3998818214e+01    0.2000199     0.152494  36.09 0.0006371727    1.199    0.166
       213 -10.7380    182.4825     17.2156   6.3301526396e+01   3.7707745003e+01    0.2477451    0.1613898  71.49   0.00127264    1.325    0.245
       214 -10.5548     32.4454    242.8153   1.4391414878e+02   1.9957628194e+01    0.1868768    0.1557281  27.83 0.0009899691    1.843    0.458
       215  -9.8211     82.9819     16.2746   8.2169106364e+01   5.9963215243e+01    0.1653042    0.1335093  34.24 0.0003047641    1.073    0.068
       216 -10.6737     23.9361     15.7973   1.0340116249e+02   6.8787864561e+01    0.1722145    0.1339697 -17.04 0.0003189213    1.173    0.147
       217 -10.1485      2.4635    242.9964   1.4898138832e+02   2.3239402930e+01    0.1598216   0.08241365 -82.64 0.0008113064    1.558    0.358
       218 -10.4918     66.0101    242.0224   1.3774734728e+02   1.5732765969e+01    0.2047363    0.1167663  68.80 0.0005408135    1.650    0.394
       219 -10.3539     56.9334    241.9844   1.3943680783e+02   1.6995584527e+01    0.1837684    0.1457667  76.65 0.0005658281    1.055    0.053
       220 -11.5940    225.5878    240.7942   1.0625815321e+02  -1.0006569622e+01    0.3112409    0.1552309  43.39  0.001559784    2.097    0.523
       221  -8.9601    159.3111     11.3015   6.4867969571e+01   4.3802972183e+01    0.1292772   0.08597031  43.05  0.000701613    1.607    0.378
       222  -9.4200    110.4937     11.4869   7.3563888812e+01   5.4876072349e+01    0.1235567    0.1078438  49.29 0.0002477754    1.060    0.056
       223 -11.5267    245.6426    238.6967   1.0225836566e+02  -1.2628052941e+01    0.2243516    0.1293699  22.70 0.0009173972    1.677    0.404
       224 -11.2013    235.2079    236.0009   1.0366246946e+02  -1.0748375315e+01    0.2091494    0.1605015  25.29  0.000476482    1.196    0.164
       225 -11.6656    215.2119    243.4965   1.0865170073e+02  -8.8168313004e+00     0.273747    0.2049992  26.52 0.0005056378    1.165    0.142
       226 -10.4291    208.1367    233.8572   1.0836073154e+02  -6.2223007562e+00    0.1865754    0.1682844  44.73 0.0005211851    1.291    0.225
       227 -10.8766    248.0654    232.7658   1.0078516839e+02  -1.2143023091e+01    0.3741473    0.1821167  19.44  0.001735706    2.608    0.617
       228 -11.0039    192.9606    232.2999   1.1105457167e+02  -3.4480838911e+00    0.2089821    0.1887705 -23.61 0.0005235908    1.178    0.151
       229 -10.5502      7.3332    231.4653   1.4750935882e+02   2.5046901757e+01    0.2299198    0.1130098  74.52 0.0008138278    1.702    0.413
       230 -10.3834    143.6633    230.3102   1.2075507396e+02   5.5306610629e+00    0.2714103    0.1431347  50.48  0.001242842    1.819    0.450
       231 -10.1410     88.2491    230.5504   1.3220019543e+02   1.4791085665e+01     0.170664    0.1208114  33.69 0.0009403251    1.635    0.388
       232 -10.2886     69.3153    230.1666   1.3593919319e+02   1.7706600057e+01     0.194243    0.1609475  48.49 0.0004692352    1.296    0.228
       233 -11.4263     29.7579    228.8373   1.4335534616e+02   2.3141386522e+01    0.2286216     0.175675 -89.13 0.0004824488    1.143    0.125
       234 -10.2108     92.5239    228.9822   1.3114628394e+02   1.4448171478e+01    0.1848882    0.1231638 -70.74 0.0003757717    1.530    0.347
       235 -12.1156    159.7662    226.8118   1.1687043461e+02   3.3326872302e+00    0.2591094    0.2352042 -34.16 0.0003471216    1.229    0.186
       236 -11.7431    202.5068    225.7498   1.0804173353e+02  -3.9715018213e+00    0.3692838    0.2286782  33.42  0.001085991    1.506    0.336
       237 -11.4461    149.7410    226.3982   1.1888906227e+02   5.2036872534e+00    0.2648668    0.2491827   3.98 0.0009759199    1.200    0.167
