#   1 NUMBER                 Running object number                                     
#   2 MAG_AUTO               Kron-like elliptical aperture magnitude                    [mag]
#   3 X_IMAGE                Object position along x                                    [pixel]
#   4 Y_IMAGE                Object position along y                                    [pixel]
#   5 X_WORLD                Barycenter position along world x axis                     [deg]
#   6 Y_WORLD                Barycenter position along world y axis                     [deg]
#   7 A_WORLD                Profile RMS along major axis (world units)                 [deg]
#   8 B_WORLD                Profile RMS along minor axis (world units)                 [deg]
#   9 THETA_WORLD            Position angle (CCW/world-x)                               [deg]
#  10 FWHM_WORLD             FWHM assuming a gaussian core                              [deg]
#  11 ELONGATION             A_IMAGE/B_IMAGE                                           
#  12 ELLIPTICITY            1 - B_IMAGE/A_IMAGE                                       
         1 -12.1317     14.8689     17.9258   7.8171736916e+01   7.1028509804e+01    0.2998338    0.1728596 -41.05 0.0004532858    1.449    0.310
         2  -9.5498    101.6539      8.2974   3.7964738242e+01   5.7831021987e+01     0.127504    0.1027843 -76.51 0.0002459651    1.675    0.403
         3 -10.1682     21.7923      6.3112   6.8629320738e+01   7.2193144557e+01    0.2442762    0.1492536  -7.56 0.0008438638    1.538    0.350
         4 -10.0821     17.1774      5.1175   7.0707781512e+01   7.2846809843e+01    0.2455539    0.1218124 -28.15  0.001382765    1.763    0.433
         5  -9.0741    177.6520    248.3076   8.0510509209e+01  -1.1942345107e+00    0.1173101   0.08617409  52.72 0.0007043512    1.704    0.413
         6  -9.8649    135.0731    250.4918   8.9144177610e+01   4.9084102066e+00    0.3353383   0.09739567  37.55  0.001358524    2.711    0.631
         7 -10.2732     95.2863    249.7613   9.6885630648e+01   1.0844906202e+01    0.2050325    0.1744122  39.32 0.0008975715    1.188    0.159
         8 -10.8117    107.4987    223.4361   9.1583841584e+01   1.3792671535e+01    0.4131611    0.2607099 -47.15  0.002248086    1.949    0.487
         9 -10.6364     87.2824    221.1642   9.5642964244e+01   1.7231506676e+01    0.3064564    0.1919065  62.69  0.001330036    1.604    0.377
        10 -11.8417     91.2674    237.6917   9.6517152005e+01   1.3537798545e+01    0.5839844    0.3834855  65.90  0.003343433    1.548    0.354
        11 -11.8076     92.9237    224.7548   9.4833348577e+01   1.5717977385e+01    0.5442351    0.3936434 -88.59  0.002441034    1.559    0.359
        12 -12.2412    104.2108    234.0188   9.3491375565e+01   1.2327143800e+01    0.4483596    0.2789302 -75.32 0.0008603266    2.039    0.510
        13 -11.0016    101.6619    226.6742   9.3201526306e+01   1.4063472005e+01    0.2263108    0.1770602  59.79 0.0003710214    1.180    0.153
        14 -10.8369     82.2200    247.6708   9.9231811758e+01   1.3010595533e+01    0.4017777    0.2775535 -72.87  0.002368649    1.658    0.397
        15 -10.7745     77.8898    242.7926   9.9650722586e+01   1.4462292960e+01    0.3537603    0.2141891 -84.24  0.002094192    1.919    0.479
        16 -11.2307     90.2602    247.0638   9.7613879513e+01   1.2012365637e+01    0.4077994    0.2596119 -61.21  0.002476277    1.877    0.467
        17 -10.5369     86.7810    241.9829   9.7826683113e+01   1.3393009738e+01    0.2030472     0.186525 -54.82 0.0005222535    1.414    0.293
        18 -10.8267     99.0152    234.6863   9.4632048920e+01   1.2970078512e+01    0.2903057    0.2060236  39.91 0.0008952334    1.206    0.170
        19 -11.5398     94.7712    231.8983   9.5210996981e+01   1.4099962364e+01    0.2944483    0.2426776  59.52  0.000512702    1.079    0.073
        20  -9.8879     75.9251    250.3919   1.0066814324e+02   1.3377617267e+01    0.1607204    0.1104524  44.75 0.0002577545    1.176    0.150
        21  -9.9176     71.9259    250.0198   1.0139731675e+02   1.3967676781e+01    0.1714553    0.1393293  58.97 0.0005727782    1.071    0.066
        22 -16.6158    101.4862    187.1181   8.8112770043e+01   2.2175523432e+01     8.147356      5.60532  32.65   0.04190595    1.456    0.313
        23 -11.7900    245.3245    235.3601   6.5988132198e+01  -9.0858442985e+00    0.5070465    0.2714003  -2.60  0.002756806    2.105    0.525
        24 -11.0199    188.4607    234.7340   7.6408819915e+01  -9.0137905937e-01    0.2739061    0.2222625  46.99  0.001223473    1.477    0.323
        25 -10.2460    124.4186    235.7036   8.9518895220e+01   8.9679641006e+00    0.2869601    0.1967708  73.08  0.001195104    1.954    0.488
        26  -9.9066    123.1319    231.1763   8.9227804274e+01   9.9597417898e+00    0.2155818    0.1830142  71.84   0.00122273    1.302    0.232
        27 -10.7029    176.5112    234.0672   7.8669602248e+01   1.0487588178e+00    0.4320147    0.2216968  27.23  0.001393333    1.837    0.456
        28  -9.9613    166.9897    235.2367   8.0751100831e+01   2.3639596495e+00     0.182523    0.1424842  29.41 0.0006073127    1.042    0.040
        29 -10.0618    150.5393    232.7305   8.3743943665e+01   5.3680334913e+00    0.2391638    0.1482494  37.18 0.0006763896    1.330    0.248
        30 -10.9952    237.3119    230.9979   6.6665411358e+01  -7.4960043198e+00     0.362082    0.1846142  44.87  0.001844736    2.643    0.622
        31 -11.7556    237.3990    226.6469   6.5917176071e+01  -6.9608219928e+00     0.448118    0.3287837  54.91  0.002572267    2.604    0.616
        32  -9.9270    206.9965    231.5911   7.2333810415e+01  -3.2611238310e+00    0.1948745    0.1747029 -40.51 0.0006446354    1.566    0.361
        33 -14.2116     17.0009    171.3957   1.0669914215e+02   3.6398158426e+01     2.256897    0.9628121 -52.44  0.006121127    2.677    0.626
        34  -9.5365    110.0836    231.6848   9.2010953736e+01   1.1871087490e+01    0.1780674    0.1470198  40.88  0.001142357    1.076    0.070
        35 -11.1651    197.7219    218.7428   7.2008554553e+01   1.6105797229e-02    0.5800211     0.299789 -23.68  0.002700809    2.454    0.593
        36  -9.5196    168.3454    231.0688   7.9864389370e+01   2.7985437670e+00    0.2247609    0.1528177  23.50  0.001280551    1.347    0.257
        37  -9.8878    129.3384    229.4040   8.7703256790e+01   9.3005370475e+00    0.2847251    0.1901485 -54.05  0.001621186    1.788    0.441
        38  -9.9591    118.4530    229.1940   8.9962623628e+01   1.1040770294e+01    0.2320655    0.1380644  62.02 0.0007782109    2.044    0.511
        39 -11.1318     82.3009    229.9585   9.7585026517e+01   1.6235167409e+01     0.420763    0.3550689 -23.85  0.002714975    1.751    0.429
        40  -9.4189     60.3679    227.8603   1.0186624360e+02   1.9555629115e+01    0.1455654    0.1028536 -63.03 0.0004030044    1.620    0.383
        41 -10.6137    208.8991    226.8618   7.1198804545e+01  -2.8892517214e+00    0.2000268    0.1601235  11.38 0.0003470851    1.021    0.020
        42 -10.2569    186.1219    225.1538   7.5366443060e+01   8.8510665004e-01    0.2062085     0.197124  -7.34  0.001038858    1.284    0.221
        43 -10.1878    169.3323    225.4252   7.8809175936e+01   3.5365870951e+00    0.4016851    0.1625256  35.21  0.001384922    2.132    0.531
        44 -10.7459    243.2986    223.6557   6.4367335369e+01  -7.3848353956e+00    0.2287748    0.1213065  29.60  0.001297831    1.674    0.403
        45  -9.3827     82.8880    224.1538   9.6884916519e+01   1.7270314061e+01    0.1471144    0.1398508 -64.50 0.0003123581    1.300    0.231
        46 -10.2414     75.2656    223.0548   9.8374138845e+01   1.8539920118e+01    0.1950159    0.1653318  65.24 0.0002780871    1.052    0.050
        47 -10.3140     78.3021    221.3073   9.7563603128e+01   1.8468444642e+01    0.3093817    0.1935488  27.85  0.001304266    1.789    0.441
        48 -11.1689     62.4956    222.7760   1.0100124558e+02   2.0283991689e+01    0.4020348    0.2162353  49.58  0.002234411    1.547    0.354
        49  -9.9612    122.7521    223.0054   8.8265853576e+01   1.1495563040e+01    0.2349486    0.2137339  49.14 0.0007809846    1.081    0.075
        50  -9.7626    122.9028    218.8103   8.7678044793e+01   1.2251115171e+01    0.1916286    0.1692846  16.16  0.000666343    1.247    0.198
        51  -9.5215    102.8635    220.3087   9.2204512683e+01   1.5096755503e+01    0.2032797    0.1494329  31.40 0.0003474203    1.348    0.258
        52 -10.8141     71.0249    219.1656   9.8890909168e+01   1.9886367558e+01    0.2180956    0.1731777  70.97 0.0004504133    1.128    0.113
        53  -9.6783     70.1635    214.1168   9.8582995577e+01   2.1025825503e+01    0.2112481    0.1683374 -85.83  0.001346666    1.251    0.201
        54  -9.8477    141.4999    218.5053   8.3618856748e+01   9.2789488218e+00    0.1711866    0.1331016 -69.23  0.000616759    1.662    0.398
        55 -14.0377     48.9389    247.4809   1.0551163152e+02   1.7287380124e+01     1.347097      1.04336  37.26  0.009766567    1.394    0.283
        56 -10.2819    222.2375    216.5353   6.6929831556e+01  -3.4430024672e+00    0.4465433    0.1855294  26.45  0.001934943    2.587    0.613
        57 -14.5500     35.7730    233.2860   1.0706486061e+02   2.1434395693e+01      1.54006     1.292137 -25.07   0.01080729    2.014    0.503
        58 -10.1078     88.5426    215.5345   9.4754411946e+01   1.8167907010e+01    0.2721727    0.2192152  20.34  0.001640328    1.498    0.333
        59 -11.0782    234.1976    214.0506   6.4304354145e+01  -4.8566069662e+00      0.40257    0.2556338  32.33  0.001654705    1.478    0.324
        60 -10.5690    233.1894    209.9358   6.3751763966e+01  -4.1458166100e+00    0.3733254    0.2170586  -3.72  0.001918365    1.991    0.498
        61  -9.8523    166.4857    214.5395   7.7685748140e+01   5.8070125732e+00    0.2432131    0.2042205  46.26 1.814368e-05    1.254    0.202
        62 -10.0963    166.3249    211.7043   7.7258779233e+01   6.3199247929e+00    0.2099613    0.1575271  48.72 0.0004629584    1.405    0.288
        63 -10.4018     80.5243    214.7340   9.6408698310e+01   1.9476606094e+01    0.3699272    0.2827476  34.27  0.002250453    1.329    0.247
        64 -10.1765    185.9091    213.0393   7.3410962019e+01   2.8174251446e+00    0.3227326    0.2048604  10.13  0.001568836    1.873    0.466
        65 -10.3568    177.9435    214.0533   7.5215829774e+01   3.9731854494e+00    0.3695276      0.17073  38.01  0.001559685    1.891    0.471
        66 -14.1174      7.2538    209.0971   1.1115764162e+02   2.9098167462e+01    0.7412394    0.6314874 -79.88  0.003824516    1.327    0.246
        67  -9.6041    200.6485    212.2049   7.0310981705e+01   5.4387912022e-01    0.2221494    0.1374074  16.42 0.0005636848    1.684    0.406
        68  -9.4968    216.2220    212.4088   6.7334129493e+01  -1.9418012392e+00    0.1645139    0.1099269  39.93  0.000286415    1.561    0.359
        69 -11.4010    192.1082    230.0127   7.4956343879e+01  -7.7754273416e-01    0.3227218    0.1826017 -39.10 0.0004163733    2.014    0.504
        70 -13.7722     16.6500    202.1510   1.0890003762e+02   2.9672613372e+01      1.80774    0.5668374 -87.70  0.007316867    3.589    0.721
        71  -9.3601    192.6645    209.2794   7.1393838203e+01   2.3043657162e+00    0.1228068    0.1021436  56.48 0.0001800617    1.613    0.380
        72 -11.0549    129.0549    206.9265   8.4644667589e+01   1.3514955451e+01    0.3840761     0.255703  32.81 0.0007592358    1.397    0.284
        73 -10.3550    241.3271    204.1970   6.1258594370e+01  -4.5397214067e+00    0.3118033    0.1924973  -3.88 0.0009440832    1.672    0.402
        74 -13.8996      4.4816    194.9798   1.1097006297e+02   3.2272719912e+01    0.9492364    0.3974917 -75.35  0.004437713    2.039    0.509
        75 -10.9694    235.0975    202.5362   6.2061196585e+01  -3.3914792330e+00    0.3819631    0.2154355 -15.55  0.001269171    1.907    0.476
        76 -10.4275    100.5920    207.8811   9.1171750253e+01   1.7913771870e+01    0.2408929    0.1850372  43.36 0.0003122182    1.152    0.132
        77  -9.0026    148.6149    203.7826   7.9799063898e+01   1.0782624942e+01    0.1385917   0.09748811  17.14   0.00068519    1.609    0.379
        78 -10.1697    161.2157    200.6209   7.6500814308e+01   9.1714368584e+00    0.4228308    0.2740017  59.72  0.001176431    2.129    0.530
        79  -9.3708    157.0197    199.2197   7.7181757163e+01   1.0168196839e+01    0.1906983    0.1656453  60.99 0.0002367997    1.332    0.249
        80  -9.8344    240.9243    199.1669   6.0400694768e+01  -3.7804453206e+00    0.1756851    0.1561279  -2.41  0.000489036    1.247    0.198
        81 -10.2107    215.3658    196.6532   6.4627983864e+01   5.6225831963e-01    0.3392082    0.1603295 -29.31  0.001525052    2.249    0.555
        82  -9.5550    184.0353    198.0212   7.1161493418e+01   5.6358187043e+00    0.1982864    0.1744245  14.98   0.00118237    1.018    0.018
        83  -9.9005    230.7571    195.9337   6.1616192006e+01  -1.7768393487e+00    0.2173452     0.165908  20.15 0.0005554664    1.183    0.154
        84  -9.3254    225.1410    195.8677   6.2636617090e+01  -8.8741042129e-01    0.1846123    0.1330074   2.98 0.0006631066    1.314    0.239
        85 -10.0378    190.6936    195.0363   6.9232150037e+01   4.9880183552e+00    0.3240424     0.178078 -42.33  0.001531551    1.971    0.493
        86  -9.3024    208.9769    190.1983   6.4641188236e+01   2.6485075191e+00    0.2031467    0.1294942  34.79 0.0005458133    1.478    0.324
        87 -10.0122    210.5473    194.6838   6.5187735288e+01   1.6644680110e+00     0.278981    0.1905247 -19.73  0.001511586    1.471    0.320
        88  -9.6053    212.6550    191.3132   6.4138606343e+01   1.8499117827e+00    0.2425218    0.1882621  61.88  0.001293003    2.029    0.507
        89  -9.5437    164.8830    194.2141   7.4576849619e+01   9.7025985186e+00    0.4354467    0.2011794  56.36  0.001390106    4.213    0.763
        90 -10.7701    242.6316    190.4394   5.8456026740e+01  -2.7916306309e+00      0.41513    0.2237659 -15.82  0.001479553    2.083    0.520
        91 -10.5324    247.4397    190.6147   5.7658509786e+01  -3.5339195937e+00    0.2162714    0.1810573  11.98   0.00069309    1.167    0.143
        92 -11.1974     30.5656    187.4143   1.0487465764e+02   3.1495763657e+01    0.3390445    0.2253965  89.46  0.001093971    1.327    0.247
        93 -10.2554     30.0921    181.5975   1.0449850578e+02   3.2848416597e+01    0.2851456    0.1529134  60.18  0.001105312    1.774    0.436
        94 -15.1597     31.5634    211.4785   1.0646440410e+02   2.6225102924e+01     1.954164     1.229572 -88.13   0.01225507    1.437    0.304
        95 -13.6006     26.7111    232.6209   1.0872393192e+02   2.2544911805e+01    0.6800669    0.4259929 -58.30  0.004407578    2.031    0.508
        96  -9.9482    203.3687    183.6936   6.4488996454e+01   4.6943423665e+00     0.267259    0.1686157  37.37  0.001344567    1.519    0.342
        97 -11.1032    191.1247    183.2175   6.6892215318e+01   6.9605210876e+00     0.271977    0.2169264  34.50 0.0002273935    1.201    0.167
        98  -9.6884     49.0271    179.9815   9.9897324154e+01   3.1151452565e+01    0.1798483    0.1288638  65.59 0.0003326268    1.295    0.228
        99 -14.0184     30.7343    248.5849   1.0886502335e+02   1.9164139536e+01    0.9389824    0.2763321  33.26  0.003703587    3.270    0.694
       100 -11.8670     43.5773    178.8640   1.0108538988e+02   3.2034596361e+01    0.4684069    0.2479238  59.56  0.001300489    1.904    0.475
       101 -14.0755     14.2414    226.8981   1.1072955923e+02   2.4910024905e+01    0.6879464    0.4325908 -72.29  0.004040427    1.633    0.388
       102 -10.4201    214.8764    182.1158   6.1921307442e+01   2.9585895830e+00    0.2481643    0.2037403 -41.05  0.000476549    1.402    0.287
       103  -9.6550    211.6844    179.3026   6.1979387809e+01   3.9737413135e+00    0.2342939    0.1949179   6.55 0.0006904024    1.084    0.078
       104  -9.5959     25.0841    182.4039   1.0570738975e+02   3.3161529424e+01    0.2816882    0.1184883  74.32  0.001203625    2.840    0.648
       105 -10.9249     36.2642    179.6753   1.0289459629e+02   3.2646968302e+01     0.347562    0.1883396 -65.09  0.001847572    1.728    0.421
       106 -10.4605      2.0386    179.1137   1.1059023794e+02   3.5895083279e+01    0.3664866    0.1510077 -87.17  0.001276126    2.109    0.526
       107  -9.6435    181.1016    180.0213   6.8383711666e+01   9.3726636506e+00     0.213669     0.171344   2.43  0.000322793    1.298    0.230
       108 -15.0036      5.3813    228.3026   1.1240520971e+02   2.5480139496e+01     1.082117    0.4818756 -60.37  0.006158264    2.731    0.634
       109 -10.5297     51.1048    175.5800   9.8917820068e+01   3.1922704519e+01    0.2751464    0.1918583  61.27  0.000846227    1.359    0.264
       110  -9.6733    201.9569    179.0277   6.3848224344e+01   5.7410015489e+00    0.2460992    0.1912651  17.19 0.0007584145    1.227    0.185
       111 -10.2105    206.7007    176.4827   6.2390766866e+01   5.3285830868e+00    0.2713011    0.2026244  -4.06 0.0004344683    1.389    0.280
       112  -9.7126    233.6350    177.5604   5.7533344022e+01   5.4462123098e-01     0.273028    0.1801677   5.95 0.0009094637    1.670    0.401
       113 -11.0480    239.0943    173.5379   5.5764439969e+01   2.7878686374e-01    0.3203749    0.2206603  15.40  0.001255615    1.486    0.327
       114 -11.0711     29.2424    175.5351   1.0417189296e+02   3.4313151996e+01    0.3161832    0.3098897 -37.39  0.002018497    1.331    0.248
       115  -9.7230    194.2065    173.8951   6.4394261846e+01   8.0560323876e+00    0.3884511    0.1660351 -33.56  0.001485473    2.588    0.614
       116 -10.9184     39.3742    171.8010   1.0138528483e+02   3.4131839689e+01     0.395084    0.2113471  24.91  0.001965027    2.226    0.551
       117 -14.6183      2.5274    246.1258   1.1360802534e+02   2.2457665642e+01    0.6468475    0.2351755  89.74  0.003610091    2.559    0.609
       118 -11.6785    169.9859    168.9697   6.8609352224e+01   1.3586861291e+01    0.3446271    0.3184886  72.41  0.001905127    1.301    0.231
       119 -14.5781      8.4458    245.9409   1.1260525326e+02   2.1928774740e+01    0.6694018    0.2769302  76.16   0.00389387    2.172    0.540
       120 -15.4336     12.2590    238.1052   1.1161417827e+02   2.2984790939e+01     1.242131    0.4922216  74.79  0.006711479    2.393    0.582
       121  -9.8724     34.4706    169.2361   1.0232786176e+02   3.5245042116e+01    0.2451593    0.1011755 -65.88   0.00112462    2.125    0.529
       122  -9.5446      7.3328    170.6078   1.0887358039e+02   3.7377503737e+01     0.195488   0.08937718  39.34 0.0007726056    2.098    0.523
       123 -10.7575    245.9726    169.2806   5.3728637466e+01  -1.7514960448e-01    0.1830784    0.1545363   3.66 0.0008584771    1.091    0.083
       124 -13.3044    152.1014    165.9800   7.2125486437e+01   1.7671126089e+01    0.6709503     0.429195 -43.18  0.002748035    1.636    0.389
       125 -11.2548     38.1835    162.5809   1.0071223601e+02   3.6428188208e+01    0.4597786    0.2058491 -66.14  0.002156919    1.966    0.491
       126  -9.8572    215.6171    166.1174   5.8528833929e+01   5.4925411122e+00    0.2531298     0.161929 -27.19  0.001249269    1.527    0.345
       127 -10.8157    234.0653    166.0290   5.5122235537e+01   2.2839781044e+00    0.2704126     0.185679  32.99 0.0003844317    1.480    0.324
       128 -10.2452    154.6841    243.6847   8.4394529387e+01   2.9779488601e+00    0.2708155    0.1878899   3.33   0.00153607    1.868    0.465
       129  -9.9697    201.7228    165.9715   6.1222120103e+01   8.0718835141e+00    0.2306806    0.1920002  31.38 0.0003879833    1.178    0.151
       130 -11.8568     45.7543    166.1247   9.9185634816e+01   3.4763322229e+01    0.5339156    0.3169079  54.19  0.002778081    1.664    0.399
       131 -10.1723    226.0053    161.9926   5.5729872471e+01   4.3299177294e+00    0.2174151    0.1862101  24.57 0.0003406011    1.178    0.151
       132  -9.1429    205.5563    162.4553   5.9714499608e+01   7.9776151395e+00     0.142046    0.1287361  -2.54 0.0002450142    1.020    0.020
       133 -10.3917    248.0563    161.3142   5.1763875016e+01   7.0488686421e-01    0.1762609    0.1545574   0.67  0.000398534    1.105    0.095
       134  -7.5938    151.5347    243.4877   8.4997608910e+01   3.4938564844e+00    0.2845516    0.2041158 -48.70  0.001652561    1.740    0.425
       135  -9.9024    207.1335    158.6289   5.8586674095e+01   8.3582220945e+00    0.2296874    0.1842299 -40.61 0.0004721318    1.300    0.231
       136 -11.1492    156.7223    247.0281   8.4432321124e+01   2.1573682567e+00     0.339282    0.2258081  35.28  0.002063847    1.194    0.162
       137  -9.4978    246.0635    154.9632   5.0782902868e+01   2.0146646321e+00    0.1579472    0.1363911  -8.74 0.0005645631    1.043    0.041
       138  -9.9168    220.8026    156.8854   5.5604713364e+01   6.1181794469e+00     0.290794    0.1892742  46.63 0.0009030834    1.703    0.413
       139 -12.0509    138.0985    155.9881   7.3483066737e+01   2.2550896565e+01     0.384676     0.286108 -23.23  0.001703261    1.642    0.391
       140 -10.4069    159.3773    244.3210   8.3545611007e+01   2.1588816984e+00    0.2168671     0.155612   6.20 0.0006535499    1.632    0.387
       141 -12.2750      8.0112    163.5696   1.0821776696e+02   3.8925456776e+01    0.7368092    0.6096663 -46.97  0.004884227    1.485    0.327
       142 -10.3777    227.6388    153.9902   5.3741811342e+01   5.3654014928e+00    0.4778351    0.2646799   8.40  0.001727326    3.578    0.721
       143 -10.8319     37.1018    153.8687   1.0001633434e+02   3.8623837464e+01    0.2907878    0.1942482 -79.55  0.001613472    1.346    0.257
       144 -10.3220      2.0163    152.8084   1.0887010431e+02   4.1836061363e+01    0.2745935    0.1535506 -83.96   0.00152022    1.463    0.316
       145 -11.8781     12.4200    145.8976   1.0567585908e+02   4.2712156727e+01    0.5535345    0.2355164 -74.15  0.002687777    1.933    0.483
       146 -11.0619     10.8562    138.5347   1.0540190700e+02   4.4575093554e+01    0.3372104    0.2102619  35.29  0.001363646    1.764    0.433
       147 -12.1477      6.4887    146.9696   1.0729807419e+02   4.2887965661e+01     1.064405    0.4364285 -89.54   0.00484108    2.401    0.583
       148 -10.2945      1.4828    147.5910   1.0861266797e+02   4.3080790593e+01    0.3178944   0.09797209 -78.13 0.0009769336    2.666    0.625
       149 -11.3689      5.1977    132.0107   1.0632347466e+02   4.6505090563e+01    0.6566009    0.3400301 -79.95  0.002084366    1.607    0.378
       150  -9.2977    240.3031    154.6649   5.1681798450e+01   3.0337176861e+00    0.1756555    0.1279877  73.36  0.000844111    2.599    0.615
       151 -10.1547    236.9397    152.5041   5.1798266260e+01   3.9610291642e+00    0.1913328    0.1313233  40.05  0.001024262    1.565    0.361
       152 -11.9001    172.4022    156.4695   6.5434086226e+01   1.5588268289e+01    0.4451258    0.3256691  -4.46  0.001775755    1.725    0.420
       153 -11.0069     44.2183    151.5849   9.7838392091e+01   3.8423667662e+01    0.3443757    0.1728467 -67.11 0.0008416605    1.776    0.437
       154 -12.1966     47.7571    150.4668   9.6733294930e+01   3.8301663654e+01    0.4835659    0.2729921  62.66  0.002265918    2.038    0.509
       155 -10.4362    211.2308    150.8894   5.6111106408e+01   8.9483035496e+00    0.4008346    0.1993478  44.01  0.001711389    2.078    0.519
       156 -10.4849     32.2791    151.0880   1.0097661314e+02   3.9772187303e+01    0.1924897    0.1800702 -29.85 0.0006341044    1.316    0.240
       157  -9.3459    226.7848    149.7545   5.2984317492e+01   6.2284438733e+00    0.1774634    0.1567285 -48.19 0.0003903745    1.319    0.242
       158 -11.1838    114.1241    245.0736   9.2690941077e+01   8.9216992096e+00    0.6039745    0.3583349 -42.08  0.002389845    2.335    0.572
       159 -10.5647    113.5599    235.8042   9.1766849022e+01   1.0607922565e+01    0.4124993    0.2293582  46.96  0.001840215    1.523    0.343
       160 -11.3043    101.0650    245.0867   9.5294117930e+01   1.0826453992e+01    0.3556476     0.340927 -75.63  0.002635393    1.294    0.227
       161 -11.1339     64.5149    149.9964   9.2057843299e+01   3.6361356077e+01    0.2750236    0.1773289  52.92 0.0008599199    1.613    0.380
       162  -9.0901     41.3067    149.3181   9.8340584989e+01   3.9287610377e+01    0.1319108   0.09339929 -42.47 0.0004824148    1.633    0.387
       163  -9.9148    220.0092    245.1848   7.2068197984e+01  -6.8935886886e+00     0.226526    0.1632716 -50.05  0.001390698    2.368    0.578
       164 -10.6240    182.0197    147.0205   6.1214709395e+01   1.5498144545e+01    0.2285898     0.217497  -0.28 0.0003411888    1.020    0.020
       165  -9.9554    134.3492    246.0354   8.8756788924e+01   5.7246238318e+00    0.2190556    0.1419478  30.60 0.0007042508    1.368    0.269
       166  -9.2416    233.6276    244.3165   6.9486989681e+01  -8.6206233590e+00    0.1021054   0.08744562  41.38 7.891068e-05    1.792    0.442
       167 -11.9950     50.9766    144.2757   9.4985233008e+01   3.9446428890e+01    0.5271789    0.3163213 -55.29  0.001719983    1.579    0.367
       168 -12.3858     26.6477    145.0095   1.0180656043e+02   4.1759967719e+01    0.4703411    0.4030402  31.45  0.003054531    1.354    0.262
       169  -9.8189    172.3746    243.7688   8.0901131573e+01   2.5023871394e-01    0.2827511    0.1220229  22.38  0.001089622    3.406    0.706
       170 -12.5746     54.4097    212.9461   1.0183419786e+02   2.3293796965e+01     1.520679    0.5963024 -69.97  0.007148439    2.559    0.609
       171 -11.6443     41.2059    140.2775   9.7185817808e+01   4.1506155010e+01    0.2947024    0.2337608  56.06  0.001733817    1.295    0.228
       172  -9.8984    208.8769    144.1890   5.5078085651e+01   1.0599633474e+01    0.2056709    0.1987859 -74.02 0.0004981122    1.253    0.202
       173  -9.4713    128.1037    243.6811   8.9727728163e+01   7.0565050980e+00    0.1780335    0.1331883  37.98 0.0005427232    1.086    0.079
       174 -11.2683     92.8736    143.2423   8.2938208289e+01   3.3791886454e+01    0.3367982    0.2011639 -51.57  0.001311494    1.650    0.394
       175 -11.9297    154.8236    142.4840   6.6411677537e+01   2.2094414484e+01    0.4184776    0.2850999  26.22  0.001259559    1.667    0.400
       176 -11.6396    134.1967    142.9387   7.1670317573e+01   2.6231485331e+01    0.3295559    0.2316671 -57.20 0.0008879919    1.549    0.354
       177  -9.7456    246.4523    142.4687   4.8091465005e+01   3.9159631395e+00    0.1335098    0.1148854 -23.65 6.475839e-05    1.049    0.046
       178  -9.6263     70.9735    242.3287   1.0096023013e+02   1.5464436431e+01    0.1593058    0.1222121  50.11 0.0004006264    1.080    0.074
       179 -10.3494    217.1117    238.8240   7.1598997989e+01  -5.6899459740e+00    0.1746157     0.142984  27.00 0.0007653486    1.291    0.226
       180 -10.4214     36.7678    141.2833   9.8571053233e+01   4.1712123175e+01    0.2528195   0.09445644  35.80  0.001066434    2.648    0.622
       181 -10.4605     20.2038    140.8566   1.0310398993e+02   4.3309026236e+01    0.2030544    0.1857668 -30.22 0.0008119156    1.340    0.254
       182 -11.7017    143.4414    137.9668   6.8180522201e+01   2.5448461210e+01    0.3529706    0.2966641 -19.23  0.000956154    1.318    0.241
       183 -10.1888    248.5082    157.5050   5.0907637699e+01   1.2168450938e+00    0.2002126    0.1568609 -65.65 0.0001118541    2.078    0.519
       184 -10.4693    160.9503    238.7447   8.2465818020e+01   2.7678959237e+00    0.1837377    0.1416325  33.65 0.0007530204    1.062    0.059
       185 -11.3082     27.8745    137.5944   1.0060977183e+02   4.3447676544e+01     0.370417    0.1958763  34.71  0.001891254    2.007    0.502
       186 -12.5115     89.7631    136.1050   8.2416856088e+01   3.6034439455e+01    0.4571853    0.3381484  48.11  0.002256225    1.388    0.279
       187 -12.1835     42.7492    135.1340   9.6019848772e+01   4.2608543549e+01      0.75161    0.1649074  35.52  0.002556957    3.966    0.748
       188 -12.3948    132.1611    133.4624   7.0041207527e+01   2.8781544054e+01    0.5650462    0.3307952  52.67  0.002273838    1.902    0.474
       189 -11.8413     65.2106    134.4881   8.9307224815e+01   4.0084949673e+01    0.5457281    0.2429526  27.61  0.002169872    2.584    0.613
       190  -9.6003    232.8609    133.8990   4.8458306421e+01   7.7589841153e+00    0.2135525    0.1715539 -11.03 0.0006517853    1.240    0.193
       191 -10.9899     31.4223    133.1930   9.9043599719e+01   4.4201808882e+01    0.2617399    0.1482838 -86.92  0.001120507    1.835    0.455
       192 -10.8262    167.6713    133.8680   6.1363533108e+01   2.1168107820e+01    0.2543442    0.1954673 -20.29  0.001186167    1.457    0.314
       193 -11.2683     73.1832    139.0011   8.7773951986e+01   3.7868204064e+01     0.252983    0.2107808  43.30  0.001379276    1.233    0.189
       194 -12.3928     98.5265    129.5221   7.8488678134e+01   3.6141208190e+01    0.5228906     0.417717  -6.01  0.001323824    1.591    0.371
       195 -11.1774    172.3056    131.0879   5.9642136049e+01   2.0731760633e+01    0.2820894    0.2273113  52.44 0.0002545298    1.309    0.236
       196 -12.8093    157.7957    128.9620   6.2497722275e+01   2.4331259745e+01     0.655822    0.4629381  16.19  0.002797443    1.858    0.462
       197 -11.0808    198.6830    136.0146   5.5212246173e+01   1.4155909159e+01    0.2636298    0.2219554  85.07  0.001334173    1.613    0.380
       198 -10.1815     43.3569    130.8239   9.5202229130e+01   4.3607012867e+01    0.2075566    0.1026991 -56.95 0.0009476236    1.780    0.438
       199  -9.1541     15.9731    129.5024   1.0304517371e+02   4.6372137519e+01    0.2055914    0.1141914  32.46 0.0009496047    1.989    0.497
       200 -10.8519     19.1233    120.9887   1.0110301865e+02   4.8199386317e+01     0.556746    0.1926279 -69.67  0.001913111    2.356    0.576
       201 -12.4755     28.5687    128.8019   9.9299539667e+01   4.5531465238e+01    0.7135693    0.3420676  25.64  0.003265454    2.367    0.577
       202 -12.0738    147.3360    127.3810   6.4675603507e+01   2.6937349606e+01    0.4167289     0.349649  73.36  0.002006206    1.426    0.299
       203 -12.1740    127.6120    126.9848   6.9717128597e+01   3.1180912546e+01    0.5398141    0.4161002   2.53  0.002434219    1.694    0.410
       204  -9.5485    144.8623    239.5781   8.5828043385e+01   5.1467785908e+00    0.1964752    0.1027695  35.60  0.001009288    1.572    0.364
       205  -9.1239    109.6191    124.1931   7.4064614424e+01   3.5382132221e+01    0.2151997     0.140302 -40.51 0.0004480497    1.601    0.375
       206  -9.5408     51.3915    126.2186   9.2034844471e+01   4.3855783781e+01    0.3045155    0.1620539  87.10  0.001154217    3.003    0.667
       207  -9.8322    222.7900    234.3984   6.9842793339e+01  -5.9219350190e+00    0.2464757   0.09093864  29.69  0.001098987    2.514    0.602
       208 -10.6801     90.0425    123.9777   7.9776200713e+01   3.8933266478e+01    0.2331951     0.212989  35.57            0    1.132    0.116
       209 -10.7525     93.5015    122.3932   7.8382235227e+01   3.8729193678e+01    0.3712882    0.2344969 -49.55 0.0009565766    1.535    0.349
       210 -10.8405     20.7972    127.7764   1.0144947188e+02   4.6424518425e+01    0.4919304    0.2279019 -35.10  0.001785764    3.094    0.677
       211  -9.9295    249.2693    122.2661   4.3303917896e+01   6.6276723331e+00    0.2000849    0.1622881  12.34 0.0009328404    1.391    0.281
       212  -9.2415    211.3123    122.3321   4.9586614627e+01   1.4026186836e+01    0.1500904    0.1117178   2.95 0.0007044235    1.677    0.404
       213 -10.8814    137.7099    121.6981   6.5729784355e+01   3.0250582508e+01    0.3246965    0.1912712  63.04  0.001176135    2.495    0.599
       214  -9.5658     50.5263    121.9284   9.1560932103e+01   4.5016161887e+01    0.2080454    0.1235505 -62.82 0.0003628985    1.507    0.336
       215 -10.8517      8.9936    126.8840   1.0475574490e+02   4.7483925285e+01    0.4541893    0.2461269   8.50  0.002381154    2.533    0.605
       216  -9.0976    228.5170    121.5339   4.6402780694e+01   1.0672198987e+01    0.1404896    0.1270601 -29.63 0.0002689432    1.029    0.028
       217 -10.7711    204.7528    120.5445   5.0378647775e+01   1.5730724598e+01    0.2954209    0.1771767 -27.35  0.001277606    1.783    0.439
       218 -10.1144     62.9557    120.9661   8.7489149759e+01   4.3724924670e+01    0.3922967    0.2163363  20.02  0.001682345    2.310    0.567
       219 -10.3154    179.0794    118.3378   5.5010693627e+01   2.1778192588e+01    0.2152655     0.195876  46.50  0.000453743    1.124    0.110
       220 -10.4824    139.8224    117.4972   6.4112693085e+01   3.0716114731e+01     0.250525     0.217886  -7.69 0.0006452021    1.278    0.218
       221  -9.8755     53.8910    118.3014   8.9843452417e+01   4.5518469269e+01    0.2187301    0.1666675  54.50 0.0006546641    1.455    0.313
       222 -10.4892    208.9882    116.7273   4.8677768656e+01   1.5516422076e+01    0.1963015    0.1899879   7.66 0.0003268078    1.061    0.057
       223 -11.3222    146.9794    115.8177   6.1849518295e+01   2.9504722868e+01    0.4327541    0.2803416  81.37   0.00148336    3.118    0.679
       224  -9.1328     10.4985    117.4965   1.0327834716e+02   4.9637727512e+01    0.1256257    0.1031397 -78.89 -0.0003242122    1.040    0.038
       225 -11.4074    194.6933    114.2820   5.0787275081e+01   1.9069321386e+01    0.4659831    0.2592695 -56.29  0.001784791    2.418    0.586
       226 -11.2276     28.5231    114.3271   9.7259113375e+01   4.9074990374e+01    0.3002292    0.2072796 -32.16  0.001195238    1.659    0.397
       227 -11.1742     32.9198    113.0137   9.5644195939e+01   4.9011858962e+01    0.4269855    0.1624834 -54.48  0.001812329    2.175    0.540
       228 -10.9168    211.7844    113.2973   4.7350949845e+01   1.5530125590e+01    0.3580685    0.1684274  44.12  0.001228642    2.290    0.563
       229  -9.7738    225.6161    228.2570   6.8311202255e+01  -5.5237475001e+00     0.251509    0.1876444  -4.22 0.0008845877    1.172    0.146
       230  -9.9824    113.2775    112.8716   7.0219698025e+01   3.7303362747e+01    0.3102991    0.1911281 -45.41  0.001315177    1.610    0.379
       231  -9.9428     20.0566    113.0090   9.9752129915e+01   5.0065282223e+01    0.1994463    0.1365958  70.13 0.0005279615    1.642    0.391
       232 -10.4798    217.9695    111.9481   4.5949675588e+01   1.4458638268e+01    0.2186023    0.1982043 -28.53 0.0003724167    1.025    0.025
       233 -11.8070     67.0256    111.0462   8.4138030092e+01   4.5607165381e+01    0.5026746    0.3052056 -75.81  0.002170874    2.082    0.520
       234 -11.8760    175.4476    111.0666   5.3945786732e+01   2.4023578944e+01     0.489018       0.2307  49.69  0.001390964    2.160    0.537
       235 -10.8880    163.8613    109.9039   5.6232781399e+01   2.6911388636e+01    0.2474249    0.2178275   4.12 0.0007119343    1.246    0.197
       236  -9.5019    100.5253    110.0180   7.3280210476e+01   4.0411557643e+01    0.2419711    0.1975035  36.18 0.0007559335    1.251    0.201
       237 -11.1312     39.3456    112.7294   9.3516487747e+01   4.8474447823e+01    0.2628472    0.2254102 -73.27  0.001128812    1.077    0.072
       238 -12.8510     62.1740    208.6816   9.9781119828e+01   2.3203582808e+01     0.923144    0.3586859 -70.23  0.003071962    2.680    0.627
       239 -10.1068    105.0126    107.9582   7.1391789440e+01   4.0044132314e+01    0.2208526    0.2157718 -14.99  0.001189653    1.014    0.013
       240  -8.9789    236.7153    110.7252   4.2630776705e+01   1.0855620416e+01    0.1307955     0.103142   1.83 0.0001762761    1.507    0.336
       241 -10.6005      9.6351    104.8722   1.0197926410e+02   5.2714539225e+01    0.3658541    0.2218241 -56.21  0.001890326    1.379    0.275
       242 -11.8039    139.8329    105.3773   6.0904567949e+01   3.3320545574e+01    0.3493356    0.2825675  31.39  0.001574873    1.287    0.223
       243 -10.8292    132.8700    104.7344   6.2569623312e+01   3.5003902355e+01    0.3180517    0.2134274 -69.53   0.00125104    2.199    0.545
       244 -11.1239    113.0239    104.4737   6.8083345167e+01   3.9259963260e+01    0.4450468     0.279131  27.69  0.001836648    1.879    0.468
       245 -10.7090    231.4818    237.5304   6.8779647058e+01  -7.5159289656e+00    0.2931863    0.1815211  40.01  0.001200522    1.801    0.445
       246 -10.2165    100.3347    104.0456   7.1789443172e+01   4.1829522263e+01    0.2248861    0.2005179 -48.32  0.001165948    1.105    0.095
       247  -9.2926     80.9945    102.7129   7.7601527648e+01   4.5514760036e+01    0.1956621    0.1900258  -5.80  0.000197369    1.054    0.051
       248 -10.5737     17.5277    103.0410   9.9129813746e+01   5.2650286029e+01    0.3531047    0.1719994   7.50  0.001663531    2.790    0.642
       249  -8.7961    250.7248    102.7094   3.8808858068e+01   9.4387911424e+00    0.1252398    0.0984569  -3.43 0.0006930964    1.518    0.341
       250 -10.1387    197.3095    102.3292   4.7290911851e+01   2.0671995429e+01    0.1524979    0.1174375   7.83 0.0006565088    1.664    0.399
       251  -9.2600     90.4869    102.4928   7.4472606942e+01   4.3971789949e+01    0.1494032    0.1442354 -38.40  4.40518e-05    1.015    0.015
       252 -10.0160    121.8422    100.4812   6.4440680808e+01   3.8311687266e+01    0.2849469    0.2354442  -3.60 0.0004471567    1.418    0.295
       253 -10.7287    227.2763    236.3161   6.9338689038e+01  -6.7905941041e+00    0.2121251    0.1470571 -14.06  0.000224527    1.356    0.262
       254 -10.3721    185.9436     98.4819   4.8491665303e+01   2.3984927169e+01    0.2382512    0.2050667 -36.55 0.0005652343    1.137    0.120
       255  -9.5177     52.2995     99.6728   8.6593638608e+01   5.0250950316e+01    0.1374688     0.105807  76.87 0.0002185158    1.637    0.389
       256 -10.3685     22.9967     99.0197   9.6640058102e+01   5.3223792093e+01    0.2161939    0.1434348  67.94  0.001148086    1.885    0.470
       257  -8.7010     46.5526     97.5064   8.8128978390e+01   5.1424452580e+01    0.1371823    0.1220539 -55.27 1.067687e-05    1.023    0.022
       258  -9.9444    195.3190     96.6892   4.6224984901e+01   2.2137366199e+01    0.1527022    0.1163484 -71.99 0.0004548717    1.644    0.392
       259  -9.0837    235.9794     95.2514   3.9195716764e+01   1.3508949886e+01    0.1618839    0.1196625  57.72 0.0005166934    1.514    0.339
       260  -9.8688    149.0050     94.9956   5.5704104989e+01   3.3354111663e+01    0.1865245    0.1839849  -3.37 0.0004051565    1.010    0.010
       261 -11.1466    141.6115     93.4031   5.7100461452e+01   3.5393220815e+01     0.454414    0.1536585 -40.27  0.001406236    2.997    0.666
       262 -10.3170    139.1546     90.1718   5.6797840767e+01   3.6610513340e+01    0.2143968    0.1884052 -74.50 0.0004189781    1.317    0.241
       263 -10.4265    113.7698     94.2411   6.5011420408e+01   4.1362120448e+01    0.2833307    0.1936799  45.07 0.0009438118    1.481    0.325
       264  -9.1047     42.4898     93.9743   8.8809422535e+01   5.2701023979e+01    0.1877989    0.1143838  89.86 0.0008096287    2.482    0.597
       265  -9.6176    226.5297     91.7776   3.9773715458e+01   1.6036830663e+01    0.3649839    0.1376018 -27.35  0.001180352    3.579    0.721
       266 -11.2446    178.8770     91.6675   4.8099218307e+01   2.6898246411e+01    0.2628205    0.2359574  16.06 0.0003258405    1.220    0.181
       267 -11.6014    174.1429     90.4842   4.8751242136e+01   2.8244864234e+01    0.5910715    0.2826431 -56.02   0.00192588    3.164    0.684
       268 -10.9239     91.8054     90.7476   7.0840582558e+01   4.6412522800e+01    0.3797753    0.3416815  83.42  0.002010317    1.336    0.251
       269 -10.9459    164.8984     90.2372   5.0665264302e+01   3.0505619982e+01       0.3643    0.2444892   6.86  0.001400372    2.461    0.594
       270 -10.4033    121.2644     91.5843   6.2065766090e+01   4.0337640835e+01    0.2968457    0.1501638  49.11 0.0009175961    2.057    0.514
       271 -10.0654     49.9496     91.0722   8.5467557499e+01   5.2572862311e+01    0.2318981    0.1493928 -29.62  0.001130436    1.725    0.420
       272  -8.9671     82.6611     89.3174   7.3475900481e+01   4.8331153867e+01    0.1476288    0.1185705  78.93 0.0007048855    1.706    0.414
       273  -9.9773     56.5050     89.3382   8.2673933135e+01   5.2186499079e+01    0.2416754    0.1314081  28.87  0.001097551    1.997    0.499
       274 -11.7700    152.3551     86.1236   5.2359851192e+01   3.4289994403e+01    0.4714332    0.2686876 -40.84  0.001879004    1.764    0.433
       275 -10.6761    109.4056     87.2485   6.4268820015e+01   4.3759078392e+01    0.5444075     0.230338 -50.10  0.001884505    2.608    0.616
       276  -9.7449    106.2370     84.0166   6.4263577931e+01   4.5087659828e+01    0.2191488    0.2063583 -78.28  0.001162589    1.212    0.175
       277 -10.7861     18.1150     85.0572   9.5924185740e+01   5.6879711104e+01    0.3112131     0.189612  21.64  0.001735698    1.911    0.477
       278 -10.5899    137.2718     83.5931   5.5342013043e+01   3.8345593898e+01    0.2767846    0.1988128 -13.37  0.001192326    1.788    0.441
       279 -10.0276     66.6842     83.2896   7.7381042561e+01   5.2193504926e+01     0.307792    0.1898794 -20.48 0.0008489402    2.175    0.540
       280 -11.2332    119.3155     81.9496   5.9736539950e+01   4.2743030648e+01    0.3699582    0.2794781  22.23  0.001715487    1.504    0.335
       281  -9.0675    204.7058     82.6808   4.0980180110e+01   2.2383028905e+01    0.1436929    0.1146689  11.96 0.0002592901    1.609    0.378
       282 -10.0217    198.1300     82.3307   4.2003779643e+01   2.3973613901e+01    0.2005574    0.1845457  74.29 0.0004070428    1.120    0.107
       283 -11.9098     45.4789     79.8074   8.4367492942e+01   5.5692097446e+01     0.380502    0.3136679 -16.44  0.001087471    1.245    0.197
       284 -10.1886    176.7848     78.1797   4.4818700441e+01   2.9802753230e+01    0.2698332    0.1622598 -71.82 0.0009600958    2.890    0.654
       285  -9.7639     54.2901     78.6226   8.0687701911e+01   5.4921418598e+01    0.1356332    0.1085136  84.89 0.0007019549    1.734    0.423
       286 -10.0352     10.9290     77.5256   9.7249283546e+01   5.9066998335e+01    0.2771425    0.1759067  52.27  0.001152876    2.077    0.518
       287 -11.2938    155.3472     77.0016   4.8999086077e+01   3.5254269553e+01     0.335161    0.2262569  54.53 0.0007147628    1.471    0.320
       288 -10.9299     56.8604     74.7329   7.8611717848e+01   5.5457226126e+01    0.4841092    0.2719314 -77.06  0.001655515    4.171    0.760
       289 -10.8146     52.7447     70.1413   7.8871693167e+01   5.6990077456e+01    0.2646383    0.1978422  54.08  0.001398496    1.790    0.441
       290  -9.3854     68.4739     76.4688   7.4755572323e+01   5.3440266910e+01    0.1416076    0.1312553 -28.40 0.0002138597    1.037    0.036
       291 -11.6899    147.5523     71.9455   4.9277474679e+01   3.8056544457e+01    0.5769209    0.2401367 -34.12  0.002017629    2.555    0.609
       292  -9.9747     37.6060     74.2430   8.6018463728e+01   5.7775644699e+01    0.1937172    0.1037556 -48.73  0.000854648    1.573    0.364
       293  -9.9245     33.7043     70.7829   8.6699463651e+01   5.8923968415e+01    0.2013736    0.1811458  10.12 0.0004274525    1.233    0.189
       294 -10.0461     17.1552     78.8297   9.5098768452e+01   5.8389590225e+01     0.186103    0.1594294 -78.12 0.0009473443    1.223    0.182
       295  -9.5599     13.3711     70.2313   9.4852926334e+01   6.0586656751e+01    0.1752533    0.1051531 -72.98 0.0007608443    1.652    0.395
       296 -10.4851    167.3935     75.7681   4.6030787304e+01   3.2520736568e+01    0.2171987    0.1484406 -23.93 0.0009549631    1.668    0.400
       297 -10.3430    171.8116     67.2115   4.2685577554e+01   3.2874502822e+01    0.2488076    0.1725407  20.53  0.001066171    2.031    0.508
       298 -10.6384     24.8044     67.4174   8.9511441029e+01   6.0432435830e+01    0.1687015    0.1137758  -8.50 0.0009466445    1.661    0.398
       299  -9.7976     48.0249     64.2091   7.8985322621e+01   5.8842534329e+01    0.1685219    0.1064918  24.39 0.0004083391    1.694    0.410
       300  -9.4418    103.9599     59.6931   5.7043802810e+01   5.0298879257e+01    0.2011634    0.1845171  29.99 0.0004088519    1.060    0.056
       301  -9.0112      1.5021     59.4331   9.7576208742e+01   6.3587014365e+01    0.1236761   0.09046821 -47.55 0.0002508592    1.083    0.077
       302  -9.8853    119.1386     56.8600   5.1626536513e+01   4.7426412322e+01    0.2137423    0.2041003 -84.57  0.000371736    1.194    0.163
       303 -10.3895    163.8124     56.4084   4.1072494715e+01   3.6590796621e+01    0.2228861    0.1292166  48.05 0.0009096372    1.707    0.414
       304  -9.6260    200.5161     55.4761   3.4589139447e+01   2.7636878100e+01    0.1409138    0.1324771 -74.50 2.321652e-05    1.012    0.011
       305 -10.1582    150.6087     54.7641   4.3265700674e+01   4.0156274993e+01    0.2098261     0.136757 -44.17 0.0006762165    1.619    0.382
       306  -9.0912    125.2572     53.9767   4.9003170761e+01   4.6472702927e+01    0.1812572    0.1292474 -33.28 0.0003292627    1.457    0.314
       307 -10.7917     35.6318     53.4310   8.0900403243e+01   6.2462670656e+01    0.2620663    0.1421899 -49.31  0.001336884    1.605    0.377
       308  -9.6904     46.0000     55.9331   7.7202205690e+01   6.0804687802e+01    0.2214951   0.06853172 -51.02 0.0008045912    2.957    0.662
       309  -9.1188      2.3592     51.7785   9.5545878421e+01   6.5204557710e+01    0.1008491   0.08609828  51.21 0.0002885484    1.566    0.361
       310  -9.7304    110.8613     48.8707   5.1151319111e+01   5.0615154917e+01    0.1922185    0.1763551 -70.71 0.0004845718    1.319    0.242
       311  -9.8640    106.8604     48.8586   5.2312324359e+01   5.1508471097e+01    0.1871784    0.1736806 -63.95  0.001037021    1.291    0.225
       312 -10.2206     88.5757     48.4440   5.7967876816e+01   5.5402004939e+01    0.2729571    0.2376662 -61.65 0.0007217643    1.492    0.330
       313  -9.6924    165.0230     46.7231   3.7940346839e+01   3.7717363098e+01    0.2060249      0.18227  65.87 0.0004210038    1.074    0.068
       314  -9.7426     16.2202     46.4014   8.7673279645e+01   6.5557147275e+01    0.2511607   0.08970089  29.84  0.001129357    3.134    0.681
       315 -10.7388    110.7564     43.7671   4.9330380094e+01   5.1428093420e+01    0.2986213     0.227443  -8.58 0.0008267043    1.459    0.314
       316 -10.4470    100.9450     42.8914   5.1882380229e+01   5.3736043137e+01     0.233865    0.2096509 -45.51 0.0006919894    1.286    0.222
       317 -10.2966     36.8763     42.4918   7.6605120830e+01   6.4495662027e+01    0.2774974    0.1339782 -35.27   0.00131149    1.914    0.477
       318  -9.5327      8.5436     43.4983   9.0530929342e+01   6.6630701102e+01    0.1207533   0.09478284 -41.11 7.569415e-05    1.022    0.022
       319  -9.5473    206.2148     41.8315   3.0278271708e+01   2.8174241452e+01    0.1751514    0.1619415  23.82 0.0004139925    1.315    0.239
       320  -8.9653     44.3194     42.3060   7.3128785581e+01   6.3660484284e+01    0.1361418   0.08791251 -15.32 0.0003856352    1.634    0.388
       321 -10.3710     68.3062     39.3775   6.1833316895e+01   6.0637050636e+01    0.2168249    0.1625954 -52.42 0.0005640834    1.745    0.427
       322  -8.9150      6.6987     38.2619   8.9936225837e+01   6.7793338519e+01   0.09747674   0.09050699  68.05 0.0001706192    1.515    0.340
       323 -10.6417    158.3088     36.9952   3.6192679450e+01   4.0744023587e+01    0.2513466    0.1954698  61.87 0.0004303236    1.194    0.163
       324  -9.8352     59.9509     36.0161   6.3832604348e+01   6.2559516559e+01    0.1635878    0.1385615   6.96 0.0007277731    1.060    0.057
       325 -10.7982     42.9663     48.4474   7.5971642786e+01   6.2655694256e+01    0.2558816    0.1817939 -61.10  0.001393008    1.775    0.437
       326  -9.6535    108.9585     33.2499   4.5908914944e+01   5.3332474272e+01     0.208568    0.1946004 -85.28 0.0004847096    1.294    0.227
       327  -9.3254    107.7211     30.3248   4.5129855190e+01   5.3999596358e+01    0.1983495    0.1187821  44.09 0.0002138153    1.518    0.341
       328 -10.6369    199.1689     28.7341   2.7785302548e+01   3.1538701828e+01    0.2299526    0.2086058 -76.50  0.000249199    1.030    0.029
       329  -9.4954    158.9953     27.8035   3.3231021959e+01   4.1711045598e+01    0.1951008    0.1700454  69.33            0    1.052    0.049
       330  -9.0808    244.5168     27.4331   2.2876610379e+01   2.1356544112e+01    0.1247389    0.1030963 -65.46 0.0001457484    1.009    0.009
       331  -9.8419     62.9873     26.1868   5.8370451220e+01   6.3585019624e+01    0.1977041     0.160229  70.67  0.001084136    2.105    0.525
       332  -9.2927    141.2872     25.3372   3.5612362252e+01   4.6482178765e+01    0.1460145    0.1006532  31.13 0.0004092233    1.633    0.388
       333  -9.7891     67.5858     24.6681   5.5875115377e+01   6.2999470657e+01    0.2041824    0.1550156 -34.55 0.0008550818    1.440    0.306
       334 -10.8004    189.2946     23.7481   2.7679441629e+01   3.4549520533e+01    0.2425407    0.2113662 -81.77 0.0002189113    1.053    0.051
       335  -9.9452     83.6409     23.8159   4.9733825510e+01   6.0044440885e+01    0.1813999    0.1192062 -37.22 0.0004499466    1.702    0.413
       336 -10.1620     45.8412     24.1318   6.4892538807e+01   6.6554715651e+01     0.180152    0.1636754 -12.93 0.0009078819    1.265    0.210
       337 -11.0328    228.0045    232.9958   6.8663664552e+01  -6.4716661541e+00    0.2798432    0.2037682  -4.56 0.0004419887    1.202    0.168
       338  -9.4928     24.7659     21.9469   7.4457532950e+01   6.9444611348e+01    0.1764258    0.1276608 -31.29  0.001137987    1.173    0.147
       339 -10.0609     76.8055     21.4177   5.1026705958e+01   6.1708886116e+01    0.1964745     0.107998  36.39 0.0009496831    1.682    0.405
       340  -9.3452     28.4844     19.2443   7.1272263961e+01   6.9497762095e+01    0.1519755    0.1079227 -46.21 0.0008480001    1.632    0.387
       341 -10.2046    170.0679    248.1652   8.1964294049e+01  -3.5137508452e-02    0.2468996    0.1705767  23.03  0.001525036    1.266    0.210
       342 -10.2712     87.9851     18.4760   4.6052278248e+01   5.9792930446e+01    0.2015781    0.1204789  49.43 0.0004097963    1.530    0.346
       343  -9.9090     72.3185     16.3172   5.0328298080e+01   6.3203295108e+01    0.1389514   0.08791365  17.80  0.000328497    1.657    0.396
       344  -9.4728     55.4700     14.5089   5.6067664302e+01   6.6438758321e+01    0.1291638    0.1042042   8.09 -2.39754e-05    1.017    0.017
       345  -9.4795     50.5147     14.4843   5.8209258220e+01   6.7241475225e+01    0.1269246    0.1034403   4.89 5.595371e-05    1.019    0.019
       346  -9.6389     24.6149     14.1849   7.0986858988e+01   7.0714310548e+01    0.1871691    0.1412345  15.99  0.001258036    1.309    0.236
       347  -8.9512     39.1393     13.3703   6.2994232586e+01   6.9064742793e+01    0.1543456    0.1061458  37.96 0.0005717393    1.653    0.395
       348  -9.6887    142.1311    249.1744   8.7591417505e+01   4.0490195462e+00    0.1631941    0.1245623  50.26 0.0006203665    1.277    0.217
       349 -10.7693    122.0370    247.2813   9.1357544803e+01   7.3773086957e+00    0.4982341    0.2616305  55.09  0.002004089    2.052    0.513
