#   1 NUMBER                 Running object number                                     
#   2 MAG_AUTO               Kron-like elliptical aperture magnitude                    [mag]
#   3 X_IMAGE                Object position along x                                    [pixel]
#   4 Y_IMAGE                Object position along y                                    [pixel]
#   5 X_WORLD                Barycenter position along world x axis                     [deg]
#   6 Y_WORLD                Barycenter position along world y axis                     [deg]
#   7 A_WORLD                Profile RMS along major axis (world units)                 [deg]
#   8 B_WORLD                Profile RMS along minor axis (world units)                 [deg]
#   9 THETA_WORLD            Position angle (CCW/world-x)                               [deg]
#  10 FWHM_WORLD             FWHM assuming a gaussian core                              [deg]
#  11 ELONGATION             A_IMAGE/B_IMAGE                                           
#  12 ELLIPTICITY            1 - B_IMAGE/A_IMAGE                                       
         1  -9.5393    196.4678     28.6590   5.3554413562e+01   3.1920783480e+01    0.4877898    0.2703676 -33.16  0.001370632    1.736    0.424
         2  -7.4289    142.6648     12.1899   5.6299919468e+01   4.8049633047e+01    0.1874582    0.1348612  -5.46 0.0002457044    1.541    0.351
         3  -8.7981    220.1503      2.1661   4.3422618495e+01   2.8652584867e+01    0.2023897    0.1442902 -60.18  0.001087667    1.339    0.253
         4  -7.6234    140.0080      2.2424   5.2962876712e+01   4.9703665864e+01    0.1948946     0.113072  66.04 0.0005735032    1.613    0.380
         5  -9.9161     59.7724    217.1308   1.2240788623e+02   2.4460995484e+01    0.4040938    0.1898498  43.68  0.002214905    1.728    0.421
         6 -13.8194      9.6371    209.9833   1.3076644452e+02   3.1116914599e+01     2.503529     1.919193  77.89   0.02134646    1.183    0.154
         7  -8.7323     69.4733    210.9043   1.2016107137e+02   2.4316593460e+01    0.2657017    0.2126004  -4.94  0.001701847    2.521    0.603
         8  -8.2633     61.4736    204.5204   1.2113058038e+02   2.6469871237e+01    0.1843491    0.1387698  73.53  0.000629237    1.090    0.082
         9  -9.9677     57.9008    203.3814   1.2171151756e+02   2.7118812921e+01    0.3976049    0.2255972 -85.98  0.001888442    1.745    0.427
        10  -9.4118    244.9338    205.1859   8.7613500671e+01  -2.6601339024e+00    0.2202677      0.15328  33.40 0.0006938897    1.246    0.197
        11  -7.8934    101.1921    201.7973   1.1325279780e+02   2.1485464550e+01    0.2291973     0.150048 -84.22  0.001369221    1.774    0.436
        12  -9.3641     60.6247    186.8526   1.1977707166e+02   2.9875378983e+01    0.7237728    0.3262753  55.04  0.002699779    1.957    0.489
        13 -12.5749      2.6748    249.8438   1.3323931887e+02   2.5274534840e+01    0.2629293    0.1932751  71.45  0.001319447    1.227    0.185
        14  -8.0802    133.7526    192.7604   1.0570496210e+02   1.7850101727e+01     0.270089    0.1617248 -83.67  0.001226093    3.040    0.671
        15 -11.5594    244.1746    188.0040   8.4735576497e+01  -6.6300258650e-01    0.7499225    0.5644464  48.61  0.003119603    1.625    0.385
        16 -11.1208    248.2257    180.9533   8.2793594413e+01  -5.1657096809e-01    0.6370698     0.369421 -25.84  0.003671607    1.717    0.417
        17  -8.8669     24.8309    191.0684   1.2709194656e+02   3.3097719745e+01    0.1754207    0.1059086  69.15 0.0009721125    1.294    0.227
        18  -9.6864     67.1332    192.0929   1.1895926095e+02   2.8043170168e+01    0.3750376    0.2945076 -61.97   0.00260004    1.526    0.345
        19 -14.2081     60.3479    248.1175   1.2434216995e+02   1.9410214068e+01     4.274983     1.475033  35.55   0.01370194    3.144    0.682
        20  -9.1129     11.7441    184.0028   1.2916852210e+02   3.5683563712e+01    0.2120417    0.1171194  46.37  0.000775077    1.588    0.370
        21  -9.7931    231.0205    181.9342   8.5789106767e+01   2.2451762777e+00    0.3177667     0.198428  42.21 0.0004661459    1.496    0.332
        22  -9.2010    231.7268    177.1961   8.4788138945e+01   2.7118671186e+00    0.2845022     0.187231  22.69 0.0003365178    1.418    0.295
        23  -8.1164      2.4563    182.2236   1.3083100065e+02   3.6827429145e+01    0.1486641    0.1225316  57.14 0.0005034736    1.319    0.242
        24  -8.0456     13.2769    178.6599   1.2858331091e+02   3.6575908749e+01    0.1645894     0.106913 -66.78 0.0005784232    1.654    0.396
        25  -8.1688     78.8222    176.5560   1.1494360513e+02   2.9472494730e+01    0.2027454    0.1593741 -81.71 0.0005767526    1.233    0.189
        26  -8.9505     37.8426    177.5219   1.2360626097e+02   3.4370696253e+01     0.188727    0.1064182  33.13  0.001126662    1.996    0.499
        27  -9.2763      2.8870    175.2587   1.3041912849e+02   3.8130787115e+01    0.1995055      0.16501  45.82  0.001070522    1.436    0.304
        28  -9.0052     57.9332    212.2905   1.2238500597e+02   2.5525857119e+01    0.1691519    0.1255162  83.88 0.0007197894    1.214    0.176
        29  -8.9799    231.9952    172.2496   8.3802650197e+01   3.2891585556e+00    0.1989371    0.1649809  -1.58 0.0004119772    1.114    0.102
        30  -9.1648     86.0634    172.0040   1.1284005362e+02   2.9338824867e+01    0.1935889    0.1642417  71.05 0.0002884587    1.011    0.011
        31  -8.3731     82.5486    171.4546   1.1353486324e+02   2.9960612993e+01    0.1979257    0.1963232 -14.04  0.001195321    1.362    0.266
        32  -9.1287    241.9769    171.9921   8.2103668581e+01   1.5888253626e+00    0.1968308    0.1269265  13.60 0.0003625855    1.575    0.365
        33  -8.1764     64.1619    171.8820   1.1756258520e+02   3.2387730928e+01    0.2891849    0.1289982  48.85  0.001036718    1.974    0.493
        34 -14.9908     14.1781    247.9902   1.3148847375e+02   2.4460302275e+01     1.615077     1.421767 -38.47  0.004803012    2.340    0.573
        35 -10.0610    200.1647    169.5425   8.8899223784e+01   9.4837553770e+00    0.2466112    0.2242456  35.89 0.0004072662    1.131    0.116
        36  -9.3630     12.0386    170.0444   1.2833092238e+02   3.8381654264e+01    0.1931597    0.1323431  44.10 0.0008010427    1.481    0.325
        37  -8.3355    152.9345    171.9467   9.8580484836e+01   1.8036111655e+01    0.1925042    0.1705307  38.10  0.001175624    1.064    0.060
        38  -7.8410     89.9181    162.1504   1.1068374136e+02   3.0761349538e+01    0.1950359     0.151877  72.98 0.0004153031    1.200    0.167
        39  -8.6286      3.0060    161.1327   1.2966113460e+02   4.0917751653e+01    0.1781798    0.1295636  51.90 0.0004681158    1.340    0.254
        40  -9.8622     78.7705    157.3023   1.1255938030e+02   3.3416244707e+01    0.3385889     0.263629 -48.07   0.00108332    1.566    0.362
        41  -8.7910     85.7958    156.6367   1.1084908175e+02   3.2527687980e+01    0.2106019     0.179116  87.00 0.0004419925    1.078    0.072
        42  -7.6325     94.7928    156.4215   1.0874471768e+02   3.1190862411e+01    0.1765786    0.1231791  31.06  0.000943303    1.677    0.404
        43  -8.7160    219.8666    152.5278   8.1939597065e+01   8.1876921298e+00    0.2065519    0.1735875 -11.35   0.00026639    1.153    0.133
        44  -7.3270    129.8898    152.8561   1.0014835423e+02   2.5875208004e+01    0.1812308    0.1514445  78.11 0.0003570061    1.273    0.215
        45  -7.0632    235.3191    152.6753   7.9335994045e+01   5.2442370607e+00    0.1197367    0.1060596 -67.65 0.0007045575    1.676    0.403
        46  -7.2701    205.6555    151.2835   8.4234365402e+01   1.1155052672e+01    0.1287776    0.1104039  83.52 0.0007015853    1.641    0.391
        47  -9.1377     11.4035    151.3976   1.2727075040e+02   4.2239108102e+01    0.2106819     0.106097  27.91  0.001238684    2.403    0.584
        48  -7.8993    148.0819    149.0872   9.5404800789e+01   2.3120929164e+01    0.2046251    0.1782386  17.87            0    1.287    0.223
        49  -9.7842     69.8138    144.8030   1.1296109252e+02   3.7345907699e+01    0.4325438    0.3004892  74.88  0.001846561    1.442    0.307
        50  -8.6540      5.7652    142.2078   1.2789703666e+02   4.4613462287e+01    0.2417297     0.105995  36.23  0.001400611    2.305    0.566
        51  -8.6825     95.7214    140.3111   1.0593564493e+02   3.4454315347e+01    0.2489294     0.215084  52.68 0.0004601353    1.135    0.119
        52  -7.3271    247.4570    140.4447   7.4796994915e+01   4.6140736606e+00    0.1283803    0.1150218  -4.06 9.921673e-05    1.101    0.092
        53  -7.3794    152.7270    144.6844   9.3509325666e+01   2.3026187463e+01    0.1371124    0.1113446   3.74 0.0002607674    1.561    0.359
        54  -7.7449     85.6621    133.2870   1.0723095287e+02   3.7579127940e+01    0.1398986   0.09567058  71.96            0    1.634    0.388
        55  -7.1988    240.3270    131.3333   7.3930910373e+01   7.1881237823e+00    0.1431934   0.09527505  11.98 0.0002774427    1.716    0.417
        56  -8.9833     65.5355    141.4919   1.1354367459e+02   3.8643377031e+01    0.2482483    0.2092156 -51.26  0.001096482    1.384    0.278
        57  -7.3190    237.7099    127.3149   7.3447918215e+01   8.2583794776e+00    0.1275202    0.1057618 -57.51 0.0002857652    1.591    0.372
        58  -8.6341     27.4766    127.3022   1.2134406283e+02   4.6047427454e+01    0.2322297    0.1455713  45.52  0.001421728    1.630    0.387
        59  -6.9588    176.2973    126.7472   8.4549756461e+01   2.1363950618e+01    0.1375715    0.1156892  84.78 0.0002286229    1.494    0.331
        60  -7.2827    102.4981    126.5554   1.0169668055e+02   3.6300061109e+01    0.1388236    0.1296268  82.41 0.0001705578    1.008    0.008
        61  -8.6827    163.1206    103.7660   8.1680978227e+01   2.8534005675e+01    0.2437343    0.2124961 -23.56 0.0002343638    1.203    0.169
        62 -12.4917      2.6031    239.9287   1.3295862223e+02   2.6803791661e+01    0.5082369    0.3727325 -88.61  0.003143737    1.442    0.306
        63  -9.6514    219.4173     97.8154   6.9367027427e+01   1.6460583560e+01    0.2536352    0.2260806  20.58 0.0001700177    1.127    0.113
        64  -8.0721    224.3200     94.0353   6.7621584172e+01   1.5921665444e+01    0.2473526    0.1878479  24.56 0.0008115217    1.450    0.310
        65  -8.5898    106.9958     83.0021   8.9998946450e+01   4.4901707132e+01    0.2090817    0.2015223 -63.89  0.001180187    1.031    0.031
        66  -7.5841    246.2969     81.2733   6.1229886409e+01   1.2877841969e+01     0.134531    0.1016921  16.48 0.0001765021    1.526    0.345
        67  -6.9120     15.7110     80.2805   1.1861931430e+02   5.7594723169e+01    0.1135122   0.07983349  76.15 0.0004598183    1.524    0.344
        68  -7.7266    164.0278     77.1886   7.4058386539e+01   3.3145121527e+01    0.2000251    0.1988692  56.23 0.0002573696    1.019    0.019
        69  -8.1902    138.1205     66.1723   7.6543367739e+01   4.1394896497e+01    0.2317671    0.2017522  14.71 0.0003415344    1.259    0.206
        70 -10.3846    121.0334     61.5253   7.9381988968e+01   4.6186451413e+01    0.2648867    0.2424431 -18.87 0.0001477464    1.096    0.088
        71  -7.9537    132.1986     59.0431   7.5653663320e+01   4.4061085103e+01    0.2297442    0.2005262   6.73  0.000434584    1.247    0.198
        72  -9.1708    217.0658     49.3047   5.6775163928e+01   2.4027004320e+01    0.3912793     0.261836 -26.28 0.0008916018    1.471    0.320
        73  -8.2952    177.0097     48.2517   6.2613910321e+01   3.4462156791e+01    0.2157289    0.2007943  57.98 0.0006252432    1.066    0.062
        74  -8.9923    191.1257     41.2586   5.8134481918e+01   3.1731270895e+01    0.3009546    0.2256118   8.36 0.0005957628    1.642    0.391
        75 -10.3659    191.7608     35.1349   5.6172646372e+01   3.2359635399e+01    0.6771826    0.4501687  22.92  0.002990294    1.970    0.492
        76  -7.5970    241.7755    247.1940   9.4571301693e+01  -6.2206677391e+00    0.1394446    0.1055911  28.13 0.0003908194    1.207    0.172
        77  -7.3735    163.9912     31.0164   5.9260049333e+01   4.0239879625e+01    0.1731961    0.1660254 -23.98 0.0009469849    1.070    0.065
        78  -9.3466    125.4222    233.1358   1.1214541485e+02   1.2824481057e+01    0.3063907    0.1807808 -81.81  0.001742919    2.725    0.633
        79 -10.0694    135.1519    233.1983   1.1044643236e+02   1.1346076887e+01    0.2079443    0.1549557  45.85 0.0002963778    1.036    0.035
