#   1 NUMBER                 Running object number                                     
#   2 MAG_AUTO               Kron-like elliptical aperture magnitude                    [mag]
#   3 X_IMAGE                Object position along x                                    [pixel]
#   4 Y_IMAGE                Object position along y                                    [pixel]
#   5 X_WORLD                Barycenter position along world x axis                     [deg]
#   6 Y_WORLD                Barycenter position along world y axis                     [deg]
#   7 A_WORLD                Profile RMS along major axis (world units)                 [deg]
#   8 B_WORLD                Profile RMS along minor axis (world units)                 [deg]
#   9 THETA_WORLD            Position angle (CCW/world-x)                               [deg]
#  10 FWHM_WORLD             FWHM assuming a gaussian core                              [deg]
#  11 ELONGATION             A_IMAGE/B_IMAGE                                           
#  12 ELLIPTICITY            1 - B_IMAGE/A_IMAGE                                       
         1 -13.3120    184.7171     26.5852   1.7905260610e+01   3.5898975082e+01     1.568956    0.9023519  69.43  0.007448724    1.626    0.385
         2 -13.1131    214.3235     27.6421   1.4485176043e+01   2.8457081580e+01     2.044096     1.004393 -62.20  0.008721814    2.357    0.576
         3 -14.9728    226.0591      8.8853   8.8478833503e+00   2.7877727340e+01     4.827047     1.782178  74.80   0.02065711    2.561    0.609
         4  -9.7686    126.0052     13.9898   2.3843473880e+01   5.1874858217e+01    0.2662074    0.2030607 -34.62  0.001502055    1.454    0.312
         5 -11.5701    119.4850      9.7578   2.3662220187e+01   5.3814889758e+01    0.6594232    0.4064223  42.77  0.002647386    1.471    0.320
         6  -9.7434     99.1260      3.1190   2.5711747219e+01   5.8983225837e+01    0.2057497     0.150961  33.38 0.0005019297    1.208    0.172
         7 -11.1654    133.2308     20.1826   2.4554246002e+01   4.9500585088e+01    0.5516394     0.331854 -64.02  0.002404396    2.524    0.604
         8  -9.4921    145.8375    220.9514   7.2195707305e+01   7.9967329205e+00    0.2954702    0.1789438 -81.72   0.00125117    3.235    0.691
         9 -15.0975    191.2883    155.4022   5.0441484677e+01   1.1817875630e+01     1.392936     1.130325 -75.65  0.005584747    1.646    0.392
        10 -19.2429    229.8202    124.9368   3.6117023055e+01   9.4668100351e+00     7.170305     6.750796  30.23   0.02268192    1.138    0.121
        11  -8.9080    144.5321    209.4417   7.0737613950e+01   1.0340848900e+01    0.2244091    0.1777888  54.10   0.00098921    1.196    0.164
        12  -9.3316    169.9946    185.4307   6.1155612353e+01   1.0233457345e+01    0.2498222    0.2099317 -55.78 0.0005362678    1.336    0.252
        13  -9.8829    165.0254    180.0293   6.1202297557e+01   1.2252844939e+01    0.3905343    0.2719843  81.25  0.001022486    2.397    0.583
        14 -11.5550    126.9853    176.5025   6.9178324577e+01   2.0267155858e+01    0.4344537    0.3043226 -60.68  0.001417043    1.506    0.336
        15 -12.2854    141.6288    181.7653   6.6747112577e+01   1.6400306287e+01      0.92818    0.6032071  84.18   0.00378766    2.633    0.620
        16 -12.6327    131.2594    171.1248   6.7198756604e+01   2.0653195768e+01    0.9485461    0.4159593  49.53  0.003566683    2.364    0.577
        17 -10.0289    141.2001    205.4624   7.0824845031e+01   1.1692030959e+01    0.2927049    0.2221592  75.13 0.0006379925    1.587    0.370
        18 -15.3946    224.6043     84.1870   2.7195173420e+01   1.7667851301e+01     1.420255     1.063042  41.78  0.006555105    1.548    0.354
        19 -10.0572    158.0407    181.7455   6.3065977389e+01   1.3264722147e+01    0.2423531    0.2106455 -41.06 0.0002869266    1.225    0.184
        20  -9.4639    204.7678    200.1258   5.6786640999e+01   1.1744313458e+00     0.392527    0.2325139  -9.79  0.001697856    2.588    0.614
        21  -9.9718    243.6587    178.6983   4.5380722208e+01  -2.1302670592e+00    0.2414456    0.2218991  16.50  0.000836123    1.197    0.165
        22  -8.9122     77.7071    174.0538   8.0474071041e+01   2.9043563984e+01    0.1851076    0.1590367 -78.11   0.00033195    1.099    0.090
        23 -11.8993    111.2469    168.2434   7.1468914520e+01   2.4966479791e+01    0.6138946    0.3901242  87.14  0.002582734    2.297    0.565
        24 -10.6849     69.9305    159.5510   8.0275062236e+01   3.3572948242e+01    0.3108625    0.1850954 -65.78 0.0006653469    1.546    0.353
        25  -8.1273     49.7849    156.9455   8.4940515206e+01   3.6779635111e+01    0.1692351   0.09342212 -68.25 0.0004106231    1.583    0.368
        26 -12.3977     68.1474    130.0914   7.5838748596e+01   4.0956392553e+01    0.8497914    0.3881881 -45.99  0.003458597    2.317    0.568
        27 -12.9221     68.4209    144.4067   7.8283907741e+01   3.7433549167e+01     1.062322    0.6471162 -84.85  0.004374299    1.910    0.476
        28  -9.9254    101.0876    141.7534   6.9061987320e+01   3.2984544200e+01      0.44727    0.1698074 -55.84  0.001212301    2.561    0.610
        29  -9.6732     91.8082    138.5647   7.0914594548e+01   3.5324043970e+01    0.2604362    0.1984953 -59.63 0.0005912571    1.240    0.193
        30 -10.8589    107.0555    131.7694   6.5346011001e+01   3.4302679011e+01    0.3264726    0.2934798 -82.02  0.001192231    1.126    0.112
        31  -8.9744     92.0244    132.5182   6.9627716738e+01   3.6748311989e+01    0.2094462    0.1463295  38.69 -3.303557e-05    1.513    0.339
        32  -8.5075     32.5787    132.5614   8.6144069178e+01   4.4454342699e+01    0.1290793    0.1057694 -76.58 7.367695e-05    1.006    0.006
        33  -9.7767    101.7380    127.3550   6.5821190873e+01   3.6315022638e+01    0.3116719    0.1991787 -44.12  0.001032208    1.589    0.371
        34 -10.6040     54.0862    118.6956   7.7782028419e+01   4.5520588771e+01    0.2457792    0.2102266 -52.32 0.0002477593    1.121    0.108
        35 -13.9903     44.2685    103.1506   7.7786043363e+01   5.0335395907e+01     1.544678     1.255038  46.51  0.006762734    1.420    0.296
        36 -13.9525     75.0954    107.5902   6.9074727133e+01   4.5389803978e+01     1.709442     1.243666  43.96  0.008842624    1.504    0.335
        37 -12.2457     63.3752    104.8338   7.2089565195e+01   4.7679994357e+01    0.5256404    0.5000646 -69.69 0.0007502906    1.082    0.075
        38 -10.6418    104.9018    115.0887   6.2049170237e+01   3.8636879171e+01    0.3599833    0.2345309 -40.11 0.0008825607    1.589    0.371
        39 -10.6176    102.2319    102.6035   5.9625181997e+01   4.2010101638e+01    0.2779037    0.2490563 -26.62 0.0005014539    1.153    0.133
        40 -13.4912      8.1270     97.5377   8.8261071902e+01   5.4576477501e+01    0.5734272    0.2840507  26.20  0.002183073    2.444    0.591
        41 -10.2990    125.7026     82.2617   4.7102703416e+01   4.1580385101e+01    0.2865495    0.2757236 -68.60 0.0009409144    1.102    0.092
        42  -9.8293    119.6474    200.7227   7.4761821261e+01   1.6411488030e+01     0.241542    0.2002668  70.52 0.0004600823    1.182    0.154
        43  -9.8484    237.3430    197.1046   5.0111285136e+01  -3.8789305764e+00    0.1889886    0.1482892  15.83 0.0002908201    1.145    0.126
        44  -8.9893    241.5546    213.9105   5.2483175393e+01  -6.9230798056e+00    0.1744597    0.1345183  19.28 0.0003312019    1.130    0.115
        45 -11.6560    152.3760     67.3219   3.5891570730e+01   3.8115461246e+01    0.4755479    0.2904002  68.35  0.001952795    1.980    0.495
        46  -8.3368     96.8448     69.3676   5.1443277572e+01   5.0077276676e+01     0.184178    0.1336152  29.02 0.0002109755    1.463    0.317
        47 -10.2353     96.1539    248.6926   8.5260874497e+01   1.1023409638e+01    0.2019109    0.1760911  87.19 0.0005157001    1.241    0.194
        48  -9.1100    245.1140    196.0811   4.8541102692e+01  -4.9695595387e+00    0.2071994    0.1054439  34.98  0.001030042    1.917    0.478
        49 -10.1487    245.5715     60.9741   1.8851498108e+01   1.6660654332e+01     0.233006    0.1749461  88.66 0.0007283838    1.415    0.294
        50 -10.0383    195.7684     55.8667   2.4341507637e+01   2.9124021853e+01    0.2768256    0.2368659  34.76 0.0004751969    1.360    0.265
        51 -10.2851    178.9885    209.8446   6.3663397135e+01   4.1244735009e+00    0.6056631    0.3087618  59.50  0.001292208    3.619    0.724
        52  -9.4835    119.0882     51.2761   3.8804156500e+01   4.8651156933e+01    0.4143394    0.2513065  -3.25  0.001609557    2.712    0.631
        53  -9.6219    231.0339     43.7112   1.6497768592e+01   2.2399705436e+01     0.344991    0.2128791  65.91  0.001404853    1.635    0.388
        54 -11.3429    227.6753     49.8589   1.8367963427e+01   2.2309933421e+01    0.5310846    0.4518556 -67.96  0.001528575    1.062    0.058
        55  -9.7754    235.0518     51.1583   1.7797912818e+01   2.0431057404e+01    0.5230937    0.1846862  58.86  0.002057038    2.832    0.647
        56 -10.2709    133.1625    191.5771   7.0346010131e+01   1.5918711388e+01    0.3159725    0.2434788 -89.58 0.0007255847    1.562    0.360
        57  -9.1062    205.5370     48.5925   2.0945808330e+01   2.7785576077e+01    0.2356738    0.2168489 -86.20 0.0004949734    1.032    0.031
        58 -11.6602    187.6216     44.5009   2.2486811987e+01   3.2827828555e+01    0.5288299    0.4468354  46.14  0.002573531    1.272    0.214
        59 -10.6395    124.7963     41.5999   3.3960616601e+01   4.8811979682e+01    0.4589197    0.3036546  13.63  0.001154565    2.030    0.507
        60  -8.6873    120.9587    237.7544   7.9384762287e+01   9.1364035055e+00     0.167228    0.1361857  51.61 0.0003234915    1.008    0.007
        61 -11.9460    199.8279     37.8656   1.8904384373e+01   3.0683788864e+01    0.8851807    0.2845479  56.61  0.002472901    2.862    0.651
        62 -11.4144    210.7597     33.7413   1.6431417863e+01   2.8542900596e+01    0.6163297    0.4159494  70.53 0.0006612474    1.418    0.295
        63  -9.8819    134.0628    186.5343   6.9296962546e+01   1.6807459842e+01    0.2436236    0.2206568 -77.44 0.0003358641    1.159    0.137
        64  -8.2585     47.0099    236.0257   9.3163079841e+01   1.9994536046e+01    0.1354958    0.1009052  70.68 0.0009553019    1.019    0.018
        65 -10.4223    233.7465     35.6952   1.4314248525e+01   2.2861869602e+01    0.2225587    0.2042543  11.89  0.001082023    1.458    0.314
        66  -9.3468    167.1353    190.7612   6.2760607225e+01   9.7552411205e+00    0.2075206    0.1915862 -73.47 0.0002841551    1.248    0.199
        67 -11.1113    171.9024    204.5591   6.4208249882e+01   6.3212253485e+00    0.4511369    0.3074411  70.86   0.00144553    2.338    0.572
        68  -8.5526     48.2959    212.3135   9.1085227323e+01   2.4535666069e+01    0.1049519   0.09025772 -52.86 0.0002994765    1.600    0.375
