#   1 NUMBER                 Running object number                                     
#   2 MAG_AUTO               Kron-like elliptical aperture magnitude                    [mag]
#   3 X_IMAGE                Object position along x                                    [pixel]
#   4 Y_IMAGE                Object position along y                                    [pixel]
#   5 X_WORLD                Barycenter position along world x axis                     [deg]
#   6 Y_WORLD                Barycenter position along world y axis                     [deg]
#   7 A_WORLD                Profile RMS along major axis (world units)                 [deg]
#   8 B_WORLD                Profile RMS along minor axis (world units)                 [deg]
#   9 THETA_WORLD            Position angle (CCW/world-x)                               [deg]
#  10 FWHM_WORLD             FWHM assuming a gaussian core                              [deg]
#  11 ELONGATION             A_IMAGE/B_IMAGE                                           
#  12 ELLIPTICITY            1 - B_IMAGE/A_IMAGE                                       
         1 -11.4040    179.0953     68.5289   2.9017732942e+02   5.9123491252e+00    0.3933364    0.1463926 -68.09  0.007961924    3.344    0.701
         2 -18.2042    248.8866     96.0826   2.8954240229e+02   5.1751659358e+00    0.6922203    0.1941341 -62.49   0.04635137    3.663    0.727
         3 -17.2237    213.0310     13.9353   2.8944684327e+02   6.3350729919e+00    0.6044482     0.186457  18.57   0.03055844    6.925    0.856
         4 -15.1698    151.4464     12.1167   2.9014738808e+02   6.7270045023e+00    0.2943738   0.07171471 -67.23   0.01392934    7.626    0.869
         5 -12.6477    101.6507     21.8358   2.9078390318e+02   6.9145735849e+00   0.02514056   0.00954726 -48.56  0.001978155    2.613    0.617
         6 -10.8035     84.3405     14.3913   2.9093826483e+02   7.1039603646e+00   0.01221344  0.008159198 -66.84  0.000551076    1.553    0.356
         7 -12.6276    114.5312      7.1350   2.9054370160e+02   7.0061524470e+00   0.01552559   0.01371482 -24.84  0.001855195    1.182    0.154
         8 -11.4829    106.9897      7.0454   2.9063046223e+02   7.0524686554e+00   0.01036689   0.01011066 -40.63  0.000967892    1.015    0.015
         9 -10.9429    196.0677      1.3213   2.8956451809e+02   6.5821850966e+00   0.00932192  0.006020974  29.62 0.0003745344    1.539    0.350
        10 -12.5757    160.5394    128.2977   2.9076143806e+02   5.3364687914e+00   0.01912104   0.01603297 -81.20  0.001487919    1.288    0.224
        11 -10.6339    170.0208    228.1556   2.9126803921e+02   4.1301548507e+00   0.01597556  0.007970705  39.82  0.001050878    2.005    0.501
        12 -11.6543    134.7635    119.8990   2.9100737825e+02   5.5879315662e+00   0.02535377  0.009283707 -64.13  0.001908654    2.895    0.655
        13 -12.4722    134.6462    108.2271   2.9093662075e+02   5.7229533863e+00   0.05215753   0.01208612 -63.80  0.003009256    4.953    0.798
        14 -13.9220    167.3000    114.7051   2.9059933110e+02   5.4522339391e+00   0.03759252    0.0262594 -25.71  0.003540019    1.701    0.412
        15 -10.7729    122.4595    113.4791   2.9110994942e+02   5.7356659026e+00   0.01548039  0.003024617  41.79 0.0008102561    5.752    0.826
        16  -9.6837    182.5036    233.4008   2.9115637923e+02   3.9948711953e+00  0.006513273  0.006366928  39.13  0.000129901    1.035    0.034
        17 -12.9125    165.6573    102.3668   2.9054201154e+02   5.6040505831e+00   0.02018646    0.0172886  22.64  0.002048311    1.182    0.154
        18 -11.0632    139.0027    103.3050   2.9085584207e+02   5.7534287165e+00   0.00950295  0.008541108  21.43  0.000606206    1.124    0.110
        19 -12.2149    121.2976    102.2533   2.9105403165e+02   5.8718245750e+00   0.01935274   0.01197496  -8.60  0.001737506    2.355    0.575
        20 -10.5901    111.9369    103.5134   2.9117006154e+02   5.9134884905e+00   0.01001772  0.006546726  26.03 0.0007354043    1.549    0.354
        21 -11.7448    143.9791     98.8343   2.9077068334e+02   5.7749745558e+00   0.01572804   0.01197732 -34.74  0.000807629    1.400    0.286
        22 -10.9093    131.2023     95.6366   2.9089861749e+02   5.8885014667e+00   0.01181011     0.010298 -54.63 0.0005023454    1.132    0.117
        23 -13.8143    161.0937     65.6314   2.9036742312e+02   6.0539724862e+00   0.02462302   0.01823441 -53.23  0.001522479    1.323    0.244
        24 -13.0420    152.6405     91.3258   2.9062413905e+02   5.8093065274e+00   0.03251958   0.02267171 -12.44  0.003294006    1.818    0.450
        25 -14.2342    163.6001     81.8921   2.9043911099e+02   5.8519189604e+00   0.05857383   0.03359896 -48.94   0.00569042    1.722    0.419
        26 -12.4298    170.2797     75.1478   2.9032017657e+02   5.8892962844e+00   0.01295505   0.01242751 -50.82 0.0003821353    1.033    0.032
        27  -9.9394    113.4721     95.0283   2.9109988340e+02   6.0019202359e+00  0.009659954   0.00646369 -60.99  4.67743e-05    1.482    0.325
        28 -10.6867    202.4110     88.6779   2.9003280658e+02   5.5403298808e+00   0.01876322   0.01108324 -77.67  0.001401013    2.122    0.529
        29 -10.3221    198.6934     85.9668   2.9005894537e+02   5.5938855931e+00   0.02090028   0.01355347 -35.99  0.002091883    1.722    0.419
        30 -11.8850    136.8471     88.2354   2.9078759293e+02   5.9397497201e+00   0.01521219   0.01282189  59.83 0.0008691622    1.286    0.222
        31 -10.9439    217.8553     81.9539   2.8981287968e+02   5.5245974972e+00   0.01766042    0.0121321 -40.29  0.001744576    1.530    0.346
        32  -9.9295    215.6560     75.2917   2.8979699370e+02   5.6144243369e+00   0.01027336  0.004846013  48.91 0.0006995678    2.548    0.607
        33 -11.6065    223.4276     79.5929   2.8973394267e+02   5.5181546868e+00   0.01384295   0.01278358  -2.74   0.00070828    1.120    0.107
        34 -10.5744    219.3328     76.8146   2.8976398855e+02   5.5747642212e+00   0.01751046   0.01146833 -57.55  0.001812209    1.492    0.330
        35 -13.0934    149.0005     81.2312   2.9060376524e+02   5.9472926240e+00    0.0202033   0.01532529 -47.25 0.0009357488    1.311    0.237
        36 -10.4267    207.9066     77.8955   2.8990258376e+02   5.6311868412e+00    0.0215378  0.007021999 -45.58  0.001492738    3.406    0.706
        37 -10.8990    119.4363     66.4444   2.9085417102e+02   6.2949535085e+00   0.01261427   0.01126775  57.45 0.0006597216    1.179    0.152
        38 -12.0876    130.9981     65.0197   2.9071161856e+02   6.2419081189e+00    0.0194072   0.01159117 -57.37  0.001594365    1.627    0.385
        39  -9.9977    204.8658     64.6156   2.8985542011e+02   5.8021429644e+00  0.009312777  0.005803724  40.21 0.0005983813    1.615    0.381
        40 -11.0848    223.9155     53.9876   2.8956961857e+02   5.8094418225e+00  0.009929853  0.008710035  59.45  0.000492998    1.214    0.176
        41 -10.5700    207.9266     49.6738   2.8972746841e+02   5.9553955534e+00   0.01086569  0.008477487  48.12 0.0001586235    1.341    0.254
        42 -11.4068    212.2460     46.8802   2.8966027201e+02   5.9614540041e+00   0.01138374  0.009305306  44.32 0.0006538221    1.252    0.201
        43 -10.4088    203.1557     29.8428   2.8965959943e+02   6.2119610883e+00  0.008834369  0.008333769 -82.42 0.0003168282    1.096    0.087
        44 -13.8480    204.5805     45.0093   2.8973719279e+02   6.0291545970e+00   0.03795537   0.02196915 -43.93  0.003654047    1.797    0.444
        45 -13.3227    203.3325     36.3358   2.8969782559e+02   6.1363160084e+00   0.02812557   0.02205947 -68.24  0.002261231    1.313    0.238
        46 -11.7092    127.9464     50.3882   2.9065636044e+02   6.4284808375e+00   0.01235003  0.009306156 -88.63 0.0006461108    1.573    0.364
        47 -14.8248     64.9189    171.0177   2.9212992795e+02   5.4178975862e+00   0.06925858    0.0530131   9.78   0.00276037    1.433    0.302
        48 -10.5674    170.1232     31.8328   2.9005365152e+02   6.3881034141e+00    0.0134645   0.01160631 -72.48  0.001370661    1.201    0.167
        49 -11.9148    174.8684     40.1366   2.9005027172e+02   6.2641239563e+00   0.01767339   0.01158612 -64.57  0.001344086    1.553    0.356
        50 -11.4421    172.5482     35.7756   2.9005005914e+02   6.3282021545e+00   0.01489084   0.01065853  86.27 0.0007184436    1.765    0.434
        51 -11.4783    192.6140     46.4599   2.8988440960e+02   6.0845934552e+00   0.01133619   0.01045848 -18.73 0.0006032796    1.118    0.105
        52 -15.1778     12.5025    205.5232   2.9294777801e+02   5.3334585749e+00    0.1006429   0.07836036  48.28   0.01133072    1.346    0.257
        53 -10.3376    164.6497     44.8050   2.9019732218e+02   6.2719830585e+00  0.009266822  0.008220056 -75.54  0.001098816    1.171    0.146
        54 -11.1725    217.1319     42.7563   2.8957828744e+02   5.9793682525e+00  0.009363168   0.00821441  47.52  0.000357427    1.172    0.147
        55 -15.5195     33.3797    197.5480   2.9265756383e+02   5.3007595353e+00   0.07253731   0.05567788 -16.03  0.003660854    1.512    0.339
        56 -14.1893     58.2518    176.4737   2.9224056403e+02   5.3949237148e+00   0.04340101   0.03121058   1.18 0.0009904003    1.659    0.397
        57 -11.1094    191.3025    192.3017   2.9080151029e+02   4.4150491085e+00   0.02699544     0.013483  85.49  0.001524378    6.178    0.838
        58 -11.4591    211.7423     27.3762   2.8954512486e+02   6.1885159106e+00   0.02026526   0.01152513 -75.72  0.001428677    2.180    0.541
        59  -9.6292    194.2288     26.2755   2.8974059957e+02   6.3067417759e+00  0.006361262  0.004819337 -33.13 0.0002142052    1.426    0.299
        60 -10.9817    133.6077    145.8458   2.9118093712e+02   5.2962191742e+00    0.0300374  0.007854244 -67.63  0.001527212    6.498    0.846
        61 -12.9936     68.1220    144.5704   2.9193005003e+02   5.7033320125e+00    0.1665259   0.07736915  63.16  0.009937896    5.366    0.814
        62 -11.4064     94.6101     18.7566   2.9084635889e+02   6.9922046835e+00   0.01355541  0.006633945 -62.87 0.0008487535    2.066    0.516
        63 -12.5058    175.1087    138.5153   2.9065631091e+02   5.1313353358e+00   0.01440076   0.01274651  34.49  0.001322311    1.133    0.117
        64  -9.8170    101.4301    137.5286   2.9150151333e+02   5.5849466532e+00  0.006548218  0.006387553 -38.71 0.0001123851    1.015    0.015
        65 -11.0601    135.9952    129.8178   2.9105440323e+02   5.4663812062e+00     0.015015  0.007709198 -61.94  0.001363859    1.942    0.485
        66 -14.2931     69.3634    164.4191   2.9203793538e+02   5.4673128422e+00   0.05015538   0.03360533  37.98  0.001773442    1.489    0.328
