#   1 NUMBER                 Running object number                                     
#   2 MAG_AUTO               Kron-like elliptical aperture magnitude                    [mag]
#   3 X_IMAGE                Object position along x                                    [pixel]
#   4 Y_IMAGE                Object position along y                                    [pixel]
#   5 X_WORLD                Barycenter position along world x axis                     [deg]
#   6 Y_WORLD                Barycenter position along world y axis                     [deg]
#   7 A_WORLD                Profile RMS along major axis (world units)                 [deg]
#   8 B_WORLD                Profile RMS along minor axis (world units)                 [deg]
#   9 THETA_WORLD            Position angle (CCW/world-x)                               [deg]
#  10 FWHM_WORLD             FWHM assuming a gaussian core                              [deg]
#  11 ELONGATION             A_IMAGE/B_IMAGE                                           
#  12 ELLIPTICITY            1 - B_IMAGE/A_IMAGE                                       
         1 -10.7958     36.5104      9.9002   9.9947126462e+01   6.8223357069e+01    0.7848851    0.4474945 -27.63  0.002172323    1.608    0.378
         2 -10.8067     19.0448      6.7014   1.0652195297e+02   7.0507416503e+01    0.8680692    0.7628253 -89.96  0.005254565    3.397    0.706
         3 -10.4408     10.2676     18.7776   1.1576779133e+02   6.9582718081e+01     1.263543    0.4493185 -18.86  0.004303835    6.321    0.842
         4 -11.1827     23.7522     32.4552   1.1464713335e+02   6.6406806374e+01     1.348321    0.4238824 -34.94  0.003561053    2.968    0.663
         5 -10.4855      5.1211      4.5508   1.1252629151e+02   7.1957636777e+01    0.4186548    0.2992888 -11.04  0.001487835    1.069    0.064
         6 -10.2340      4.8258     41.6603   1.2583518872e+02   6.6176547469e+01    0.7406555    0.3241546 -58.63  0.002655549    2.191    0.544
         7 -10.0629      7.1637     28.4276   1.2069362884e+02   6.8290451493e+01    0.2905189    0.2446477  21.78  0.001110935    1.583    0.368
         8 -10.1748     50.9771     14.9942   9.6179157203e+01   6.5721495383e+01     1.961795    0.8878862  -5.38   0.00702625    5.032    0.801
         9 -10.2176     46.2752     29.7029   1.0406621940e+02   6.4434112931e+01    0.5263826    0.3551255 -43.45  0.002747249    1.764    0.433
        10 -10.7446     36.6809     39.9936   1.1181982632e+02   6.3957874437e+01     1.024442    0.5402508 -59.60  0.004524783    3.730    0.732
        11  -9.8549     63.7303      3.1448   8.6364259884e+01   6.4980380404e+01    0.4586567    0.2413828 -28.74  0.002644347    2.063    0.515
        12  -9.6744     62.8784     20.9089   9.4127294286e+01   6.3248475523e+01    0.4720964    0.2650175 -43.40  0.002090496    2.457    0.593
        13  -9.9085     64.4788     13.4350   9.0471338969e+01   6.3841549697e+01    0.3217893    0.2879741  -4.81 0.0002539446    1.296    0.228
        14  -9.9009     78.9241     24.2455   8.9910100749e+01   6.0165699084e+01    0.6109639    0.2726535  28.12  0.001624884    2.665    0.625
        15  -8.3939    104.4893     14.7973   7.8940609100e+01   5.6167890184e+01    0.3825524    0.1921787   7.96  0.001559877    3.338    0.700
        16  -9.0511    128.7325     24.7736   7.6648303747e+01   4.9762296297e+01    0.5532761    0.3006916 -13.93  0.002247738    2.433    0.589
        17  -9.5918    119.0954     20.3479   7.7347512291e+01   5.2430790135e+01    0.5861666    0.2982244  -8.13    0.0015762    2.899    0.655
        18  -8.1879    121.0396      6.0063   7.2089989556e+01   5.3324870269e+01    0.2350452    0.1399055  65.50 0.0007451755    1.561    0.360
        19  -8.8528    124.9081     13.1258   7.3649075097e+01   5.1819097207e+01    0.2427028    0.2243403  46.12 0.0008530319    1.104    0.094
        20  -8.9834    126.7858      8.6371   7.1793473005e+01   5.1791256920e+01     0.284424    0.1584752  51.01  0.000644206    1.460    0.315
        21  -8.6605    126.0088      4.7387   7.0677368330e+01   5.2298167107e+01    0.3167977    0.2001555  21.17  0.001005202    1.877    0.467
        22  -8.9648    112.3405     15.5937   7.7295868733e+01   5.4402106036e+01    0.3249765    0.1944712 -32.21  0.001470587    1.914    0.477
        23  -9.2127    114.2614      9.7874   7.4833719004e+01   5.4516055029e+01    0.3696586     0.170453  38.68 0.0003577512    2.069    0.517
        24  -8.8894    115.2483      4.1786   7.2686167540e+01   5.4770295210e+01    0.2900104    0.1908581 -36.73  0.001135266    1.853    0.460
        25  -8.2552    110.2258      7.9418   7.5108095436e+01   5.5560665912e+01    0.2139434     0.158096 -41.16 0.0007880863    1.700    0.412
        26  -8.2484    111.0520      4.4548   7.3697300706e+01   5.5670989105e+01     0.265301    0.1388337  36.75 0.0005542691    1.793    0.442
        27  -9.4515    230.3805     19.1949   6.0094406915e+01   2.5761481006e+01    0.3589996    0.2229823 -35.48  0.001369242    1.785    0.440
        28  -8.5244     72.0520      8.6764   8.5915476374e+01   6.3043848335e+01    0.2633602    0.1928222  61.14  0.001573092    1.892    0.471
        29  -8.7037     77.3361      6.7383   8.3443560156e+01   6.2278536139e+01    0.3747919    0.1952068  -7.67  0.001499694    2.262    0.558
        30  -8.5682     78.3697      2.9338   8.1581101943e+01   6.2420731367e+01    0.2199624    0.1966411 -37.42 0.0008476893    1.537    0.349
        31  -8.5936     95.8578     16.8314   8.1972238390e+01   5.7751477223e+01    0.2371725    0.1736937 -26.51 0.0005361328    1.524    0.344
        32  -8.5528     96.6470     12.6695   8.0203022363e+01   5.7998076063e+01    0.3558092     0.178915  22.66  0.001614173    2.514    0.602
        33  -9.5529     85.0969     12.9741   8.3580955180e+01   6.0244363941e+01    0.3451388    0.2459545 -53.37  0.001456758    2.286    0.563
        34  -7.8565     80.4274     12.7582   8.4910856199e+01   6.1140402016e+01    0.2522936    0.1365424 -37.75  0.001119404    2.308    0.567
        35  -9.6638     73.4332     18.4050   8.9421390109e+01   6.1798299734e+01    0.6661974    0.2078717 -29.47  0.002759892    3.325    0.699
        36  -8.3279    101.9139      8.0328   7.7128493253e+01   5.7328651374e+01    0.2355035    0.1695824 -23.01  0.001136285    1.578    0.366
        37  -8.2973    104.3056      2.0671   7.4384634193e+01   5.7313637229e+01    0.3291869    0.1886431  33.02  0.001432071    1.642    0.391
        38  -9.4699      2.3132     14.5527   1.1802782823e+02   7.0743141376e+01      0.36379    0.1868706 -55.30  0.001848077    2.572    0.611
        39  -7.9296    135.8239      1.5244   6.7852468600e+01   5.0279969018e+01    0.2636753   0.09504149  59.64 0.0008016002    2.098    0.523
        40  -8.1248    131.2059      6.2491   7.0168218388e+01   5.0973000415e+01    0.2032348    0.1663277 -36.47 0.0006721031    1.461    0.316
        41  -8.7586    133.7681      4.9844   6.9294477379e+01   5.0481252934e+01    0.2058284    0.1601696 -11.80 0.0008375555    1.544    0.352
        42  -8.1801     97.6469      5.7153   7.7344974323e+01   5.8412785072e+01    0.2585085    0.1593828  21.34 0.0009746223    1.689    0.408
        43  -8.3749     95.7703      3.0283   7.6815470840e+01   5.9017931378e+01    0.2543862    0.1831489  -3.40  0.000823446    1.502    0.334
        44  -8.3680     85.4733      5.2959   8.0456777292e+01   6.0876853468e+01    0.3800759    0.2185442  -7.13  0.002105972    1.961    0.490
        45  -8.3292     89.3330      3.3887   7.8641274906e+01   6.0282963770e+01    0.2941055    0.1692049 -33.21  0.001375729    2.094    0.522
        46  -7.6149    174.7249      5.9408   6.3250507420e+01   4.0527049643e+01    0.1705621    0.1521725  76.70 0.0005712868    1.099    0.090
        47  -7.9469    142.9147      4.9507   6.7683708148e+01   4.8325311156e+01    0.1979351    0.1431343 -73.47 0.0006021537    1.686    0.407
        48  -8.6763     91.8468    104.1931   1.1167122535e+02   4.3929788143e+01     0.590983    0.3813207   1.10  0.002369971    2.618    0.618
        49 -11.0425    199.1430    249.1972   1.1485502980e+02  -6.8444055639e+00    0.7026499    0.2884331  39.53  0.003106184    2.028    0.507
        50 -11.2766    190.3652    247.0587   1.1624026168e+02  -5.0583512654e+00    0.6987565    0.4899147  54.22   0.00395535    1.649    0.394
        51  -7.7849      1.3477    115.7540   1.4133430553e+02   5.1187475028e+01    0.2280894   0.09009352 -73.37  0.001110973    2.085    0.520
        52 -10.1697     77.9808    112.9552   1.1805860295e+02   4.4180361232e+01    0.5139242     0.324003 -76.51  0.001815288    2.258    0.557
        53  -7.6519    166.9773    113.9490   9.4022806681e+01   2.5824609978e+01    0.2533997     0.194251 -84.68  0.000586091    1.692    0.409
        54 -10.9435     44.9586    102.7347   1.2607498790e+02   5.0723474698e+01    0.9098863    0.4962111  66.35  0.003438888    4.096    0.756
        55  -7.9157     63.2211     82.1943   1.1499661021e+02   5.3021683407e+01    0.1816823     0.169165 -12.99 0.0005166701    1.081    0.075
        56 -10.0107     65.7071    103.3464   1.1960236993e+02   4.8119107062e+01    0.7437159    0.4973776  14.75  0.003725142    1.846    0.458
        57  -9.0148     63.6465     86.8908   1.1612784942e+02   5.1985634621e+01    0.6849731    0.3850591  -5.49  0.002644406    3.363    0.703
        58  -9.3879     59.0786    109.6014   1.2311179543e+02   4.7551293039e+01    0.4163329    0.2576458 -66.79  0.001611019    1.689    0.408
        59  -9.4550     24.1930    112.6607   1.3434913301e+02   5.0361174743e+01    0.2539644     0.110849 -56.60  0.001178055    1.779    0.438
        60  -9.7612     14.1133    111.4026   1.3711168643e+02   5.1380434233e+01    0.4057196     0.230164  85.65  0.001437638    2.273    0.560
        61  -8.5791     14.3071    105.0140   1.3605355084e+02   5.2796041824e+01     0.241984    0.1297899 -43.54 0.0007807997    1.715    0.417
        62  -8.6639    158.8211    111.9243   9.5415933970e+01   2.8184735040e+01    0.2760652    0.2130371 -49.15 0.0004524947    1.325    0.245
        63  -7.3954    203.2826    111.3476   8.5683017001e+01   1.7675066606e+01    0.1525161    0.1231481   3.12 0.0002240759    1.646    0.392
        64  -8.3930     40.0990    107.0546   1.2849272919e+02   5.0236739914e+01    0.1914133    0.1465903  83.05 0.0004492584    1.612    0.380
        65 -10.5123     32.8857     63.6594   1.2076669966e+02   6.0096823745e+01     1.345882    0.5458858 -27.15  0.004204768    3.621    0.724
        66 -10.3631     25.7067     78.0355   1.2706517648e+02   5.7814291164e+01    0.5683536    0.3919212  74.60  0.001897501    2.458    0.593
        67 -10.8489     20.7451    101.1910   1.3342955388e+02   5.3200183261e+01    0.9748384    0.5030323  78.79  0.003792871    4.304    0.768
        68 -10.2237     19.8204     85.4505   1.3072146289e+02   5.6689625486e+01     1.082693    0.2042687 -56.20  0.003658108    3.238    0.691
        69 -10.2863     34.4987     90.7541   1.2690474989e+02   5.4383378967e+01     0.606979    0.2961835 -74.72  0.002056831    3.128    0.680
        70  -8.3748    165.9581    104.1493   9.1694687207e+01   2.8077409423e+01    0.2665879    0.2256451 -48.33 0.0004299946    1.202    0.168
        71  -9.8437    149.4562    103.2214   9.5380597491e+01   3.2202488346e+01    0.6630527    0.3483908 -57.22 0.0009436337    2.532    0.605
        72  -9.0097    149.9691     97.1212   9.3587027955e+01   3.3321313683e+01    0.5842276    0.2739716  37.41  0.001996657    2.586    0.613
        73  -9.7656     81.3533     99.9742   1.1381933609e+02   4.6591985637e+01    0.8576521    0.3694703 -43.86 0.0008745367    2.230    0.552
        74  -8.4050     36.2968    105.3239   1.2933944935e+02   5.0991133028e+01    0.1338896   0.08227297 -38.01 0.0002758989    1.624    0.384
        75  -9.7014      6.1199    103.5918   1.3828533566e+02   5.3611899954e+01    0.3662165    0.2442743  76.05  0.001539813    1.855    0.461
        76 -10.3179     62.9316     95.7304   1.1864344148e+02   5.0177870975e+01    0.5629428    0.3686078 -82.37  0.001665482    2.532    0.605
        77  -9.3242    158.9188    101.0066   9.2492003366e+01   3.0406117713e+01    0.4598173    0.2163406 -44.23  0.001558306    2.171    0.539
        78  -7.5815    197.8889    100.8476   8.4121195211e+01   2.0965093457e+01    0.2053631    0.1730794 -86.62            0    1.285    0.222
        79 -10.2153     36.9861     80.8191   1.2374953638e+02   5.6271575913e+01     0.739265    0.3535984 -15.81  0.002864898    3.882    0.742
        80  -9.4803     94.2735     97.2982   1.0909678166e+02   4.5015378801e+01    0.3514401    0.3070634 -68.59 0.0006949747    1.300    0.231
        81  -8.7587     95.5720     91.3246   1.0704083283e+02   4.6050778083e+01    0.5221742    0.3154985 -13.33  0.001958224    2.924    0.658
        82  -7.7129    239.4922     96.0282   7.5905279959e+01   1.2229951311e+01     0.199984     0.126416 -14.85 0.0008100448    2.700    0.630
        83  -8.0366    171.0000     96.0181   8.8397496786e+01   2.8456006789e+01    0.2500119   0.08996636 -39.73 0.0004671206    2.845    0.648
        84 -10.6479      4.6806     87.1641   1.3607543779e+02   5.7242413797e+01     1.306571    0.3756467 -63.67  0.003946348    2.549    0.608
        85  -9.8552     15.7363     70.8906   1.2900057673e+02   5.9983597467e+01    0.5081417    0.1954887 -51.27  0.001094616    1.902    0.474
        86  -8.5147    152.8649    115.6584   9.7835488631e+01   2.8789599775e+01    0.2603816    0.2213188 -31.59 0.0004418546    1.254    0.202
        87 -11.1201    162.7569    247.6393   1.2182271386e+02  -3.9790797937e-01    0.6326598    0.3920459  36.59  0.003431603    1.376    0.273
        88  -7.8119    109.5799    247.2260   1.3235395845e+02   8.7562380540e+00    0.1549639    0.1196514 -51.67 0.0009426216    1.647    0.393
        89  -9.5138     16.8519     61.7628   1.2638358523e+02   6.1718697758e+01    0.4182991    0.3353352 -53.12  0.002106039    1.212    0.175
        90 -10.9228     21.5136     53.7385   1.2239747564e+02   6.2910938934e+01    0.7040544     0.492332 -75.44  0.002909831    2.234    0.552
        91  -7.0844     33.7198    240.2909   1.4587742206e+02   2.0944576813e+01    0.1178722   0.06396903  68.76 0.0001753563    1.527    0.345
        92  -9.2411    188.1889    233.5758   1.1450584941e+02  -2.5647952865e+00    0.2160298      0.19221 -32.30 0.0006427453    1.290    0.225
        93 -10.1056     13.4094     45.4310   1.2330596429e+02   6.4992478743e+01    0.7097655    0.3245147  -9.98  0.003104998    2.863    0.651
        94  -8.3383     19.5458    233.1567   1.4786716466e+02   2.3960823878e+01    0.1701428    0.1282561  64.74 0.0003833079    1.171    0.146
        95  -9.7064      6.7646     32.6746   1.2227084695e+02   6.7615285089e+01    0.2794552    0.1754777 -18.32 0.0009802615    1.375    0.273
        96  -8.8297    250.5612    231.3695   1.0207920553e+02  -1.2421167121e+01    0.2401888    0.1105103 -37.01 0.0006044634    2.248    0.555
        97  -9.2843    138.5809     92.5602   9.5179462935e+01   3.6891086071e+01    0.4165691    0.3447579 -58.22  0.000684947    1.322    0.244
        98  -8.3996    138.3379     88.3236   9.4034904444e+01   3.7779960915e+01    0.3791604    0.2303988  29.98  0.001354252    2.074    0.518
        99  -9.3505    150.1060     90.2337   9.1636965620e+01   3.4644880795e+01    0.5362295    0.3093589 -29.75  0.001715661    2.076    0.518
       100  -9.3346    157.7033     90.4606   8.9893247643e+01   3.2772457992e+01    0.4935849    0.2928148 -23.68  0.001861333    2.326    0.570
       101  -9.5226    111.3545     89.8181   1.0187530124e+02   4.3345157792e+01    0.7497112    0.3807204  28.31  0.002700499    2.736    0.634
       102 -10.4276     48.2520     83.1146   1.2039444138e+02   5.4647020980e+01    0.9882169    0.4196428 -49.48  0.002190777    1.985    0.496
       103 -10.4689     55.1073     71.0244   1.1466345532e+02   5.6303966390e+01    0.4947125    0.3756113  57.42   0.00123169    1.950    0.487
       104  -9.7451     54.9831     63.1216   1.1233104442e+02   5.7828449358e+01    0.4090989    0.2883612   2.98  0.001581993    1.515    0.340
       105  -9.8394     81.5698     72.5479   1.0596896298e+02   5.2210167277e+01    0.3777498     0.304191 -77.40 0.0008812721    1.870    0.465
       106  -9.1492     83.3482     64.7569   1.0291552646e+02   5.3351382682e+01    0.6017175    0.3545251  -4.26  0.002410297    2.895    0.655
       107 -10.1982     85.1720     86.5973   1.0896630341e+02   4.8830841060e+01    0.4763997    0.3499553 -65.47 0.0009224304    1.736    0.424
       108  -7.4343     78.2919     89.6316   1.1203509598e+02   4.9301165096e+01    0.1376399    0.1121817 -88.20  0.000702618    1.716    0.417
       109  -7.8653    174.4518     88.5291   8.5645806876e+01   2.9024800954e+01    0.1552375    0.1478335  82.96 0.0002333596    1.023    0.023
       110  -8.6784    163.2143     86.7646   8.7610389598e+01   3.2125978742e+01     0.257382    0.2265965 -43.69 0.0006738696    1.173    0.148
       111  -9.9179    139.5499    103.2926   9.7910460180e+01   3.4478455360e+01    0.7867007     0.377663 -44.46  0.001250862    2.118    0.528
       112 -10.3238    103.8606     82.4735   1.0193923360e+02   4.6295264654e+01    0.5745699    0.3653772 -57.25 0.0009394801    1.970    0.492
       113  -9.2995    105.5188     71.2707   9.8011629299e+01   4.8086117119e+01    0.5376713    0.3756668  -8.34  0.002169557    1.830    0.453
       114  -9.3940     87.4755     78.6866   1.0590973092e+02   5.0034012844e+01    0.5927958    0.3173035  23.64  0.001631219    2.445    0.591
       115  -9.1438    156.8901     76.1754   8.6060694350e+01   3.5600723286e+01    0.4267339     0.237041 -34.79  0.001267503    1.943    0.485
       116  -9.2421    157.8465     83.6238   8.7952012803e+01   3.4023396674e+01    0.3405636    0.2726247 -87.08   0.00100219    1.510    0.338
       117  -9.4985    140.4869     81.8373   9.1612345793e+01   3.8514813228e+01    0.8008562    0.3662536 -32.27  0.001954539    2.607    0.616
       118  -8.7308    139.7159     75.5359   8.9953682974e+01   3.9845624635e+01    0.3879254    0.2220026 -41.30  0.001492716    1.823    0.452
       119  -8.2023    237.5103     83.4986   7.3376090938e+01   1.4799860078e+01    0.1421058     0.125413 -66.89 -2.13152e-05    1.017    0.017
       120  -8.5162    170.3872     82.7745   8.4947289573e+01   3.1087267351e+01    0.3072825    0.1937822 -37.09  0.001331416    1.666    0.400
       121  -9.0986    149.9714     80.0419   8.8771866049e+01   3.6591115236e+01    0.4769605    0.2308701 -34.46  0.001494031    2.277    0.561
       122  -8.7139    118.9539     80.5351   9.6961582734e+01   4.3592114574e+01    0.3222753    0.2354881 -59.39 0.0008601153    1.686    0.407
       123  -8.2654    119.9789     75.9965   9.5302399354e+01   4.4220345786e+01    0.2814548    0.2083806 -10.52 0.0008404217    1.663    0.399
       124  -9.1662     74.2779     79.2433   1.1041451315e+02   5.2051744372e+01    0.6443842    0.2471346 -45.97  0.001971287    2.429    0.588
       125 -10.0604     65.5836    111.0431   1.2141729190e+02   4.6382805243e+01     0.465884    0.3571934  52.80  0.001270577    1.523    0.343
       126  -8.7033    183.8690     78.3693   8.1028805572e+01   2.8508574927e+01    0.2772514    0.2558526 -64.37 0.0006978089    1.085    0.078
       127  -9.0297    166.5166     78.0511   8.4471502849e+01   3.2892656528e+01    0.4359993    0.2238835 -26.57  0.001589534    2.620    0.618
       128  -7.4885    174.2871     78.6689   8.3013666697e+01   3.0848855574e+01    0.1567843    0.1170797 -74.72 0.0002899239    1.619    0.382
       129  -9.5021    127.5244     75.4280   9.3070894200e+01   4.2664614520e+01    0.3944977    0.2994225 -68.70 0.0005952134    1.766    0.434
       130  -8.8674    129.2214     68.9158   9.0636145813e+01   4.3432816587e+01    0.5137572    0.2506422  30.70  0.001747204    3.094    0.677
       131  -8.5662    130.4225     64.6857   8.9019678533e+01   4.3874512090e+01    0.4433004    0.2335872 -44.74  0.001390146    2.099    0.524
       132  -9.3564    162.4889     72.1337   8.3678034094e+01   3.4919775498e+01    0.5432952    0.2622494 -37.30  0.001970745    2.177    0.541
       133  -9.0628    115.2275     71.7705   9.5338386252e+01   4.6002414212e+01    0.5197663    0.2469875 -32.27  0.001333845    2.383    0.580
       134  -7.6566    174.6258     73.1717   8.1446858780e+01   3.1715040011e+01    0.2055685    0.1479808 -23.14 0.0009386135    1.687    0.407
       135 -10.2465    238.2502     67.9212   6.9791742280e+01   1.7166474610e+01    0.3555571    0.2570409 -41.91 0.0002597713    1.348    0.258
       136  -9.7679    242.6719     63.3544   6.8227524843e+01   1.6889812465e+01    0.3086349    0.2479236  37.46  0.001031536    1.705    0.413
       137  -8.4648    146.9855     64.4896   8.4919015942e+01   3.9999810243e+01    0.4201441    0.2153718  36.85  0.001453132    2.351    0.575
       138  -8.0559    156.5111     70.0039   8.4376306959e+01   3.6758655541e+01    0.2162239    0.1511983 -37.94 0.0004042515    1.510    0.338
       139  -9.8189     94.6806     68.1210   1.0033703572e+02   5.0738523235e+01    0.4522846    0.2610871 -47.77 0.0009696124    1.915    0.478
       140  -9.2615     97.3350     58.2013   9.6272624174e+01   5.1950160341e+01    0.6682187    0.3828768  -4.52  0.002489898    3.285    0.696
       141  -7.8628     23.0821     69.2578   1.2591585392e+02   5.9801522155e+01    0.1563542    0.1326215 -30.22 0.0002919162    1.094    0.086
       142  -9.6284    109.7634     63.9101   9.4421862732e+01   4.8516855340e+01    0.4329628    0.3992779 -48.83    0.0006357    1.232    0.188
       143  -9.0487    110.5103     58.2899   9.2382894219e+01   4.9292255484e+01    0.3935771    0.2835102  12.37  0.001191716    1.642    0.391
       144  -9.1133    138.0139     66.3951   8.7633903472e+01   4.1826677544e+01    0.3382919    0.2487527 -51.85 0.0006043874    1.548    0.354
       145  -8.6204    138.3738     62.3198   8.6305116927e+01   4.2411488826e+01     0.310126    0.1779094  32.35 0.0008677928    2.143    0.533
       146  -9.1154    121.1082     65.9459   9.1879003215e+01   4.5752669560e+01    0.3795285    0.2944655 -50.97 0.0008394498    1.476    0.323
       147  -8.4658    122.0488     61.4558   9.0205816379e+01   4.6293341862e+01    0.3675986    0.2061817  31.52  0.001518702    2.108    0.526
       148  -8.4077    170.1455     64.9325   8.0070769492e+01   3.4203270343e+01    0.2940601    0.2003635 -42.56 0.0008070996    1.536    0.349
       149 -10.1886     61.5698     60.8474   1.0921063704e+02   5.7385861865e+01    0.5845466    0.2560636  30.48 0.0004261473    2.411    0.585
       150  -8.1363    157.6582     63.0450   8.2116607003e+01   3.7620206870e+01    0.2303848    0.1739478 -54.61  0.000650555    1.471    0.320
       151 -10.0772     72.9484     59.0992   1.0459567847e+02   5.6038559788e+01    0.5896318    0.2556957 -47.39 0.0009255682    2.524    0.604
       152  -9.8051     76.2528     50.4406   1.0050570651e+02   5.6963934237e+01    0.7369729    0.4238397   5.07  0.003148682    2.719    0.632
       153  -8.1650    164.0805     60.1085   7.9933748932e+01   3.6486914843e+01    0.2392784    0.1751036 -76.53   0.00111513    1.706    0.414
       154  -7.9054    152.5736     59.9084   8.2303349020e+01   3.9370196074e+01    0.2786526    0.1509596 -29.23   0.00114955    2.136    0.532
       155  -8.5584      9.4738     59.7495   1.2871594288e+02   6.2565057214e+01    0.1868314    0.1489958  -7.01 0.0007379189    1.330    0.248
       156  -8.5567    146.4897     58.9057   8.3363161488e+01   4.1010709585e+01    0.2653234    0.2240986 -47.42 0.0006480773    1.285    0.222
       157  -8.4079    147.5087     53.4572   8.1496704012e+01   4.1592391335e+01    0.3944492    0.2066641 -26.66   0.00162522    2.296    0.565
       158  -9.0444    130.0571     56.6641   8.6605695016e+01   4.5246483334e+01    0.5188003    0.2416983 -37.16   0.00118882    2.271    0.560
       159  -8.6759     87.3588     58.3351   9.9482626127e+01   5.3771250429e+01    0.2767549    0.2193524 -54.16 0.0006875611    1.598    0.374
       160  -8.3196    169.3262     70.8916   8.1892932732e+01   3.3426795626e+01    0.2955452     0.126208 -44.27 0.0008345301    2.469    0.595
       161  -8.3513    142.2758     44.4289   7.9900739854e+01   4.4145415064e+01    0.2890117    0.1176952  51.39    0.0011225    2.142    0.533
       162  -8.8632    138.8173     56.9862   8.4563250203e+01   4.3148380031e+01    0.3512983    0.2299965 -37.13 0.0008340528    1.634    0.388
       163  -7.7702    139.0330     52.4608   8.3116334456e+01   4.3780399592e+01    0.3183198    0.1990696  25.68  0.001333008    2.110    0.526
       164  -8.7222    141.9818     48.7471   8.1295421436e+01   4.3614117741e+01    0.2844374    0.2082388 -44.19 0.0004452716    1.516    0.340
       165  -9.3892    146.8272     69.1765   8.6346419681e+01   3.9258868009e+01    0.4135789    0.2739281 -55.19   0.00102907    1.810    0.447
       166  -9.1922    118.2604     55.4539   8.9298994230e+01   4.8083400633e+01    0.3292193    0.2680531 -72.37  0.000713521    1.679    0.405
       167  -8.3401    119.0561     51.4360   8.7774321249e+01   4.8520825358e+01     0.360038    0.1606456  38.19   0.00113129    2.398    0.583
       168  -8.8961    121.0378     46.7239   8.5707580882e+01   4.8767405223e+01    0.3166088    0.1998337 -29.06 0.0004826426    1.719    0.418
       169  -8.3513    123.0067     40.7626   8.3244130213e+01   4.9143751770e+01    0.4058454    0.2241864  13.22  0.001478209    3.468    0.712
       170  -9.1535     53.2182     38.7535   1.0473851961e+02   6.2200417516e+01     0.480899     0.234537 -32.01  0.002304716    1.932    0.482
       171  -7.4554     17.3398    220.2607   1.4741564975e+02   2.6792984921e+01    0.0955866   0.08281195 -61.99 0.0002956069    1.587    0.370
       172 -10.2347     49.8030     53.7121   1.1126956844e+02   6.0165424506e+01    0.5689726    0.5096219 -61.33  0.002613553    1.537    0.349
       173  -9.5558     55.8854     43.5924   1.0547028354e+02   6.1090151937e+01    0.6671084    0.3432315  -6.20  0.002613168    3.657    0.727
       174  -7.5533     56.3530    216.6001   1.3967148746e+02   2.2940600474e+01    0.2334593    0.0990838 -85.70 0.0007300816    3.041    0.671
       175  -8.3411     42.0256     28.0290   1.0515587774e+02   6.5193436446e+01    0.1655699    0.1135064  -3.50            0    1.303    0.233
       176  -8.8468     42.2577     49.6123   1.1284762757e+02   6.1745130664e+01    0.2422701    0.1873513  12.08 0.0006900672    1.280    0.219
       177 -10.0387    165.7832    210.8980   1.1534930153e+02   5.5907279021e+00    0.2429807     0.228255  40.96 0.0003423446    1.052    0.050
       178  -9.2983    162.7724     54.2263   7.8519427332e+01   3.7709822324e+01    0.2887844    0.2253949 -53.87 0.0007433486    1.397    0.284
       179  -9.5957    158.0568     49.7855   7.8182966155e+01   3.9532539596e+01    0.5792938    0.2014841 -42.98   0.00201021    3.173    0.685
       180  -8.2717    152.8869     53.3772   8.0307407386e+01   4.0287969733e+01    0.3259573    0.1836552 -44.27   0.00121591    1.950    0.487
       181  -8.8223    105.1704     53.0494   9.2190657135e+01   5.1223379323e+01    0.4191265    0.2053358 -42.38  0.001795378    2.261    0.558
       182  -7.8638    106.3287     48.3559   9.0269146919e+01   5.1695560436e+01    0.2633883    0.1692969  36.42  0.001310392    1.469    0.319
       183 -10.4446     85.0214     48.0345   9.6713555623e+01   5.5845433503e+01    0.6859211    0.4982507  80.78 0.0008871119    3.064    0.674
       184 -10.4085     89.5680     38.2151   9.1743133897e+01   5.6440272156e+01    0.9020164    0.3391891  33.49  0.003295766    3.249    0.692
       185  -7.6249    223.9676     49.7663   6.7545851572e+01   2.3215365511e+01    0.1826959    0.1061448  67.08 0.0004815256    1.634    0.388
       186  -8.8367    139.5241     39.9658   7.9122084118e+01   4.5400824939e+01    0.3953677    0.3472352 -67.07  0.001388566    1.322    0.243
       187  -7.6028    136.2866     26.6815   7.5644056855e+01   4.7779960708e+01    0.2102523    0.1785507 -83.95 0.0005829257    1.379    0.275
       188  -9.6522    130.6189     45.9461   8.3062140326e+01   4.6694425596e+01    0.8641826    0.4152542 -15.85  0.003042712    3.600    0.722
       189  -8.6096    132.8559     36.0758   7.9379586574e+01   4.7477318246e+01    0.2697175    0.1934051 -33.85 0.0006109268    1.548    0.354
       190 -10.4603    133.9208     30.9986   7.7520235660e+01   4.7843451722e+01    0.2570707    0.2214878  45.33            0    1.037    0.036
       191  -8.7538    149.8132     47.4121   7.9182748533e+01   4.1902348735e+01    0.3168097    0.2006292 -40.43  0.000613396    1.719    0.418
       192  -8.6133    111.9616     46.9479   8.8206863717e+01   5.0717890829e+01    0.2906665    0.2168316 -38.79 0.0005014788    1.479    0.324
       193  -8.5508    113.1870     42.2328   8.6280236617e+01   5.1116321817e+01    0.4739039    0.2797326   7.12  0.001952929    2.736    0.635
       194  -8.1427    162.2116     46.1809   7.6324139748e+01   3.9005789897e+01    0.1991151    0.1630005 -76.72 0.0006088851    1.355    0.262
       195 -10.0873     69.4832     40.5672   9.9345793979e+01   5.9574490662e+01    0.7684433    0.3634928 -33.65  0.002054845    2.074    0.518
       196  -9.5525    153.2822     40.9154   7.6534332186e+01   4.1932803734e+01    0.3990431    0.2462078 -37.43  0.001250565    1.770    0.435
       197  -8.9742    147.1090     41.3303   7.7917456580e+01   4.3390808751e+01    0.3352695      0.23778  -1.17  0.001632877    1.902    0.474
       198  -9.1621    144.2085     36.7172   7.7115958375e+01   4.4689681117e+01    0.2819698    0.2228642 -59.35 0.0006753915    1.498    0.332
       199  -8.0632    110.0784     26.5018   8.1675038959e+01   5.3750347397e+01    0.2995334     0.230798  17.05  0.001735763    1.321    0.243
       200  -9.0669    110.1870     33.1542   8.3967503248e+01   5.2940930361e+01    0.3394165    0.2185894 -43.29 0.0008109873    1.884    0.469
       201  -9.0770    104.7695     40.9065   8.8154587443e+01   5.3074997865e+01    0.3417048    0.2211259 -48.36    0.0011009    2.005    0.501
       202  -8.6041    105.9948     36.4852   8.6268000782e+01   5.3407735862e+01    0.3235491    0.1912581  28.36  0.001265786    1.832    0.454
       203  -8.5965     70.0995     26.3177   9.3706848361e+01   6.1426236015e+01     0.348765    0.1950463  29.54  0.001868348    1.669    0.401
       204  -7.4401     40.0391    211.2492   1.4242684001e+02   2.6150486071e+01    0.1369431   0.09460314  45.92            0    1.450    0.310
       205  -9.8160     76.3224     31.8856   9.3713469657e+01   5.9666277784e+01    0.3901697    0.3025051  74.39  0.001317687    2.414    0.586
       206  -9.5232     59.9836     33.5394   1.0019118956e+02   6.2030956935e+01    0.4229118    0.2366476 -39.48  0.001542717    1.885    0.470
       207  -8.8684     62.9642     26.7293   9.6430931089e+01   6.2509069445e+01     0.444698    0.2034366  24.95  0.002016337    2.549    0.608
       208  -9.8748     10.0916    207.3560   1.4786884724e+02   3.0197312209e+01    0.4363411    0.2575279  23.17  0.002599368    2.587    0.613
       209  -9.1137    191.7580    193.7690   1.0656254824e+02   3.8081861899e+00    0.6128783    0.3416734 -64.90  0.002133198    3.705    0.730
       210  -7.6841    166.8356    195.9316   1.1240900848e+02   8.3319707088e+00    0.1961515    0.1693847  74.66 0.0004133334    1.331    0.249
       211  -9.1216     84.6963     21.9540   8.7186795984e+01   5.9376471596e+01      0.25657    0.2260812   4.18 0.0008233542    1.137    0.120
       212  -8.7379    118.9150     34.4866   8.2174097308e+01   5.0867622674e+01    0.2719486    0.1942044 -23.47 0.0008241574    1.541    0.351
       213  -9.8229    100.9948    175.9996   1.2430449543e+02   2.5360958491e+01    0.2069647    0.1879492  78.62   0.00115606    1.013    0.012
       214  -8.9057    103.0373     21.3808   8.1697153059e+01   5.5805662125e+01    0.2865621    0.1982474 -30.87 0.0006659133    1.627    0.386
       215  -9.3105    100.9678     32.2333   8.6175023583e+01   5.4983708523e+01    0.4651335    0.2100094 -32.71  0.001479822    2.363    0.577
       216  -8.4203    102.6992     25.6569   8.3330987283e+01   5.5406444970e+01    0.4237606    0.1335448  45.23  0.001633526    2.682    0.627
       217  -7.9986    153.5031     34.5038   7.4593683775e+01   4.2695111618e+01    0.1414315    0.1253558  64.74 0.0008105164    1.028    0.027
       218  -9.1349    164.2508     94.5328   8.9504293955e+01   3.0394271415e+01    0.3426467    0.2873467  58.32 0.0008984939    1.170    0.145
       219  -8.0569     96.9464     32.6255   8.7476196870e+01   5.5745373018e+01    0.2824061    0.1593955 -20.21    0.0011215    1.994    0.499
       220  -9.8423    155.0000     22.9963   7.0941878429e+01   4.3660125191e+01    0.7938718    0.1346818 -39.49  0.002262299    5.805    0.828
       221  -7.4238    147.6219     29.2126   7.4145917223e+01   4.4767364394e+01    0.1659673    0.1336784  -4.03 0.0003291263    1.505    0.336
       222  -9.1578     91.3817     26.3787   8.6827870678e+01   5.7596549147e+01    0.3740882    0.2353289 -48.77  0.001355919    2.342    0.573
       223  -8.6627     92.0353     20.9803   8.4611814459e+01   5.8078087914e+01    0.3033537    0.1727761  30.21 0.0009598231    1.702    0.412
       224  -7.4661     41.7892    170.1814   1.3780922773e+02   3.5216788603e+01    0.1619042    0.1353476 -57.80 0.0003434369    1.292    0.226
       225  -9.1485    132.6557     17.2749   7.3401009588e+01   4.9626425113e+01    0.2163197    0.1915403  83.47 0.0006188602    1.239    0.193
       226  -9.2498    152.0000     29.9916   7.3543031031e+01   4.3606846314e+01    0.3360864    0.2242266 -41.89  0.001733021    1.681    0.405
       227  -8.2340    143.9972     25.7235   7.3790375315e+01   4.6041511440e+01    0.1934913    0.1596317  60.95 0.0005407892    1.068    0.064
       228  -7.8861    139.8500     22.8346   7.3714212544e+01   4.7352049400e+01    0.1795051    0.1536683 -78.12 0.0004325781    1.352    0.260
       229  -9.1937    113.0709    154.5306   1.1725218360e+02   2.8290243198e+01    0.2614756    0.2121777 -56.77 0.0002898215    1.223    0.182
       230  -8.5818    133.9061    147.4327   1.1034760438e+02   2.5825058443e+01    0.7107073    0.2057886 -55.36  0.001788914    4.749    0.789
       231  -8.3483    178.8890    148.0619   9.9634385569e+01   1.5819033939e+01    0.2245366    0.2180739  55.97 0.0003179459    1.029    0.028
       232  -9.6293     66.9937    144.2117   1.2759903784e+02   3.8315444542e+01    0.4990956    0.3060824  58.02   0.00235655    1.911    0.477
       233 -10.3560    225.1130    142.0932   8.8761237954e+01   6.8999806458e+00    0.2702101    0.2615765  65.95 0.0003498276    1.117    0.105
       234  -8.0815    111.2032     22.0863   7.9843332247e+01   5.3991525703e+01    0.2518934    0.1698523 -15.82 0.0009766232    1.671    0.401
       235  -8.5106    112.3302    133.9957   1.1302179678e+02   3.3319201725e+01    0.3482794    0.2400399  75.90  0.001149516    2.068    0.516
       236  -8.6348    135.5790    131.6519   1.0624980022e+02   2.9116211287e+01    0.4128541    0.2554301 -32.02  0.001564581    2.006    0.501
       237  -7.7302    131.6852    131.3357   1.0719271021e+02   3.0020524611e+01    0.3310691    0.2074086 -87.74  0.001077394    3.346    0.701
       238  -9.6769     98.7861    128.8925   1.1562922903e+02   3.7029101122e+01     0.685604    0.4138685  71.42  0.002516108    2.922    0.658
       239 -10.3779     70.1747    126.1063   1.2326642218e+02   4.2227119705e+01    0.5810071    0.5155567 -53.51   0.00182701    1.050    0.048
       240 -10.0604    108.6342    114.7243   1.0941797591e+02   3.8502667463e+01    0.6722463    0.4563429 -86.85  0.001456907    2.479    0.597
       241  -9.9860    117.2062    124.6537   1.0947512587e+02   3.4546907351e+01    0.9048234    0.5111252 -60.12  0.002315709    2.060    0.515
       242 -10.4733    123.6285     90.9118   9.8705623088e+01   4.0558510609e+01     1.209007    0.6886503 -29.57  0.003180546    2.136    0.532
       243  -9.2905    130.2453     96.8044   9.8573523039e+01   3.7913446186e+01    0.4578222    0.3032855  19.17  0.001842088    2.160    0.537
       244  -8.6454     40.9873     20.5966   1.0260335607e+02   6.6340870624e+01    0.2032165    0.1281019 -15.50  0.000209883    1.414    0.293
       245  -7.1423    151.2514     20.3302   7.0820770262e+01   4.4861910047e+01    0.1322621   0.09398344  33.93 0.0001846485    1.552    0.356
       246  -7.7994    139.9898     18.0129   7.2191945695e+01   4.7818028515e+01     0.161365    0.1393756  55.35 0.0004004746    1.018    0.017
       247  -9.4631    109.4117    106.2158   1.0698748809e+02   4.0254825409e+01    0.5661696       0.4982  51.47  0.002969952    1.188    0.159
       248 -10.1623    108.5207     99.5573   1.0544813110e+02   4.1875013837e+01    0.9149327    0.5222311  65.28  0.003037924    3.254    0.693
       249  -7.2030    189.4490     15.5175   6.3787760565e+01   3.5953703186e+01    0.1337993     0.111867  81.05 0.0001366844    1.007    0.007
       250 -11.0385    120.9813    109.6323   1.0461151874e+02   3.7169576746e+01     1.298483    0.7084538 -48.87  0.003116696    1.855    0.461
       251  -9.4812    127.5443    102.4957   1.0088232733e+02   3.7316823559e+01    0.4240076    0.3542251 -47.35  0.000850252    1.215    0.177
       252  -7.2893    202.6235     13.5364   6.1740988187e+01   3.2958156866e+01    0.1289315    0.1077932  89.84 8.764723e-05    1.029    0.028
       253  -7.9772    141.3988     12.7604   7.0314101467e+01   4.7991534189e+01    0.1653918    0.1268786   2.86 0.0006900012    1.606    0.377
       254 -10.0208     58.3825    124.6414   1.2641811152e+02   4.4126128626e+01    0.6532003    0.3842017  81.22  0.002455289    2.951    0.661
       255  -8.0024    172.0166    125.6644   9.5829619957e+01   2.2170026023e+01    0.2261154    0.1951763  48.68  0.000360669    1.147    0.128
       256  -9.4206     41.1762    121.9972   1.3095375688e+02   4.6680563812e+01     0.460305    0.2317769 -79.08  0.001831619    2.521    0.603
       257  -9.6663     27.2904    122.9809   1.3510542513e+02   4.7739512598e+01    0.4798922    0.2658373  72.23  0.001998006    2.675    0.626
       258  -9.4536    243.5131    123.5932   8.1428888416e+01   6.5064182030e+00    0.2604585    0.2427877 -41.01 0.0001913316    1.028    0.027
       259 -10.1884    140.5873    117.9116   1.0151758599e+02   3.1102986009e+01    0.8374953    0.4262122 -55.55  0.001899719    2.343    0.573
       260 -10.5041    130.4693    118.8336   1.0441506821e+02   3.3118870662e+01    0.8752733    0.5667582 -87.26  0.002276951    3.019    0.669
       261 -10.6944    133.6410    109.4392   1.0111845744e+02   3.4495923448e+01     1.265088    0.4751898 -48.05   0.00401304    2.780    0.640
       262  -7.6953    229.1834    123.1706   8.3739392538e+01   9.5844082969e+00    0.2013981    0.1657126 -68.36 0.0004504718    1.340    0.254
       263  -8.3524    158.1841    122.1090   9.8190962460e+01   2.6164903836e+01    0.3155883    0.2139514  75.58  0.001231348    2.124    0.529
       264  -8.6222    152.1966    121.7837   9.9572476124e+01   2.7619445323e+01    0.2246988    0.1948267  -0.51  0.001068668    1.371    0.271
       265 -10.1345     91.8925    113.1516   1.1391840596e+02   4.1899632321e+01    0.6111131    0.4489872 -88.09  0.001652267    1.924    0.480
