#   1 NUMBER                 Running object number                                     
#   2 MAG_AUTO               Kron-like elliptical aperture magnitude                    [mag]
#   3 X_IMAGE                Object position along x                                    [pixel]
#   4 Y_IMAGE                Object position along y                                    [pixel]
#   5 X_WORLD                Barycenter position along world x axis                     [deg]
#   6 Y_WORLD                Barycenter position along world y axis                     [deg]
#   7 A_WORLD                Profile RMS along major axis (world units)                 [deg]
#   8 B_WORLD                Profile RMS along minor axis (world units)                 [deg]
#   9 THETA_WORLD            Position angle (CCW/world-x)                               [deg]
#  10 FWHM_WORLD             FWHM assuming a gaussian core                              [deg]
#  11 ELONGATION             A_IMAGE/B_IMAGE                                           
#  12 ELLIPTICITY            1 - B_IMAGE/A_IMAGE                                       
         1 -14.1621    226.2802      5.3833   3.5277142651e+01   2.8244480027e+01      1.85856     1.147428  49.46  0.007181522    2.026    0.506
         2 -13.9779    182.9542     49.6938   5.1716895983e+01   3.3145094909e+01     1.778315     1.263903  21.74 0.0009541267    1.966    0.491
         3 -14.0982    194.2819     40.2094   4.7389012306e+01   3.1673914807e+01     1.310878     1.067004 -43.14  0.003445994    1.199    0.166
         4 -14.5653    202.5573     31.5283   4.4003085606e+01   3.0787620924e+01     1.427835     1.248705  25.42  0.001347622    1.433    0.302
         5 -12.8243     32.8036     14.8131   8.0386947017e+01   6.9220083118e+01    0.3833355    0.2123866 -29.72  0.002225011    1.562    0.360
         6 -12.6691     40.2141      7.4664   7.3277888549e+01   6.9195325863e+01    0.5817381    0.2482894 -17.68  0.002569385    2.952    0.661
         7 -12.6110     59.7875      3.3569   6.3350235664e+01   6.6518807469e+01    0.5599825    0.2165803  47.42  0.002641403    2.373    0.579
         8 -12.2002     65.2531    204.7931   1.1411586879e+02   2.3605799979e+01    0.4943708    0.2344872 -78.59   0.00231801    2.306    0.566
         9 -18.8437     19.4543    187.6533   1.2213744642e+02   3.2630869704e+01     16.31968     6.427996 -82.20   0.07797949    2.292    0.564
        10 -11.3469     66.6746    180.9268   1.1106174455e+02   2.8715292635e+01    0.3355815    0.2404979 -80.75 0.0008495819    1.299    0.230
        11 -10.3498    148.9673    215.0000   9.7829420771e+01   8.5108708123e+00    0.2257714    0.0680865  39.76 0.0006254744    2.953    0.661
        12 -13.5238     61.2776    187.0128   1.1302344057e+02   2.8042499289e+01    0.8855676    0.7263733 -86.75  0.005012923    1.082    0.076
        13 -12.7692    106.9812    211.2068   1.0606829223e+02   1.6164340861e+01    0.6800103    0.5005416  32.15  0.003876976    1.444    0.307
        14 -12.6054    113.3303    206.1833   1.0403504759e+02   1.6162239843e+01    0.4187184    0.3565013  89.53  0.001518309    1.214    0.176
        15 -13.1376    109.3522    201.9567   1.0430040872e+02   1.7675305480e+01    0.8090604    0.5063344  27.09 0.0009244696    1.934    0.483
        16 -12.5908    112.0818    196.7401   1.0294685664e+02   1.8320577393e+01    0.5498775    0.3821939   6.55  0.002543054    2.470    0.595
        17 -14.4053     68.5208    144.1971   1.0520406276e+02   3.7244241457e+01     1.390925    0.9578607  85.87  0.002882906    1.658    0.397
        18 -11.2341     41.8376    208.1443   1.1922597092e+02   2.5811704030e+01    0.3136976    0.1715838  67.47  0.001235732    1.702    0.413
        19 -11.2193     34.1691    227.9588   1.2217397459e+02   2.2663034535e+01    0.1902086    0.1359806  47.92 0.0008102291    1.335    0.251
        20  -9.9203     50.4751    224.5816   1.1889014120e+02   2.1413068551e+01    0.2020344   0.09469464  89.78  0.000747762    2.400    0.583
        21  -9.8836     96.4342    202.2508   1.0714899699e+02   1.9657876413e+01    0.2375151    0.1229064 -58.39  0.001131732    1.997    0.499
        22 -11.5534     27.2282    203.8428   1.2178646470e+02   2.8340073996e+01     0.465385    0.1341145  51.25   0.00201658    3.040    0.671
        23 -13.9087     74.4414    154.6625   1.0539101679e+02   3.3857198521e+01    0.6635504    0.5077056 -55.04  0.001425067    1.285    0.222
        24 -12.1897    195.2169    197.4954   8.5431708151e+01   3.5656981225e+00     1.210982    0.9312532 -87.38  0.006008175    2.427    0.588
        25 -12.2452    204.5971    195.7017   8.3263149782e+01   2.2397563572e+00    0.7230697    0.2770244  28.06  0.002346759    4.145    0.759
        26 -11.0605     31.7318    195.5964   1.2023255563e+02   2.9635467532e+01    0.3296521    0.1513608  64.92 0.0008702438    2.201    0.546
        27 -11.9947    127.7144    193.7482   9.9018417334e+01   1.6297400690e+01    0.4292247    0.2414454 -69.60  0.001834028    2.448    0.591
        28  -9.6077     81.6495    194.6909   1.0941485546e+02   2.3509529819e+01    0.2802788    0.2077462 -82.24  0.001603968    1.318    0.241
        29 -10.3168    151.0286    195.3533   9.4187787440e+01   1.1847919839e+01    0.2800905    0.1238902  33.76  0.001091999    2.420    0.587
        30  -9.6494    164.0000    209.9918   9.3939640817e+01   6.8358276620e+00    0.2024343   0.07690847 -46.80 0.0005978163    2.907    0.656
        31 -12.1748    109.6164    189.3254   1.0238050331e+02   2.0314794973e+01    0.4512766    0.3402455   3.00  0.002245626    2.043    0.510
        32 -12.1748    114.6835    184.0554   1.0038850724e+02   2.0610181979e+01    0.5862169    0.3025987 -39.15  0.002365987    2.658    0.624
        33  -9.4238    156.6089    190.1991   9.2072643352e+01   1.1843969432e+01    0.1831949    0.1311634 -33.94  0.000253083    1.557    0.358
        34 -10.1713     39.8823    223.5543   1.2080964978e+02   2.2880159804e+01    0.1724522       0.1387  58.90 0.0007738266    1.179    0.152
        35 -11.2990    150.0927    187.9114   9.3077879756e+01   1.3489754089e+01    0.2839482    0.2471618 -80.30   0.00158422    1.341    0.255
        36 -12.3605     74.1209    188.6968   1.1034098468e+02   2.5920709102e+01     0.474308    0.2527564  69.30   0.00178384    2.364    0.577
        37  -9.5755     93.5508    185.9078   1.0553899596e+02   2.3659878576e+01    0.2191759    0.1676894  68.02 0.0004176933    1.291    0.226
        38 -10.9621    109.7275    182.9985   1.0136137285e+02   2.1682745393e+01    0.2005154    0.1813311 -72.08 0.0009549093    1.112    0.101
        39 -11.2702     98.9155    181.1434   1.0358426092e+02   2.3878733171e+01    0.3857395    0.2998934   4.04  0.001720689    1.909    0.476
        40 -11.3765    150.7116    179.2448   9.1341427445e+01   1.5136284431e+01    0.4547651    0.2851468 -69.92  0.001884029    2.396    0.583
        41 -12.1496    143.9154    178.4746   9.2722746256e+01   1.6568251022e+01     0.517365    0.3757052 -71.10  0.001783167    1.722    0.419
        42 -10.3110    188.7669    177.9936   8.2941444866e+01   8.1843352946e+00    0.3860418    0.2791272  61.33  0.001650303    1.844    0.458
        43 -10.6696    187.6826    173.2467   8.2195508513e+01   9.2727592804e+00    0.4100362    0.2594286 -65.07  0.001681534    2.682    0.627
        44 -11.3713     52.5159    171.8466   1.1324533935e+02   3.2649857759e+01     0.856663    0.2396537 -58.31  0.001291414    3.099    0.677
        45 -10.9209     47.8785    172.2240   1.1438046010e+02   3.3117375892e+01    0.3773756    0.2456511 -56.39  0.001175116    1.570    0.363
        46 -11.0740    139.0221    171.1631   9.2456212095e+01   1.9043077204e+01    0.3651531    0.3049722  55.87 0.0009223809    1.217    0.178
        47 -11.3603    134.0258    196.6299   9.8095597372e+01   1.4608392286e+01    0.3075312    0.2092727 -59.27 0.0005754049    1.619    0.382
        48  99.0000     48.9879    217.1479   1.1856697716e+02   2.3092100642e+01    0.3326165    0.3079774  52.55   0.00243569    1.349    0.259
        49  -9.7837    230.3052    166.6413   7.2625324898e+01   2.5745351883e+00     0.130798    0.1076542 -63.18 0.0007039846    1.725    0.420
        50 -11.4438     54.4459    222.0046   1.1791629728e+02   2.1435544671e+01    0.3119404    0.1446394  54.32 0.0009855946    1.881    0.468
        51 -12.3147     92.4982    152.6843   1.0038179634e+02   3.1572977725e+01    0.6955935    0.5018001 -27.33  0.003294424    1.912    0.477
        52 -10.4856    187.1845    152.0570   7.7733710450e+01   1.3443945052e+01    0.2359562    0.2008742  -7.19  0.001211298    1.236    0.191
        53 -11.5323    133.7932    145.1615   8.8336153924e+01   2.5843646274e+01     1.215574    0.3249646 -54.70  0.002936981    5.387    0.814
        54  -9.1798    112.5847    150.7362   9.4847047822e+01   2.8584863592e+01    0.2014861    0.1409244 -65.86 0.0005832069    1.509    0.337
        55 -10.7387    174.2016    148.7116   7.9736547081e+01   1.6785106819e+01    0.3591628    0.3051088 -84.04   0.00136448    1.492    0.330
        56  -8.9519    109.6845    148.2634   9.5088472528e+01   2.9691187080e+01    0.1484711    0.1133828  74.50 0.0002385274    1.544    0.352
        57 -10.4769    143.9851    146.4910   8.6151137383e+01   2.3497423958e+01    0.3368688    0.1966837 -65.88  0.001259489    2.465    0.594
        58 -11.0828    105.0760    138.6974   9.4302864784e+01   3.2793826121e+01     0.576261    0.3505906 -27.90  0.002242979    2.533    0.605
        59 -12.4043     92.7674    138.4733   9.7565495415e+01   3.4965355595e+01    0.2849081    0.2526244 -45.15 0.0003630285    1.160    0.138
        60 -11.3784    135.7748    128.2649   8.3903839326e+01   2.9276634766e+01    0.9293026    0.1832972 -48.09  0.002196329    5.145    0.806
        61 -10.9982    105.9372    130.8508   9.2347033258e+01   3.4514259591e+01    0.3653615    0.3171637 -68.57  0.001250758    1.146    0.127
        62 -10.8563    113.5361    129.5568   8.9999762635e+01   3.3410229523e+01    0.3564057    0.2877483  22.76 0.0007691637    1.442    0.307
        63 -10.3091    160.9573    127.9596   7.7763148139e+01   2.3952515911e+01    0.3795332    0.2283746 -51.13  0.001396335    1.735    0.424
        64  -9.3533     96.8989    128.8551   9.4382575788e+01   3.6594411604e+01    0.1948148    0.1679606  85.15  0.001008658    1.261    0.207
        65 -11.5917    119.4388    123.5771   8.6990642590e+01   3.3666405686e+01    0.6407222    0.3943784 -21.90  0.002357859    2.679    0.627
        66 -11.0551    100.6356    125.5178   9.2586966846e+01   3.6741390860e+01    0.2906915    0.2460144 -13.62 0.0008498112    1.429    0.300
        67 -10.0989    109.0142    118.7269   8.8631721674e+01   3.6813381687e+01     0.242491    0.2078845 -52.06 0.0003452167    1.111    0.100
        68  -9.9035    167.9812    112.9378   7.2335519588e+01   2.5518875040e+01    0.3738902    0.2549649 -78.52  0.001452886    2.389    0.581
        69 -11.9406    118.0714    109.7278   8.3820022244e+01   3.7116347907e+01    0.7331183     0.521073  72.84  0.002888852    1.987    0.497
        70 -11.0508    120.0064    104.0465   8.1751500232e+01   3.7994189940e+01    0.3357048    0.2131585 -45.36  0.001192468    1.513    0.339
        71 -10.3188    205.3953    110.2406   6.4138094507e+01   1.7583397522e+01    0.3336178    0.2267025  36.85 0.0009791717    1.689    0.408
        72 -10.3245    134.6192    105.8492   7.8376800318e+01   3.4498592320e+01      0.37556    0.1500058 -48.96  0.001237702    2.599    0.615
        73  99.0000     57.3004    219.2885   1.1712532094e+02   2.1623089668e+01    0.5656418    0.2402965  55.20  0.002767461    2.166    0.538
        74 -13.5479     50.9403    199.0247   1.1654025769e+02   2.6680126599e+01    0.7395003    0.4304675  45.83  0.001275255    1.592    0.372
        75 -11.0520     39.3652    199.8018   1.1901796387e+02   2.7877740780e+01    0.2363701    0.1701073  53.44 0.0006770403    1.279    0.218
        76 -10.7991     39.9487     88.7405   1.0289819504e+02   5.4135583081e+01    0.2415598    0.1679794 -55.65 0.0006996826    1.204    0.169
        77  -9.0490    160.7409     88.3622   6.7173208774e+01   3.2085206180e+01    0.1599661    0.1185167 -65.49 0.0004099394    1.630    0.387
        78  -9.8954    156.7925     81.8401   6.6146020784e+01   3.4257817238e+01    0.2343989    0.2124689   3.77 0.0006768403    1.211    0.174
        79  -9.4110    184.5116     77.0427   5.9177204450e+01   2.8413966488e+01    0.2311634    0.1454948 -35.35 0.0005337221    1.549    0.354
        80  -9.0481    168.4057    248.4181   9.8860853882e+01  -8.3615516199e-02    0.1191082    0.0976394  34.28 4.738901e-05    1.039    0.037
        81  -9.4168     70.3064    247.9948   1.1711720438e+02   1.4465000709e+01    0.1430856    0.1160985  82.04 0.0004274511    1.178    0.151
        82 -11.0496    249.1213    243.8671   8.3730731473e+01  -1.1114181151e+01    0.1680426    0.1384798  11.60  0.001258852    1.250    0.200
        83 -10.2471     57.5389    209.3244   1.1616311664e+02   2.3649893323e+01     1.128472    0.4739328  59.33  0.005081797    2.528    0.604
        84 -11.0582    151.4193     54.7984   5.9014930994e+01   4.0202753346e+01    0.2863581    0.2499505 -71.04 0.0003420381    1.253    0.202
        85  -9.3840    168.8731    234.8551   9.6848922692e+01   1.8848188807e+00    0.1563461    0.1349648  50.86 0.0003419398    1.253    0.202
        86 -10.1960    189.7485     14.9974   4.1105358557e+01   3.5816917611e+01    0.2274991    0.1808681  79.64 0.0006001574    1.152    0.132
        87 -11.4618     59.2508    230.4639   1.1771048422e+02   1.9160927044e+01    0.2064189     0.162929  89.19 0.0002299613    1.184    0.156
