#   1 NUMBER                 Running object number                                     
#   2 MAG_AUTO               Kron-like elliptical aperture magnitude                    [mag]
#   3 X_IMAGE                Object position along x                                    [pixel]
#   4 Y_IMAGE                Object position along y                                    [pixel]
#   5 X_WORLD                Barycenter position along world x axis                     [deg]
#   6 Y_WORLD                Barycenter position along world y axis                     [deg]
#   7 A_WORLD                Profile RMS along major axis (world units)                 [deg]
#   8 B_WORLD                Profile RMS along minor axis (world units)                 [deg]
#   9 THETA_WORLD            Position angle (CCW/world-x)                               [deg]
#  10 FWHM_WORLD             FWHM assuming a gaussian core                              [deg]
#  11 ELONGATION             A_IMAGE/B_IMAGE                                           
#  12 ELLIPTICITY            1 - B_IMAGE/A_IMAGE                                       
         1 -11.1965    217.1407     29.2788   3.6448499956e+01   2.8477854179e+01    0.9405591    0.5708241  52.94  0.003567753    1.878    0.468
         2 -11.1010    225.5234     20.8584   3.3844634917e+01   2.7682051314e+01    0.6505828    0.5070444 -61.82  0.003005152    1.097    0.088
         3  -9.4788    247.9123      2.3554   2.8534203448e+01   2.5194304672e+01    0.4475753    0.1904069  80.24  0.002471758    2.251    0.556
         4  -8.4523    166.9413      2.9206   3.5354603556e+01   4.2469839242e+01    0.1823974    0.1559025  78.39 0.0003478806    1.022    0.021
         5  -9.5617    131.7194    233.8579   9.7594417850e+01   7.7666484580e+00    0.3000623    0.1413552  34.26  0.001386882    1.889    0.471
         6  -8.3586    197.9228    249.5890   8.6411973768e+01  -4.4895341928e+00    0.1910295    0.1628711 -18.99   0.00131874    1.272    0.214
         7 -13.5997     20.8261    220.9695   1.1981521993e+02   2.4773984054e+01     1.743306    0.4474855  56.25  0.006159618    4.609    0.783
         8 -13.9560     12.6774    213.9004   1.2099455010e+02   2.7044893068e+01     1.330255    0.5939563 -82.14  0.006476561    2.017    0.504
         9 -14.1513     30.0374    247.8534   1.1976730755e+02   1.8423356063e+01     0.908255     0.664556  50.02  0.005435389    1.183    0.154
        10 -13.8509      1.7561    206.8063   1.2276897143e+02   2.9516403886e+01     1.463345    0.2993153 -73.87  0.005676913    3.785    0.736
        11 -14.4582     20.1665    248.5450   1.2161560352e+02   1.9310880818e+01    0.5747326    0.4239214 -68.83  0.004176469    1.517    0.341
        12 -15.9333     12.2954    242.9149   1.2273786407e+02   2.1164412496e+01     2.609527     1.106725 -52.81   0.01304973    3.457    0.711
        13 -15.4033      6.5602    223.8672   1.2278703798e+02   2.5503017732e+01     3.430576          nan  44.86   0.01166856    5.420    0.815
        14  -9.6045    120.9641    233.4275   9.9845114896e+01   9.4607207274e+00    0.3063848    0.1978779 -33.58  0.001595127    1.993    0.498
        15  -9.1652    114.6928    237.0046   1.0164986621e+02   9.7107954686e+00    0.3444757    0.1575657  21.16  0.001296385    3.450    0.710
        16  -8.8830     84.0897    230.8502   1.0747229546e+02   1.5251539232e+01    0.3470733    0.1859614 -78.57  0.001660893    2.400    0.583
        17  -8.3452    197.2609    232.1319   8.3743090156e+01  -1.7798270894e+00     0.215736    0.1560525  51.81  0.001160141    2.013    0.503
        18  -9.8189    217.1025    225.9912   7.8874416481e+01  -3.6442745906e+00    0.2077023     0.167459 -11.89            0    1.102    0.093
        19  -9.0486     60.6738    225.0748   1.1188629456e+02   1.9488650588e+01    0.2884044    0.2474783 -71.53  0.001821786    1.235    0.190
        20  -9.4728    111.9844    224.2795   1.0058497017e+02   1.2583056324e+01    0.2708463    0.2031312  36.27 0.0003308257    1.211    0.174
        21  -9.1746    115.2836    223.6585   9.9770672142e+01   1.2211303881e+01    0.2506552      0.17815 -86.90 0.0009908074    1.914    0.477
        22  -9.0768    186.9496    221.7825   8.4063717045e+01   1.4249015362e+00    0.1926368    0.1710709  37.11  0.001203717    1.316    0.240
        23  -9.0701    135.6964    220.8269   9.4842431314e+01   9.6208675554e+00     0.353826     0.237443   8.81  0.001738894    1.922    0.480
        24  -9.0837     83.0253    218.4250   1.0629382939e+02   1.7970876630e+01    0.2169002    0.1898342  84.05 0.0003346844    1.131    0.116
        25  -7.5143    187.2982    217.3128   8.3221208616e+01   2.1293952636e+00    0.1362137   0.09358019  -3.11 0.0002801918    1.603    0.376
        26  -8.4511     56.0247    216.9740   1.1210659499e+02   2.1782216316e+01    0.1878412    0.1559542  68.90  0.001205818    1.061    0.058
        27  -9.9465    153.9970    211.3846   8.9288150916e+01   8.5152635943e+00    0.3215027    0.2488835 -39.21 0.0004515545    1.355    0.262
        28  -7.5607     98.6898    214.1215   1.0221464898e+02   1.6653101308e+01    0.1774247     0.167214 -83.90 0.0003361581    1.104    0.095
        29  -8.7919     54.3328    211.9963   1.1198942072e+02   2.3071399827e+01    0.1969783     0.155998  47.10 0.0006538536    1.193    0.162
        30  -8.7279    189.1410    210.2222   8.1588118885e+01   3.0673111418e+00    0.2206424     0.210464 -73.29 0.0002371371    1.459    0.315
        31  -7.7341    101.4712    211.4360   1.0121401196e+02   1.6812850170e+01    0.1330771    0.1238554  46.14 0.0003109967    1.023    0.022
        32  -9.2910     75.1966    212.4655   1.0735819661e+02   2.0318192703e+01    0.4178676    0.2901174  18.85  0.001722022    1.770    0.435
        33  -8.6850     62.4696    208.6755   1.0981951791e+02   2.2806677517e+01    0.3071088    0.1166374 -64.72  0.001301233    2.549    0.608
        34  -9.7777    118.5198    208.3266   9.6828006106e+01   1.4854062461e+01    0.3841679    0.2601611 -41.00  0.001450367    1.646    0.393
        35  -7.6127    115.5857    203.4517   9.6764583283e+01   1.6353934135e+01    0.1988512    0.1219749  46.98 0.0001077088    1.621    0.383
        36  -8.0598    128.8680    206.8600   9.4212222607e+01   1.3508324934e+01     0.205966    0.1828223  -1.99 0.0006092538    1.203    0.169
        37  -7.4538     73.8466    204.1537   1.0667959939e+02   2.2340103604e+01    0.1641547    0.1527561 -31.90 0.0002650436    1.277    0.217
        38  -8.9166    109.0309    198.1152   9.7491907071e+01   1.8551304193e+01    0.2091713    0.1971288 -57.88 0.0002641254    1.105    0.095
        39  -9.3561     89.0308    197.3886   1.0218970913e+02   2.1746440054e+01    0.3854005    0.2733015  -0.62  0.001858938    2.099    0.524
        40  -7.9488     78.7970    198.1302   1.0474748992e+02   2.3030412850e+01    0.1983076    0.1678982  68.00  0.000286122    1.147    0.128
        41  -7.9081    193.0000    197.0125   7.8352182783e+01   4.7933081714e+00    0.2180063   0.07462586 -42.55 0.0006634992    2.889    0.654
        42  -8.2021     97.8762    196.1682   9.9879072563e+01   2.0708756428e+01    0.1785956    0.1608396  -1.60  0.001023429    1.276    0.216
        43  -9.3780     56.7911    194.2724   1.0953110857e+02   2.6785445364e+01    0.2968695    0.1988697 -65.60  0.001024679    1.428    0.300
        44 -10.6840     67.3489    190.1581   1.0648182907e+02   2.6416317126e+01    0.3440675    0.2578838  21.77  0.001882478    1.547    0.354
        45  -9.1997     75.6050    187.8917   1.0414643614e+02   2.5844294722e+01    0.4378652    0.2378211 -42.72  0.001075595    2.234    0.552
        46  -9.8424     80.5549    187.3634   1.0284267171e+02   2.5279265778e+01    0.3054288    0.2561672  18.64 0.0003962467    1.356    0.263
        47  -8.8481     18.4969    184.8784   1.1760345785e+02   3.3014420755e+01     0.374923    0.1004509 -72.00  0.001129594    3.110    0.678
        48  -9.0020     17.5657    189.7895   1.1822172171e+02   3.1960992342e+01    0.3029213    0.1438322  55.50  0.001518241    2.086    0.521
        49 -15.3944      3.1331    240.1530   1.2424846936e+02   2.2551857720e+01     1.197117    0.3392277 -77.00  0.005682617    3.124    0.680
        50  -9.1127     11.2093    183.1634   1.1913835184e+02   3.4036192874e+01    0.3243237    0.1885474 -58.05  0.001836227    1.693    0.409
        51  -7.3847    117.2625    184.3722   9.3225320403e+01   2.0296620389e+01     0.147864    0.1097654 -23.70 0.0006982328    1.659    0.397
        52  -8.1882     78.1596    182.3280   1.0271627043e+02   2.6807159892e+01    0.2206061    0.1800641 -54.88 0.0003606506    1.234    0.190
        53  -9.7534     49.2352    182.3495   1.0997792026e+02   3.0491756798e+01    0.3474703    0.2644539 -76.74  0.001474959    1.208    0.172
        54 -10.2758     60.8175    178.7670   1.0662251184e+02   2.9963409334e+01    0.5119352    0.3766074 -60.61  0.001805024    1.301    0.232
        55  -9.6931     66.1675    173.4260   1.0450635563e+02   3.0575292660e+01    0.3143107    0.2611177 -41.58 0.0005662297    1.322    0.243
        56  -9.7443     42.5288    180.2650   1.1139605428e+02   3.1739786974e+01    0.4303269     0.331173 -11.97  0.001644776    1.821    0.451
        57  -8.1483     36.9994    179.2672   1.1264928124e+02   3.2565039724e+01    0.2886529    0.1202884 -48.01  0.001191898    2.799    0.643
        58  -8.9312     46.8894    172.2840   1.0934951494e+02   3.3188325913e+01     0.459647    0.2556523 -82.07  0.001677213    1.901    0.474
        59  -8.2906     43.4970    169.0133   1.0981902862e+02   3.4360451473e+01    0.1996206    0.1604982  80.08 -9.853377e-05    1.205    0.170
        60  -7.2743    156.6090    179.7425   8.2917653332e+01   1.4443952680e+01    0.1521241    0.1105418   3.49 0.0003809337    1.691    0.408
        61  -7.6951    109.4704    179.0404   9.4238893810e+01   2.2806370037e+01    0.2161217    0.1425364 -56.39 0.0005185013    1.537    0.350
        62 -13.0190     18.4778    226.7415   1.2065256564e+02   2.3800131501e+01    0.4362181    0.2231648  89.59  0.001534341    1.829    0.453
        63  -7.0952     86.5478    178.4552   9.9988817491e+01   2.6524262801e+01    0.1387528    0.1348404 -53.50 8.250857e-05    1.077    0.072
        64  -9.3268      2.0209    173.7920   1.2053732000e+02   3.6925482113e+01    0.5369286    0.1699378 -79.88  0.002227848    2.789    0.641
        65 -10.7494    101.0008    175.9938   9.5867516628e+01   2.4889519416e+01    0.2017424    0.1981869  81.70            0    1.001    0.001
        66  -7.5579     76.5285    176.5122   1.0227117111e+02   2.8429170362e+01    0.1382419    0.1321325 -70.91 2.601122e-05    1.055    0.052
        67  -9.2822    175.3390    172.4773   7.7224325582e+01   1.2540785736e+01    0.3013966    0.2768627 -19.29 0.0007470873    1.041    0.039
        68  -7.3666    117.4651    173.4345   9.1200109918e+01   2.2766564273e+01    0.1448447    0.1423171  10.17 0.0001382336    1.015    0.015
        69 -10.6148     17.4140    171.8552   1.1670751309e+02   3.6178966283e+01    0.5033498    0.4308205   1.42  0.003305882    1.534    0.348
        70  -9.1326     25.1574    169.5145   1.1456207735e+02   3.6062407198e+01    0.3593055    0.2084745 -21.10  0.001648688    2.962    0.662
        71  -8.7837     24.8121    165.8181   1.1426319388e+02   3.6988329602e+01    0.3448019    0.1978848  80.83 0.0004323581    1.874    0.467
        72  -7.9475    137.5170    172.4831   8.6016328559e+01   1.9454889085e+01    0.1478339    0.1431708   2.15  1.78032e-05    1.005    0.005
        73  -7.2908    124.2893    172.6941   8.9337258377e+01   2.1757194996e+01    0.1461204    0.1172847  76.24 0.0003257245    1.572    0.364
        74  -8.3907     37.5256    169.7959   1.1145426916e+02   3.4798643777e+01     0.327794    0.1204906 -71.53  0.001300502    2.544    0.607
        75  -7.8200     75.2314    170.0837   1.0162334026e+02   3.0170181370e+01    0.1909028    0.1772659 -80.06 0.0003234259    1.021    0.021
        76 -10.0416     19.5420    163.2775   1.1534304607e+02   3.8062399718e+01    0.4719187    0.2328025  15.99  0.002240461    2.711    0.631
        77  -9.4937      6.7745    169.9771   1.1911629384e+02   3.7471544142e+01    0.2734709    0.2016006  54.69 0.0002978962    1.365    0.268
        78  -9.1494      4.0598    166.0345   1.1944614331e+02   3.8601924226e+01    0.2663898    0.1738745  59.24 0.0007232674    1.525    0.344
        79  -7.8317     89.4209    165.4601   9.7075037454e+01   2.9226397413e+01    0.2597051    0.1652046  70.00 0.0007879434    2.231    0.552
        80  -8.3658     92.4635    164.0262   9.6005054179e+01   2.9105212162e+01    0.4272684    0.1942647 -53.17  0.001688024    2.096    0.523
        81  -7.2293     32.6400    166.3159   1.1230912736e+02   3.6135585460e+01    0.1409511   0.08714166  65.61 0.0004425182    1.757    0.431
        82  -8.8537     75.9647    164.0976   1.0046715518e+02   3.1535255614e+01     0.230635    0.1974581 -69.03 0.0003612991    1.118    0.105
        83  -7.8737     43.0910    164.0970   1.0930389712e+02   3.5611619517e+01    0.3277199    0.1311338 -45.01  0.001244502    3.027    0.670
        84  -7.7356    124.2489    164.6454   8.7770609356e+01   2.3615702556e+01    0.2042584    0.1412486  26.75 0.0004406468    1.559    0.359
        85  -8.1213    106.8730    163.8372   9.2130525219e+01   2.6817416687e+01    0.1999671    0.1725096  73.45  0.001033935    1.299    0.230
        86  -8.4483     58.1101    162.1945   1.0501037046e+02   3.4356494073e+01    0.4675919    0.1929732 -53.42   0.00132592    2.236    0.553
        87  -7.7308     61.7538    162.6138   1.0408477220e+02   3.3799058020e+01    0.2629053    0.1614501  57.11 0.0007710434    1.865    0.464
        88  -8.1450     63.5013    159.4930   1.0312659661e+02   3.4350841195e+01    0.3025534     0.197121  20.87  0.001125572    1.824    0.452
        89  -7.9510     53.4403    162.8123   1.0636254954e+02   3.4764642138e+01    0.2814021    0.1510755  46.30  0.001290345    1.965    0.491
        90 -10.1633     10.8474    162.3717   1.1745423179e+02   3.8976310957e+01    0.5435933    0.2741047 -28.50  0.002398593    3.359    0.702
        91  -9.9062     82.5959    157.8356   9.7582137735e+01   3.2121687059e+01    0.4127031    0.3110472 -20.02  0.001248205    1.688    0.408
        92  -8.3486     35.0412    157.1579   1.1057284219e+02   3.8152330844e+01    0.4602002    0.2069541 -66.08  0.002073546    1.903    0.474
        93  -7.2643    172.2720    159.3022   7.5098437826e+01   1.5800693881e+01    0.1489002     0.112777  -8.57 0.0001816312    1.534    0.348
        94  -8.5477     10.7147    168.0263   1.1799713533e+02   3.7634222225e+01    0.2173143    0.1510055 -82.86 0.0003676437    1.203    0.169
        95  -6.9627    126.7223    158.2969   8.5836546864e+01   2.4637868649e+01    0.1466663    0.1209484  81.44 0.0001994348    1.534    0.348
        96  -8.1375    167.1497    157.1151   7.5769230392e+01   1.7236791633e+01    0.2168044    0.1896673  -8.32 0.0002743168    1.155    0.134
        97  -8.3576     51.6487    156.9829   1.0601044503e+02   3.6421647283e+01    0.2267402    0.1871505 -15.93 0.0003228086    1.495    0.331
        98  -9.2326      8.8048    154.9531   1.1727572981e+02   4.0914025484e+01    0.1916879    0.1659059  64.26 0.0002609759    1.209    0.173
        99  -8.8294     66.6858    153.5239   1.0127139793e+02   3.5422853591e+01     0.556224    0.3426711   4.32  0.001335036    2.538    0.606
       100 -10.8266     68.6574    144.8289   9.9187428231e+01   3.7331588324e+01    0.7521076    0.4988253  66.91  0.003431452    1.970    0.492
       101  -7.9704    146.1919    152.8842   7.9774486499e+01   2.2200720104e+01    0.2073157    0.2044362 -78.87 0.0002842226    1.105    0.095
       102  -8.6672     80.1548    151.9435   9.7195535514e+01   3.3938402373e+01    0.2343917    0.1606022  87.87 0.0005133725    1.944    0.486
       103  -9.1380     15.6550    151.9139   1.1516879803e+02   4.1141983250e+01    0.2316397    0.1878413  -6.13   0.00144374    1.595    0.373
       104 -14.5069     14.2910    232.4970   1.2180044346e+02   2.3030598859e+01    0.5523824    0.2624592  43.31   0.00324774    1.794    0.443
       105  -7.1964     30.6947    151.3316   1.1102008761e+02   4.0009459074e+01    0.1374113   0.09147809  71.06 0.0005664859    1.660    0.397
       106  -9.5529    111.2905    149.4241   8.8045955337e+01   2.9501341379e+01    0.3150488    0.2688055 -12.01 0.0002942241    1.317    0.241
       107  -7.2583      7.6906    148.2767   1.1691336146e+02   4.2608506615e+01    0.1241763   0.08286595  68.02 0.0003262395    1.556    0.357
       108  -8.4608     82.9807    137.9709   9.3656557093e+01   3.6975917181e+01     0.246152    0.2154362  54.97  0.001311586    1.237    0.192
       109  -9.0071     87.0849    146.3671   9.4164648980e+01   3.4271711981e+01    0.4353036    0.2350197  40.82  0.001839313    1.917    0.478
       110  -9.5589     85.0051    142.3366   9.3956636991e+01   3.5587714130e+01     0.438859    0.2903609  30.27  0.001679629    1.618    0.382
       111  -7.8101    118.7669    145.2139   8.5114342647e+01   2.9152688806e+01    0.2061938    0.1752999 -14.78 0.0003130256    1.300    0.231
       112  -7.6277    182.8008    143.8169   6.9343287997e+01   1.6911810605e+01    0.1913918      0.17614 -74.67 0.0004343269    1.294    0.227
       113  -9.0428     98.0916    143.0817   9.0361443931e+01   3.3301772087e+01    0.3848572    0.2573366 -38.66  0.001030271    1.569    0.363
       114  -7.8186      4.3154    144.6357   1.1745296989e+02   4.3714945597e+01    0.1325826   0.08014855  69.91 0.0002108286    1.767    0.434
       115  -8.6992    241.7632    141.9927   5.8116658608e+01   6.3831140931e+00    0.1799131   0.09667948 -37.27 0.0004073305    1.578    0.366
       116  -8.6657      2.0228    138.9536   1.1750743952e+02   4.5232510831e+01    0.2005336    0.1270308  69.19  0.001126163    1.687    0.407
       117  -8.6546     12.7713    137.9575   1.1439693949e+02   4.4773362929e+01    0.2399118    0.1856363  15.78  0.001282872    1.587    0.370
       118  -7.5912     13.7472    134.6572   1.1372198581e+02   4.5514251540e+01    0.2075712    0.1459197 -58.24 0.0004253335    1.229    0.186
       119  -8.4531     61.9736    136.1222   9.9562167641e+01   4.0388450946e+01     0.218163    0.2005026 -58.33  0.000426341    1.005    0.005
       120  -8.3387     29.0483    133.9892   1.0913135569e+02   4.4468978542e+01     0.192863    0.1733033 -72.88 0.0003735418    1.053    0.050
       121  -8.6678    108.9739    132.0572   8.4819584766e+01   3.4052652277e+01     0.245848    0.1864529 -11.57 0.0008847986    1.655    0.396
       122  -7.7727     72.4348    132.1902   9.5622388693e+01   3.9958568443e+01    0.2088477    0.1376661 -70.56 0.0009058753    1.667    0.400
       123  -8.4179      9.9225    132.0378   1.1451377554e+02   4.6417537438e+01    0.2292664     0.165236 -85.80  0.001087948    1.276    0.216
       124  -7.7829     16.4933    142.4769   1.1387934100e+02   4.3391394834e+01    0.1970929    0.1246225  -5.21  0.001026392    2.225    0.550
       125  -7.5277     15.4158    128.8180   1.1248945792e+02   4.6830469236e+01    0.2014024   0.09087208 -58.51 0.0009489664    1.767    0.434
       126  -7.3664     53.0000    137.8564   1.0257220667e+02   4.1052770921e+01    0.2398424    0.0734878 -62.58 0.0003860716    2.942    0.660
       127  -7.4842     20.3102    126.7080   1.1072117885e+02   4.6989203210e+01    0.1282045   0.09229479  70.50 0.0003397246    1.586    0.369
       128  -8.8354     66.1975    125.0652   9.6072476086e+01   4.2582661315e+01    0.2176583    0.2074683  16.94 0.0003565331    1.132    0.117
       129  -7.8920      1.4973    125.0582   1.1616375105e+02   4.8625278153e+01    0.1979518     0.100531 -71.05 0.0009168924    1.562    0.360
       130  -8.2506     64.1897    120.8535   9.5815505568e+01   4.3887772002e+01    0.2059403    0.1907225 -86.82 0.0004148563    1.175    0.149
       131  -7.3642    104.4301    120.5530   8.3351797008e+01   3.7584418757e+01     0.152593    0.1449115 -30.95 0.0002952729    1.005    0.005
       132  -8.4228      5.8071    119.5294   1.1419634847e+02   4.9719358628e+01    0.2355806     0.144987 -71.37 0.0006169472    1.331    0.249
       133  -7.5241    108.9572    119.5496   8.1785952834e+01   3.6982812460e+01    0.2130555    0.1519719  38.33 5.434511e-05    1.444    0.308
       134  -7.3729     66.2634    116.5816   9.4212025831e+01   4.4652092140e+01    0.1474621    0.1111585  87.11 0.0006949313    1.771    0.435
       135  -8.0203    239.3545    113.6648   5.2445824651e+01   1.1570823258e+01    0.1379016   0.09623543 -65.00 0.0007043786    1.795    0.443
       136  -7.9800     59.3974    110.5309   9.5101512179e+01   4.7024478289e+01    0.2596469    0.1552087 -53.27  0.000616244    1.496    0.332
       137  -7.9789     50.6689    110.5291   9.8027097500e+01   4.8087835621e+01    0.2122436     0.141491  19.21 0.0004010355    1.708    0.415
       138  -8.1807      8.5278    106.1771   1.1146302253e+02   5.2780668807e+01    0.2437961    0.1483686 -22.96  0.001316481    1.914    0.478
       139  -7.7752     57.9986    102.4288   9.3677277578e+01   4.9135317280e+01    0.1963646    0.1392634  27.59 0.0003788644    1.528    0.345
       140  -8.0640    188.3765     96.6502   5.6809428501e+01   2.4813138327e+01    0.2750907    0.1281842 -42.57  0.001008889    2.024    0.506
       141  -8.3431     99.7266     96.7849   7.8441212408e+01   4.3812657084e+01    0.2353885    0.1963848  21.16 0.0003673012    1.242    0.195
       142  -7.8526     25.7879     95.1422   1.0347949086e+02   5.4214012945e+01    0.3466688   0.06554025 -46.48 0.0009589344    4.135    0.758
       143  -8.1753     92.3705     92.9681   7.9645632536e+01   4.5982300574e+01    0.2414556    0.2024564  47.48 0.0005500124    1.322    0.243
       144  -8.9455     43.0444     92.7186   9.6640191855e+01   5.3161795945e+01    0.2437139    0.2017091 -59.84 0.0007468304    1.201    0.167
       145  -7.6255     75.5534     88.5118   8.3914383204e+01   4.9789560625e+01    0.1467328     0.131333 -22.69 0.0001205195    1.025    0.024
       146  -7.8309     38.3937     82.8464   9.5924209692e+01   5.5896866721e+01    0.1974049    0.1743319  23.57 0.0005510989    1.287    0.223
       147  -7.5870     46.8040     73.8364   9.0176193743e+01   5.6935049852e+01    0.1613514     0.156909 -55.50 0.0002603017    1.260    0.207
       148  -8.2502     17.7644     73.6817   1.0180300758e+02   5.9719464399e+01     0.191482    0.1542544  23.56 0.0003641956    1.461    0.316
       149  -7.7888     23.0123     69.5373   9.8603754588e+01   6.0224611457e+01    0.1711562    0.1213833   7.64 0.0003795898    1.521    0.343
       150  -7.2014     88.2472     59.9911   7.0516982574e+01   5.3179564795e+01    0.1746842    0.1161741 -35.58 0.0003889924    1.493    0.330
       151  -8.2429    237.3617    244.7191   7.8333877744e+01  -8.9105739330e+00    0.1524056    0.1199398   2.42  0.001074818    1.114    0.102
       152 -10.8670    200.3184     42.9125   4.1500928963e+01   3.0473380275e+01    0.5619985    0.3715581  79.22  0.001965817    1.545    0.353
       153 -11.6143    207.6422     37.9512   3.9440620447e+01   2.9481008303e+01    0.7633739     0.653619  47.39  0.004847711    1.383    0.277
       154  -7.5024     60.5889     40.2053   7.3035271510e+01   6.1257449335e+01    0.1699504     0.112801 -21.43 0.0003262775    1.465    0.317
       155  -7.1981     19.3180     40.2609   9.1288053630e+01   6.6377862140e+01    0.1246294   0.07490294 -20.32 0.0002289731    1.544    0.353
       156  -7.7373    123.5001     35.0940   5.2155966628e+01   4.9357406870e+01    0.1912692    0.1343569 -29.17 0.0005525405    1.528    0.346
       157  -8.3804    228.6342     30.8504   3.5694863962e+01   2.5874671699e+01    0.1907021    0.1531306  71.91 0.0004594671    1.292    0.226
       158  -7.6741     23.2400     31.3383   8.5979863262e+01   6.7570961529e+01    0.1495945    0.1014292  24.81 0.0003337084    1.558    0.358
       159 -10.1223     96.6396    239.6495   1.0578596268e+02   1.1789247179e+01    0.3842801    0.2594368 -26.09   0.00202168    2.314    0.568
       160  -7.5562     74.2425    237.3438   1.1022291905e+02   1.5262601871e+01    0.1102291   0.09262027 -35.43 0.0001820471    1.565    0.361
