#   1 NUMBER                 Running object number                                     
#   2 MAG_AUTO               Kron-like elliptical aperture magnitude                    [mag]
#   3 X_IMAGE                Object position along x                                    [pixel]
#   4 Y_IMAGE                Object position along y                                    [pixel]
#   5 X_WORLD                Barycenter position along world x axis                     [deg]
#   6 Y_WORLD                Barycenter position along world y axis                     [deg]
#   7 A_WORLD                Profile RMS along major axis (world units)                 [deg]
#   8 B_WORLD                Profile RMS along minor axis (world units)                 [deg]
#   9 THETA_WORLD            Position angle (CCW/world-x)                               [deg]
#  10 FWHM_WORLD             FWHM assuming a gaussian core                              [deg]
#  11 ELONGATION             A_IMAGE/B_IMAGE                                           
#  12 ELLIPTICITY            1 - B_IMAGE/A_IMAGE                                       
         1 -12.2783     20.8770     84.8368   1.0991851283e+02   5.6766927232e+01     2.236734    0.9356377 -68.89   0.00846783    2.236    0.553
         2 -12.7149    104.0588     36.1626   6.4228078547e+01   5.4140229906e+01     1.916695     1.076794  15.75  0.007558954    2.741    0.635
         3 -11.0784     99.9510      5.7001   5.3035047032e+01   5.8458518141e+01    0.5196061     0.303457 -13.11 0.0004297835    1.874    0.466
         4 -13.4001     91.2930     53.7909   7.4855519354e+01   5.4028251011e+01     2.233654     1.375108  52.25  0.007614833    1.898    0.473
         5 -12.0382    129.1735     20.6919   5.2242690439e+01   5.0182497728e+01     1.237324    0.8543254  33.57  0.005609312    1.473    0.321
         6 -12.1262     90.7497     22.7796   6.2736915799e+01   5.8699239554e+01     2.207229     0.790782 -20.25  0.007711793    3.732    0.732
         7 -10.7490     66.0347     20.6157   7.0136788894e+01   6.3699355262e+01    0.5532088     0.425814 -72.78  0.002815325    2.815    0.645
         8 -12.6298     52.6103     21.8337   7.6058344559e+01   6.5719643398e+01     2.804258     1.033494 -24.44   0.01035104    3.682    0.728
         9 -13.3054     69.4038     30.9026   7.3433529511e+01   6.1701786428e+01     2.331388    0.9189222  49.65  0.009108548    3.214    0.689
        10 -12.8509    114.2653     11.9545   5.2197616444e+01   5.4622183443e+01     1.603763     1.081612  73.89  0.006727424    1.687    0.407
        11 -10.6659     27.7285     17.7111   8.5667481289e+01   6.9563364782e+01    0.4894049     0.238927 -21.23 0.0008764009    2.194    0.544
        12 -11.6562     15.8756     37.0127   9.9422675563e+01   6.7295715576e+01    0.9796211    0.6187945 -26.99  0.006087993    1.365    0.267
        13 -11.9883     30.2759     24.4566   8.7460428261e+01   6.8221456644e+01     1.140117    0.5445502 -30.93  0.005915302    1.875    0.467
        14 -11.5239      4.2579     26.6854   1.0163550616e+02   6.9984586215e+01    0.5416269     0.236882 -26.79  0.002860855    2.190    0.543
        15 -12.1160     18.4392     15.3952   8.9423472658e+01   7.0858431948e+01     1.360611    0.4178508 -43.96  0.006175463    2.768    0.639
        16 -11.4297      7.8020     19.7270   9.7085620972e+01   7.1000336260e+01    0.6474068    0.2995079  22.99  0.003700097    2.366    0.577
        17 -11.5066     25.1054      8.2228   8.2347900364e+01   7.1237481715e+01    0.8098095    0.2613741 -38.40  0.003027787    2.781    0.640
        18 -12.7688     13.2534      6.3518   8.7893726518e+01   7.2707706508e+01    0.6214221      0.49791 -21.17  0.003260005    1.227    0.185
        19 -13.2671      5.4078      9.8617   9.4146525505e+01   7.2806538987e+01    0.5140807    0.3702686 -23.51  0.001468057    1.003    0.003
        20 -12.1663      2.3928      2.5530   9.2418312383e+01   7.4158152556e+01    0.2837175    0.2523309 -10.69  0.001375865    1.455    0.313
        21 -10.5874    226.0016     28.0178   4.0380922922e+01   2.5383620739e+01    0.6719491    0.4330513 -63.52  0.003611292    1.499    0.333
        22  -9.4929    205.0283     15.9140   3.9549604217e+01   3.1742859692e+01    0.3463973    0.2893015 -41.06  0.002115111    1.241    0.194
        23 -10.7306    209.6549      3.9096   3.6131906740e+01   3.1878301425e+01    0.7060059    0.3750612  67.46  0.003647879    1.713    0.416
        24  -9.6960    217.6921      4.9999   3.5703245208e+01   2.9882738982e+01    0.3143122    0.2300549  45.30  0.001847357    1.701    0.412
        25  -9.9541    211.7844     17.1383   3.9167987954e+01   2.9986728869e+01    0.4528705    0.2733677  78.11  0.002366092    1.565    0.361
        26 -10.5293    213.0080     12.4108   3.7890842046e+01   3.0210965355e+01    0.6182438    0.3221662  80.83  0.001879346    1.861    0.463
        27  -9.9742    203.5104     21.4535   4.1127243772e+01   3.1494588927e+01    0.5333393    0.2662044 -48.11  0.002470833    1.957    0.489
        28 -10.7888    215.4564     22.5891   4.0138115831e+01   2.8494713838e+01      0.48714    0.4698359 -25.63   0.00200485    1.244    0.196
        29 -10.8770    241.4963     14.7448   3.5978455595e+01   2.3465176866e+01     0.582888    0.4539393  15.74   0.00287733    2.032    0.508
        30 -11.3411    192.5784     32.4057   4.5368165673e+01   3.2888161904e+01    0.4763018    0.3907796 -18.40 0.0004596343    1.410    0.291
        31 -10.0565    157.3870      5.6414   4.2382164863e+01   4.4607246480e+01    0.6959942      0.29403 -12.37  0.002741926    3.327    0.699
        32  -9.8712    181.7200     15.2931   4.2031038381e+01   3.7559561433e+01    0.9464548    0.2545612  58.00  0.003376213    3.042    0.671
        33 -10.8641    151.9070      8.9018   4.4197825965e+01   4.5692824361e+01    0.6348876    0.3781235  32.36  0.002569615    1.992    0.498
        34 -11.5719    169.2739     14.3702   4.3386565640e+01   4.0788469507e+01     1.455601    0.4162898  62.19  0.005101116    2.806    0.644
        35 -10.1447    173.0695     10.6957   4.1810633598e+01   4.0194590241e+01    0.3259289    0.2447316  53.61  0.001130492    1.295    0.228
        36 -11.0818    153.9000     17.6115   4.6667268148e+01   4.4347987399e+01    0.5058685    0.3212715  60.17 0.0002751226    1.396    0.284
        37 -10.4732    149.1324     16.5994   4.7122332603e+01   4.5652847994e+01    0.3756136    0.2873825  20.24 0.0002472713    1.513    0.339
        38 -10.3278     79.9318     19.4490   6.4712221817e+01   6.1274606998e+01    0.8169373    0.3300454  53.69  0.003365668    2.713    0.631
        39 -10.3685    246.8198     19.0136   3.6484388028e+01   2.1825179349e+01    0.5047337    0.2310737  73.78  0.002148967    2.170    0.539
        40  -9.6680     43.2486     16.5656   7.7661182655e+01   6.7808674988e+01    0.2741706    0.1926123   4.67 0.0008992712    1.276    0.216
        41 -10.0732    231.0289     18.8712   3.7773413032e+01   2.5319245932e+01    0.4150646     0.333733 -61.90  0.001868111    1.078    0.073
        42  -8.6439    220.4019      9.2929   3.6480386703e+01   2.8809744254e+01    0.1700693    0.1486997 -63.24  0.001106843    1.094    0.086
        43  -9.5000    221.4884     13.5333   3.7381367486e+01   2.8102540626e+01    0.3257914    0.2301544  38.02  0.001155969    1.937    0.484
        44 -10.0775    225.5607      8.5053   3.5863936934e+01   2.7706286649e+01    0.3185379    0.2508201 -11.44 0.0009830182    1.693    0.409
        45 -10.0647     38.4425     10.3554   7.6796264484e+01   6.9298982141e+01    0.4077584    0.2222322 -20.66  0.001598036    1.710    0.415
        46  -9.4681     36.4349      6.0306   7.5499372891e+01   7.0118687440e+01    0.2234844    0.1470353  27.45 0.0004631112    1.423    0.297
        47 -10.6642     42.3265      3.2999   7.1305341180e+01   6.9603241559e+01    0.3303956    0.2170848 -14.88 0.0008056736    1.345    0.256
        48  -9.9519     31.6573     11.8854   8.0862958347e+01   6.9963951357e+01    0.2604693    0.1636792 -23.08 0.0007775944    1.344    0.256
        49  -8.7416     86.4969     10.9809   5.8917175754e+01   6.0872471018e+01    0.3075311    0.1132205  41.14   0.00126126    2.449    0.592
        50  -9.6817    182.6057      4.8632   3.9038922498e+01   3.8363385603e+01    0.5389428    0.3243549  84.69  0.002755088    1.591    0.371
        51  -8.9690    188.9740      3.0136   3.7864913514e+01   3.6961430984e+01    0.2560883    0.1586884 -26.10  0.001361139    1.805    0.446
        52 -11.0190    200.0891      6.0987   3.7557200579e+01   3.3954385989e+01    0.5401305    0.3863097 -59.33  0.003129834    1.335    0.251
        53  -9.2545    190.3924      7.3533   3.8867316786e+01   3.6200894631e+01    0.3119682    0.1430789  63.30 0.0009386608    1.919    0.479
        54 -10.7274    163.5734      6.3830   4.1771539279e+01   4.2986651845e+01    0.5304301     0.344531 -22.16  0.001972513    1.757    0.431
        55  -7.9194    168.2777      4.3303   4.0561844030e+01   4.1988634226e+01    0.2360365    0.1895274  49.13 0.0005980645    1.261    0.207
        56  -9.5835     77.2098      8.8284   6.0791320055e+01   6.2964245765e+01     0.236854    0.1983236  24.73 0.0007107307    1.041    0.039
        57  -8.8152     77.6384      4.6793   5.8730857808e+01   6.3274612213e+01    0.2112848    0.1205086  24.26  0.001054607    1.744    0.427
        58  -9.3644    250.5383      7.5192   3.3778151386e+01   2.2328967450e+01    0.2911223    0.1253702 -43.16  0.001008016    1.907    0.476
        59 -10.1800    243.9570      4.5649   3.3611078407e+01   2.4045246621e+01    0.3416288    0.1941204 -30.37  0.001265956    1.847    0.459
        60  -9.5859    248.2192      1.8736   3.2763852519e+01   2.3420064893e+01    0.2289684    0.1838536 -49.75  0.001145034    1.189    0.159
        61  -9.2134    234.3640      7.3430   3.4906173530e+01   2.5846712898e+01    0.3726397    0.1656076 -84.47  0.001657828    2.585    0.613
        62  -9.4776    134.5137      6.4822   4.6202667795e+01   5.0235274361e+01    0.2512383    0.2109909 -60.82 0.0008538032    1.370    0.270
        63 -10.5785    138.6438      3.3788   4.4448912084e+01   4.9475511428e+01    0.4821611    0.2801152  12.37   0.00221499    2.314    0.568
        64  -9.7591    132.4992      3.9769   4.5677552042e+01   5.0938866275e+01    0.4120314    0.2250324  27.17  0.001603862    2.226    0.551
        65  -9.7358     67.4658      6.0719   6.2737425602e+01   6.5100863138e+01    0.2655893    0.1862706 -22.29 0.0009035231    1.461    0.315
        66  -9.8739     71.5313      3.6395   6.0184930613e+01   6.4566006401e+01    0.3416795    0.2481206 -33.34  0.001959503    1.645    0.392
        67  -9.2844    232.6771     10.9036   3.5829556131e+01   2.5839786900e+01    0.2553946    0.1635629 -88.91  0.001456759    1.461    0.316
        68  -9.0897    229.9328      3.1378   3.4309081416e+01   2.7274901532e+01    0.2154289     0.158426  23.49  0.001234294    2.154    0.536
        69  -9.3142     84.8891      3.0415   5.5839211431e+01   6.1939138555e+01    0.3413623    0.1846338  22.41    0.0012369    1.987    0.497
        70 -10.6273     34.6923    131.7176   1.1342883779e+02   4.4405267501e+01    0.4059607    0.2036124 -68.74 0.0004102401    1.690    0.408
        71 -10.8667    235.9901    249.7116   8.6869553382e+01  -1.0083189829e+01    0.4406422    0.1413869  37.77  0.002044795    2.713    0.631
        72  -8.8074    190.3003    250.3462   9.5252806982e+01  -3.5855568507e+00    0.1225929    0.0807308   8.71 0.0007037594    1.682    0.406
        73  -9.0982    161.8404    250.1697   1.0061267310e+02   8.2157126623e-01    0.1740745    0.1284591  19.18    0.0010925    1.365    0.267
        74 -12.3190     44.4279    123.5731   1.0934833895e+02   4.5412049549e+01      1.60331    0.8917398 -62.90  0.007935696    1.530    0.347
        75 -12.8321     12.0503    125.8721   1.1900734066e+02   4.7678565507e+01    0.6153348    0.3730311 -89.39 0.0005741645    1.538    0.350
        76 -10.7351     19.6121    118.9292   1.1597475988e+02   4.8790920360e+01    0.5740616    0.2708533 -65.58  0.001818198    1.664    0.399
        77 -11.3412      8.9139    107.8384   1.1766767439e+02   5.2161625011e+01    0.9027669    0.4709576 -63.74  0.004112139    1.466    0.318
        78 -11.3621     14.9871    102.7285   1.1504383196e+02   5.2983906207e+01     1.088197    0.4919183 -44.27  0.005309374    2.134    0.531
        79 -10.4356     30.2771    142.6918   1.1608671520e+02   4.2164229372e+01    0.5102932    0.2516088 -63.31  0.001926433    1.686    0.407
        80  -9.2683     27.4427    136.7310   1.1610384963e+02   4.3858632238e+01    0.2055746    0.1081415 -70.94 0.0009743313    1.580    0.367
        81  -9.6329     98.7801    140.4318   9.6930108094e+01   3.3654448892e+01    0.4094882    0.1997709 -50.01  0.001291372    1.985    0.496
        82  -9.3129     47.5554    139.4214   1.1096876257e+02   4.1189547875e+01    0.2539448    0.2265835 -56.44   0.00150525    1.160    0.138
        83 -10.3274     22.8228    136.5148   1.1732392452e+02   4.4309008607e+01    0.3412909    0.2066185 -62.98  0.001531352    1.388    0.280
        84  -9.6167      3.3349    136.3493   1.2242276354e+02   4.5789182084e+01    0.3131071    0.1994995  -1.43  0.001840262    2.376    0.579
        85  -8.9956    237.9710    135.4682   6.4335324587e+01   6.2395419945e+00    0.2019529    0.1395292  46.60  0.001036956    1.613    0.380
        86 -10.1831     63.7444    101.4765   9.8818092672e+01   4.8466449950e+01    0.8171844    0.5265388  40.02  0.003742147    1.723    0.420
        87 -10.4378     87.7808     97.6188   9.0036806854e+01   4.5713621988e+01     0.665248    0.3586913 -53.48  0.002510549    1.826    0.452
        88 -10.8625     66.4711    134.4987   1.0483761224e+02   4.0069996771e+01    0.4767116    0.2818066 -83.74  0.002059304    2.163    0.538
        89 -10.2197     61.3332    110.4823   1.0163708670e+02   4.6623181112e+01    0.5829588    0.4835218  34.70  0.003299217    1.339    0.253
        90 -10.7895     89.5746     88.1958   8.6799133514e+01   4.7517997967e+01    0.6421332    0.4902918 -13.21  0.002368794    1.533    0.348
        91 -10.2484     82.6219     88.1759   8.9063056618e+01   4.8711296168e+01    0.6064679    0.4171742 -48.63  0.001583119    1.371    0.270
        92 -11.0663     61.2095    120.2880   1.0370061513e+02   4.4251101541e+01    0.7141005     0.340845 -72.71  0.002055277    2.614    0.617
        93 -11.6755     68.5208    117.5557   1.0091078344e+02   4.3943870569e+01     1.713842    0.3252928 -51.24  0.004833394    4.231    0.764
        94 -11.8586     77.1495     97.3428   9.3386540933e+01   4.7504762681e+01      1.20872    0.7495551 -46.42  0.004940621    1.479    0.324
        95 -10.7625     72.8445     89.2051   9.2624133143e+01   5.0026452686e+01    0.9272613     0.309726  37.99  0.003272274    3.173    0.685
        96  -9.9715     55.3171    133.2988   1.0781475508e+02   4.1788701209e+01    0.2752792    0.2155803  39.54  0.001552843    1.397    0.284
        97 -10.2946     59.3535    138.2447   1.0750116326e+02   4.0076099184e+01    0.4926249    0.2204643  27.73  0.002036877    2.669    0.625
        98  -9.6777     73.6864    129.8504   1.0188093544e+02   4.0206794985e+01    0.3646163    0.2447493  77.65   0.00143484    2.001    0.500
        99 -10.2906     56.0393    126.1582   1.0635899130e+02   4.3456147157e+01    0.3347837    0.2105937 -64.30 0.0009876031    1.419    0.296
       100  -9.6813    199.5755    124.5756   6.8731536694e+01   1.6076872582e+01    0.2561709    0.2451834  -4.99 0.0005531269    1.029    0.029
       101  -8.0733     81.2968    125.3006   9.8722250764e+01   4.0183971340e+01    0.1456359    0.1105417 -27.45  0.000699428    1.576    0.365
       102  -8.7212     74.3904    125.0330   1.0070467168e+02   4.1284829327e+01     0.203243    0.1685714 -58.96 0.0004341658    1.108    0.097
       103  -8.8933    131.5952    124.2627   8.4329695475e+01   3.1172337812e+01    0.2171077    0.1477423 -37.11  0.000440375    1.532    0.347
       104 -10.2162     93.0786    121.5364   9.4423453447e+01   3.9181942811e+01    0.4862408    0.4071599 -59.44  0.002533641    1.153    0.133
       105 -10.7689     75.4711    120.1467   9.9352328681e+01   4.2318919145e+01    0.2609181    0.2324483  40.75 0.0002724608    1.211    0.174
       106 -11.3690     31.8697    120.2665   1.1254847473e+02   4.7452360767e+01    0.6766431    0.5162164  36.00  0.004085547    1.511    0.338
       107  -9.5160    104.5289    116.2243   8.9804877343e+01   3.8403296612e+01    0.3713902    0.2669294 -80.01  0.001617309    1.907    0.476
       108  -9.2455    108.5618    115.4342   8.8442717640e+01   3.7827808783e+01    0.4255827    0.2439635 -33.02  0.001657618    2.136    0.532
       109 -10.2105    116.3291    116.4030   8.6486658934e+01   3.6088601611e+01    0.3080426    0.2791826  14.52 0.0006856316    1.187    0.157
       110 -10.6949     13.8184    132.4476   1.1927345321e+02   4.5987882045e+01    0.4397297    0.2892302   7.76  0.002101762    2.131    0.531
       111  -8.3268    141.3250    115.2795   7.9486828431e+01   3.1077161593e+01    0.1591383    0.1257661   5.19 0.0001506163    1.591    0.372
       112  -9.7637     97.4722    115.2645   9.1632925219e+01   3.9912726014e+01    0.3190669    0.2106129  36.58  0.000969842    1.598    0.374
       113 -10.4041     96.6955    109.4072   9.0394213666e+01   4.1428814176e+01    0.4974847    0.3592142 -56.17  0.001643778    1.375    0.273
       114  -9.2596     82.6148    114.9321   9.6016028467e+01   4.2488982876e+01     0.264825     0.217937  47.90 0.0007611293    1.312    0.238
       115  -8.6391    193.4498    111.4847   6.6653445603e+01   1.9924346069e+01    0.1532658    0.1462687 -29.00  0.000106878    1.006    0.006
       116  -9.6058    130.6242    110.6808   8.1060336431e+01   3.4417286121e+01    0.4262417    0.2914422  41.13  0.001519372    1.491    0.329
       117  -9.8009    113.1840    107.5800   8.5062889348e+01   3.8730589864e+01    0.3647411    0.2735341 -41.79 0.0006157331    1.301    0.232
       118 -10.8745    106.0420    102.0085   8.5630354805e+01   4.1392281143e+01    0.7629029    0.5449675  78.19  0.003208332    2.196    0.545
       119  -9.0695     23.4657    108.7791   1.1331326074e+02   5.0931177162e+01    0.2405495    0.1504711  31.25  0.001346818    1.873    0.466
       120 -11.9024    141.3297    102.4218   7.5979393506e+01   3.3832101054e+01     1.148733     0.590527  25.66  0.003446619    3.718    0.731
       121 -10.7722    133.4959    102.0619   7.7918699860e+01   3.5663945521e+01    0.9430297    0.3551598 -50.15  0.002921127    3.060    0.673
       122  -9.5731    117.8654    106.6876   8.3488398659e+01   3.7985836824e+01    0.2909982    0.2104208 -35.31  0.001321965    1.419    0.295
       123  -9.8224    197.2518    104.2344   6.4045191236e+01   2.0402160598e+01    0.3265274    0.3181634  61.52 0.0007954601    1.081    0.075
       124 -12.5181     43.6859     93.3951   1.0370997885e+02   5.2766692011e+01     2.050823     1.535045  69.40   0.01118455    1.760    0.432
       125 -10.5789      4.3137     55.4045   1.0997345487e+02   6.4278338103e+01    0.9758664     0.405979 -65.00  0.004876518    2.062    0.515
       126  -9.5561    182.6874    249.5863   9.6572795454e+01  -2.3225610833e+00     0.250095   0.09609041  34.72   0.00114884    2.177    0.541
       127 -12.0376     34.2759     69.9282   1.0141545587e+02   5.9031509097e+01     1.718023    0.8490775 -20.05  0.006752321    3.042    0.671
       128 -10.9357     41.5132     51.5698   9.2871743599e+01   6.2115616124e+01     1.087752    0.4925489  30.20  0.005152362    2.401    0.584
       129 -12.2938    102.4894     76.3829   7.9061542115e+01   4.7582984094e+01     1.631881    0.9208819 -39.67  0.006990344    1.725    0.420
       130  -8.9841    125.2192    249.7603   1.0757997679e+02   6.5580586066e+00    0.1966888   0.08740664  30.76 0.0008850837    2.486    0.598
       131  -9.1913    217.4823    248.4836   8.9968197941e+01  -7.3620192798e+00     0.120655    0.0908089  16.49 0.0008101114    1.020    0.020
       132  -8.5273     30.3027    248.3510   1.2479990075e+02   1.9533517752e+01   0.09052124   0.08000214 -59.55 0.0007039785    1.700    0.412
       133 -11.3543     78.5805     61.1912   8.1856807007e+01   5.4997458522e+01    0.5979298    0.4395796  20.38  0.001392515    1.433    0.302
       134  -9.5963    211.5408    250.2043   9.1310900371e+01  -6.7177814423e+00    0.2299262    0.1369046  31.95  0.001251309    1.351    0.260
       135 -11.8668     72.5490     69.9152   8.6944988725e+01   5.4252320588e+01     1.479251    0.7938067  46.66  0.006442266    2.291    0.563
       136 -11.4949     19.3581     60.8215   1.0501068185e+02   6.2225317561e+01    0.9583778    0.5841789  -0.10  0.005456312    1.941    0.485
       137 -12.1009     32.0958     58.7926   9.9144566911e+01   6.1613966980e+01    0.5990643    0.5791699  45.75  0.004143326    1.349    0.259
       138  -9.7597    148.2909    247.0815   1.0281302679e+02   3.4054944020e+00    0.1609288    0.1442313  40.42 0.0004079167    1.119    0.107
       139  -9.3894      3.9317    245.8666   1.2902761962e+02   2.2696185797e+01    0.2027893    0.1137228 -67.86  0.001411618    2.000    0.500
       140 -11.8465     32.1855     42.0910   9.3602126369e+01   6.4923523405e+01    0.8658876    0.4442249  22.24  0.003607085    2.127    0.530
       141 -10.0661    225.0115    244.9265   8.8052232022e+01  -8.0010815563e+00     0.202409    0.1462578 -17.25  0.001356358    1.385    0.278
       142 -10.3366    141.9296    244.4238   1.0370891230e+02   4.8229624238e+00    0.2976243    0.2689855  22.66  0.001252896    1.182    0.154
       143  -9.9498    174.1599    244.8447   9.7519041903e+01  -3.3061034204e-01     0.172023    0.1288264  14.50 0.0005438234    1.338    0.253
       144 -11.8854     56.7655     37.4519   8.1145735933e+01   6.2705390506e+01    0.5149111    0.3581043  -0.84  0.001429385    1.487    0.328
       145  -9.4029     39.0862    102.7899   1.0723677455e+02   5.1000321015e+01    0.2813012    0.1935726  24.36  0.001155721    1.704    0.413
       146 -10.9708    122.8269     79.8805   7.4211203336e+01   4.2598332712e+01    0.5183699    0.4073299 -25.16  0.001840115    1.324    0.245
       147 -11.1897    116.7060     95.0611   8.0544687527e+01   4.0782211427e+01    0.6205795    0.4884358  59.98  0.001608525    1.466    0.318
       148 -11.4354    119.4765     87.4551   7.7492949996e+01   4.1801379389e+01    0.8979755    0.6428068 -86.71  0.003249058    2.374    0.579
       149  -9.8807      3.7369     97.9525   1.1793055193e+02   5.4772519238e+01    0.4975817    0.2425874 -83.02  0.001652584    2.013    0.503
       150 -10.4779      3.2014     89.0535   1.1680887851e+02   5.6859904273e+01    0.4986263    0.2221818 -75.20  0.002002203    1.972    0.493
       151 -10.4030      7.7235     85.2593   1.1464747639e+02   5.7496813634e+01     0.475159    0.3508645  46.89            0    1.699    0.411
       152 -10.2288    156.0532     96.2635   7.0617201353e+01   3.1672431388e+01    0.4928392    0.2540928 -38.04  0.001048286    1.938    0.484
       153  -8.6375     93.5675     97.9973   8.8319859093e+01   4.4618970035e+01    0.2289478     0.140674 -47.56 0.0007364413    1.539    0.350
       154  -9.6496    189.5420     93.9038   6.2798763225e+01   2.4103895379e+01    0.3065259    0.2474561  -9.72  0.001041735    1.441    0.306
       155  -9.1467    187.7865     89.7708   6.2020087731e+01   2.5271670378e+01    0.2140864    0.2069234  10.30 0.0004471006    1.081    0.075
       156  -9.3788    103.7813     92.4190   8.3588567423e+01   4.3959775292e+01     0.353794    0.2368756  21.80  0.001226305    1.854    0.461
       157  -9.8611    106.5405     87.5198   8.1297994053e+01   4.4471483597e+01    0.5494376    0.2131127 -41.80  0.001895397    2.530    0.605
       158  -8.2720    174.6527     91.6828   6.5185968073e+01   2.8092097621e+01    0.1629599    0.1227236  15.10 0.0007048282    1.726    0.421
       159  -9.6946    194.0110     89.4243   6.0752017991e+01   2.3841610001e+01    0.2806564     0.217579 -34.84 0.0003023907    1.256    0.204
       160  -8.7661    214.4409     89.4457   5.7205568559e+01   1.9057724199e+01    0.1466164    0.1357765 -47.52 -5.73496e-07    1.020    0.020
       161 -10.5624    112.5876     87.0060   7.9343618087e+01   4.3349024849e+01    0.6549292    0.2533303 -33.70  0.001989356    3.409    0.707
       162  -9.3593    145.4718     87.4861   7.0614530419e+01   3.5906969378e+01    0.3723263    0.1910472  50.38  0.001396245    1.967    0.492
       163  -9.9812    146.2605     83.5634   6.9247505872e+01   3.6478015703e+01    0.5094916     0.387633 -27.55  0.002096077    1.379    0.275
       164  -9.4349    222.9166     85.8362   5.4962957875e+01   1.7741719220e+01    0.3285652    0.2668145 -38.56  0.001772896    1.136    0.120
       165 -11.6521    138.3787     69.1741   6.6714681553e+01   4.1011911715e+01    0.6802454     0.517046  55.91  0.001337697    1.344    0.256
       166 -11.8290    146.0450     75.3478   6.6792172624e+01   3.8062581354e+01    0.6864853    0.4108974  33.88 0.0004482296    1.984    0.496
       167  -9.9578     57.8307     85.4077   9.6790848404e+01   5.2976429843e+01    0.5876805    0.3218578   0.33  0.002203173    3.482    0.713
       168  -9.6807     51.9497     85.5573   9.8919333485e+01   5.3665552558e+01    0.2896849    0.1988105  -8.17 0.0008434003    1.839    0.456
       169  -9.1990     52.6215     82.0933   9.7769768377e+01   5.4371991844e+01    0.3326874    0.2687252  -9.81   0.00101423    1.341    0.254
       170  -9.5320     75.0570     84.1843   9.0448515429e+01   5.0811558540e+01      0.42485    0.2251508  26.35  0.001084252    2.256    0.557
       171 -10.6830    160.2335     81.5356   6.5388291899e+01   3.3482229107e+01    0.6393099    0.3068722  58.25  0.002326452    2.296    0.564
       172  -9.9492    168.7235     77.9822   6.2517949218e+01   3.2035529244e+01    0.5029396    0.3569108 -80.45  0.002134308    1.995    0.499
       173  -9.5109    166.9900     73.2568   6.1491387916e+01   3.3290232810e+01    0.2874565    0.2378552  62.67 0.0009987276    1.232    0.188
       174  -9.4087    164.3294     68.6600   6.0673526757e+01   3.4735699505e+01    0.4704325    0.3386437 -62.45   0.00213004    1.668    0.401
       175  -9.6753     89.9658     77.6693   8.3464832209e+01   4.9701799868e+01    0.6052654    0.3297887  18.23  0.002168101    3.093    0.677
       176 -10.0585    190.0997     77.0146   5.8096604355e+01   2.6936316102e+01    0.6453266     0.316595  36.33  0.002238041    2.987    0.665
       177 -12.4022    117.9747     70.3866   7.2512773965e+01   4.5490952234e+01     1.204193    0.5980687  38.44  0.004155748    2.156    0.536
       178  -9.6305      5.2133     77.0105   1.1409683873e+02   5.9504032841e+01    0.2464317    0.1912998  59.21   0.00113075    1.649    0.394
       179  -9.5258      3.5784     72.8305   1.1393341393e+02   6.0521049686e+01    0.3066548    0.1203672 -58.51  0.001092634    1.795    0.443
       180  -9.4564    203.8160     75.6539   5.5371382240e+01   2.3843576013e+01    0.4900952    0.2666264  31.88  0.001785321    3.003    0.667
       181  -9.2303     70.2461     76.2024   8.9744400224e+01   5.3285407360e+01    0.3258842    0.2464357  -7.98  0.001692028    1.496    0.332
       182 -10.2089    246.9644     75.6279   4.9200587931e+01   1.4147060523e+01    0.4098007    0.2260354  69.75  0.001925988    2.210    0.548
       183  -8.3795     62.5263     76.3965   9.2571559166e+01   5.4357288521e+01    0.1401915    0.1214055 -26.61 -0.0001021508    1.062    0.058
       184 -10.9259    119.4674     64.1125   6.9999939901e+01   4.6299992365e+01     1.229055    0.3647014  45.24  0.003795944    3.317    0.699
       185  -8.9882    155.8451     85.8576   6.7656499892e+01   3.3742349166e+01    0.3195029    0.1850246  28.71  0.001158409    2.470    0.595
       186 -10.4178    148.2800     34.5213   5.3157972758e+01   4.3834067587e+01     1.268553    0.3057351  52.83  0.003962463    3.391    0.705
       187 -10.5791    129.7047     61.1313   6.6267058235e+01   4.4461201572e+01    0.7363877    0.4571097  82.50  0.002598215    3.257    0.693
       188 -10.5378    133.7021     53.7911   6.2800608246e+01   4.4707767918e+01    0.7386068    0.4189764  -7.84  0.002657614    2.994    0.666
       189 -10.2750    136.3635     42.4104   5.8304976352e+01   4.5749374362e+01    0.5760162    0.2960605 -48.64  0.002285516    2.425    0.588
       190 -10.2290    139.8778     52.4262   6.0883265641e+01   4.3420866793e+01    0.4289605    0.2701833  45.72 0.0007153361    1.535    0.349
       191 -11.7492    149.4251     65.3102   6.2870669479e+01   3.8998191817e+01     1.202254     0.617062 -34.73  0.004772966    1.977    0.494
       192 -11.3300    141.8563     44.8011   5.7896071216e+01   4.4060366963e+01     0.422794     0.306981  21.75 0.0005192742    1.631    0.387
       193 -10.9921    145.7383     48.3701   5.8236215327e+01   4.2582493366e+01    0.3572828    0.2769076  49.19  0.000275753    1.229    0.186
       194 -10.4689    143.6967     58.0456   6.1852728693e+01   4.1602179346e+01    0.2891074     0.267787  11.77 0.0003954011    1.112    0.100
       195 -12.5966    147.3014     53.8029   5.9667969296e+01   4.1378675384e+01    0.4545322    0.3514505  41.52 0.0003255151    1.284    0.221
       196  -9.6866    176.9569     68.3415   5.8079053443e+01   3.1634353809e+01    0.3611515    0.2833646  77.79  0.001305906    1.406    0.289
       197  -8.9412     46.2328     68.7444   9.6419554888e+01   5.8055599053e+01     0.225173    0.1480971 -50.25 0.0003767814    1.339    0.253
       198  -9.2120    248.5027     68.4723   4.7370767613e+01   1.4897067453e+01    0.1351893    0.1159291 -51.58 -3.232288e-05    1.015    0.014
       199 -12.2461     55.4191     66.3782   9.2155670540e+01   5.7441167629e+01     1.169092    0.6935971 -45.14  0.005897092    1.481    0.325
       200  -8.8549    226.2878     65.7657   4.9513060311e+01   2.0148014472e+01     0.312315    0.1217827 -31.59  0.001174178    2.559    0.609
       201 -11.5924    135.8674     82.4744   7.1523968264e+01   3.9131807484e+01    0.8751982    0.6425781  -1.83   0.00381944    1.815    0.449
       202  -9.0137     87.9575     65.0348   7.9964775872e+01   5.2599172240e+01    0.2978382    0.1963535 -50.23   0.00125997    1.668    0.401
       203 -11.2719    155.0862     43.7858   5.4832941047e+01   4.0890803253e+01    0.8117069      0.69515 -67.60  0.004348663    1.284    0.221
       204 -10.5405    166.5215     54.1380   5.5851175003e+01   3.6500272469e+01    0.7879423    0.3766277 -53.15  0.002828053    2.772    0.639
       205 -10.7581    161.0222     52.5898   5.6437788874e+01   3.8122468244e+01    0.4735821    0.3860138 -10.61  0.001777802    1.400    0.286
       206  -9.3880    207.1256     61.0241   5.0997143546e+01   2.5353544002e+01    0.3281156    0.2022748 -35.55  0.001177839    1.565    0.361
       207 -10.9477    137.7620     59.1146   6.3596151619e+01   4.2874863463e+01    0.3273673    0.2605286  15.03 0.0003250306    1.437    0.304
       208  -9.9936    173.1607     47.4250   5.2628509523e+01   3.5797315269e+01    0.5086555    0.2967721  63.40  0.002165902    1.673    0.402
       209 -10.1418    174.1969     57.0759   5.5302051681e+01   3.4115223262e+01    0.8109252    0.4679027   0.70  0.002698823    3.731    0.732
       210 -10.2653    180.5400     43.7880   5.0333347816e+01   3.4432949660e+01    0.4928958    0.2861305 -19.86  0.001505715    2.113    0.527
       211 -10.3022    179.3938     49.1453   5.2072572170e+01   3.3974044251e+01    0.3803608    0.3130797 -41.84  0.000963682    1.223    0.183
       212  -9.2100    212.5981     59.5434   4.9823177891e+01   2.4266533565e+01    0.2761466    0.2167613   8.36 0.0008903262    1.737    0.424
       213  -9.2095    200.7093     59.7130   5.1613285520e+01   2.7107661637e+01     0.321752      0.16027  57.62  0.001333606    1.988    0.497
       214  -8.3819    220.3128     59.6336   4.8787995245e+01   2.2438526992e+01    0.1540414   0.09676368 -62.35  0.000703838    1.765    0.434
       215 -10.8842    193.2715     54.9586   5.1471303118e+01   2.9649712157e+01    0.5144604    0.3844911  -2.97  0.001635341    1.784    0.439
       216  -9.1301    198.4908     54.4393   5.0528231613e+01   2.8436086363e+01    0.2363974    0.1774831  52.18 0.0005107051    1.380    0.275
       217 -10.0828     71.0746     52.7010   8.1516924344e+01   5.7834300547e+01    0.4401659    0.2582013 -37.90  0.001547087    1.591    0.372
       218  -8.7153    250.2045     58.6028   4.4934299036e+01   1.5970789575e+01    0.1701341    0.1196817  54.74 0.0009440754    1.633    0.388
       219  -9.5014    243.2868     55.7799   4.5052518485e+01   1.7840718214e+01    0.4151439      0.26534   7.90  0.001731784    3.339    0.701
       220 -10.3262    233.6212     55.8468   4.6182214490e+01   1.9952980743e+01    0.4599372    0.2922978  54.35   0.00236174    1.728    0.421
       221  -9.4013    121.5812     36.0989   5.9554433630e+01   5.0164029694e+01    0.5486974    0.1877023  54.66  0.001833193    2.685    0.628
       222 -10.0609    118.2632     42.0693   6.2571627338e+01   5.0114891637e+01     0.466331    0.3248868 -28.93   0.00194287    1.480    0.325
       223  -9.3063    224.0509     56.0801   4.7416381691e+01   2.2091975540e+01    0.2050222    0.1905853 -62.64 0.0003655463    1.043    0.041
       224  -9.1573     11.9994     56.3229   1.0693400780e+02   6.3664732935e+01    0.1869274    0.1545097  29.13  0.001280275    1.533    0.348
       225  -9.4312     51.1396     53.2151   8.9458117729e+01   6.0640215016e+01    0.3023416    0.1955594   5.79  0.001427529    1.812    0.448
       226 -11.4786     57.7627     48.3389   8.5015363197e+01   6.0662371183e+01    0.6312991    0.6212128  41.19  0.002775233    1.362    0.266
       227 -10.8090     66.1504     44.1425   8.0114390375e+01   6.0139785803e+01    0.5577146    0.3392331 -21.76  0.001961181    1.726    0.420
       228  -9.7335    238.6019     51.8988   4.4674869529e+01   1.9406511847e+01    0.2047328     0.177227  61.64 0.0005154531    1.287    0.223
       229  -8.9432    211.6973     50.9386   4.7730395029e+01   2.5732569718e+01    0.3713861    0.2310224 -29.33  0.001781028    1.673    0.402
       230  -8.6802      9.8795     52.2039   1.0677568301e+02   6.4653556899e+01    0.1618993    0.1059256 -33.38 0.0003638036    1.322    0.244
       231 -10.2410    116.9029     49.7647   6.5711919234e+01   4.9273922965e+01    0.4988051    0.3661743 -12.15   0.00197995    1.514    0.340
       232  -9.4559    227.6995     49.8164   4.5434712474e+01   2.2142959847e+01    0.3282213    0.1854006  72.94  0.001558603    1.902    0.474
       233  -8.4193     16.6014     50.7373   1.0341739852e+02   6.4530299137e+01    0.1294442   0.07165041 -28.88 0.0006970608    1.720    0.419
       234  -9.4455    191.7288     49.3083   5.0147702861e+01   3.0851647195e+01    0.2968921    0.1467254  43.54  0.001164205    2.429    0.588
       235  -8.4358     21.2580     49.0428   1.0084716120e+02   6.4533819384e+01     0.169331    0.1295262 -39.96  0.000363074    1.039    0.037
       236 -10.3021    206.9595     46.1467   4.7120467253e+01   2.7544268491e+01    0.5843842    0.1889958  58.41  0.002117553    2.884    0.653
       237  -8.1154    126.3130     47.3163   6.2392432486e+01   4.7463699530e+01    0.1538591    0.1091583  21.07 0.0004499153    1.642    0.391
       238  -9.1654    127.1487     44.6111   6.1235412315e+01   4.7663384216e+01    0.4064266    0.2027369  61.29  0.001606138    2.218    0.549
       239  -9.5255    220.1012     43.8798   4.4882659036e+01   2.4717818140e+01    0.4320045    0.1628095 -38.16  0.001289532    2.351    0.575
       240  -9.8915    249.1229     44.1320   4.1797228495e+01   1.8192465602e+01    0.3278776    0.2140806 -17.60  0.001379609    2.020    0.505
       241  -9.8682    188.8005    243.8728   9.4582382268e+01  -2.4764455321e+00    0.1624831    0.1290757  41.71  0.000583625    1.303    0.233
       242 -10.9520    242.0352    239.5626   8.4166917587e+01  -9.7232205897e+00    0.3006042    0.1980328  17.11  0.001284412    1.218    0.179
       243 -11.7924     15.8838     30.8429   9.7207630391e+01   6.8443840539e+01    0.2328672     0.193897 -10.09 0.0003887762    1.194    0.162
       244  -9.3128    211.0000    239.9967   8.9819690218e+01  -5.3373532939e+00    0.1735935   0.06685436 -37.51 0.0007992038    2.920    0.658
       245 -10.1440     14.7107    237.9676   1.2689988933e+02   2.3071201536e+01    0.3167474     0.160916  83.46  0.002028501    1.673    0.402
       246 -11.3064     11.9837     25.3261   9.7091908278e+01   6.9726360503e+01    0.4193794    0.2251716 -23.76  0.001171021    1.709    0.415
       247  -8.9751    220.4375    237.7939   8.7729492192e+01  -6.4506867364e+00    0.1609671     0.101499 -14.99  0.000648352    1.665    0.399
       248 -10.6536    193.3053    236.9430   9.2667019354e+01  -2.2080556367e+00    0.3185609    0.1789136 -47.71  0.001685395    2.381    0.580
       249  -8.7813     55.8484    238.1060   1.1961171859e+02   1.8400809207e+01      0.14386    0.1274557 -81.59   0.00107348    1.346    0.257
       250  -9.0675    172.5080    237.5188   9.6777430224e+01   1.0147981954e+00    0.1279784    0.1035034  26.22 0.0008098407    1.050    0.047
       251  -8.7899    227.0609    231.6840   8.5510351249e+01  -6.6357498380e+00    0.1746902    0.1255514  20.35 0.0004170289    1.131    0.115
       252  -8.7916     21.0037    232.3515   1.2552329476e+02   2.3478909287e+01    0.1513505    0.1094639  62.59 0.0006642028    1.097    0.089
       253  -9.6454    235.2144     40.2547   4.2320806919e+01   2.1738009692e+01    0.4062206     0.266353  -1.40  0.001883671    2.678    0.627
       254  -8.8322    206.8126     33.8184   4.3934062649e+01   2.9207319853e+01    0.1990732    0.1810448  56.99 0.0006006537    1.202    0.168
       255  -9.2959     12.6380    231.9087   1.2695532249e+02   2.4410251675e+01    0.2166144    0.1159271  52.57  0.001440682    1.471    0.320
       256  -9.2219    219.4831    230.8208   8.6750858157e+01  -5.3976286421e+00    0.2288277     0.148106  31.38 0.0005935329    1.328    0.247
       257  -9.5291    135.8093    230.0574   1.0305329414e+02   8.1960739745e+00    0.1949115    0.1458979 -15.06  0.001086521    1.941    0.485
       258  -9.0378    202.1859    229.0952   8.9711160116e+01  -2.4912920294e+00    0.1874585    0.1435163  13.84 0.0004244764    1.144    0.126
       259  -9.2442     41.0328    221.7027   1.2117092946e+02   2.3353172683e+01    0.1608111    0.1279634  63.89 0.0005232703    1.093    0.085
       260  -8.2367    219.6624    215.3004   8.4028916055e+01  -3.2798511028e+00    0.1131726    0.1019829  57.74 0.0004488609    1.662    0.398
       261  -9.6003    203.3284     28.9082   4.3078830448e+01   3.0662944202e+01     0.374948    0.2391598  -2.78  0.001198564    2.473    0.596
       262  -8.8775      3.2960    213.3519   1.2768052334e+02   2.8894930810e+01   0.09928621   0.07314525 -61.75 0.0007033659    1.686    0.407
       263 -10.9085    213.4802     29.9269   4.2168995167e+01   2.8086910406e+01    0.6393786     0.490918  10.07  0.003445062    1.877    0.467
       264  -9.5983     13.4318    211.7359   1.2573368390e+02   2.8280988140e+01    0.2203173   0.08911081 -86.01  0.001148773    2.218    0.549
       265 -11.2257    221.5089     35.4071   4.2634045428e+01   2.5502860124e+01     1.227589    0.5584255  45.14  0.004931384    3.040    0.671
       266  -9.1631    216.0101     35.4819   4.3271570624e+01   2.6788148018e+01    0.2309567    0.1516206  78.48 -3.751384e-05    1.524    0.344
       267  -9.0941    208.1828     41.6453   4.5789188809e+01   2.7858662952e+01    0.2998984    0.1852333  41.53  0.001137498    2.024    0.506
       268  -8.7300    197.2196     41.7342   4.7273264545e+01   3.0531335663e+01    0.1788178    0.1560905  39.86 0.0003125924    1.299    0.230
       269  -8.8069    190.6347     41.6197   4.8178205789e+01   3.2185590200e+01    0.2842937    0.1797817 -11.36  0.001259369    2.184    0.542
       270 -10.0721    167.2860     62.6368   5.8268254328e+01   3.4985516700e+01    0.5097413    0.3439077 -18.20  0.001795253    1.780    0.438
       271  -9.5756     23.2110     41.0305   9.7339879287e+01   6.5951655889e+01    0.2568923    0.1538694 -33.97  0.001048196    1.379    0.275
       272  -8.6747    224.9985     41.5222   4.3733990951e+01   2.3893647911e+01    0.1921649    0.1262867  66.28 0.0008158361    1.535    0.348
       273 -10.4792    202.0788     37.9400   4.5605807167e+01   2.9834488658e+01    0.3928218     0.234488 -43.20            0    1.608    0.378
       274  -9.2223    198.0341     37.2494   4.5953641003e+01   3.0919954534e+01    0.2084542    0.1836219  49.97  0.000568333    1.232    0.188
       275 -10.4614    121.0782     54.7064   6.6331839536e+01   4.7532265992e+01    0.5095423    0.4118513  27.96  0.001863379    1.247    0.198
       276  -9.5995    173.2718     39.4532   5.0240127007e+01   3.6858139801e+01     0.338355    0.2379295  43.87  0.001133731    1.497    0.332
       277  -8.5592     62.5577     40.0318   7.9873893055e+01   6.1399544399e+01    0.2213162    0.1513511   7.61  0.000620769    1.573    0.364
       278 -11.7114    184.5180     55.2413   5.2967628271e+01   3.1793121539e+01    0.8070894    0.4762865 -37.23  0.003626725    1.670    0.401
       279  -9.7523    183.0729     33.5097   4.6998199075e+01   3.5136082766e+01    0.4031529    0.1959569  59.77  0.001425485    1.895    0.472
       280 -10.3151    179.7933     30.3834   4.6579062196e+01   3.6349118082e+01     0.515972     0.329329  50.86  0.002530369    1.564    0.361
       281 -10.1844    135.3798     34.6280   5.5841683548e+01   4.7030225655e+01    0.2885277    0.2438378  13.73 0.0006581412    1.265    0.210
       282  -8.7004    143.3180    209.6369   9.8525021632e+01   1.0624407403e+01    0.1389219    0.1016473  70.67 0.0007041204    1.771    0.435
       283 -10.6114    244.8935     33.4498   3.9817152735e+01   2.0487150205e+01    0.4874605    0.2843806  78.30  0.002051933    1.777    0.437
       284 -10.7654    235.8937     32.4122   4.0433632435e+01   2.2595382668e+01    0.5041894    0.3771578  12.36  0.002084312    2.120    0.528
       285 -10.6053    238.7677     26.0970   3.8726234144e+01   2.2736453026e+01    0.5012434    0.2560213  61.06   0.00196475    2.026    0.506
       286  -8.8688      3.7178     34.0662   1.0439225043e+02   6.8627364098e+01    0.2730738   0.08972777 -33.41   0.00122228    2.841    0.648
       287  -8.2655    198.9810     32.0150   4.4430892777e+01   3.1349046843e+01    0.2097497    0.1624995  33.22 0.0009155406    1.608    0.378
       288  -9.7802    172.6897     30.9898   4.7819241057e+01   3.8077270027e+01    0.4574465    0.2625859  36.99  0.001987181    2.165    0.538
       289 -10.2651    167.6651     29.1409   4.8050868443e+01   3.9576974929e+01    0.2500369    0.2163036  61.00 0.0004229583    1.086    0.079
       290  -9.3577    166.9457     24.9084   4.6881501785e+01   4.0251347658e+01    0.3369174    0.2153688 -53.08 0.0009287341    1.726    0.421
       291  -9.6088    147.4047     24.0359   4.9864136048e+01   4.5299035634e+01     0.261725    0.2030771  48.52 0.0006188028    1.205    0.170
       292  -9.6338    147.1909     29.2278   5.1619994506e+01   4.4756032484e+01    0.6972723    0.2524729  59.89  0.002586755    2.454    0.593
       293  -9.2874    153.6446     24.6705   4.8970921959e+01   4.3653889534e+01    0.3379169    0.2801801 -41.72  0.001890669    1.293    0.226
       294  -9.3820    237.1257    206.8522   7.9280849486e+01  -4.7985275527e+00    0.1786948    0.1555029   7.86 0.0003114388    1.185    0.156
       295  99.0000    160.4629     24.8591   4.7890992285e+01   4.1904021303e+01    0.8499939    0.2741912 -37.77   0.00307838    3.057    0.673
       296  -9.0752    124.0131    205.9960   1.0215778177e+02   1.4633801320e+01    0.1930411    0.1724861  49.50            0    1.007    0.007
       297  -8.4486    233.8015    199.4201   7.8479815066e+01  -3.2196250884e+00    0.1817585      0.10716  24.68 0.0009421333    1.648    0.393
       298  -9.2459    179.7441     24.9764   4.5033786847e+01   3.6998798703e+01    0.2335072    0.1864975 -52.04 0.0006817574    1.272    0.214
       299  -9.9354    177.1264     21.5564   4.4411560256e+01   3.8045052977e+01    0.4060292    0.2834391  -4.89  0.001399748    1.884    0.469
       300  -8.7708    174.6958    194.0145   8.9122979304e+01   7.8996021317e+00    0.1834242    0.1715088  -9.12  0.000315605    1.102    0.092
       301  -9.9394     27.4561    193.5079   1.2174035083e+02   3.0719238202e+01    0.2179311    0.1873097 -60.18  0.001038041    1.433    0.302
       302  -9.9339     10.9037    192.4463   1.2504797218e+02   3.2534318781e+01    0.2580313    0.1398134  49.26  0.001576112    1.665    0.400
       303 -10.4616     10.5348    185.0346   1.2463359382e+02   3.4167590103e+01    0.3196032    0.2318859  -3.03   0.00200074    2.397    0.583
       304  -8.7769     53.4849    182.9829   1.1506659680e+02   3.0142027011e+01     0.196345    0.1142625 -72.61  0.001031226    1.586    0.370
       305  -8.2644    185.3761     23.5304   4.3867963487e+01   3.5745884737e+01    0.1329698    0.1249964  69.09 9.479855e-05    1.095    0.087
       306  -8.2692    140.4556     23.4379   5.0955475411e+01   4.7104680811e+01    0.1423293     0.125011  46.10 0.0008049158    1.062    0.059
       307 -10.3365    189.2452     19.4730   4.2260838153e+01   3.5231582606e+01    0.3155448    0.2449823 -75.96 0.0002567422    1.263    0.208
       308 -10.3975      2.0000    178.0402   1.2594589736e+02   3.6403389423e+01    0.4159037    0.1197416 -76.37  0.001856948    2.732    0.634
       309 -10.5718     36.3525     27.1071   8.5710231934e+01   6.7105243657e+01    0.2372932    0.1864129 -10.31 0.0003969253    1.048    0.045
       310  -9.1510      4.5417    177.4762   1.2537705125e+02   3.6325331205e+01    0.2185086    0.1562207 -47.08 0.0007824012    1.836    0.455
       311 -12.3879     49.3856     39.2414   8.4947627252e+01   6.3436028877e+01    0.4331394    0.3159924  -6.40  0.002548982    1.316    0.240
       312 -10.9038    110.6051     17.5725   5.5231811425e+01   5.4916615137e+01     0.246118    0.2219233  43.59 0.0002235731    1.068    0.064
       313  -9.3241     26.2742    180.0011   1.2088849324e+02   3.3823616040e+01    0.1794508    0.1377906 -88.89  0.001179699    1.068    0.064
       314  -9.5201    198.2285     16.4525   4.0414740309e+01   3.3339882256e+01    0.2559738    0.2105814  68.05 0.0007441618    1.173    0.147
       315  -9.1108    193.7578     14.7959   4.0475228618e+01   3.4616251169e+01    0.2547138    0.1460659 -76.21  0.001180075    1.979    0.495
       316  -9.0518     71.3445     16.6550   6.6380870560e+01   6.3234895603e+01    0.3042141    0.1412611  38.01  0.001427479    1.987    0.497
       317  -8.7943     36.7438    179.5435   1.1851505281e+02   3.2849828324e+01    0.1763968   0.09754414  49.64 0.0009493925    1.709    0.415
       318  -8.8545     79.8555    176.9794   1.0810863045e+02   2.7973682749e+01    0.2296805    0.1474359 -39.16  0.001091371    2.091    0.522
       319  -8.4541     70.4962    174.5289   1.1003006950e+02   2.9873276503e+01    0.1349987    0.1198661  83.28 0.0001448311    1.010    0.010
       320  -8.1743     65.4890    173.4915   1.1110275565e+02   3.0794403740e+01    0.1349797    0.1172892  82.96 3.504131e-05    1.013    0.013
       321  -9.4324     67.1392     12.7832   6.6076762767e+01   6.4449184737e+01    0.2831566    0.1576765  48.29 0.0009640614    1.825    0.452
       322  -9.2595     31.0634    170.4929   1.1893694327e+02   3.5514291770e+01    0.3159451    0.1597331  44.06   0.00166449    1.930    0.482
       323 -11.3065     32.7899    165.9012   1.1807071015e+02   3.6406352771e+01    0.2547208    0.2337211 -57.55 0.0006553082    1.302    0.232
       324  -9.1289     18.9969    165.5159   1.2126756842e+02   3.7801664014e+01    0.1632776    0.1166348  36.28  0.001030304    1.583    0.368
       325  -8.9882      2.4935    160.9857   1.2466972073e+02   4.0167227446e+01     0.183374   0.09218401 -79.01  0.001024879    1.566    0.361
       326 -10.2725     18.1616    158.9185   1.2086594707e+02   3.9400662651e+01    0.2360464    0.1903735 -12.65  0.000714999    1.822    0.451
       327  -9.8713     28.2018    158.2922   1.1838484975e+02   3.8640810496e+01    0.2355758    0.1640782  29.12 0.0007185325    1.709    0.415
       328  -9.6130      1.3210    156.5170   1.2460329883e+02   4.1266278395e+01    0.2237622   0.08589952 -77.18   0.00109475    2.041    0.510
       329  -9.1606      7.9975    151.4596   1.2262551041e+02   4.1945862118e+01    0.1994061    0.1306821 -70.34 0.0004467123    1.270    0.213
       330 -11.2093     14.1161    151.7269   1.2116942925e+02   4.1412591317e+01    0.3948008    0.3310996  79.55 0.0005137614    1.118    0.106
       331 -10.1768     20.2207    151.8881   1.1968645884e+02   4.0870169615e+01    0.2889478    0.1782966 -75.36  0.001217658    1.327    0.246
       332  -9.4907     17.7773    148.0085   1.1990177118e+02   4.1989832640e+01     0.227882    0.1510646 -82.98 0.0003881865    1.248    0.199
       333  -9.8121     30.8497    151.6647   1.1700153653e+02   3.9959266144e+01    0.2789986    0.1949277 -57.59 0.0007664345    1.389    0.280
       334  -8.6019     34.4665    150.4710   1.1593984308e+02   3.9891549978e+01    0.1293874    0.1083389 -79.67 0.0001052962    1.034    0.033
       335  -9.6819     45.4159    150.7031   1.1313548829e+02   3.8684440563e+01     0.244913     0.196652 -42.12 0.0005823688    1.452    0.311
       336  -9.3787     67.2942    148.0008   1.0692420709e+02   3.6650533855e+01    0.2039968    0.1713136 -76.28 0.0007517174    1.088    0.081
       337  -8.9037     10.7923    144.3879   1.2129482882e+02   4.3388067795e+01    0.1506699    0.1220837  29.86 0.0003134597    1.526    0.345
       338 -10.1046      5.2879    147.3132   1.2292093646e+02   4.3103331508e+01     0.207936    0.1614135  86.67 0.0006032154    1.080    0.074
       339 -10.5566      6.2891    142.4861   1.2224347104e+02   4.4157101005e+01    0.2727127    0.1807401 -85.85 0.0004701818    1.222    0.182
       340  -9.0723     44.9142    144.8618   1.1247282587e+02   4.0155568886e+01    0.3066096    0.2416472 -25.31  0.001330531    1.673    0.402
       341  -9.9579     40.4687    146.4669   1.1387331835e+02   4.0243088321e+01    0.2609344    0.2170106 -44.22    0.0010623    1.369    0.270
       342 -10.6065     38.0417    143.0663   1.1406896715e+02   4.1317363430e+01    0.3892916    0.3192725 -30.70  0.001415499    1.527    0.345
       343 -10.3154     25.5395    128.8450   1.1560957419e+02   4.5927313574e+01     0.758537    0.3251958  35.72  0.003612826    2.515    0.602
       344 -10.6465     35.2836    110.3312   1.0986452643e+02   4.9547532130e+01    0.7750403    0.6133088  -4.84  0.003360335    1.578    0.366
       345 -11.7773     15.9854    140.4617   1.1957436753e+02   4.3919512798e+01     1.032891    0.5419527  70.68  0.005198135    2.141    0.533
