#   1 NUMBER                 Running object number                                     
#   2 MAG_AUTO               Kron-like elliptical aperture magnitude                    [mag]
#   3 X_IMAGE                Object position along x                                    [pixel]
#   4 Y_IMAGE                Object position along y                                    [pixel]
#   5 X_WORLD                Barycenter position along world x axis                     [deg]
#   6 Y_WORLD                Barycenter position along world y axis                     [deg]
#   7 A_WORLD                Profile RMS along major axis (world units)                 [deg]
#   8 B_WORLD                Profile RMS along minor axis (world units)                 [deg]
#   9 THETA_WORLD            Position angle (CCW/world-x)                               [deg]
#  10 FWHM_WORLD             FWHM assuming a gaussian core                              [deg]
#  11 ELONGATION             A_IMAGE/B_IMAGE                                           
#  12 ELLIPTICITY            1 - B_IMAGE/A_IMAGE                                       
         1 -13.0082     37.4560     50.4531   9.6175078695e+01   6.2553503681e+01    0.7866452    0.5709823 -19.85  0.003493361    1.325    0.245
         2  -9.7133     20.9005     17.7259   9.1149553993e+01   7.0083961817e+01     1.157049    0.7686988 -65.99  0.006022666    3.209    0.688
         3 -11.6913     16.0583     31.4703   9.9136506715e+01   6.8101131536e+01    0.5744566    0.3930475  -6.26  0.002292391    1.478    0.324
         4 -11.4953     22.6310      7.2575   8.5212139856e+01   7.1506790594e+01     0.363782    0.2958288 -52.02  0.001928727    1.982    0.495
         5 -11.1537     17.5587      6.1132   8.7329264430e+01   7.2185310424e+01    0.2662698    0.1902286 -38.44 0.0009305382    1.468    0.319
         6 -11.2918     61.9615     16.4271   7.2061320806e+01   6.4891790512e+01    0.5931996     0.302614  10.38  0.002413837    3.208    0.688
         7 -12.8650    129.8032     22.6664   5.5128263630e+01   4.9958037184e+01    0.6031939    0.4836121  59.79 0.0007201869    1.196    0.164
         8 -11.6124     11.7802      2.4668   8.8649265965e+01   7.3251022253e+01    0.3233486    0.1882087  -1.99  0.001194524    1.685    0.407
         9 -10.4491    120.0856     21.5357   5.6852309127e+01   5.2406820441e+01    0.4492821    0.2539084  -5.42  0.001962966    2.291    0.564
        10 -11.0778     85.5899     22.3524   6.6523390486e+01   5.9832986287e+01    0.5389963    0.3565334 -64.87  0.002328313    3.256    0.693
        11 -11.5167    170.8645     20.1201   4.7037009465e+01   3.9934020427e+01     0.467787    0.2151328 -31.77 0.0006104137    2.199    0.545
        12 -11.0972    165.0269     17.1059   4.6968891262e+01   4.1744123579e+01    0.3512312    0.2866808 -32.63 0.0008228332    1.309    0.236
        13 -11.5886      3.8938     18.1896   1.0028275618e+02   7.1321377253e+01    0.3510402    0.2501962   1.29  0.002414057    1.447    0.309
        14 -10.7086      9.8755     15.9969   9.6162853877e+01   7.1291757560e+01    0.2809609    0.1410676 -30.26  0.001116285    1.646    0.393
        15 -11.3183     73.4190      9.9397   6.4877614069e+01   6.3619977723e+01    0.5184473    0.2735061  -3.29  0.002014055    2.358    0.576
        16 -10.2326     77.0000     10.9275   6.4159976355e+01   6.2834086988e+01    0.2625735    0.1626953 -20.71  0.001239499    1.587    0.370
        17 -11.0401     30.9092     13.3293   8.4070544827e+01   6.9715952871e+01    0.4458841    0.2043724 -25.60 0.0004432312    2.146    0.534
        18  -9.6800     42.2318      7.4164   7.5759543231e+01   6.9062748396e+01    0.2108547    0.1532905  49.08  0.001209583    2.017    0.504
        19 -10.7787     40.0927     10.9003   7.8512282524e+01   6.8907333555e+01    0.2842263    0.2316874  11.84 0.0005325926    1.188    0.159
        20 -11.0515     35.7605     14.9588   8.2536092382e+01   6.8899864401e+01    0.2646322    0.1703453   9.45 0.0003344234    1.532    0.347
        21 -10.6535     55.1663     13.2152   7.3184694169e+01   6.6401751973e+01    0.4381147    0.1695585 -36.18   0.00135532    2.589    0.614
        22 -10.6997    118.9012     12.0467   5.3486934906e+01   5.3675744036e+01    0.3283226    0.2439128  32.96  0.001819624    1.283    0.221
        23 -10.0920    117.2953      8.6529   5.2520724491e+01   5.4372082565e+01    0.5233334    0.2401925  71.16  0.002112803    2.651    0.623
        24 -10.2357    100.3131     12.4921   5.8071798888e+01   5.7867215908e+01     0.254114    0.1912938  14.58 0.0007651774    1.309    0.236
        25  -9.9098      5.2718     12.9943   9.7377318341e+01   7.2120060939e+01    0.2034062      0.12142 -40.23  0.001208406    1.281    0.219
        26 -10.8167      6.6539      8.4294   9.4541008658e+01   7.2765531106e+01    0.1840866    0.1570152 -39.21   0.00141203    1.440    0.306
        27 -10.8377    132.3481     11.0937   5.0420469378e+01   5.0534745035e+01    0.3932151     0.266726  48.48   0.00105669    1.321    0.243
        28 -10.7845    164.8747      8.0029   4.4174234891e+01   4.2686496524e+01    0.5447283    0.2018006 -21.18  0.002103335    3.107    0.678
        29 -12.1327    235.0348      9.5838   3.7266535855e+01   2.5420062268e+01     0.356563    0.2038014  86.47   0.00188933    1.707    0.414
        30  -9.7554    138.7921     10.0770   4.8888372975e+01   4.9044571100e+01     0.207667    0.1796238 -74.27 0.0008429841    1.296    0.228
        31 -11.0843    146.0477      7.2854   4.6716766864e+01   4.7494311039e+01    0.3861886    0.3006043  -7.20  0.002182154    1.465    0.317
        32 -10.1703     51.2931     10.4558   7.3403140561e+01   6.7349671415e+01    0.3372231    0.1754412   0.96  0.001508735    2.776    0.640
        33  -9.7218    127.2111      8.4068   5.0418752528e+01   5.2031016124e+01    0.1797519    0.1238726  74.96 0.0003962664    1.542    0.352
        34 -10.3887     91.6350      7.2656   5.8139307253e+01   6.0245024073e+01    0.2121536    0.2035558  34.88  0.001046776    1.206    0.171
        35 -10.5039     93.4924      4.4699   5.6417204049e+01   6.0104701982e+01    0.2258303    0.1857401  13.09 0.0005115642    1.134    0.118
        36 -10.8299     81.1573      6.4256   6.0771645543e+01   6.2479221535e+01    0.2085543    0.1623624  -4.70 6.534647e-05    1.228    0.186
        37 -11.2866    241.7760      2.7291   3.5225124868e+01   2.4647235999e+01    0.3423336    0.1787654 -68.05 0.0009848858    1.849    0.459
        38 -10.7677    237.1712      2.1764   3.5431865319e+01   2.5726650395e+01    0.2148913    0.1510479  72.90 0.0006736767    1.395    0.283
        39 -12.0107     75.5920     15.8612   6.6899192354e+01   6.2545682145e+01    0.4588845    0.2743385  43.48  0.001713012    1.582    0.368
        40  -9.9324    224.5199      3.4839   3.6696036218e+01   2.8473624674e+01    0.1255836    0.1096782 -80.30 0.0008093754    1.061    0.058
        41 -10.2768     73.4435      2.2827   6.1211471062e+01   6.4380198097e+01    0.2155471    0.1812321  47.07  0.000799354    1.301    0.231
        42 -12.0204     31.7327      2.0754   7.7830358316e+01   7.1134814542e+01    0.2520649    0.1726276   9.82 0.0008289832    1.267    0.211
        43 -10.7158     26.2268      2.9890   8.1091100909e+01   7.1690319789e+01    0.2012331    0.1465589  17.01 0.0007380518    1.307    0.235
        44  -8.9424      4.4596      3.4674   9.3411012191e+01   7.3701023230e+01    0.1095984   0.08138262 -23.43 0.0002204063    1.073    0.068
        45 -10.0095    167.0553      1.8224   4.2008846536e+01   4.2691965367e+01    0.3112476    0.1696871  81.39  0.001033214    1.834    0.455
        46  -9.3664    126.6863      2.3072   4.8266420579e+01   5.2679172927e+01    0.1300122   0.09918168 -67.45 0.0005565524    1.624    0.384
        47 -10.2771    112.8324      2.5572   5.1075522603e+01   5.5940245468e+01    0.2262628    0.1916265 -63.52 0.0005784688    1.476    0.323
        48  -9.0624     20.2932      1.3221   8.3305950909e+01   7.2573472491e+01    0.1179821   0.06864272  -9.90 0.0003967086    1.613    0.380
        49  -9.2995    238.6582    201.2848   8.0532212712e+01  -4.1713007162e+00    0.1085455    0.1033742  63.82 0.0007016719    1.638    0.389
        50 -10.5852    250.3190    246.5692   8.6405455863e+01  -1.1407692531e+01    0.2180965    0.1429905  -7.48  0.001484748    1.375    0.273
        51 -10.0194     72.6116    250.0927   1.1894807938e+02   1.4397528839e+01    0.1730627    0.1612884 -49.79  0.001342498    1.613    0.380
        52 -12.4040     74.4156    238.8132   1.1770243765e+02   1.6135369057e+01    0.6194861    0.4624009 -63.02  0.004268942    1.601    0.375
        53 -13.0320     20.4444    248.6109   1.2761449862e+02   2.0863655251e+01    0.9714642    0.2431794  38.79  0.004836609    3.202    0.688
        54 -13.4216      6.9883    244.5110   1.2956166178e+02   2.2946737260e+01     1.147118    0.7368351  24.60  0.007927936    2.521    0.603
        55  -9.7075     34.3046    201.5213   1.2226918659e+02   2.8388524117e+01    0.1304753    0.1112356  36.77 0.0006435918    1.488    0.328
        56 -10.0111    215.6285    194.7941   8.3507040952e+01   5.7973032787e-01    0.2042684    0.1512176  -8.51 0.0006164043    1.360    0.265
        57  -9.5763    211.4917    188.4409   8.3066755268e+01   2.3057090337e+00    0.2400168    0.1212264 -25.63  0.001026292    2.338    0.572
        58  -9.2714      1.5104    188.4575   1.2778112385e+02   3.4280888604e+01    0.1123448   0.08250145  82.57 0.0003465536    1.017    0.017
        59 -11.0498     16.5910    183.7848   1.2449085886e+02   3.3954227777e+01    0.2931565    0.1753221  80.82   0.00161977    1.395    0.283
        60 -10.3768     15.3130    180.6837   1.2452742309e+02   3.4743974137e+01    0.1970907    0.1415427  40.39 0.0009994159    1.548    0.354
        61  -9.7764    167.1536    183.6149   9.1147009694e+01   1.1370299224e+01    0.2082847    0.1259064  31.44 0.0008685333    1.706    0.414
        62  -9.7846      1.9592    180.4587   1.2721990538e+02   3.5937298175e+01    0.1560284   0.06068664  56.00 0.0005762167    2.321    0.569
        63  -9.9846    244.4058    178.2870   7.5028467414e+01  -1.7935554644e+00    0.2464066    0.1137244 -28.36  0.001107233    2.105    0.525
        64 -10.5253    224.1481    178.4674   7.8688452572e+01   1.6539887282e+00    0.2363042    0.2026051 -34.69 0.0004008513    1.281    0.219
        65  -9.3613     70.1662    177.7727   1.1220438481e+02   2.9175672770e+01    0.1644212    0.1510139 -45.69 0.0005507992    1.359    0.264
        66 -10.0944     46.6699    177.7437   1.1752761031e+02   3.2159595124e+01    0.2568966    0.1497319  49.74  0.001418659    1.626    0.385
        67  -9.0028     36.3073    178.3344   1.1987296195e+02   3.3185545886e+01    0.1166774   0.08628547 -50.24 0.0007041051    1.671    0.401
        68  -9.8119    200.5612    176.2548   8.2768820202e+01   6.3504799014e+00     0.196505    0.1292308 -24.30 0.0009453836    1.638    0.389
        69 -11.0953     17.9036    172.9631   1.2339101030e+02   3.6206763575e+01    0.3730481    0.1939682  72.32   0.00204553    1.830    0.453
        70  -9.5256      4.7539    168.2885   1.2584632672e+02   3.8357736081e+01    0.1886749   0.06300424 -67.05 0.0008671366    2.377    0.579
        71 -11.9353     36.2806    163.0195   1.1834147082e+02   3.6673678993e+01    0.5619273    0.4896282  85.79   0.00381478    1.100    0.091
        72 -11.8849     36.8972    157.8168   1.1762537264e+02   3.7819318694e+01    0.2424291      0.18412 -88.59 0.0002747099    1.109    0.099
        73  -9.6829     67.1622    165.1587   1.1124427020e+02   3.2486087016e+01     0.194748    0.1414225  71.64  0.001070699    1.366    0.268
        74 -11.5557     50.9985    162.8690   1.1483779852e+02   3.5067733972e+01     0.621959    0.4426026  86.76  0.003598588    1.304    0.233
        75 -10.8344     44.7276    162.0999   1.1624424762e+02   3.5971506597e+01    0.3549957    0.1883944 -71.09  0.001433143    1.643    0.391
        76  -9.2586    200.4597    162.5614   7.9913729551e+01   8.8002281364e+00    0.1428029    0.1343776   3.70 0.0003228231    1.047    0.045
        77 -11.6931     22.2158    156.8294   1.2100159354e+02   3.9472752378e+01    0.4602686    0.4077003  83.25  0.003274109    1.160    0.138
        78 -10.0780    247.3138    158.2888   7.0370516045e+01   7.5190199748e-01     0.136305   0.09470013   2.78 0.0002614987    1.587    0.370
        79 -10.3599     12.1071    153.4881   1.2304814062e+02   4.1100491233e+01    0.2406847    0.1968287   6.90   0.00164919    1.776    0.437
        80 -10.2835    178.0098    151.4261   8.2139189982e+01   1.5482696664e+01     0.275425    0.2565504 -75.27  0.001116276    1.240    0.193
        81 -11.5567     11.5778    145.8989   1.2248446100e+02   4.2887608008e+01    0.3996541    0.2358133  49.85  0.002361019    1.758    0.431
        82 -10.0940    207.0739    146.3313   7.4995249797e+01   1.0415666759e+01    0.2046965    0.1856124  34.49 0.0007600598    1.138    0.121
        83  -9.0910     41.6702    146.3300   1.1505477897e+02   4.0030647515e+01    0.1377083   0.08634187  72.30 0.0007051637    1.714    0.417
        84  -9.6740    220.4596    143.9850   7.1925898225e+01   8.1278867052e+00    0.2173127    0.1333561 -36.08 0.0006571184    1.532    0.347
        85 -10.4709      2.8330    143.7601   1.2438435136e+02   4.4017342632e+01    0.2136849    0.1236242 -68.35  0.001295227    1.400    0.286
        86  -9.7713     49.4931    141.8670   1.1241219171e+02   4.0235486275e+01    0.2023983     0.172628 -42.37 0.0005395786    1.360    0.265
        87 -11.2099     19.6657    140.9175   1.1999242822e+02   4.3400548601e+01    0.3278005    0.1453667 -80.13  0.001182066    2.006    0.502
        88 -10.4220     15.4179    140.0000   1.2096104512e+02   4.3959540959e+01    0.2825593     0.133247  12.11  0.001317821    3.515    0.716
        89 -10.7107      9.0280    137.1733   1.2227385840e+02   4.5100072707e+01    0.2888082    0.1281551 -71.10 0.0005832745    1.728    0.421
        90 -10.8633      3.3517    135.7917   1.2355525546e+02   4.5812389119e+01    0.4223754    0.1547716 -52.05  0.001975842    2.723    0.633
        91 -11.0959     22.1148    136.1027   1.1882647375e+02   4.4330787778e+01    0.2582493    0.1992125  62.42 0.0009822147    1.338    0.252
        92  -9.1456    122.6933    135.3180   9.1632891258e+01   3.0376817042e+01    0.1552505    0.1202712  84.85 0.0003958718    1.632    0.387
        93  -9.7594    249.9758    134.0202   6.4628184723e+01   4.1097563840e+00    0.1674563     0.147651 -17.62 0.0007686455    1.030    0.029
        94 -10.0336    107.1183    133.3053   9.5290746381e+01   3.3779453880e+01    0.2549532    0.2057883 -40.70  0.001284193    1.289    0.224
        95 -10.1496     33.0538    132.8922   1.1553262035e+02   4.4116972966e+01      0.30122    0.1551427 -79.39  0.001065878    1.837    0.456
        96 -11.3454     37.3826    130.1224   1.1396853095e+02   4.4362612106e+01    0.3703303    0.2611034 -56.44  0.001595059    1.302    0.232
        97  -9.5855     79.6407    133.2596   1.0278366919e+02   3.8346170955e+01    0.1451268    0.1045956  69.92   0.00069747    1.625    0.385
        98 -10.2148     55.1552    132.9391   1.0950503613e+02   4.1731101553e+01    0.3214845    0.1704981  44.44  0.001523443    2.025    0.506
        99 -10.6458     74.0778    129.4673   1.0360256824e+02   4.0081531676e+01    0.2751016    0.2505896  74.23 0.0007805736    1.126    0.112
       100 -11.6846     10.4816    122.7215   1.2036091926e+02   4.8375694244e+01     0.248385     0.211502  65.01  0.001048547    1.283    0.221
       101  -9.5512     82.0138    125.2542   1.0051024661e+02   3.9922556451e+01    0.1954155    0.1811771 -71.03 0.0005248325    1.017    0.016
       102 -11.0529      2.0607    124.8643   1.2283499481e+02   4.8421993351e+01    0.3286519    0.1368109 -71.69 0.0009482951    1.790    0.441
       103  -9.8717    219.7850    124.4145   6.7469296517e+01   1.1709518377e+01    0.1941877    0.1371577  35.46 0.0004798216    1.541    0.351
       104  -9.7569     21.2235    121.5185   1.1725446865e+02   4.7866278567e+01    0.1543656    0.1179368 -16.91 0.0009426952    1.771    0.435
       105 -11.3906     17.4806    114.8476   1.1742103890e+02   4.9735929768e+01    0.3538688    0.2230739 -50.85  0.001132174    1.482    0.325
       106 -12.3927     15.2674    108.9521   1.1725306386e+02   5.1287408037e+01    0.5286938    0.3824334 -38.17  0.002361078    1.529    0.346
       107 -11.2659     12.1897    103.8435   1.1745146513e+02   5.2695081408e+01    0.3034821    0.2387415  31.16  0.002027478    1.575    0.365
       108 -10.1170    249.7780    118.6199   6.1174637641e+01   6.6233291931e+00    0.1732033    0.1357455  67.03 0.0008755777    1.645    0.392
       109  -9.8316    220.0921    116.8565   6.5588332566e+01   1.2977418105e+01    0.2233249    0.1978132 -58.81 0.0005455188    1.242    0.195
       110  -9.4737     86.3844    116.5012   9.7335396059e+01   4.1338646944e+01    0.1470525     0.132422 -57.81 0.0007990038    1.028    0.027
       111  -9.2200    201.2643    117.3397   6.9167379136e+01   1.7026136749e+01    0.1530032    0.1173431  -1.63 0.0006495857    1.593    0.372
       112 -10.5766    248.9613    112.1833   5.9817698645e+01   7.8199982856e+00     0.216544    0.1766075 -52.96 0.0008757334    1.301    0.232
       113  -9.6166     94.6667    112.3160   9.3926055817e+01   4.0949081882e+01    0.1521269    0.1167733  82.47 0.0007047071    1.688    0.408
       114 -12.9502     55.1922    110.2981   1.0536188516e+02   4.7216689001e+01    0.3238417    0.2604043 -52.15 0.0005017495    1.125    0.111
       115 -12.1164      3.0585    106.4238   1.2051017953e+02   5.2645095536e+01    0.3598187    0.2853599 -73.22  0.001192675    1.038    0.036
       116 -12.0136     35.8261    108.6712   1.1100309902e+02   4.9676165866e+01    0.4415395      0.27245  79.46  0.001665412    2.117    0.528
       117 -10.8252     35.5989    102.4671   1.0995179092e+02   5.1178016692e+01    0.2986522    0.2495628 -12.28  0.001340056    1.451    0.311
       118  -9.3505     71.6516    115.7043   1.0150857303e+02   4.3760906911e+01    0.1442163     0.105914 -26.94 0.0007033146    1.677    0.404
       119 -11.2538     24.1883    107.8753   1.1441934369e+02   5.0876586162e+01     0.332568    0.2359571  75.43  0.001947743    1.585    0.369
       120  -9.2465    103.7575    107.9950   9.0198997264e+01   4.0326894288e+01    0.1939932    0.1233939 -49.30 0.0002143354    1.493    0.330
       121 -10.5110     61.9679    107.0169   1.0257818959e+02   4.7161204351e+01    0.2183112    0.1865651 -47.72 0.0005646484    1.098    0.089
       122 -10.8957    243.7569    104.4433   5.8784450482e+01   1.0114953831e+01    0.2645411    0.1920892 -18.04  0.000665046    1.461    0.315
       123 -10.9622    247.1907    102.3679   5.7795217009e+01   9.7538098717e+00    0.2525095    0.2041584  51.53 0.0008851623    1.403    0.287
       124 -10.1949    223.5993    104.1393   6.1868596365e+01   1.4429583412e+01    0.2215339    0.2046728 -83.54 0.0005479381    1.219    0.179
       125 -10.2474    119.3789    102.3474   8.4260308214e+01   3.8544010801e+01    0.3221778    0.2374471 -32.34  0.001138935    1.426    0.299
       126 -12.1099      3.0805     99.8608   1.1966683063e+02   5.4164014988e+01    0.3584622    0.2238599  86.98 0.0007326299    1.609    0.378
       127  -9.4778    145.4943    100.4814   7.6877965586e+01   3.3250416554e+01    0.2900348    0.1538919 -41.93  0.001115955    1.849    0.459
       128 -10.6072    143.8750     97.3490   7.6392137510e+01   3.4269517285e+01    0.8197617    0.1715366  46.07  0.002008887    4.832    0.793
       129 -11.2835     62.1654     98.7009   1.0062904723e+02   4.9110673408e+01    0.3265133    0.3099678  36.41 0.0008988485    1.190    0.160
       130 -11.4756     20.5036     96.5828   1.1372032823e+02   5.3822992825e+01    0.4568942    0.1999996 -78.06  0.001810153    2.501    0.600
       131  -9.6613     10.4665     99.0642   1.1728732748e+02   5.3920734131e+01    0.1867764    0.0965197 -69.22  0.000378745    1.507    0.336
       132  -9.1494     85.4486     98.5012   9.3197966657e+01   4.5725104453e+01    0.1473089    0.1351841 -46.68 2.244266e-05    1.007    0.007
       133 -10.0714     40.6306     97.2464   1.0730990668e+02   5.1930214334e+01    0.2472623    0.1402041 -53.81 0.0007586023    1.458    0.314
       134 -10.1132    250.1712     95.8764   5.5858549334e+01   1.0186575289e+01    0.2125985    0.1689985 -50.83 0.0006299585    1.223    0.182
       135 -11.1263     66.9257     97.4941   9.8805092879e+01   4.8756125136e+01    0.4078966    0.1777927 -53.21  0.001456545    2.001    0.500
       136  -9.5206     27.9882     95.9698   1.1118808940e+02   5.3383415460e+01    0.1495663    0.1213294 -61.12 0.0009386831    1.002    0.002
       137  -9.2841     77.3756     94.7781   9.4759642383e+01   4.7865541866e+01    0.2054249    0.1218072 -44.30 0.0003121003    1.563    0.360
       138 -11.7360    158.3689     89.7027   7.0715790789e+01   3.2397822148e+01    0.4947096    0.3567244 -16.66  0.002157433    1.691    0.409
       139 -11.1403    162.5312     92.4752   7.0569296078e+01   3.0862748508e+01    0.3226558    0.2675098 -11.66 0.0005879966    1.365    0.267
       140 -12.4648    163.4941     84.7158   6.8111682666e+01   3.2109195867e+01    0.9231862    0.7855886 -87.20  0.003944481    1.378    0.274
       141 -10.0646     31.3620     93.0838   1.0952450026e+02   5.3774076414e+01    0.1942677    0.1518052 -79.52 0.0005349861    1.287    0.223
       142 -10.9892     25.6607     91.2717   1.1107182228e+02   5.4670852048e+01    0.2914176    0.2406958 -11.95  0.001179217    1.443    0.307
       143 -10.8767     22.8812     87.0481   1.1119684208e+02   5.5864895922e+01    0.2872282    0.1746531 -57.30  0.001049145    1.292    0.226
       144  -9.0954     46.7013     92.3444   1.0424175612e+02   5.2449995952e+01    0.1324937    0.1001262  83.98 0.0007035697    1.674    0.403
       145 -11.1642     10.5437     90.9876   1.1601856927e+02   5.5788876560e+01    0.2312474     0.217486 -23.84 0.0008501755    1.288    0.224
       146  -9.5444    135.2391     90.7372   7.6666200519e+01   3.7593211325e+01    0.2520827    0.1272583 -30.44 0.0008832694    2.399    0.583
       147 -10.6788    103.9765     92.0028   8.5755360920e+01   4.3887614087e+01    0.2243194     0.210101 -27.67            0    1.033    0.032
       148  -8.9593    120.6926     87.2812   7.9540693367e+01   4.1504557872e+01    0.1496492    0.1239742 -86.40 0.0002954322    1.560    0.359
       149 -11.2842      4.4674     85.2804   1.1710985986e+02   5.7438721497e+01    0.3502478    0.2180936 -54.69  0.001356851    1.271    0.213
       150  -9.9639    112.0197     85.9585   8.1602370201e+01   4.3592782412e+01    0.2422287     0.192937 -79.03  0.001134698    1.678    0.404
       151 -11.1282     67.0802     84.8366   9.5470815714e+01   5.1642647872e+01    0.3725299    0.2441533 -22.01  0.001127766    1.917    0.478
       152 -11.0586     87.9005     83.2177   8.8136121644e+01   4.8736577487e+01    0.3659315    0.2762447 -73.93 0.0005105252    1.776    0.437
       153 -10.5806     44.8621     83.3487   1.0275211984e+02   5.4725114375e+01    0.3930203    0.2219513  40.57  0.001920708    2.114    0.527
       154 -11.7676     12.9713     80.3693   1.1334775371e+02   5.8072385259e+01    0.7563215     0.238745 -67.60  0.002388677    2.648    0.622
       155 -12.4273      6.1373     75.1783   1.1480422528e+02   5.9632869995e+01     1.617733    0.3854369 -46.89  0.006536004    3.158    0.683
       156 -12.4136     16.4610     67.9437   1.0950052984e+02   6.0628585387e+01     0.387571    0.2101533 -56.58  0.002168643    1.412    0.292
       157 -11.3561     21.0414     66.1730   1.0732409576e+02   6.0698059131e+01    0.5075231     0.324913  79.65  0.002498338    2.639    0.621
       158  -9.1460     51.6901     93.7142   1.0289112663e+02   5.1570597630e+01    0.1370413   0.09387575 -32.43 0.0002239561    1.573    0.364
       159  -9.9649    132.9327     83.2071   7.4999626458e+01   3.9633686209e+01    0.2266069    0.2094943 -77.38 0.0005787792    1.209    0.173
       160  -9.5487    117.6281     83.2570   7.9172700451e+01   4.2986643270e+01    0.2224506    0.1409983 -32.97 0.0009491848    1.634    0.388
       161 -11.1043     75.1932     82.3540   9.2041885791e+01   5.1001241301e+01    0.3975106    0.2749321 -46.22  0.002012613    1.306    0.235
       162 -11.1090     30.9809     81.7309   1.0726980352e+02   5.6432623982e+01     0.328809    0.1886692 -36.57  0.001252529    1.754    0.430
       163  -9.4389    196.2960     82.3062   6.0900666826e+01   2.4526548712e+01    0.1506019    0.1194201  14.01 0.0003251054    1.586    0.369
       164 -10.4246     21.6828     81.0299   1.1041048166e+02   5.7334159248e+01      0.35357    0.1751196 -27.20  0.001407856    2.638    0.621
       165 -11.7106     21.1323     77.3213   1.0983073445e+02   5.8215255965e+01    0.4333327    0.2503635 -33.92  0.001570828    1.781    0.439
       166 -10.6882     60.6152     77.7961   9.5733262631e+01   5.4092290209e+01    0.3854676     0.272829 -21.79  0.001754354    1.584    0.369
       167 -11.5924     58.0156     74.0082   9.5567565416e+01   5.5261285238e+01    0.4009374    0.3579202  25.59  0.001601896    1.259    0.206
       168 -11.5584     62.4169     71.6377   9.3284109683e+01   5.5186024666e+01    0.2746442     0.229332 -39.51 0.0009346891    1.051    0.049
       169 -11.0657     91.8179     77.8635   8.5248391032e+01   4.9186247831e+01    0.4879836    0.2532445  40.23  0.002056598    2.039    0.510
       170 -12.1374     44.8695     75.0679   1.0062967795e+02   5.6587356525e+01    0.2968204    0.2351459 -49.65 0.0003594646    1.079    0.073
       171 -11.8701     50.3030     68.2629   9.6704960722e+01   5.7455468988e+01    0.4241587    0.2769294 -15.84  0.001278746    1.864    0.464
       172 -10.5582     51.1174     63.3776   9.4911883460e+01   5.8389308771e+01    0.3683357    0.1757451 -49.55 0.0008799634    1.816    0.449
       173  -9.9261    187.2757     75.9692   6.0783998267e+01   2.7820584562e+01    0.2049312    0.1884937 -36.32 0.0002182407    1.071    0.066
       174  -9.1563    121.6840     76.3035   7.5858868344e+01   4.3504310456e+01    0.1511813    0.1234984 -80.82 0.0007024132    1.621    0.383
       175 -10.9136    109.3836     74.7893   7.8878448023e+01   4.6417207235e+01    0.3453378    0.2611062   3.60  0.001183594    1.644    0.392
       176 -10.3710     74.6523     75.8498   9.0289665435e+01   5.2496978881e+01     0.234221    0.1614997 -32.31 0.0009554536    1.428    0.300
       177 -11.5613     46.3761     57.4606   9.4865773653e+01   6.0169023116e+01    0.4325598    0.2855401  41.18  0.001155419    1.885    0.469
       178 -10.0652    137.5821     74.2472   7.1017419165e+01   4.0285045777e+01    0.2825741    0.2230708 -70.82 0.0008442282    1.607    0.378
       179  -9.7196    145.5178     73.9270   6.8973451448e+01   3.8461434143e+01     0.243306    0.1521503 -35.81  0.001033963    1.595    0.373
       180 -12.0415    150.1031     71.9715   6.7286389200e+01   3.7707751053e+01    0.3489757    0.2845102 -37.04 0.0003120719    1.222    0.181
       181 -11.7035    102.5071     72.8015   8.0293127209e+01   4.8198933820e+01    0.3061758    0.2938408  10.54 -3.515504e-05    1.061    0.058
       182 -10.9644     77.5055     71.5533   8.7975599723e+01   5.2951458515e+01    0.3904428     0.263694  39.02  0.001746704    1.609    0.379
       183 -10.5751     31.2918     67.3836   1.0367690457e+02   5.9608337054e+01    0.3231918    0.2138077 -58.14   0.00163166    1.322    0.244
       184 -10.3000     38.4274     72.4729   1.0231708122e+02   5.7826423102e+01    0.2245862    0.1443681 -45.22 0.0006675037    1.297    0.229
       185 -10.5158     36.6966     68.3879   1.0187818608e+02   5.8890334324e+01     0.296866     0.219924 -44.76  0.001429285    1.109    0.098
       186  -9.5588    128.9182     71.5536   7.2381923156e+01   4.2792122369e+01    0.2199196    0.1496499  47.65 0.0003373033    1.479    0.324
       187 -11.2620    167.5891     69.9858   6.2871765971e+01   3.3739578183e+01    0.2651907    0.2193254  56.61  0.000347473    1.213    0.176
       188  -9.6050    144.7520     69.3952   6.7729114499e+01   3.9463158616e+01    0.2177738    0.1402615  41.98 0.0006386542    1.595    0.373
       189 -11.6486     94.2675     66.6837   8.0830023012e+01   5.0994805629e+01    0.6781863    0.2668101 -39.51  0.002495861    2.456    0.593
       190 -10.4968     68.7733     67.1573   8.9608634393e+01   5.5216795860e+01    0.3478493    0.1638021 -41.53  0.001093688    1.932    0.482
       191 -12.2420      3.9110     65.1120   1.1368498915e+02   6.1970873901e+01    0.4173585    0.3319218  76.72  0.001496454    1.584    0.369
       192 -11.5984      5.3497     58.8633   1.1179057898e+02   6.3249985932e+01    0.2777477    0.2114372 -65.69  0.000255926    1.201    0.167
       193  -9.7850    194.8019     70.7242   5.7975388671e+01   2.6840712457e+01     0.388014    0.1820046 -28.46  0.001441486    2.340    0.573
       194 -10.6230     77.2311     64.2034   8.5658980607e+01   5.4490622036e+01    0.3708827    0.2370766 -45.89  0.001580272    1.494    0.330
       195 -10.5573     83.4564     61.8204   8.2712817694e+01   5.3902275629e+01    0.3267328     0.276839  60.40  0.001787242    1.513    0.339
       196 -10.9707     86.9903     57.1982   7.9898676344e+01   5.4142296246e+01    0.5333825    0.2688347 -38.05  0.001300774    1.886    0.470
       197 -10.9892     87.3821     52.4529   7.8041941553e+01   5.4926916082e+01    0.5219364    0.2645378 -27.59  0.002151835    2.218    0.549
       198  -8.9923    222.7029     62.7078   5.1550465734e+01   2.1379182486e+01    0.1353341    0.1111218  19.88 0.0002750146    1.560    0.359
       199 -11.1584    201.3694     61.8054   5.4437285894e+01   2.6642365349e+01    0.2484324    0.2428921  76.82 0.0002900738    1.066    0.062
       200  -9.8903     11.1168     62.3866   1.1030181186e+02   6.2174669352e+01    0.1522096    0.1331198 -42.46  0.000631451    1.145    0.127
       201  -9.9019    155.5292     60.9110   6.2605428583e+01   3.8268672534e+01    0.2329168     0.149658 -33.77  0.001024056    1.569    0.363
       202 -10.4537     26.6311     49.5090   1.0043149035e+02   6.3764922329e+01    0.4227947    0.1897159 -60.18  0.001970184    2.316    0.568
       203 -11.2230     29.8654     60.8377   1.0245667316e+02   6.1140840260e+01    0.6177109    0.2732939   9.04  0.002623637    3.479    0.713
       204 -12.0996    232.1947    246.9498   8.9545132108e+01  -8.9844456254e+00    0.5558578    0.2117962 -29.91  0.002765566    2.938    0.660
       205 -11.6267     75.3062     56.1081   8.3519032647e+01   5.6373598611e+01    0.2332677      0.21081 -21.25  0.000280331    1.055    0.052
       206 -11.1064     70.5607     50.6810   8.3247112826e+01   5.8149084992e+01    0.4655761     0.358986  72.22  0.002357631    2.249    0.555
       207 -10.3402     61.8651     54.2774   8.7787014416e+01   5.8792787143e+01    0.3914663    0.1577257 -46.87  0.001611964    2.315    0.568
       208  -9.5142    190.2225     55.0605   5.4336690157e+01   3.0442230701e+01    0.1909371    0.1204385 -31.30 0.0003609464    1.605    0.377
       209 -10.3728     99.9356     55.3020   7.5070862673e+01   5.1994810158e+01    0.2846085    0.1919938  28.66  0.001353093    1.597    0.374
       210  -9.7556    119.9975     52.9748   6.8469363057e+01   4.8081711678e+01    0.2292643    0.1688107  18.51 0.0003351929    1.564    0.360
       211 -10.8747      5.7232     51.8940   1.0999657549e+02   6.4705645092e+01     0.318445    0.1783013 -40.86  0.001130751    1.449    0.310
       212 -11.7084    128.6965     50.0956   6.5212275927e+01   4.6530928792e+01    0.5727134    0.3695893  -2.77  0.001242285    2.178    0.541
       213 -11.3579     63.9929     60.0330   8.8985984109e+01   5.7360984187e+01    0.3108905    0.2045104  31.18  0.000997621    1.643    0.391
       214 -10.8804     58.1019     58.7373   9.0752112903e+01   5.8441865298e+01    0.2838728    0.2414666  15.83  0.001721836    1.246    0.197
       215 -10.9182     12.3856     51.1251   1.0698011862e+02   6.4484713900e+01    0.2370186    0.2100846 -69.27 0.0004550747    1.312    0.238
       216 -11.2217     11.7587     44.3074   1.0533510258e+02   6.5915834199e+01    0.4436161    0.2070875 -43.51  0.002067176    1.629    0.386
       217 -10.8997    104.3411     49.4170   7.1591713579e+01   5.2086590856e+01    0.3789067     0.267383 -24.84  0.001883609    1.424    0.298
       218  -9.7365     76.6879     50.3479   8.0921731354e+01   5.7199975430e+01     0.147631    0.1265442  -9.69 0.0008468915    1.063    0.059
       219 -10.4007     78.6014     47.1075   7.9023054939e+01   5.7440036335e+01    0.2481908    0.1703023 -35.57 0.0004515626    1.375    0.273
       220  -9.2250     65.2195     50.3567   8.5104683525e+01   5.9038262459e+01     0.137169   0.09074706 -21.37 0.0003756255    1.559    0.358
       221 -10.3974     53.2259     50.0078   8.9606477697e+01   6.0793686892e+01    0.2153248    0.1853835  13.95  0.001064753    1.225    0.184
       222 -10.3454    113.8341     47.5838   6.8207087731e+01   5.0329385103e+01    0.3927209    0.2824082 -75.04  0.001736159    2.308    0.567
       223 -11.0324    152.1171     47.0481   5.8869442924e+01   4.1273505604e+01    0.4444187    0.2988931 -21.90  0.001722232    1.637    0.389
       224 -11.9373    120.0895     46.8467   6.6259071803e+01   4.9034071830e+01    0.3688335    0.2664347  18.03 0.0003868954    1.602    0.376
       225 -10.2085      3.8608     47.2431   1.0961826502e+02   6.5764819220e+01    0.2041223    0.1233442 -29.90 0.0007566994    1.540    0.351
       226 -10.2245    142.7411     45.7188   6.0421001543e+01   4.3800764122e+01    0.2970167    0.2363661 -72.48 0.0009076642    1.552    0.356
       227 -10.4920     92.2296     45.2700   7.3755914917e+01   5.5222934304e+01    0.3145552    0.2344381 -54.34  0.001079964    1.730    0.422
       228 -10.7539     89.9765     39.5929   7.2265339962e+01   5.6562753754e+01    0.5699987    0.2337591 -41.95  0.002233434    2.638    0.621
       229  -9.7317    129.5845     56.0069   6.7031367815e+01   4.5372741128e+01    0.2242957    0.1441035 -34.30 0.0004978741    1.562    0.360
       230  -9.9825     31.8190     44.9418   9.6702923701e+01   6.4197633731e+01    0.2757313    0.1541617 -28.60  0.001176635    1.736    0.424
       231  -9.7160     85.8766     45.1325   7.5777282497e+01   5.6460228488e+01    0.1935698    0.1835171 -22.42  0.000466813    1.170    0.146
       232 -10.2310     51.1608     44.8792   8.8552094223e+01   6.2023321416e+01    0.2201015    0.1572796 -32.97 0.0003921125    1.200    0.166
       233 -11.2814     51.0976     40.2153   8.6790370135e+01   6.2873958006e+01    0.2870525    0.2243476 -19.15   0.00031316    1.103    0.093
       234  -9.5957    244.3881     42.8083   4.4098709868e+01   1.9275259552e+01    0.1742455    0.1211622 -25.30 0.0004531647    1.564    0.361
       235  -8.9240    163.3152     42.2886   5.5163305421e+01   3.9118490717e+01    0.1502272    0.1091898  30.89 0.0002665494    1.589    0.371
       236 -10.6507    111.2490     41.9415   6.6832908991e+01   5.1766719348e+01    0.3624735    0.1959403  50.32  0.001252936    1.809    0.447
       237  -9.4210     62.2339     40.9396   8.2636663740e+01   6.1168012742e+01    0.1804799    0.1364461 -12.48  0.000419868    1.247    0.198
       238  -9.9646     71.2928     41.0231   7.9260671223e+01   5.9716342683e+01    0.2033262    0.1785054  -2.21 0.0003025159    1.040    0.039
       239 -10.6460     65.8478     41.1641   8.1343659322e+01   6.0572658483e+01    0.3094547    0.2262283  10.53 0.0007115088    1.416    0.294
       240 -11.1720     69.3814     37.8440   7.8682282413e+01   6.0555129932e+01    0.3979302    0.2258467 -22.67  0.001742519    1.870    0.465
       241  -9.7264    174.9798     43.9688   5.3621922962e+01   3.5912107590e+01    0.2186119    0.2100242 -63.06 0.0007139329    1.043    0.041
       242 -11.0893     35.4017    239.7919   1.2467305005e+02   2.0799756234e+01    0.3084635    0.1842222 -55.26  0.001961611    2.380    0.580
       243  -9.7920    181.3635    247.2965   9.8697156070e+01  -1.4574606409e+00    0.1237989   0.08058441  15.82  0.000703203    1.715    0.417
       244 -11.3491     23.6718     41.5266   9.9126487963e+01   6.5592617395e+01    0.4949019    0.3245636  63.46  0.002403473    3.492    0.714
       245  -9.7687    147.6646    245.6677   1.0475203845e+02   4.0727262549e+00    0.1189744   0.08753834  12.64 0.0007052186    1.735    0.424
       246 -10.0543    109.9698    243.4398   1.1156353072e+02   1.0249347579e+01    0.2223057    0.1526469  81.17  0.001237012    1.707    0.414
       247 -11.9892     27.8921     38.0428   9.6004071773e+01   6.5883576367e+01    0.3892904    0.2899621 -13.73  0.001263501    1.259    0.206
       248 -11.8358     24.3731     35.1221   9.6545710645e+01   6.6745474751e+01     0.453927     0.225181   4.71 0.0003418122    2.724    0.633
       249 -11.5937      7.0633     40.9969   1.0647868349e+02   6.6858726154e+01    0.2059145    0.1293776 -47.38 0.0003631372    1.184    0.155
       250 -10.4211    156.3470     46.7741   5.7924769816e+01   4.0249355248e+01    0.3878338    0.2716595  29.41   0.00125051    1.682    0.405
       251 -11.0544     96.4039     40.7458   7.0697998100e+01   5.5103707287e+01    0.4116195    0.2159957 -25.78  0.001490213    2.020    0.505
       252 -10.9179    100.9312     37.5574   6.8092423527e+01   5.4641719169e+01    0.4407572    0.2791863  21.00   0.00103814    1.875    0.467
       253 -10.8440    105.9263     34.8638   6.5608568877e+01   5.3954312499e+01    0.3733285    0.2862363  77.91  0.001574992    1.832    0.454
       254 -10.8714     97.9565     31.7890   6.6681715929e+01   5.6080752600e+01    0.2989021    0.2019968  33.67 0.0008490695    1.431    0.301
       255 -11.5465    101.5822     29.0878   6.4547755909e+01   5.5671927254e+01    0.3682725    0.3204912 -28.07  0.001368032    1.220    0.180
       256 -10.3804     42.7454     37.4227   8.9204264855e+01   6.4421252223e+01    0.3428469    0.2711987 -74.03  0.001952485    2.189    0.543
       257 -11.0072     78.4884     32.4756   7.3194607235e+01   5.9804733987e+01    0.5707842    0.3148078  -7.84  0.002373629    2.672    0.626
       258 -11.1588     57.5850     34.7467   8.1948519255e+01   6.2900731667e+01    0.2878149    0.2443908  12.09  0.001328093    1.158    0.136
       259 -11.8151     81.6642     35.5255   7.3371035380e+01   5.8765739428e+01    0.5983576    0.2943083 -32.71  0.002340169    1.965    0.491
       260  -9.8528    155.9908     35.3254   5.4287577493e+01   4.1911658904e+01     0.254055   0.07441971  44.32 0.0007044031    4.249    0.765
       261 -11.3426    193.6913     32.4357   4.7423908865e+01   3.2688789823e+01    0.5039614    0.2563822  43.48  0.001313956    2.377    0.579
       262 -10.7783    247.5135     33.2214   4.1583163821e+01   1.9841670209e+01    0.2720994    0.1737099  87.45  0.001228336    1.650    0.394
       263  -9.6431     65.8476     32.8904   7.7949915756e+01   6.1920009657e+01    0.1699091    0.1475706 -38.35 0.0005026594    1.346    0.257
       264 -10.8951    177.3124     31.4000   4.9473840697e+01   3.6971247984e+01    0.2887412    0.2138315 -39.35   0.00101756    1.372    0.271
       265 -10.1691    166.6656     31.0836   5.1065430932e+01   3.9729390489e+01    0.2955474    0.1120905 -35.93  0.001022189    2.567    0.610
       266  -9.5107    152.6914     32.6787   5.4036633710e+01   4.3084681275e+01    0.1507786    0.1052648  29.82  0.000250153    1.644    0.392
       267  -9.7816    145.0495     31.5116   5.5117605930e+01   4.5151911316e+01     0.211428     0.192036 -29.33  0.000694225    1.160    0.138
       268  -9.6713    125.5264     32.0331   5.9509815984e+01   4.9856620421e+01     0.216585    0.1403331 -25.50 0.0004548678    1.610    0.379
       269 -11.1435     49.2113     30.9171   8.3779679111e+01   6.4708304156e+01    0.3543269    0.2241313 -22.13  0.001658751    1.473    0.321
       270 -11.4530    139.4015     30.2708   5.5830803674e+01   4.6709978697e+01    0.2725461    0.2351602  20.27 0.0003438346    1.204    0.170
       271 -10.3756    152.1784     27.6762   5.2479320848e+01   4.3826508539e+01    0.3375668    0.2018034 -42.31   0.00123778    1.788    0.441
       272 -10.2285    156.4953    241.5233   1.0255275357e+02   3.3018969514e+00    0.1237391    0.1003264  38.10 -9.842598e-06    1.004    0.004
       273 -11.3976     61.1750     24.8480   7.6246297651e+01   6.3876747549e+01    0.5407134    0.2150572 -32.69  0.002372028    2.375    0.579
       274  -9.8579     59.5214     21.4392   7.5347092522e+01   6.4622341330e+01    0.1782155     0.153856  30.15 3.047408e-05    1.305    0.234
       275 -10.4143    215.0197     27.2640   4.3434567938e+01   2.8067685308e+01    0.1921462    0.1661627 -89.00 0.0004280673    1.080    0.074
       276 -11.0630    237.3264     25.3788   4.0719531500e+01   2.3081513331e+01    0.2425216     0.201694 -64.61 0.0006521983    1.035    0.034
       277  -9.9207     88.6460    241.1869   1.1530016099e+02   1.3745899591e+01    0.1474292    0.1024414 -57.20  0.000942962    1.770    0.435
       278 -10.1782     70.3247     25.9216   7.3274321645e+01   6.2199374799e+01    0.2487139    0.1734921  31.46 0.0007567451    1.370    0.270
       279 -10.1511    195.4495    238.7150   9.4843772916e+01  -2.4925832895e+00    0.2460252    0.1646067  24.49  0.001488659    1.310    0.237
       280  -9.6282    197.2128     24.8005   4.4859079920e+01   3.2735992217e+01    0.1762595    0.1542905  45.20 0.0002712403    1.271    0.213
       281  -9.9279    135.0308    238.4744   1.0625058496e+02   7.2042148962e+00    0.2631974    0.1204827 -39.85  0.001187149    3.342    0.701
       282 -10.1231    147.1717     56.8358   6.3127527871e+01   4.1000945358e+01    0.2191103    0.2031827 -68.70 0.0003526227    1.167    0.143
       283 -11.5218    224.7087    247.2996   9.0900225428e+01  -7.9652736511e+00    0.4386041    0.1769773 -25.03  0.002056142    3.256    0.693
       284 -10.4629     10.2534     24.9571   9.9586597108e+01   6.9707205004e+01    0.2156175    0.1432991  -5.50 0.0005834107    1.511    0.338
       285 -10.0081    192.2296     23.9381   4.5244207582e+01   3.4085006998e+01    0.1770482    0.1123097 -31.94 0.0005837617    1.617    0.381
       286 -11.6429     94.5942     23.5424   6.4288442594e+01   5.7854932777e+01    0.4937884    0.2513178  58.27  0.002178249    2.253    0.556
       287 -12.0937     30.1397    233.6003   1.2520598399e+02   2.2521461042e+01    0.4172488    0.1957323 -85.69  0.002483193    1.975    0.494
       288 -10.2689    161.9258     20.1079   4.8383751071e+01   4.2212349149e+01    0.2034836    0.1761611 -75.99 0.0002659438    1.203    0.169
       289 -10.8253    153.7421    233.7814   1.0203346492e+02   4.9483963280e+00    0.2177216    0.1769316   1.38 0.0009186523    1.512    0.339
       290 -10.2618     34.4640     22.9716   8.6873617557e+01   6.7830775261e+01    0.2380562    0.1443527   8.68            0    1.788    0.441
       291  -9.7440    227.1529     22.1414   4.0911400863e+01   2.5805119501e+01    0.1879708    0.1339509 -67.62 0.0004219379    1.315    0.240
       292 -10.6692    155.8167     21.7331   4.9895368717e+01   4.3586495199e+01    0.2777694    0.2267964 -87.03 0.0008576228    1.310    0.237
       293  -9.6690    242.0290     22.0000   3.9518400330e+01   2.2433675340e+01    0.1984947   0.06884854  71.55  0.000797586    2.909    0.656
       294 -10.5480    185.5662     20.7338   4.5196292732e+01   3.6130872598e+01    0.2473132     0.140962 -19.94 0.0009682851    2.066    0.516
       295  -9.6736     45.6837     20.6751   8.0744263711e+01   6.6777751930e+01    0.1761062    0.1319817 -11.78 0.0006783782    1.115    0.103
       296 -10.7984     41.7899     19.9452   8.2131047560e+01   6.7404185143e+01    0.2147767    0.1800375  10.00 0.0003543394    1.204    0.169
       297 -10.5186     86.4225    233.1152   1.1494914356e+02   1.5505510998e+01    0.2382733    0.1006014  54.66 0.0008826525    2.203    0.546
       298 -10.1567     24.2148    232.3184   1.2614888420e+02   2.3398930344e+01    0.1691778    0.1389276  82.43 0.0006213713    1.243    0.196
       299 -11.0275    112.0337     24.8894   6.0085771937e+01   5.3882529835e+01    0.2590233    0.1943889 -24.91 0.0003830806    1.377    0.274
       300  -9.8305    108.1481     17.7087   5.8216132771e+01   5.5580204000e+01    0.1967622    0.1567877  41.39 0.0007567406    1.128    0.113
       301 -10.2096     69.5530     17.4410   6.9725016753e+01   6.3456979578e+01    0.2642747    0.1494806 -13.52 3.270081e-05    1.894    0.472
       302 -11.4861     37.6516    243.9252   1.2453909508e+02   1.9800980425e+01    0.4636842    0.1921233 -77.22  0.002661248    2.352    0.575
       303 -10.7583      5.7442    235.2588   1.2936640517e+02   2.4721408580e+01    0.3336819    0.1723425  56.85  0.001685324    1.444    0.307
       304  -9.7155    217.0171     16.5141   4.0516813071e+01   2.8845331273e+01    0.2627201    0.1130789  66.39  0.001159812    2.162    0.538
       305 -11.1363      5.1445    226.8142   1.2908883717e+02   2.6336103521e+01    0.3988193    0.1446329  70.46  0.002117771    2.474    0.596
       306 -10.5654     26.5622     14.0699   8.6582119160e+01   7.0089640558e+01    0.1868111     0.135041  -3.32  0.001252392    1.205    0.170
       307 -10.0482    190.5465    227.4980   9.4020830970e+01  -1.3107356655e-01      0.33511    0.1225839 -39.97  0.001446049    3.147    0.682
       308  -9.6854    130.2634    226.8706   1.0571086696e+02   9.9282260117e+00    0.2168078    0.1218753  69.01 0.0009528187    2.853    0.649
       309  -9.4656     39.2720     15.3420   8.1087496810e+01   6.8401954657e+01    0.1899544    0.1141171  -5.35 0.0004373459    1.779    0.438
       310 -10.7706    120.1910    226.6315   1.0767717421e+02   1.1586688504e+01    0.2010419    0.1323773  54.26 0.0006392688    1.368    0.269
       311 -10.3259     66.4061    226.2075   1.1810432230e+02   1.9541558301e+01     0.272309    0.1357639  47.61    0.0010242    1.655    0.396
       312 -10.0486    158.5873     13.7585   4.6882828310e+01   4.3722798054e+01    0.1959997     0.121384 -39.04 0.0009587767    1.706    0.414
       313 -10.8079      7.9325     32.5339   1.0343058921e+02   6.8455623305e+01    0.4267123    0.3303311  70.36  0.002735891    2.270    0.559
       314 -10.1636    159.9852    236.0039   1.0113789068e+02   3.5842494575e+00    0.1917624    0.1397277  11.87 0.0005764866    1.666    0.400
       315 -11.1131     13.4991    222.4484   1.2745676872e+02   2.6358518654e+01    0.2364271    0.1064958 -72.99  0.001424221    2.011    0.503
       316 -10.1972    123.4416    222.2634   1.0647680851e+02   1.1851562259e+01    0.2043091    0.1231717 -51.92 0.0007258329    1.925    0.480
       317 -10.0644    141.4783    221.0882   1.0268724908e+02   9.0927069617e+00    0.2499193    0.1654849  27.31  0.001343258    1.626    0.385
       318  -9.1723     41.6781    220.7169   1.2229904360e+02   2.3673691433e+01   0.09526342   0.08808164 -54.18  0.000456985    1.592    0.372
       319  -9.3192    250.4938    219.4508   8.1798679437e+01  -8.3178458334e+00    0.1222845   0.09243283   6.32 0.0001048821    1.034    0.033
       320  -9.8456    167.3673    233.7423   9.9401209967e+01   2.7292374574e+00    0.1535669    0.1161337 -28.63 0.0009310684    1.592    0.372
       321  -9.1929     77.6663    219.0428   1.1525848694e+02   1.9399458494e+01    0.1791084   0.07760492 -45.61 0.0006079296    4.188    0.761
       322  -9.9107     37.6495    217.6781   1.2282805833e+02   2.4733395454e+01    0.1798018    0.1333068  32.96  0.001217858    1.678    0.404
       323  -9.8903    151.1149     18.8225   4.9733882427e+01   4.5091465472e+01    0.2029348    0.1808977 -86.82 0.0003909273    1.170    0.146
       324 -11.1386      9.5590    217.0475   1.2786053260e+02   2.7781268436e+01     0.288722    0.1589161  62.59  0.001145653    1.414    0.293
       325 -11.4941    241.3188    212.0369   8.2050880433e+01  -6.0321956548e+00    0.4969355    0.3301163 -13.50  0.002988063    1.420    0.296
       326 -11.2032     30.6310    215.9648   1.2400940215e+02   2.5850953782e+01    0.3073243     0.187048  30.89  0.001910559    2.032    0.508
       327  -8.9486    201.6637    215.6867   8.9952874237e+01  -2.2496905078e-01    0.1344864   0.08956977   9.43 0.0007046191    1.689    0.408
       328  -9.6427    194.5207    215.4759   9.1286135024e+01   1.0028855669e+00    0.1308358    0.1102174  21.26 -6.123474e-05    1.006    0.006
       329  -9.2906    115.2659    215.3290   1.0724146113e+02   1.4455562805e+01    0.1158084    0.1010963  -9.23 0.0002481453    1.575    0.365
       330 -10.0018    177.6750    234.8107   9.7588825539e+01   8.9250142710e-01    0.1838334    0.1451334  -1.77 0.0009177641    1.427    0.299
       331 -11.1467     21.2847    212.3318   1.2549369993e+02   2.7556159097e+01    0.3191765    0.1374668  57.10  0.001792253    1.938    0.484
       332 -10.1466    208.9710    212.0677   8.7937971321e+01  -9.0346386756e-01    0.1974651    0.1622791  14.38 0.0004850546    1.039    0.037
       333  -9.3202     76.3362    212.3019   1.1483864443e+02   2.0921363606e+01    0.1094615   0.09886419 -18.51 0.0007036577    1.663    0.399
       334 -10.6033     10.7634    208.6040   1.2719226250e+02   2.9331592109e+01    0.2012427    0.1537479 -81.52 0.0005000199    1.289    0.224
       335 -10.0045      2.0107    212.0485   1.2893011613e+02   2.9452574399e+01    0.1690203    0.1169448  76.27 0.0008950753    1.026    0.026
       336 -12.1793      4.7726    207.5885   1.2821759739e+02   3.0086047324e+01    0.6417136    0.2332041  83.37  0.003171567    2.656    0.624
       337  -9.9199    248.8343    227.5027   8.3486764132e+01  -9.0553580700e+00    0.2185742    0.1143652  -8.83 0.0009438248    2.278    0.561
       338 -11.1978     18.9846    202.8068   1.2532039530e+02   2.9714162139e+01    0.3564527    0.2108529 -79.35  0.002301905    1.444    0.307
       339  -9.4378    223.5986    201.7973   8.3343827734e+01  -1.8170260935e+00    0.1653948    0.1176959 -42.63 0.0005722275    1.693    0.409
       340  -9.7418     50.8610     15.4090   7.6023737221e+01   6.6778729695e+01    0.2179291    0.1132041  41.85  0.001132143    2.075    0.518
       341 -10.3489    175.3754    202.6933   9.2886009857e+01   6.4046949414e+00    0.2343138    0.1904151  41.65 0.0005195885    1.157    0.136
