#   1 NUMBER                 Running object number                                     
#   2 MAG_AUTO               Kron-like elliptical aperture magnitude                    [mag]
#   3 X_IMAGE                Object position along x                                    [pixel]
#   4 Y_IMAGE                Object position along y                                    [pixel]
#   5 X_WORLD                Barycenter position along world x axis                     [deg]
#   6 Y_WORLD                Barycenter position along world y axis                     [deg]
#   7 A_WORLD                Profile RMS along major axis (world units)                 [deg]
#   8 B_WORLD                Profile RMS along minor axis (world units)                 [deg]
#   9 THETA_WORLD            Position angle (CCW/world-x)                               [deg]
#  10 FWHM_WORLD             FWHM assuming a gaussian core                              [deg]
#  11 ELONGATION             A_IMAGE/B_IMAGE                                           
#  12 ELLIPTICITY            1 - B_IMAGE/A_IMAGE                                       
         1 -15.2297    242.6351     68.1842   6.0355951254e+01   1.5741134651e+01     2.827962     1.042189 -23.87  0.009624612    2.854    0.650
         2 -13.9583    190.1531     33.8835   5.8011322011e+01   3.3363551635e+01     1.141661     1.054905 -38.45  0.003076334    1.083    0.077
         3 -14.6947    198.6921     23.1600   5.3490771004e+01   3.2384962848e+01     2.069236     1.245994  -1.81  0.001618961    2.200    0.545
         4  -9.6492     80.4929      5.4562   7.1079667237e+01   6.3851994025e+01    0.1325651    0.1168851   4.74 7.734873e-05    1.024    0.024
         5 -11.8330     60.8946      2.0197   7.6453662179e+01   6.7885604258e+01     0.316818    0.1844351  27.54  0.001659078    1.827    0.453
         6 -16.2730     72.6909    150.7841   1.1490846124e+02   3.5843935379e+01     5.524825     2.767749  73.56   0.01548892    2.834    0.647
         7 -11.0770     28.7643    221.7109   1.2936168873e+02   2.7592303468e+01    0.2882927    0.1179971  56.78 0.0008773258    1.765    0.433
         8 -12.3278     92.2572    234.8305   1.1953205800e+02   1.7926554085e+01    0.3739786    0.2181185  82.74  0.002292335    2.016    0.504
         9 -12.3393     67.4925    243.1606   1.2421446503e+02   1.9851210521e+01    0.4301307    0.2701114  55.50  0.002222014    1.113    0.101
        10 -11.6253     76.6056    220.6931   1.2112122850e+02   2.2205280166e+01     1.532738    0.1541026  44.66  0.002896276    4.724    0.788
        11 -11.7383     34.7039    226.7453   1.2862761076e+02   2.6150130193e+01    0.4937285    0.3833787 -23.55  0.003415985    3.225    0.690
        12 -13.5323     65.8935    194.4543   1.2095410940e+02   2.8114122174e+01    0.6040257    0.5805327 -62.70  0.003903231    1.502    0.334
        13 -14.0149     57.2160    207.2741   1.2358342148e+02   2.6890155664e+01     1.547218    0.6938149  52.81  0.004528672    1.735    0.424
        14 -12.5851     42.1521    211.9743   1.2657428537e+02   2.7807166621e+01    0.4222299    0.2574384  36.32  0.002934755    1.773    0.436
        15 -15.8437    110.5431    243.0267   1.1713895998e+02   1.4235030274e+01     5.590959     1.723923  34.96   0.02207485    4.423    0.774
        16 -10.8907     76.2743    207.0446   1.2007013695e+02   2.4537358942e+01    0.2814454    0.1995337 -69.08  0.001432636    1.581    0.367
        17 -11.4615    108.5019    210.5278   1.1441960871e+02   1.9431513151e+01    0.3843281   0.09304702  41.03  0.001510784    3.349    0.701
        18 -10.7732    115.0014    209.5191   1.1310313709e+02   1.8619776335e+01     0.182002   0.09525574  42.61  0.001023192    1.570    0.363
        19 -14.0370    106.3030    228.5179   1.1657675790e+02   1.6933246307e+01     2.039909     0.402735  44.57  0.004433335    3.499    0.714
        20 -10.0709    164.4816    206.0001   1.0347649111e+02   1.1178324650e+01    0.1784559    0.1381274  41.07 0.0004445538    1.040    0.038
        21  -9.9597     33.6490    205.8558   1.2771606160e+02   2.9783657229e+01    0.1551375    0.1380954  35.07 0.0009657296    1.626    0.385
        22 -10.5468     64.5284    250.2142   1.2510519331e+02   1.9174555500e+01    0.1771404    0.1013759  46.97   0.00062613    1.317    0.241
        23 -11.9549     47.9180    235.9909   1.2695570669e+02   2.3237162270e+01    0.2975191    0.1407268  73.03  0.001369323    1.950    0.487
        24 -10.2144     46.2365    230.3692   1.2692618272e+02   2.4310413246e+01    0.2393545    0.1116234  61.02 0.0009003626    1.649    0.393
        25  -9.9628     94.9817    200.0020   1.1587699977e+02   2.3184065814e+01    0.1882121     0.113368  66.89 0.0004870072    1.639    0.390
        26 -11.7837    193.4535    193.7671   9.6338058188e+01   7.8912002067e+00    0.6096743    0.4280774 -61.66  0.003402308    2.337    0.572
        27  -8.7192     43.4105    227.7354   1.2724872229e+02   2.5046980994e+01    0.1386302   0.07316235  75.19 0.0006727429    1.646    0.392
        28 -11.1184    101.5713    197.3732   1.1432421435e+02   2.2678548885e+01    0.2665932    0.1950863 -20.98  0.001476172    2.785    0.641
        29 -11.6237     51.2100    249.6937   1.2714802073e+02   2.0798681883e+01    0.3521906    0.1206862  50.90   0.00218556    1.932    0.482
        30 -10.2726     82.1148    195.2350   1.1788503773e+02   2.5837601070e+01    0.2072361    0.1922903  81.88  0.001565636    1.284    0.221
        31  -9.3813    180.2016    192.4231   9.8544719086e+01   1.0408538481e+01    0.1722133    0.1035443  50.36 0.0004177277    1.569    0.362
        32 -10.4494     95.9820    188.4501   1.1443235288e+02   2.5097105510e+01    0.3343259    0.1672508  66.55  0.001464086    2.483    0.597
        33 -10.1290     60.9021    187.0206   1.2128780671e+02   3.0115990291e+01      0.23427    0.1469837 -58.49  0.001097213    1.891    0.471
        34 -10.5139    206.4174    181.2001   9.1864887578e+01   7.2788610871e+00    0.2879522    0.2153901 -65.20  0.001575295    2.299    0.565
        35 -10.5133    210.9895    178.9259   9.0642033852e+01   6.7584851822e+00    0.3245093    0.2062774  20.63  0.001345991    1.670    0.401
        36 -10.1998    177.6817    237.0682   1.0523470846e+02   5.0286711027e+00    0.1457879    0.1224421  35.37 0.0007103382    1.141    0.124
        37 -11.0984     99.4401    180.6764   1.1281355403e+02   2.6015313311e+01     0.217115    0.1904893  54.26 0.0005939994    1.145    0.126
        38  -8.9871     56.0000    235.9610   1.2564447685e+02   2.2314356551e+01    0.1286531   0.05160164 -74.71 0.0004254258    2.695    0.629
        39  -9.8673     35.9995    234.0946   1.2877102089e+02   2.4840631398e+01     0.152823   0.08505356  61.46 0.0004869336    1.266    0.210
        40 -11.5200     44.0836    171.6353   1.2338550460e+02   3.5059026566e+01    0.4273528    0.1750413  45.61  0.002309828    2.069    0.517
        41 -10.7769    195.8258    170.3308   9.1826760630e+01   1.0757066933e+01    0.2901434    0.2578122  34.73  0.001115983    1.081    0.075
        42 -10.1439    193.5152    164.6340   9.1190086529e+01   1.2043519023e+01    0.3071727    0.2392631 -66.30  0.001675751    1.894    0.472
        43 -10.9973    145.8947    168.3243   1.0133765363e+02   2.0468059596e+01    0.2250797    0.1993256 -38.80 0.0003954478    1.313    0.238
        44 -10.8760     53.4230    222.2563   1.2525153289e+02   2.4801241278e+01    0.2455633    0.1954444  38.97  0.001058515    1.538    0.350
        45 -11.2059     53.2830    228.2931   1.2564196882e+02   2.3838253991e+01     0.319718    0.1450954 -84.85  0.001918073    2.355    0.575
        46 -12.8683     94.6072    156.8264   1.1070144198e+02   3.1418368315e+01    0.5574633    0.4050365 -33.71  0.003040114    2.061    0.515
        47 -10.2677    141.5742    158.4857   1.0056238593e+02   2.3043664986e+01    0.2424091    0.2052281  85.40  0.000770431    1.321    0.243
        48 -11.9754     49.7754    226.1256   1.2610077336e+02   2.4591085861e+01    0.2050814     0.118883  56.27 0.0004260375    1.245    0.197
        49 -11.5708    133.7794    144.5681   9.9741713273e+01   2.7154909444e+01    0.9436302    0.2536229 -55.16  0.002650417    5.392    0.815
        50 -10.2007    174.8684    149.1044   9.1797740390e+01   1.8218546608e+01    0.2108022    0.1885812  69.37 0.0005637526    1.258    0.205
        51 -11.6399    106.5828    141.2463   1.0545781595e+02   3.2705469647e+01    0.4806064    0.3096347 -32.57  0.002243079    2.377    0.579
        52 -12.5253     94.5682    141.6580   1.0840155350e+02   3.4579375661e+01    0.2634116    0.2477418 -58.12 0.0005603009    1.220    0.180
        53  -9.8641     71.3600    229.5650   1.2268168413e+02   2.1453500427e+01    0.1295419   0.08399759  42.32 0.0008038327    1.418    0.295
        54 -19.3721      8.3404    132.9554   1.2824300582e+02   4.6350832174e+01     16.34471     1.637167 -78.06   0.03901051   10.352    0.903
        55 -11.4503    114.3817    131.1533   1.0172246742e+02   3.3461139960e+01    0.5365679     0.298695  31.19  0.002317695    2.259    0.557
        56 -11.6829    118.6710    125.9527   9.9631298934e+01   3.3768890122e+01    0.5113664    0.2395796 -39.18  0.001953773    2.815    0.645
        57 -10.8307    106.1673    130.7059   1.0365395367e+02   3.4999565552e+01    0.3167753    0.2701518  83.94  0.001178716    1.167    0.143
        58 -11.1422    101.8211    127.7028   1.0417106166e+02   3.6382805644e+01    0.2507857    0.2371854 -17.81  0.000700888    1.292    0.226
        59 -10.3108    126.2210    127.9242   9.8204060062e+01   3.1936599618e+01    0.2999616     0.169019  66.34  0.001166184    2.660    0.624
        60 -10.7987    135.4229    122.5293   9.4839895730e+01   3.1231113813e+01    0.4482484    0.1316445 -54.92  0.001144803    5.622    0.822
        61 -10.2762    109.9239    119.9590   1.0057712647e+02   3.6638021396e+01      0.20516    0.1957572  78.32 0.0003970676    1.031    0.030
        62  -9.9744     57.1427    240.1357   1.2569990375e+02   2.1540597592e+01    0.2260076    0.1168371  63.65  0.001576079    1.528    0.345
        63  -9.9518    167.8109    112.5521   8.5096379923e+01   2.6231282610e+01    0.2871459    0.1931577 -58.79 0.0008414555    1.868    0.465
        64 -11.6477     72.4947    211.9849   1.2116972057e+02   2.4183046667e+01    0.2701274    0.1611082  59.71 0.0003919596    1.338    0.252
        65 -12.1026     66.0446    104.5069   1.0940485184e+02   4.6943855209e+01     0.474016    0.3417028   2.54   0.00246488    2.200    0.545
        66 -10.5418    103.7850    110.9755   1.0025104872e+02   3.9673207309e+01    0.2195214    0.1928821  56.66 0.0002813508    1.134    0.118
        67  -9.9896    205.5687    110.1659   7.6963571806e+01   1.8079597091e+01    0.2598381    0.2002759  45.94 0.0006479675    1.276    0.216
        68  -9.0415    134.6655    102.6948   9.0303385767e+01   3.5415351348e+01    0.1499921     0.119306   6.33 0.0003426427    1.666    0.400
        69 -11.2317    120.5957    110.6299   9.5788655598e+01   3.6628420103e+01    0.2890567    0.2575216  81.39  0.001595527    1.165    0.142
        70  -9.4257    115.6756     94.6722   9.3146780820e+01   4.0960952862e+01    0.1476654    0.1176275  -5.62 0.0007049543    1.696    0.410
        71 -13.6192    231.1764     84.8261   6.6248767377e+01   1.6067048482e+01     0.914521    0.7312585  -6.50    0.0037574    1.284    0.221
        72  -9.0692    168.3213    248.2749   1.0808992653e+02   5.1500962030e+00    0.1052525   0.06803098  26.65 0.0002600393    1.575    0.365
        73 -10.2774     61.9423     71.3329   1.0331503521e+02   5.4948780649e+01    0.1744855    0.1687163 -26.63 0.0005969521    1.132    0.117
        74 -10.7697    165.5483     65.9540   7.2586284561e+01   3.5079495354e+01    0.4568898    0.2982019 -79.88 0.0007380981    2.564    0.610
        75 -13.6174    179.8929     42.6492   6.2449381826e+01   3.4925195706e+01    0.9814003     0.754452   0.02 0.0009276087    1.514    0.339
        76 -11.3200     55.7654    246.2662   1.2625955020e+02   2.0781528913e+01    0.2812741    0.1320205  79.84  0.001819022    2.253    0.556
        77 -10.1062     49.4351    243.4962   1.2710804538e+02   2.1918589738e+01    0.1719378   0.09888752  51.99 0.0006303618    1.231    0.188
        78  -9.9881     52.4228    241.2021   1.2651415776e+02   2.1925173954e+01    0.1770336    0.1014843 -89.68  0.001312647    1.722    0.419
        79 -10.5777     59.9685    245.3569   1.2554617359e+02   2.0425545810e+01    0.2021805    0.1043945  80.03  0.001224131    1.960    0.490
