#   1 NUMBER                 Running object number                                     
#   2 MAG_AUTO               Kron-like elliptical aperture magnitude                    [mag]
#   3 X_IMAGE                Object position along x                                    [pixel]
#   4 Y_IMAGE                Object position along y                                    [pixel]
#   5 X_WORLD                Barycenter position along world x axis                     [deg]
#   6 Y_WORLD                Barycenter position along world y axis                     [deg]
#   7 A_WORLD                Profile RMS along major axis (world units)                 [deg]
#   8 B_WORLD                Profile RMS along minor axis (world units)                 [deg]
#   9 THETA_WORLD            Position angle (CCW/world-x)                               [deg]
#  10 FWHM_WORLD             FWHM assuming a gaussian core                              [deg]
#  11 ELONGATION             A_IMAGE/B_IMAGE                                           
#  12 ELLIPTICITY            1 - B_IMAGE/A_IMAGE                                       
         1 -16.4635     18.9855    140.4318   1.2661277196e+02   4.3883418501e+01     3.035425     1.594092 -79.02   0.01295119    1.528    0.345
         2 -12.8752    188.9831     14.7881   5.3133525319e+01   3.5949300504e+01    0.7773088    0.6011417  84.66   0.00398521    1.328    0.247
         3 -13.4152     86.9236     10.1699   7.1539137550e+01   6.1866393739e+01    0.5109005    0.3778036  14.07   0.00281457    1.386    0.279
         4 -10.4840    120.1613      8.8335   6.2300269290e+01   5.4556704909e+01     0.209172    0.1565481  29.29 0.0008233184    1.340    0.254
         5 -10.9885    122.5893    223.8877   1.1419066908e+02   1.5079839029e+01    0.2877023    0.1553265 -81.03   0.00150192    3.151    0.683
         6 -16.8069    196.4710    222.3257   1.0145889447e+02   3.7092414304e+00     3.191699     2.289849 -16.06   0.01655442    1.739    0.425
         7 -17.0353    174.6628    198.9372   1.0181136160e+02   1.0313312482e+01     3.884195     2.809273  51.74   0.01728055    1.293    0.227
         8 -18.7274     59.2097    228.9138   1.2530952780e+02   2.2878859965e+01     3.206435     2.403911  75.47   0.01825096    1.150    0.131
         9 -11.5297     91.6521    186.2484   1.1581012039e+02   2.5943912539e+01    0.2130031    0.1801093  31.46 0.0007373714    1.513    0.339
        10 -10.8779    107.9273    204.1700   1.1470183354e+02   2.0381196641e+01    0.1793933    0.1529919  84.87 0.0004144037    1.192    0.161
        11 -12.6233     92.5773    177.6068   1.1461984370e+02   2.7430168819e+01    0.4751545    0.3166549  27.40  0.002654294    2.069    0.517
        12 -12.0779     89.9881    174.4840   1.1477019070e+02   2.8411658947e+01    0.3567944     0.255468  30.21  0.002120045    1.771    0.435
        13 -12.0140    101.4523    200.4153   1.1549407150e+02   2.1980624728e+01    0.3817168    0.2265639  74.46  0.001983492    1.918    0.479
        14 -11.0476     28.4054    184.4308   1.2785194890e+02   3.4109856570e+01    0.1559253    0.1281144  61.56 0.0005918586    1.267    0.211
        15 -10.2230     44.8589    177.3210   1.2417855791e+02   3.3716871976e+01    0.2259582    0.1259285  36.17  0.001126626    1.960    0.490
        16 -10.3603    125.4721    238.4599   1.1516089043e+02   1.2583373151e+01    0.1634784    0.1062742 -60.59  0.000592955    1.970    0.492
        17 -10.7692     98.7085    162.6205   1.1138469905e+02   2.9421777433e+01    0.2378703    0.2080099 -20.27   0.00121628    1.693    0.409
        18 -12.0470     91.5305    195.6163   1.1684878298e+02   2.4263176207e+01    0.3231742    0.1915742  46.85   0.00149801    1.437    0.304
        19  -7.7257      7.8825    248.3065   1.3402832897e+02   2.5361282660e+01    0.3478522     0.171684  47.25  0.002306893    1.542    0.352
        20 -13.8258    223.9097    150.4688   8.4317056205e+01   8.1234648893e+00     1.306197     1.145071 -31.57  0.008102362    1.262    0.208
        21 -13.3518     28.8166    248.1209   1.3100649633e+02   2.3315052533e+01      0.21197    0.1709062 -85.77  0.001533989    1.555    0.357
        22 -12.1531     93.1364    148.6807   1.1057257299e+02   3.3137658932e+01    0.3087145    0.2611827 -62.82 0.0006915383    1.245    0.196
        23 -11.2928    106.2020    150.1483   1.0785568166e+02   3.0736550003e+01    0.1864441    0.1811498 -71.43 0.0005831271    1.208    0.173
        24 -13.7650     57.8618    148.5995   1.1859944371e+02   3.8061981959e+01     0.627148    0.3462705  40.02  0.003492318    1.855    0.461
        25 -11.6562    131.6478    189.0563   1.0837269564e+02   1.9178442246e+01    0.3213003    0.1951401 -82.52  0.001171888    2.587    0.613
        26 -11.9275    114.9356    144.6112   1.0495404478e+02   3.0382858999e+01    0.5661098    0.2909538  65.87  0.002200485    2.987    0.665
        27 -12.5723     80.9482    143.4968   1.1260030926e+02   3.6065270371e+01    0.3585846    0.2929947 -67.69  0.001450248    1.209    0.173
        28 -10.1893    117.6235    140.3160   1.0356924157e+02   3.0788473103e+01    0.1470968     0.100323  76.22 0.0001635381    1.803    0.445
        29  -9.6006    127.3032    137.6335   1.0085743292e+02   2.9565982260e+01    0.1455059    0.1051454  85.58 0.0007035141    1.740    0.425
        30 -11.5274    114.5666    135.4625   1.0336938690e+02   3.2338400034e+01    0.2587615    0.2353192  -6.46    0.0015124    1.432    0.301
        31 -11.0714    104.6627    135.3327   1.0567277499e+02   3.4085501778e+01    0.2253719    0.2150456  67.00 0.0003507804    1.130    0.115
        32 -10.6583    109.1433    132.8772   1.0415712873e+02   3.3836919896e+01    0.2181761    0.1747873  81.03 0.0006742835    1.288    0.224
        33 -10.8429     11.2425    206.6060   1.3203062079e+02   3.1751447500e+01    0.1818697    0.1455026  54.41 0.0009181161    1.398    0.285
        34 -11.5588    103.9989    154.9792   1.0910797094e+02   3.0114624724e+01    0.4610434    0.2626607  70.19  0.001705803    2.287    0.563
        35  -9.8490    108.1353    123.8366   1.0263521722e+02   3.5943462147e+01    0.1771221    0.1657854 -22.44 0.0004149705    1.303    0.233
        36 -11.0531     87.8508    123.1403   1.0755679500e+02   3.9468827062e+01    0.2133522    0.1705338  83.17 0.0006552435    1.241    0.194
        37 -10.6192     50.7835    169.1242   1.2227493368e+02   3.4659184159e+01    0.2453704    0.1427816  38.53  0.001312035    1.800    0.445
        38 -11.5728     96.3089    166.9494   1.1249081664e+02   2.8934979126e+01    0.2953048    0.2709092  -8.73  0.001882522    1.588    0.370
        39  -9.5294    225.2680     89.3768   6.9735468859e+01   1.6731087959e+01    0.1508084    0.1079967   8.24 0.0006991748    1.681    0.405
        40 -13.9657    206.0967     82.4581   7.0995704602e+01   2.2281756456e+01     1.106716    0.6297487  48.72  0.004776135    1.787    0.440
        41 -11.8053    157.1174     60.7946   7.3801673343e+01   3.7993191622e+01    0.3532923     0.281721  70.41 0.0009022571    1.382    0.276
        42 -10.2573    125.5072     55.9698   7.9568917705e+01   4.6406592724e+01    0.2120766    0.2006319  44.49  0.001156128    1.094    0.086
        43 -13.2343    170.1351     46.4023   6.6487589737e+01   3.6940277483e+01    0.8052031    0.6344356  15.73  0.003742524    1.478    0.324
        44 -11.7847    174.7796     38.8361   6.3153957985e+01   3.6800396417e+01    0.4155886    0.3148752   9.82 0.0008964537    1.575    0.365
        45 -11.1744    249.1852     45.8167   5.5123403881e+01   1.7130145791e+01      0.19519    0.1639231  14.95  0.001096971    1.360    0.265
        46 -10.8349     28.2548    235.4538   1.3055980304e+02   2.5303519955e+01    0.1505412   0.09680028  75.82 0.0001559605    1.184    0.156
        47 -11.0827    124.9581    229.3963   1.1435166964e+02   1.3926470196e+01    0.2435522    0.1679511  42.86  0.001705449    1.233    0.189
