#   1 NUMBER                 Running object number                                     
#   2 MAG_AUTO               Kron-like elliptical aperture magnitude                    [mag]
#   3 X_IMAGE                Object position along x                                    [pixel]
#   4 Y_IMAGE                Object position along y                                    [pixel]
#   5 X_WORLD                Barycenter position along world x axis                     [deg]
#   6 Y_WORLD                Barycenter position along world y axis                     [deg]
#   7 A_WORLD                Profile RMS along major axis (world units)                 [deg]
#   8 B_WORLD                Profile RMS along minor axis (world units)                 [deg]
#   9 THETA_WORLD            Position angle (CCW/world-x)                               [deg]
#  10 FWHM_WORLD             FWHM assuming a gaussian core                              [deg]
#  11 ELONGATION             A_IMAGE/B_IMAGE                                           
#  12 ELLIPTICITY            1 - B_IMAGE/A_IMAGE                                       
         1 -13.8230    234.5603     22.1922   3.1101538912e+01   2.5749470274e+01      0.81647    0.7425247 -71.21  0.002616326    1.281    0.219
         2 -14.5360    218.7433     35.8183   3.5252957757e+01   2.7298582354e+01     2.406203     1.518867  34.69    0.0119062    3.020    0.669
         3 -10.2968    250.4045      3.2098   2.6526871271e+01   2.4839958701e+01    0.3369325    0.1072027 -38.41  0.001732489    2.661    0.624
         4 -10.3903      2.4074      3.2494   8.1635939194e+01   7.4185380540e+01    0.2081435   0.08450532 -36.90   0.00115831    2.169    0.539
         5 -10.3495     17.1867      2.3773   7.2348390061e+01   7.2735823681e+01    0.1521708   0.09131728  36.03 0.0009589042    1.764    0.433
         6 -13.2047     25.7951    201.2012   1.1466748749e+02   2.8323460914e+01    0.5136022    0.3989419 -36.75  0.001011852    1.718    0.418
         7 -12.0376     82.7737    215.6140   1.0272042663e+02   1.7891587038e+01    0.5056672    0.3729132  75.62 0.0006009135    1.467    0.318
         8 -14.8604      9.0960    207.8272   1.1892041378e+02   2.8392141362e+01     2.045605     1.041064 -73.17   0.01108292    1.738    0.425
         9 -16.2345     33.5512    242.2996   1.1611490457e+02   1.8373153541e+01     9.127368     2.737082  24.58   0.02993941    5.719    0.825
        10  -9.0073    146.6050    186.8266   8.2722845036e+01   1.3990588053e+01    0.2046355    0.1423083 -62.16 0.0009408462    1.706    0.414
        11  -9.4243     99.4511    180.9814   9.3498672768e+01   2.3492827881e+01    0.2201329    0.1973659  39.59 0.0005030376    1.106    0.096
        12 -12.0947     55.7039    175.2672   1.0432630456e+02   3.1297955403e+01    0.4790631    0.3171775 -30.73  0.001882901    2.066    0.516
        13 -12.0886     61.4703    169.9971   1.0200742876e+02   3.1891484285e+01    0.3488631    0.3067492 -29.31 0.0007814685    1.321    0.243
        14  -9.4743    187.1595    175.7332   7.1451290951e+01   9.0828119425e+00     0.254708    0.1910349 -49.86  0.001182517    1.400    0.286
        15 -15.9614     33.1541    186.7094   1.1155167997e+02   3.1049284115e+01     8.226719     3.357365  79.12   0.02671734    4.320    0.769
        16 -10.6177    111.2104    173.3902   8.9058275624e+01   2.3359957653e+01    0.4272548    0.1817249  47.38   0.00149547    2.600    0.615
        17 -13.5584     58.9198    156.2649   1.0062013499e+02   3.5747004264e+01    0.7544007    0.4392501 -56.72  0.001665002    1.588    0.370
        18 -13.2300     66.8356    127.7234   9.2927357804e+01   4.1994583005e+01     3.732645     2.102206  75.14  0.008478808    3.997    0.750
        19 -11.8209     72.0567    160.9476   9.7604321983e+01   3.2745284538e+01    0.3510913    0.3333397  69.98 0.0004025941    1.054    0.051
        20 -13.2051     79.1834    155.0612   9.4519403657e+01   3.3196650466e+01     1.295586     1.006706 -82.52  0.001420121    1.401    0.286
        21 -14.1473     68.4089    144.7273   9.5801672377e+01   3.7432449835e+01      3.84941     1.850357  65.78  0.002693529    5.428    0.816
        22  -9.9627    230.4433    166.4907   6.1376618802e+01   3.5603397227e+00    0.1338745    0.1132438 -29.11 0.0001088468    1.024    0.023
        23 -12.2748     35.1246    159.1858   1.0788295016e+02   3.7763257633e+01    0.7676117     0.367709  64.93  0.001816154    2.932    0.659
        24  -9.6298    235.2339    154.9705   5.8278508216e+01   4.8325522246e+00    0.1810927   0.09587006 -40.35 0.0004364376    1.607    0.378
        25  -9.1161    174.9507    149.0165   6.8379402891e+01   1.6858867498e+01    0.2321321     0.186983 -85.58 0.0006908337    1.679    0.404
        26 -10.0356    134.0031    146.3929   7.7508648203e+01   2.5594415402e+01      0.61297    0.1422041 -53.66  0.001337107    6.160    0.838
        27 -11.6890     22.2508    147.3974   1.1009130522e+02   4.1996160798e+01    0.3752101    0.3003283  29.09  0.001096083    1.421    0.296
        28 -10.2048     47.4176    146.6450   1.0249161168e+02   3.9645948209e+01    0.2817231    0.1335447 -70.95  0.001132984    2.119    0.528
        29  -9.6951    145.2888    141.7443   7.3597715213e+01   2.4406892407e+01    0.4205956    0.2496211 -72.31  0.001420725    3.133    0.681
        30 -10.4211     95.1764    141.1767   8.7078582548e+01   3.4116174120e+01    0.3548813    0.3011758 -34.41 0.0009071766    1.232    0.188
        31  -9.6091     98.7712    137.8286   8.5293644640e+01   3.4320220128e+01    0.3685796    0.2540642 -23.91  0.001562515    1.904    0.475
        32 -12.4622     82.9974    139.5094   9.0352940656e+01   3.6562026357e+01    0.3288967    0.2919637 -44.43 0.0004162793    1.110    0.099
        33  -9.2460    110.5703    167.3049   8.8078723703e+01   2.4950264391e+01    0.2711143    0.1507871 -60.85 0.0007906391    1.939    0.484
        34 -10.9052    106.8048    130.6792   8.1316052832e+01   3.4604320950e+01    0.4369619    0.3452542  20.16  0.001245076    1.429    0.300
        35 -10.8176    193.1863    195.3501   7.4051219897e+01   4.2639502875e+00    0.8225877    0.4238703 -63.37  0.002429816    5.839    0.829
        36  -8.9558     94.2260    126.4109   8.4038406604e+01   3.7934488726e+01    0.2016088    0.1458844  46.65 0.0003220198    1.461    0.315
        37  -9.5167    162.0530    119.5710   6.4331292383e+01   2.5733596084e+01    0.4432004    0.2605998 -74.21  0.001412473    3.734    0.732
        38  -9.1225    159.3179    115.6713   6.3977579517e+01   2.7137168579e+01    0.2725692    0.1920756 -85.20  0.001126222    2.167    0.539
        39  -9.8005    105.1358    119.0283   7.8967152649e+01   3.7700085530e+01    0.2215595    0.2138982 -17.01 0.0003732133    1.040    0.038
        40 -10.2750    205.1576    110.4385   5.3749314691e+01   1.8421676083e+01    0.3181178    0.2632107  38.87  0.001092007    1.399    0.285
        41 -11.9879    246.1887    108.7185   4.7291807110e+01   1.0969435101e+01     0.389867    0.2247203 -24.37  0.001844562    2.334    0.571
        42  -9.0254     71.2818    107.4417   8.6795316515e+01   4.6327673546e+01    0.1903312    0.1392088  45.19 0.0004311367    1.502    0.334
        43 -11.2595    241.2557    101.9879   4.6561438577e+01   1.2958194158e+01    0.2136161    0.1710199  37.61  0.001293644    1.629    0.386
        44  -9.7939     64.8058    102.0014   8.7657144861e+01   4.8585150032e+01    0.2160366    0.1944978 -87.21 0.0005917351    1.303    0.233
        45 -11.0700     53.0777     91.1188   8.9085130640e+01   5.2727928963e+01    0.5204802    0.1791384 -49.23  0.001920632    2.549    0.608
        46 -10.1839     44.4074     90.2592   9.2142478949e+01   5.3996041429e+01    0.2566853    0.2229286  58.31 0.0004049135    1.426    0.299
        47 -13.0203      2.6536     80.0527   1.0645380800e+02   5.9814061430e+01     1.588279          nan -62.99  0.004407915    5.725    0.825
        48  -9.4703     72.8310     87.8004   8.0968219053e+01   5.0566042754e+01    0.3521252    0.2143897  62.42  0.001360241    2.940    0.660
        49 -10.2319    162.0668     83.9913   5.5203114439e+01   3.2683136180e+01    0.2272702    0.2190392 -87.83 0.0005819356    1.015    0.015
        50 -11.0826    242.6129     78.3238   4.1558221253e+01   1.6495606980e+01    0.2263514    0.1555067  62.16 0.0009943038    1.653    0.395
        51 -10.8399     56.6776     75.9554   8.3419825731e+01   5.5555059577e+01    0.4647441    0.2820643  57.36  0.001957329    2.807    0.644
        52 -11.3650     13.4683     60.0613   9.7119385766e+01   6.3508162369e+01    0.2576777    0.2220715 -62.52   0.00040045    1.330    0.248
        53  -9.0731    122.4103    199.2445   9.0763270468e+01   1.5410730222e+01     0.199545    0.1417713 -69.38 0.0009518115    1.671    0.402
        54 -12.3483    207.1640     44.4360   3.8363021233e+01   2.8635726394e+01    0.6422886    0.3832884  61.43  0.001873471    1.695    0.410
        55 -10.0401    172.6819    240.0553   8.6032776246e+01  -6.0202427391e-01     0.363966    0.1983747 -55.10  0.001743823    2.530    0.605
        56  -9.7300     28.2541     52.4609   8.7950291401e+01   6.3730365039e+01    0.1953611    0.1720987 -22.67 0.0003856397    1.120    0.107
        57 -11.5741      2.3185     50.2945   9.9723485171e+01   6.6206188996e+01    0.4391025    0.1151896 -54.11  0.001886104    2.671    0.626
        58 -10.5869    127.2487     34.9214   4.8157437768e+01   4.8345329485e+01     0.259704    0.2080364 -72.93 0.0003725913    1.450    0.310
        59  -9.9045    129.9806     29.6919   4.5967814177e+01   4.8330097807e+01    0.1898019    0.1871485 -85.19 0.0004311423    1.116    0.104
        60 -10.1193    189.6134     15.4346   3.3633430715e+01   3.6025146418e+01    0.2181351    0.1714478 -63.36 0.0007259626    1.169    0.145
        61 -10.5332     32.2677    233.0977   1.1572874285e+02   2.0448399283e+01    0.3951358    0.1992461  58.45   0.00133316    1.794    0.442
        62 -11.8537    161.8043    224.4599   8.5863201570e+01   3.8051739876e+00    0.4620301    0.2621961   4.54  0.001827071    3.027    0.670
