#   1 NUMBER                 Running object number                                     
#   2 MAG_AUTO               Kron-like elliptical aperture magnitude                    [mag]
#   3 X_IMAGE                Object position along x                                    [pixel]
#   4 Y_IMAGE                Object position along y                                    [pixel]
#   5 X_WORLD                Barycenter position along world x axis                     [deg]
#   6 Y_WORLD                Barycenter position along world y axis                     [deg]
#   7 A_WORLD                Profile RMS along major axis (world units)                 [deg]
#   8 B_WORLD                Profile RMS along minor axis (world units)                 [deg]
#   9 THETA_WORLD            Position angle (CCW/world-x)                               [deg]
#  10 FWHM_WORLD             FWHM assuming a gaussian core                              [deg]
#  11 ELONGATION             A_IMAGE/B_IMAGE                                           
#  12 ELLIPTICITY            1 - B_IMAGE/A_IMAGE                                       
         1 -13.4517    222.5247      2.3306   4.1494246102e+01   2.8561994400e+01     2.183959    0.5724547  61.73  0.006665542    3.257    0.693
         2 -13.6527    181.1134     45.1509   5.8906992364e+01   3.4066195481e+01     1.018189      0.82767 -13.04 0.0008642448    1.362    0.266
         3 -13.9374    191.6791     35.8467   5.4388462790e+01   3.2579377481e+01     1.160148     1.024486 -43.00  0.003184763    1.131    0.116
         4 -14.8415    200.3698     25.6131   5.0181124619e+01   3.1605702944e+01     2.122921     1.470721  28.72  0.001584556    1.853    0.460
         5 -12.4230     59.3330      3.0989   7.2916227719e+01   6.6874415125e+01    0.4253839    0.1969372  36.40  0.002140118    2.079    0.519
         6 -10.3703     53.5567    231.2930   1.2476221648e+02   2.1259969667e+01    0.1945801    0.1397607  78.89 0.0007971213    1.131    0.116
         7 -16.2776     72.0582    150.0017   1.1259126613e+02   3.5414045787e+01     6.070293     3.047413  75.08   0.01243948    3.379    0.704
         8 -13.7315     64.0793    191.9831   1.1951532219e+02   2.7382772937e+01     1.420476    0.8819252 -54.15  0.008255471    1.941    0.485
         9 -13.3488     53.5686    205.2480   1.2276140517e+02   2.6079159354e+01    0.4044019    0.3332072  88.50  0.001773436    1.187    0.157
        10 -12.1334     57.4814    204.5580   1.2197236503e+02   2.5724568757e+01    0.2454323    0.1716479 -84.57  0.000937211    1.281    0.219
        11  -9.7665     36.2300    234.0281   1.2779072447e+02   2.2830503707e+01    0.1413059    0.0988674  79.88 0.0004240954    1.130    0.115
        12 -19.2678      6.7955    137.1275   1.2649801788e+02   4.5195108173e+01     17.31139     1.906498 -75.70    0.0403925    9.737    0.897
        13 -11.9650     38.4027    212.1474   1.2603184373e+02   2.6553200105e+01    0.2391889    0.1303879  58.39  0.000730105    1.469    0.319
        14 -11.0135     34.5125    207.9887   1.2643204221e+02   2.7780599175e+01    0.2373121    0.1135239  59.23 0.0009412576    1.724    0.420
        15 -10.6238     30.9789    205.5555   1.2689435313e+02   2.8634411642e+01    0.2029384    0.1294661  57.57 0.0008732571    1.296    0.228
        16 -12.8253    106.5172    209.6772   1.1312706243e+02   1.7753175278e+01    0.5132795    0.3145488  61.31  0.002286738    1.535    0.348
        17 -12.9865    107.7704    203.3928   1.1211516066e+02   1.8727651427e+01    0.5644438    0.2601178  51.28 0.0003914195    1.941    0.485
        18 -10.5025     60.4876    230.4282   1.2352616378e+02   2.0543392927e+01    0.1805197    0.1275375  75.04  0.000362769    1.129    0.114
        19 -10.2314     43.7002    209.9723   1.2493528233e+02   2.6355667911e+01    0.4230619    0.1613953  65.61  0.001996578    2.819    0.645
        20 -10.9989     74.9969    206.6849   1.1886052363e+02   2.2992812968e+01    0.2803228    0.2390246 -85.62   0.00121724    1.222    0.182
        21 -11.1657     43.8112    205.7258   1.2459522568e+02   2.7159224238e+01    0.2143634    0.1744398 -76.06  0.001589647    1.372    0.271
        22 -11.5180    129.0553    210.5761   1.0886812271e+02   1.3916921145e+01    0.2331991    0.1699962  89.03   0.00135645    1.644    0.392
        23 -10.6001    156.1296    199.9959   1.0200224977e+02   1.1029623252e+01    0.3544807    0.2542397  77.95  0.001860246    1.922    0.480
        24 -11.3845     96.4689    200.3917   1.1399101996e+02   2.1075387372e+01    0.3442621    0.2567094  19.75  0.001218227    2.054    0.513
        25 -11.9836    193.3487    193.6647   9.3649509208e+01   5.2108164453e+00    0.8312737    0.4412157 -55.12  0.003572063    2.979    0.664
        26  -8.9053     42.0000    230.3701   1.2662654990e+02   2.2808332566e+01    0.1968667   0.05211772 -73.23 0.0009000211    3.660    0.727
        27 -11.0241    141.1447    198.2361   1.0472298198e+02   1.4031898124e+01    0.2240627    0.1904074 -76.87 0.0004537603    1.319    0.242
        28 -16.3965     92.7795    241.4918   1.1891037717e+02   1.4288237274e+01     6.661126     2.100231  35.75   0.02586428    4.278    0.766
        29 -12.3417     29.5238    197.2190   1.2658261516e+02   3.0418646983e+01     0.191619      0.14402  71.34 0.0003587057    1.081    0.075
        30  -9.8302     72.0358    230.1963   1.2152046333e+02   1.9074755886e+01    0.1661863    0.1069346  63.33 0.0004845676    1.226    0.184
        31 -10.2759     34.8977    197.2946   1.2559673826e+02   2.9824102721e+01    0.1628475     0.109013  65.74 0.0005078485    1.199    0.166
        32 -10.6656     80.1355    194.4094   1.1656317577e+02   2.4686080367e+01    0.3727521    0.1834098  49.39  0.001216106    1.789    0.441
        33 -10.6128    152.5785    193.5283   1.0167622378e+02   1.2813199570e+01    0.3823527    0.2030321  66.27   0.00143155    3.424    0.708
        34 -10.7596    209.9717    199.5575   9.1589722939e+01   1.3027204485e+00    0.2091777    0.1806281 -48.90 0.0005489007    1.504    0.335
        35  -9.2048     63.8091    223.2509   1.2239257597e+02   2.1397234671e+01    0.1645635    0.1074176  68.76 0.0006506692    1.236    0.191
        36 -10.9951    149.9156    180.9503   1.0010953537e+02   1.5624134433e+01     0.376356     0.226644 -84.52  0.001375856    3.754    0.734
        37 -11.5306     99.5132    180.7353   1.1081956125e+02   2.4549473920e+01    0.2453014    0.2117799  69.11 0.0006105755    1.023    0.022
        38 -11.1400    144.0064    178.7030   1.0096615579e+02   1.7167345603e+01    0.2085564     0.170542  49.48  0.001171456    1.116    0.104
        39 -11.5979    137.3298    170.9549   1.0104451194e+02   1.9953584015e+01    0.3189116    0.2253115  61.11  0.001134659    1.477    0.323
        40 -12.2968     76.4492    176.9758   1.1527121111e+02   2.8828217338e+01    0.3980424    0.2637101 -44.91  0.002154945    2.027    0.507
        41 -12.5030     80.0878    172.1079   1.1385747197e+02   2.9351780912e+01    0.3579969    0.2947463 -66.50 0.0008446972    1.249    0.199
        42  -7.3998     58.3984    214.1795   1.2261864632e+02   2.3765927663e+01    0.6139847    0.4933328  88.29  0.002178404    1.184    0.156
        43 -10.7755     37.2966    176.3709   1.2341756661e+02   3.3857666540e+01    0.3221788    0.1684777  56.88  0.001841917    1.746    0.427
        44 -11.9156     43.8860    172.5601   1.2169706791e+02   3.3938413447e+01    0.6563561    0.2260488  47.97  0.001828579    2.654    0.623
        45 -10.1422    164.8643    171.3511   9.5213437349e+01   1.4536801706e+01    0.2213444    0.1917946 -66.13 0.0005914306    1.320    0.242
        46 -11.0427    194.1759    167.0814   8.8367614902e+01   9.4299429555e+00    0.3156107    0.2926526  38.37 0.0008783696    1.091    0.084
        47  -9.7909    198.6527    222.5768   9.7531803986e+01   6.8279974887e-02    0.1644181    0.1495568 -80.35 0.0004117674    1.597    0.374
        48 -10.2292    204.0147    164.8914   8.5985284161e+01   7.8274969691e+00    0.3405212    0.1993762 -45.57  0.001564057    1.926    0.481
        49 -12.4822    184.5181    215.2502   9.8963641395e+01   3.5254867971e+00    0.5035933    0.4844591  36.60   0.00351333    1.189    0.159
        50  -9.9153    191.5134    161.8803   8.7818522463e+01   1.0876790122e+01    0.2321881    0.2023052  67.43 0.0009040788    1.357    0.263
        51  -9.5036     43.7035    220.1541   1.2566337744e+02   2.4448686322e+01    0.1598449    0.1282365 -78.61 0.0007772855    1.396    0.284
        52 -12.7275     94.0033    155.3196   1.0820891805e+02   3.0927174566e+01    0.6616251    0.4646519 -32.22  0.003266485    2.099    0.524
        53 -10.8273    189.3990    155.5949   8.6906758054e+01   1.2436366748e+01    0.4233671    0.3030023  43.65  0.002107169    1.342    0.255
        54 -11.4708    133.7863    144.8957   9.6831664968e+01   2.6087188740e+01     1.056468    0.2608428 -53.86  0.002697873    5.320    0.812
        55 -10.2085    174.7284    149.1253   8.8547888432e+01   1.6737813873e+01    0.2603901    0.2014158  56.05 0.0006717574    1.354    0.262
        56  -9.0977    107.6837    145.7320   1.0324553010e+02   3.0784175507e+01    0.1321596    0.1144107  -9.89 0.0002350325    1.553    0.356
        57 -11.4148    106.3125    140.3214   1.0254346859e+02   3.2245417412e+01    0.5373132    0.3213969 -34.26  0.002259512    2.400    0.583
        58 -12.5732     94.0966    140.5170   1.0561454728e+02   3.4267789901e+01    0.3239501    0.2963319  -0.22 0.0004722412    1.409    0.290
        59  -9.8645     47.7118    216.9981   1.2474176196e+02   2.4556641901e+01    0.2092475    0.1681532  71.35  0.001254902    1.147    0.128
        60 -10.8524    106.0085    130.8127   1.0069789220e+02   3.4463726422e+01    0.3497816    0.2952506 -78.33  0.001164308    1.188    0.158
        61 -10.6740    113.8916    130.7138   9.8674648410e+01   3.3052686957e+01    0.3206612    0.2679834  10.27  0.000877976    1.557    0.358
        62 -11.8689    118.9070    127.0540   9.6600108597e+01   3.2929537239e+01     0.621937    0.3664159 -56.72  0.002709518    1.727    0.421
        63 -10.0921    160.8216    127.9934   8.6731356061e+01   2.3969927053e+01    0.2617325    0.1815116 -71.30  0.001088941    2.041    0.510
        64 -10.9744    101.4300    126.8767   1.0104913873e+02   3.6170627056e+01    0.2746029    0.2271229 -28.76 0.0006179197    1.462    0.316
        65 -10.6842    135.6274    123.8035   9.1672113837e+01   3.0295451154e+01    0.2944741    0.1442963 -57.34  0.001058281    2.464    0.594
        66 -10.1328    109.6426    119.5284   9.7274656585e+01   3.6379832542e+01    0.2415501    0.2130335 -48.23  0.001301698    1.123    0.109
        67  -9.9575    167.7322    112.6558   8.1311052292e+01   2.5508049072e+01    0.3223175    0.2294765 -79.88  0.001314266    2.139    0.532
        68  -9.7694    135.0000    112.0206   8.8902605426e+01   3.2986751763e+01    0.2613313   0.08649617 -45.24 0.0008060659    2.968    0.663
        69 -11.1893    119.5127    111.1120   9.2647950657e+01   3.6381261725e+01     0.339788    0.2212559  48.49  0.001532555    1.599    0.374
        70 -10.0878    205.6382    110.0936   7.2859300825e+01   1.7098846311e+01    0.2795155    0.2201562  40.59 0.0005435332    1.305    0.234
        71 -10.2721     51.3652    215.7220   1.2400106475e+02   2.4352446518e+01    0.2301321    0.1596715 -70.20  0.001009428    1.531    0.347
        72  -9.9487     73.7381    189.8111   1.1734306354e+02   2.6522512568e+01    0.1937827    0.1442988  61.85  0.001221191    1.158    0.136
        73 -11.3764     69.6227    209.0617   1.2010391570e+02   2.3270036030e+01    0.2927453    0.2231821  59.12  0.000367545    1.129    0.114
        74  99.0000     44.6575    198.6676   1.2388195470e+02   2.8445052647e+01    0.6274861    0.5075379 -72.71  0.004568865    1.381    0.276
        75  -8.9652    166.4526     93.5081   7.6372489136e+01   2.9578085437e+01    0.1571644    0.1530726 -56.48 0.0003305872    1.043    0.041
        76 -11.5355     52.8234     90.6768   1.0701636850e+02   5.1661311551e+01    0.3393302    0.2252124 -71.00  0.001574899    1.506    0.336
        77 -11.5710     42.0142     91.7648   1.1063400519e+02   5.2579062203e+01    0.2560274    0.2347234 -45.10 0.0006275611    1.164    0.141
        78  -9.5932    185.9999     86.0004   7.0145279693e+01   2.6163599300e+01    0.1956573    0.1868631 -33.47  0.001017468    1.028    0.027
        79  -9.4708     66.3953     70.7204   9.7413214920e+01   5.4375854963e+01    0.1928291     0.156737  87.66 0.0006865162    1.677    0.404
        80 -10.9489    160.3583     61.7771   6.8136048736e+01   3.6846726592e+01    0.3490017    0.2779663 -77.04 0.0005956571    1.544    0.352
        81 -10.1969    162.1729     55.1936   6.5647763298e+01   3.7459528000e+01    0.2106268    0.1813706 -75.63 0.0004075237    1.314    0.239
        82 -10.4957     52.1486    227.1625   1.2470869838e+02   2.2164889340e+01    0.2271335    0.1079899  66.39 -0.0006383859    1.879    0.468
        83 -10.0895    171.8720    239.5186   1.0478699110e+02   2.2381383511e+00    0.2283004    0.1721171  65.18  0.001474546    1.611    0.379
        84  -9.6170     43.0408    236.7386   1.2685351398e+02   2.1577146791e+01    0.1397229    0.1148786  64.40 0.0008900763    1.295    0.228
        85 -12.5800     48.9920    233.4216   1.2566851212e+02   2.1444105430e+01    0.2800548    0.1549851  83.66 0.0005609994    1.635    0.389
        86 -10.3335    189.6830     14.9519   4.8442418591e+01   3.5602876906e+01    0.1985311    0.1809998 -46.64 0.0006774847    1.124    0.111
