#   1 NUMBER                 Running object number                                     
#   2 MAG_AUTO               Kron-like elliptical aperture magnitude                    [mag]
#   3 X_IMAGE                Object position along x                                    [pixel]
#   4 Y_IMAGE                Object position along y                                    [pixel]
#   5 X_WORLD                Barycenter position along world x axis                     [deg]
#   6 Y_WORLD                Barycenter position along world y axis                     [deg]
#   7 A_WORLD                Profile RMS along major axis (world units)                 [deg]
#   8 B_WORLD                Profile RMS along minor axis (world units)                 [deg]
#   9 THETA_WORLD            Position angle (CCW/world-x)                               [deg]
#  10 FWHM_WORLD             FWHM assuming a gaussian core                              [deg]
#  11 ELONGATION             A_IMAGE/B_IMAGE                                           
#  12 ELLIPTICITY            1 - B_IMAGE/A_IMAGE                                       
         1 -14.1764    245.3713     70.4445   7.0884620824e+01   1.5392634415e+01     4.000418     1.240597 -40.14   0.01474523    2.814    0.645
         2  -9.1344     97.3356     13.1590   8.0926232677e+01   5.7780666667e+01    0.2340341    0.1137765 -12.52  0.001085581    2.588    0.614
         3  -9.0384     40.8699     13.9301   9.9738182699e+01   6.7052719170e+01    0.1742629    0.1201522   0.09 0.0004358575    1.254    0.203
         4 -11.0358    246.4032    248.0375   1.0723352458e+02  -1.3755354943e+01     0.433483    0.2693552  41.35  0.002421949    1.673    0.402
         5 -11.8954    194.0571    249.1263   1.1694559933e+02  -5.7500262474e+00    0.7356113     0.214588  37.46  0.002773906    3.145    0.682
         6 -12.0628    175.9760    245.3520   1.1980733741e+02  -2.1146096649e+00    0.8159266    0.5462973  68.77  0.004228591    2.200    0.545
         7 -11.2760    160.2416    236.3549   1.2152732337e+02   2.1228738258e+00    0.9484327    0.5304229 -33.49  0.004435196    2.624    0.619
         8 -11.9257    167.6402    232.8729   1.1953831689e+02   1.4027131784e+00     1.059029    0.4630401  31.60  0.004170316    2.817    0.645
         9 -12.6269    165.5207    248.3873   1.2225073954e+02  -7.9772452940e-01     1.458673    0.4903863  44.13   0.00408269    2.475    0.596
        10 -11.6924    249.4646    239.2155   1.0520190146e+02  -1.3081877859e+01    0.5393943    0.2545816 -38.10  0.002849564    2.289    0.563
        11 -11.5344    238.2561    240.4413   1.0739495112e+02  -1.1586759241e+01    0.3916531    0.2166635  42.42   0.00161766    1.809    0.447
        12  -9.3716    107.7917    237.3945   1.3196345576e+02   1.0999268882e+01    0.3463151      0.20028 -88.58  0.001682872    2.312    0.567
        13 -11.7132    236.9341    230.1787   1.0585676986e+02  -9.9868563148e+00    0.3718754    0.2529925  48.69  0.002146364    1.779    0.438
        14 -11.6520    249.1049    222.7535   1.0235637652e+02  -1.0821893145e+01    0.4568016    0.2516723 -25.70  0.002447973    1.835    0.455
        15  -8.9503    144.5122    229.4562   1.2364397346e+02   6.1634233084e+00    0.2099488    0.1255693 -40.60  0.001024597    2.161    0.537
        16  -8.9930    114.5800    228.7428   1.2955887212e+02   1.1539841706e+01    0.2310127    0.1231916 -55.29  0.001134511    2.089    0.521
        17 -10.7930     98.5457    226.7511   1.3250688323e+02   1.4597976169e+01    0.3742464    0.3111217  36.49  0.002307148    1.430    0.300
        18 -11.5212    164.0077    226.6588   1.1929328213e+02   3.1458506002e+00    0.6611654    0.4093028  35.02  0.002551723    1.553    0.356
        19  -9.7323     88.1096    227.1670   1.3461446876e+02   1.6171909505e+01    0.1812819    0.1671587  63.90 0.0005062678    1.268    0.211
        20 -10.8268    125.8218    221.0004   1.2622982775e+02   1.1121099230e+01    0.3693328     0.285576  43.23 0.0007482535    1.233    0.189
        21 -10.2437    109.3207    222.3541   1.2979067928e+02   1.3704426161e+01    0.2581503    0.1971097  38.86  0.001481112    1.390    0.281
        22  -9.3326     19.7527    222.8326   1.4696264336e+02   2.6116560472e+01    0.1652861     0.106077 -45.14 0.0009530151    2.804    0.643
        23  -9.0909    157.6973    222.0272   1.1983982221e+02   5.1429087388e+00    0.1784324     0.175142  62.63 0.0006600812    1.118    0.106
        24  -8.9255    114.9083    221.2400   1.2850295376e+02   1.2977618227e+01    0.2280463    0.1750087 -28.90   0.00121246    2.045    0.511
        25  -9.0984    148.6080    220.6051   1.2147919969e+02   7.0813392859e+00    0.2258437    0.1313959 -47.11 0.0006469524    1.963    0.491
        26  -8.8450     75.2280    220.3380   1.3639188410e+02   1.9537628104e+01    0.1857493   0.09561148  51.36 0.0007498769    1.701    0.412
        27 -10.3969     99.8025    218.8255   1.3127582412e+02   1.6014428403e+01    0.4171004    0.2017863  62.23  0.001785853    2.386    0.581
        28 -10.7801    235.1190    216.6216   1.0374739491e+02  -7.7315158268e+00    0.2668385       0.1469  26.40  0.000958796    1.908    0.476
        29  -8.9008    143.6228    216.7892   1.2191739502e+02   8.7344417465e+00    0.1788571    0.1303641 -69.24 0.0006564289    1.588    0.370
        30  -9.7854    131.2421    215.3779   1.2428509424e+02   1.1276848651e+01    0.3525267    0.2185954 -63.05  0.001345428    1.800    0.444
        31  -8.2788    175.6924    216.2968   1.1522464179e+02   2.8535416438e+00    0.1340139    0.1047439  71.50 0.0007004637    1.590    0.371
        32  -9.7339    112.4058    214.2511   1.2806342224e+02   1.4842631001e+01     0.305407    0.2312935 -37.67  0.001642355    1.838    0.456
        33 -10.3749    249.8812    214.6921   1.0074156323e+02  -9.7964272670e+00     0.240913    0.1707779 -33.33   0.00128501    1.411    0.291
        34  -8.8913    185.5968    212.6744   1.1258514590e+02   1.6554328906e+00    0.2537021    0.1316446 -38.60  0.001129063    2.179    0.541
        35  -8.6349     79.5134    211.4494   1.3452331468e+02   2.0785101999e+01    0.1335308    0.1078267  74.91 8.880231e-05    1.026    0.025
        36  -9.8876    233.4810    210.5291   1.0291681711e+02  -6.5322531704e+00    0.1307136     0.112953   6.06  0.000809619    1.014    0.014
        37  -9.3293    203.0366    209.3032   1.0849232614e+02  -9.8394379858e-01    0.2544157    0.2072411 -47.17  0.001453832    1.387    0.279
        38  -8.7585    115.4982    209.9910   1.2680838261e+02   1.5196668330e+01    0.1999086    0.1326625 -66.34 0.0007719335    1.588    0.370
        39  -8.7870     48.3268    210.6543   1.4068715327e+02   2.5306642008e+01    0.1356096   0.07447518  71.66 0.0007050293    1.747    0.428
        40  -9.9704    250.5244    190.5358   9.5999607226e+01  -6.2370515565e+00     0.324577    0.1531039 -39.49  0.001504193    2.027    0.507
        41 -11.9605    247.9948    205.1520   9.9280950266e+01  -8.0887547058e+00    0.4687648    0.3393094 -35.05  0.002781274    1.379    0.275
        42 -11.6829    249.7161    199.3548   9.7864800700e+01  -7.4820715161e+00    0.5529513    0.2995066 -36.75  0.002320627    1.767    0.434
        43  -8.9175     99.7075    206.9398   1.2973171876e+02   1.8549878987e+01    0.2568726    0.1190775  67.29 0.0008869161    3.560    0.719
        44  -8.9809    124.0122    205.9715   1.2439097328e+02   1.4526574431e+01    0.1953762    0.1702953  67.34  0.001127211    1.026    0.025
        45  -9.6800     57.2405    206.1410   1.3846472594e+02   2.5121157874e+01    0.2566758    0.1243269  62.04  0.001226431    2.088    0.521
        46  -9.1227     49.4734    202.4931   1.3965594705e+02   2.6936282115e+01    0.1290835   0.09873066  80.58  0.000346461    1.050    0.048
        47  -9.4684     89.1899    199.7332   1.3100595410e+02   2.1848104946e+01     0.268619    0.1752641  68.59  0.000844838    1.538    0.350
        48  -8.5249    164.4640    199.0365   1.1452806922e+02   8.2797451558e+00    0.1921548     0.125066 -21.93 0.0008077531    2.410    0.585
        49  -9.2739    127.0485    197.5221   1.2239216346e+02   1.5774251408e+01    0.2950139    0.2030739 -54.77  0.001480616    1.532    0.347
        50  -8.7518    174.0014    191.7774   1.1114888089e+02   7.8403249898e+00    0.1933267    0.1701758  70.87 0.0003432751    1.236    0.191
        51  -9.7811     67.6579    195.5435   1.3509876677e+02   2.6039799434e+01    0.3369474     0.164726  62.79  0.001499026    2.279    0.561
        52 -10.1045    172.9245    195.6617   1.1211044870e+02   7.2852635558e+00    0.2871854     0.263972  73.07 0.0007799151    1.160    0.138
        53  -9.3177     78.5581    193.7135   1.3251083937e+02   2.4855522607e+01    0.2455407     0.137007  59.82  0.001037656    1.810    0.447
        54  -9.6326     44.4330    194.1436   1.3982879908e+02   2.9417517681e+01    0.2549835    0.1294424  57.05  0.001077048    1.892    0.471
        55 -11.3474    245.7618    191.9142   9.7109059946e+01  -5.6602921529e+00    0.3206519    0.2129967 -11.09   0.00166559    1.713    0.416
        56  -9.5998     87.8251    189.8219   1.2992937366e+02   2.4302365699e+01     0.204356    0.1452493  70.84 0.0008948873    1.379    0.275
        57 -10.4038     56.1701    187.9008   1.3665368271e+02   2.9346481026e+01      0.44938    0.2037514  66.24    0.0018425    2.862    0.651
        58 -10.4471     94.5664    186.9807   1.2799566523e+02   2.3858754232e+01    0.4171299    0.2269723  77.14  0.001610876    2.838    0.648
        59  -9.2962     34.8721    187.8001   1.4116425348e+02   3.1960095186e+01    0.2513304    0.1281259  79.34  0.001235664    2.087    0.521
        60  -9.9842    230.2572    186.2623   9.8794431719e+01  -2.0086927311e+00    0.2626254    0.2070755 -84.68 0.0009790148    2.098    0.523
        61  -8.4336    121.0000    187.1197   1.2201346654e+02   1.9184527942e+01    0.2308964   0.08139595 -55.26 0.0007973709    2.907    0.656
        62 -11.5911    248.2366    184.1971   9.5136930404e+01  -4.8333162028e+00     0.506925    0.3117087 -17.64  0.002492501    1.871    0.465
        63  -9.3255    109.6520    186.3051   1.2445994232e+02   2.1426285659e+01    0.2387653    0.1586542  77.10   0.00110225    1.789    0.441
        64  -9.7478    211.1253    183.3048   1.0185055257e+02   2.1123804510e+00    0.4391127    0.2919227  12.99  0.001977214    2.070    0.517
        65  -9.9619     75.3116    184.8994   1.3204370574e+02   2.7362383854e+01    0.3223916    0.1742175  64.36  0.001450809    2.099    0.524
        66  -9.8872     66.9245    185.4404   1.3399007151e+02   2.8450015541e+01    0.2716839    0.1381543  56.10  0.001262466    2.005    0.501
        67  -9.5265     45.3023    182.8840   1.3842719328e+02   3.1862849007e+01    0.2234924    0.1508477  57.29 0.0009348108    1.421    0.296
        68  -9.0458    243.6077    180.1600   9.5136016294e+01  -3.3643704745e+00    0.1984239    0.1174314 -26.96  0.000952421    1.725    0.420
        69 -10.6856     60.3904    177.2891   1.3439377394e+02   3.1241331184e+01    0.3814923    0.1978752  61.84   0.00172949    2.157    0.536
        70  -9.4708    204.7980    176.1327   1.0162963547e+02   4.7013617579e+00    0.3143014    0.1940464 -33.12  0.001159249    1.721    0.419
        71 -10.0887     88.4830    177.4717   1.2793730463e+02   2.7058218286e+01    0.3871072    0.1180722  42.83  0.001355422    3.115    0.679
        72 -11.2387     77.7613    176.2440   1.3025000524e+02   2.9016345220e+01    0.5657914    0.2146235  52.56  0.002098599    2.996    0.666
        73 -10.1119    106.2557    175.8433   1.2350101624e+02   2.4437605682e+01     0.340735     0.203104  67.29  0.001446068    2.084    0.520
        74  -8.5846    218.4893    174.3871   9.8579147706e+01   2.3158581575e+00    0.1419729    0.1298238   5.94 0.0001259441    1.073    0.068
        75  -8.8225     34.3672    173.6751   1.3978697018e+02   3.5230225382e+01    0.1364155   0.07808603  71.34 0.0007036662    1.802    0.445
        76  -9.4991     45.0439    172.0746   1.3721564173e+02   3.4392271847e+01    0.2173593    0.1309446  73.91  0.001129887    1.737    0.424
        77 -11.1453    248.1730    169.8361   9.2219465869e+01  -2.4326207543e+00    0.3463925    0.1954002 -51.07  0.001254099    2.112    0.526
        78 -10.4720     55.6558    170.0727   1.3452427396e+02   3.3555085504e+01    0.3477469      0.20264  73.99  0.001249968    1.962    0.490
        79  -8.6511    207.5161    170.5234   9.9908963468e+01   5.2237419121e+00    0.1451466    0.1382895  -0.86 0.0008098884    1.024    0.023
        80  -9.0561    122.2244    170.1271   1.1869228352e+02   2.2830578969e+01    0.3003979    0.1817339  67.01  0.001079243    2.141    0.533
        81  -9.8480     99.9332    166.9389   1.2346481905e+02   2.7636422441e+01    0.3879734     0.171819  52.49  0.001464707    2.507    0.601
        82 -11.4320     80.6686    164.6862   1.2776422165e+02   3.1316145180e+01    0.5805089    0.3081521  72.45  0.002193088    2.988    0.665
        83  -9.3970     47.8535    164.3738   1.3558987136e+02   3.5863565655e+01    0.2383388    0.1564406 -84.13  0.001189413    1.394    0.282
        84  -9.4564     37.9723    164.5284   1.3791164056e+02   3.6957577992e+01    0.2532761    0.1520704 -89.74 0.0009635556    1.608    0.378
        85 -10.2576     70.1270    163.8217   1.3018728636e+02   3.3082089580e+01    0.2234196    0.1713687  79.94 0.0008561308    1.276    0.217
        86 -10.6143     93.6894    160.9308   1.2392805417e+02   3.0127898059e+01    0.3785383    0.2080044  56.39  0.001593987    2.039    0.509
        87 -10.4962     62.5062    161.0264   1.3161212092e+02   3.4802797671e+01    0.2679551    0.1700835  58.88  0.001229096    1.663    0.399
        88  -8.9024     31.5335    160.5241   1.3891800942e+02   3.8572333336e+01    0.2360941    0.1033931 -82.34  0.001026811    2.408    0.585
        89 -10.0039    106.3508    158.6415   1.2036875488e+02   2.8477548932e+01    0.4121251    0.2421614  67.22  0.001650023    2.309    0.567
        90  -8.6714     23.0222    159.5047   1.4075968420e+02   3.9642709771e+01    0.1660142   0.07971436  58.75 0.0006401436    2.340    0.573
        91 -11.7643     83.0746    155.5020   1.2561487931e+02   3.3146229417e+01    0.6165723    0.2752281  55.42  0.002302108    2.862    0.651
        92 -11.0023     50.0951    155.4356   1.3382088503e+02   3.7711061887e+01     0.418176    0.2445722  65.20  0.001601836    1.975    0.494
        93  -9.1774    213.0298    155.1620   9.5499171146e+01   7.0464064965e+00    0.2692511    0.2104408  52.62  0.001361957    1.359    0.264
        94 -11.4754     68.5460    154.1133   1.2903455164e+02   3.5631071058e+01    0.4318754    0.2692799  72.04  0.001606268    1.952    0.488
        95  -8.8125    133.4784    153.0076   1.1254167732e+02   2.4581317252e+01    0.2187782    0.1341825 -76.48 0.0008084747    2.459    0.593
        96  -9.9580     91.9502    152.1507   1.2275895549e+02   3.2523352435e+01    0.2502738    0.1554531  67.30  0.001081073    2.032    0.508
        97 -10.2079     99.0565    151.2412   1.2077627776e+02   3.1535261953e+01    0.2865992     0.194784  62.35  0.001260881    1.640    0.390
        98  -9.6074     28.8174    149.7627   1.3823833678e+02   4.1348993282e+01    0.4066823    0.1804256  84.82  0.001539822    3.613    0.723
        99 -11.7048     56.7143    146.3723   1.3078075559e+02   3.9060019990e+01    0.6416415    0.3594747  75.53  0.002442395    2.564    0.610
       100 -11.2304    108.2132    145.9822   1.1737811716e+02   3.1155356380e+01     0.757648    0.3948998  66.27  0.002494847    3.466    0.711
       101 -10.8778     78.3306    147.1395   1.2533114516e+02   3.5887518493e+01     0.354204     0.206061  77.06  0.001412587    2.666    0.625
       102  -9.4414    149.3615    145.4603   1.0704915614e+02   2.2966676866e+01    0.4674406    0.2896306  88.12  0.001545323    3.307    0.698
       103 -11.2774     88.5946    144.3374   1.2213106326e+02   3.4953540851e+01    0.3911611    0.2758701  77.33  0.001231168    1.716    0.417
       104  -9.4443    125.7076    143.6579   1.1243364370e+02   2.8333733355e+01    0.3926624    0.2453935  78.02   0.00144514    2.662    0.624
       105 -11.1093     60.0130    108.0315   1.2258734390e+02   4.7669692199e+01     0.557448    0.2461473 -41.83  0.002300509    2.391    0.582
       106 -12.8717     79.2466    112.8090   1.1798763498e+02   4.3885514020e+01    0.6751217    0.5767419  81.63  0.003001527    1.340    0.254
       107 -13.0706     69.4981    139.1055   1.2618168962e+02   3.9104184778e+01     1.079309    0.4936778 -69.63   0.00424732    2.459    0.593
       108 -12.5610     60.5693    125.5329   1.2605715423e+02   4.3534809665e+01     1.034605     0.565372  88.35  0.003792444    3.566    0.720
       109 -10.7651     59.3510    114.6158   1.2420372279e+02   4.6242197803e+01    0.4389424    0.3193565  -0.13  0.002310123    1.910    0.476
       110 -12.2681     72.5672    129.4382   1.2349000792e+02   4.0979098323e+01    0.5925757    0.4191962  55.21  0.002329643    1.585    0.369
       111 -12.8720     71.4451    120.4641   1.2194723436e+02   4.3258379931e+01    0.8679772     0.522652 -77.10  0.003813216    2.151    0.535
       112 -10.7580     81.6442    139.8211   1.2308349412e+02   3.7142100956e+01    0.2882006    0.2060286  84.53  0.001258128    1.670    0.401
       113  -9.9417     23.2013    137.9114   1.3808833743e+02   4.4620633895e+01    0.5433245    0.2466386  84.67  0.002138663    3.514    0.715
       114  -9.3993     22.3210    132.0124   1.3751298036e+02   4.6059954166e+01    0.4869328    0.1891273 -39.02  0.001836536    4.230    0.764
       115 -10.8639     39.6345    146.7451   1.3516976238e+02   4.0957054491e+01     0.673417    0.3196406 -75.81  0.003099623    2.042    0.510
       116 -11.5741     57.8465    135.7054   1.2868538376e+02   4.1466071523e+01    0.6027739    0.2506498 -43.32  0.002309822    2.963    0.663
       117 -10.4592     39.2024    136.2838   1.3373297716e+02   4.3469525332e+01    0.3191547    0.1976448 -86.39  0.001094035    1.704    0.413
       118 -11.3887    249.2014    132.4647   8.4079606961e+01   3.9066533280e+00     0.590631    0.1555743 -41.59  0.001910427    3.328    0.700
       119  -9.7958    113.1131    133.8714   1.1347746984e+02   3.3104423956e+01    0.3341918     0.220908  82.62  0.001331634    2.331    0.571
       120 -12.0326     84.0058    132.1844   1.2091179869e+02   3.8601021720e+01    0.5629268    0.3838691  68.40  0.001748561    1.845    0.458
       121  -9.3287    132.6622    132.4816   1.0812331364e+02   2.9495907859e+01     0.356914    0.2308602 -85.36  0.001315877    2.605    0.616
       122  -8.6499    143.4832    132.0086   1.0532272902e+02   2.7285322038e+01    0.2214917    0.1365796 -71.31 0.0008077903    2.400    0.583
       123 -11.6445     99.9439    128.7909   1.1584025918e+02   3.6732412971e+01     0.641001     0.404066  81.37  0.002155571    2.718    0.632
       124  -9.6993     41.3908    130.2158   1.3218400489e+02   4.4667221117e+01    0.3293674    0.1804882 -21.75  0.001312623    3.823    0.738
       125  -9.3926     12.4982    128.8317   1.3962555276e+02   4.7569841027e+01    0.4233506    0.1920342  85.70  0.001794512    3.192    0.687
       126  -9.5739     13.4466    121.4160   1.3837689557e+02   4.9182664232e+01    0.5141765    0.1104721 -50.69  0.001883182    3.855    0.741
       127  -8.3632    153.2929    129.6693   1.0238987468e+02   2.5636251063e+01    0.1619449    0.1244843 -84.61  0.000702247    1.631    0.387
       128 -10.6496    118.2502    125.7715   1.1023754794e+02   3.3990247599e+01    0.5238667    0.3177021  75.22  0.001839403    3.038    0.671
       129 -11.4378     43.7076    121.4408   1.3003355163e+02   4.6474446223e+01     0.997386    0.4741952 -83.23  0.003651078    3.646    0.726
       130  -8.4350    179.7514    125.0044   9.5252693217e+01   2.0563392830e+01    0.2795423    0.1706424  86.57  0.000884738    3.484    0.713
       131 -10.4932     28.0817    121.8922   1.3446888866e+02   4.7893909460e+01    0.7216228    0.3416721  79.19  0.002471972    4.951    0.798
       132 -11.5467     84.4839    122.0084   1.1858824519e+02   4.0932460753e+01    0.4705397    0.3231916   0.69  0.002061481    2.421    0.587
       133  -9.8147    142.0553    119.8240   1.0266756405e+02   3.0322831487e+01    0.5162064    0.2961969 -69.11  0.001761987    2.893    0.654
       134 -10.3009    107.9647    120.3126   1.1167748042e+02   3.7241080512e+01    0.2155158    0.2073531  44.42  0.001112504    1.095    0.087
       135  -9.6586    131.4678    118.9935   1.0512578146e+02   3.2808689281e+01    0.3285008    0.1978597  79.44   0.00104259    3.580    0.721
       136  -9.4221      2.2481    114.1645   1.4040146764e+02   5.1549098569e+01    0.7250644    0.1996731 -75.52   0.00265167    3.886    0.743
       137 -11.4356    109.6669    114.6580   1.0981784041e+02   3.8209202635e+01    0.6180774    0.3872481 -81.47  0.002270801    2.898    0.655
       138 -11.9212     92.9700    112.8566   1.1404307650e+02   4.1650635566e+01      0.57024    0.4055028 -82.64  0.001673649    1.910    0.476
       139 -11.4146     92.9991    104.5387   1.1194965600e+02   4.3518971987e+01    0.5189599    0.3365862   1.13  0.002055884    2.831    0.647
       140 -12.4719    249.0104    103.3860   7.7701551260e+01   9.0805476806e+00     1.157904     0.379562 -36.34  0.004022548    3.007    0.667
       141  -9.0426    107.8170    248.8097   1.3326599990e+02   8.8710328612e+00    0.1739924    0.1527543  55.46 0.0006114796    1.198    0.165
       142 -10.7145     46.1727     92.0032   1.2322686022e+02   5.2858796593e+01    0.4300386    0.2398017  12.98  0.002074381    2.506    0.601
       143 -10.8641     22.8484    102.5439   1.3269358582e+02   5.2710214800e+01    0.6694147    0.3538236  78.82  0.002756017    3.814    0.738
       144  -9.9573     21.1612     92.7102   1.3136343335e+02   5.4995579539e+01    0.5381234    0.1789773 -40.80  0.002195939    3.218    0.689
       145  -9.3992    139.9276    104.9994   9.9326910684e+01   3.4006117809e+01    0.2537509    0.1929266 -89.12 0.0008190236    1.735    0.424
       146  -9.1817    150.1860    104.1331   9.6586635841e+01   3.1848207820e+01    0.2258588     0.182759 -69.54 0.0008173446    1.383    0.277
       147 -11.5076    128.5893    100.7050   1.0105775319e+02   3.7407541733e+01    0.6545383    0.2819657 -43.48  0.002369726    2.301    0.565
       148 -12.2349    110.3357     99.9845   1.0579458024e+02   4.1319702605e+01    0.8955954    0.5071407  67.31  0.003084898    3.379    0.704
       149 -11.2487     82.2929    100.3423   1.1403233566e+02   4.6219144833e+01    0.5178969    0.2800799 -64.65  0.001686839    2.404    0.584
       150  -9.0209      6.6052    102.8449   1.3755056580e+02   5.3778504260e+01    0.1701914   0.09305523 -78.62 0.0009406634    1.751    0.429
       151 -11.6094     63.6331     95.8746   1.1862437361e+02   4.9915572360e+01    0.7607569    0.3792869 -65.92  0.002546206    2.624    0.619
       152 -11.5773     65.8495     86.8268   1.1558884872e+02   5.1557461834e+01    0.7300413     0.342799  18.20  0.002672331    3.800    0.737
       153 -11.2321     95.1442     97.0502   1.0934636237e+02   4.4781169516e+01    0.3943772    0.2539891 -64.87  0.001223394    1.944    0.486
       154  -9.0790      7.5833     97.1953   1.3635632700e+02   5.4949087129e+01    0.1792194   0.07540203 -55.71 0.0009394285    1.736    0.424
       155 -10.5528     83.4876     93.8661   1.1196830722e+02   4.7434645163e+01    0.2818553    0.1906878  15.50  0.001331509    1.944    0.486
       156  -9.4335    139.2794     92.8879   9.6158103956e+01   3.6647569304e+01    0.3429378    0.2418196  83.98   0.00129497    2.084    0.520
       157 -11.1135    125.2951     91.4674   9.9344415831e+01   4.0024519562e+01    0.5242045    0.3389987  76.27  0.001816626    2.616    0.618
       158 -10.4626    107.4415     92.4527   1.0452215392e+02   4.3473542067e+01    0.3017283    0.2173615  18.25  0.001402098    1.765    0.433
       159 -10.2070     34.7487     89.4520   1.2633023956e+02   5.4556359369e+01    0.4988798    0.2417892 -72.40  0.002152236    2.815    0.645
       160 -10.0871     36.0164     82.2694   1.2424777030e+02   5.5960931586e+01    0.4770849    0.2300755 -27.88  0.002109032    2.834    0.647
       161 -10.0304      7.0000     85.2107   1.3443909075e+02   5.7543954539e+01    0.2614085    0.1069307 -38.60  0.001305833    2.415    0.586
       162 -11.2108     86.5725     87.0080   1.0913389932e+02   4.8370849424e+01    0.4326521    0.3074248 -76.28  0.001479323    2.125    0.529
       163 -11.4083     87.7953     80.2411   1.0680135864e+02   4.9534652745e+01    0.6861768    0.3128303  24.39  0.002267882    4.009    0.751
       164 -11.3665    105.1821     83.8552   1.0269062881e+02   4.5657165145e+01    0.4847618    0.3490648 -84.77  0.001939104    2.307    0.566
       165 -10.8030     47.9573     84.1562   1.2073247707e+02   5.4336941041e+01    0.4391115    0.3123758  82.17  0.002111532    2.330    0.571
       166 -10.4899     49.4527     77.7047   1.1854738882e+02   5.5502222857e+01    0.4456028    0.2721785 -12.48  0.002200366    2.258    0.557
       167  -9.7398    140.7832     83.1946   9.3023008279e+01   3.8193172710e+01    0.2586789    0.1673038 -79.79 0.0009503298    2.797    0.643
       168 -10.3652     74.5036     80.6469   1.1109541723e+02   5.1586950059e+01    0.3631354    0.2335695 -63.05  0.001298466    1.974    0.494
       169  -9.9575     24.4281     80.7977   1.2779877809e+02   5.7274927624e+01    0.3372148    0.2128605 -84.78  0.001441957    2.333    0.571
       170  -9.9667    119.7935     81.0024   9.7768966786e+01   4.3258021167e+01    0.2454551    0.1728079 -70.10  0.001075744    2.034    0.508
       171 -10.1271    122.2063    113.0465   1.0602382551e+02   3.6077135341e+01    0.2994853     0.204554  74.07  0.001110013    2.102    0.524
       172  -8.7276    184.5566     77.7894   8.2088950766e+01   2.8587009034e+01    0.2112493     0.135729 -51.81 0.0005599741    1.604    0.377
       173 -10.5553     62.1079     74.7116   1.1344192580e+02   5.4535819088e+01     0.766679    0.1490116 -47.38  0.002347612    4.322    0.769
       174 -10.5838    128.4862     76.1115   9.4014341199e+01   4.2294652273e+01    0.3937547    0.2671501 -84.51  0.001564573    2.613    0.617
       175 -10.7060    105.9980     72.2964   9.8960772336e+01   4.7708831302e+01    0.4207854    0.2099889 -52.98  0.001304961    2.560    0.609
       176 -10.8039     83.0710     65.3428   1.0369569779e+02   5.3156589281e+01    0.5385661    0.3040303 -11.68  0.002038806    3.332    0.700
       177 -10.4883     27.3559     71.4128   1.2455779439e+02   5.8956440327e+01    0.7170712    0.3145105 -22.62   0.00283706    4.001    0.750
       178  -8.8861     10.0233     74.7200   1.3135691997e+02   5.9537527398e+01    0.1517051    0.1253734 -42.20 0.0002625249    1.103    0.093
       179  -9.8604    115.9965     73.0148   9.6383577608e+01   4.5548779777e+01    0.2309453    0.1832915 -80.92 0.0008583689    1.738    0.425
       180 -10.2873     95.2746     71.5031   1.0186594262e+02   4.9892078136e+01    0.3779765    0.2360468 -57.76  0.001431365    2.092    0.522
       181 -11.4628     66.6857    111.0651   1.2127562790e+02   4.6099763761e+01    0.4058252     0.303258 -85.01  0.001565192    1.623    0.384
       182 -10.4994     51.3839     69.8692   1.1569747372e+02   5.6838629022e+01     0.454867    0.2240966 -62.21  0.001813567    2.911    0.657
       183  -9.0398     16.3535     69.9257   1.2808319955e+02   6.0094132342e+01    0.2251936   0.09974493 -66.51  0.001076374    2.447    0.591
       184  -9.1235    146.7876     68.6010   8.7326150749e+01   3.9415323472e+01    0.2087955    0.1404993  65.24 0.0008460707    1.613    0.380
       185 -10.7157     82.5504     72.9322   1.0623910745e+02   5.1834064424e+01    0.4367029    0.2902037 -66.35  0.001797558    2.291    0.563
       186  -9.4756    121.9844     66.4992   9.2759069718e+01   4.5429130857e+01    0.2892548    0.1760941 -70.26  0.001029344    3.433    0.709
       187 -10.8737    138.6955     73.2380   9.0606351849e+01   4.0503794135e+01    0.5195063    0.2994852 -62.70  0.001253455    2.744    0.636
       188 -10.3087     14.3454    108.9355   1.3627165526e+02   5.1923293816e+01    0.5689275    0.2302576 -61.19  0.002862612    1.826    0.452
       189  -9.9518    110.4645     64.4444   9.5223783614e+01   4.8209198229e+01    0.3048008    0.2315945 -63.75  0.001188507    1.733    0.423
       190  -9.6169     37.6443     64.5139   1.1902961156e+02   5.9371172410e+01    0.2372744    0.1736371 -87.83   0.00122606    2.424    0.587
       191  -9.4018     17.9238     62.6981   1.2574293289e+02   6.1406707409e+01    0.3130367   0.08002842 -44.56  0.001309074    2.930    0.659
       192  -9.4592     42.3359     71.8876   1.1941863363e+02   5.7451618570e+01     0.252286    0.1093263 -59.57  0.001091697    2.583    0.613
       193  -9.9494    100.1887     60.0909   9.6749926442e+01   5.0988717134e+01    0.3177922    0.1716959 -57.01  0.001231081    3.046    0.672
       194  -9.9163     73.2186     59.8879   1.0513364798e+02   5.5713999033e+01    0.4379666    0.2263283 -51.40  0.001532243    2.284    0.562
       195 -10.1831     74.6814     51.4822   1.0181975307e+02   5.6911700938e+01    0.5115288     0.264783 -15.10  0.001949905    3.472    0.712
       196 -10.0001    133.7636    109.9041   1.0219146472e+02   3.4318037842e+01     0.309385    0.2168737 -64.82   0.00134857    1.684    0.406
       197  -9.4944     38.7369     58.4291   1.1684577780e+02   6.0407541749e+01    0.2273463    0.1193647 -33.10  0.001192532    1.791    0.442
       198  -8.8217     24.4830     58.9817   1.2231549240e+02   6.1614921928e+01    0.1772738    0.1429666 -88.63  0.001144927    1.892    0.471
       199  -8.8267     25.9732     55.0379   1.2062954019e+02   6.2227449117e+01    0.2933787    0.1238834 -30.69   0.00136028    2.641    0.621
       200  -9.0074    130.9881     58.4857   8.7970006659e+01   4.4758441520e+01    0.2023829    0.1287863  79.13 0.0006968121    2.537    0.606
       201 -10.2900      7.2930     57.1075   1.2828586185e+02   6.3172206563e+01    0.3164296    0.1671236 -68.83  0.001628588    2.200    0.546
       202  -9.9177    119.3173     56.1724   9.0175226637e+01   4.7711979210e+01     0.266875    0.1920215  83.12  0.001232296    2.129    0.530
       203  -9.3275     43.8194     55.1054   1.1393675219e+02   6.0469877102e+01    0.2993358     0.153306 -55.77  0.001402063    2.298    0.565
       204 -10.2635    100.5387     54.3189   9.4733324324e+01   5.1867195953e+01    0.2550406    0.2206062  14.57 0.0001804697    1.117    0.105
       205  -9.7800     54.0378     53.6200   1.0971856607e+02   5.9513607383e+01    0.3416707    0.1666094 -58.35  0.001378785    3.550    0.718
       206  -9.1024     62.9720     55.0099   1.0701089053e+02   5.8075812272e+01     0.183083    0.1579447 -69.99 0.0006062452    1.663    0.399
       207  -9.5649     92.4266     50.7014   9.5910565738e+01   5.3977870100e+01    0.3540278    0.1167926 -42.86  0.001277003    3.293    0.696
       208  -9.1857     30.8950     51.7590   1.1776188262e+02   6.2387629638e+01    0.2008667    0.1509497 -73.79 0.0008604257    2.080    0.519
       209  -9.3802     45.7543     49.4318   1.1136851042e+02   6.1245013582e+01    0.2709878    0.1452537  -8.79  0.001205738    2.969    0.663
       210  -9.1944     63.8689     47.3998   1.0409233287e+02   5.9219737715e+01    0.2442521    0.1465685  -7.85  0.001183528    2.222    0.550
       211  -9.3656     22.0380     47.3575   1.1985874213e+02   6.3941548605e+01     0.293488    0.1554976 -13.89  0.001577064    2.314    0.568
       212  -9.1209     81.5634     47.0224   9.8015757576e+01   5.6483101887e+01    0.1943286    0.1206508 -34.67 0.0006070549    1.572    0.364
       213  -9.1740    130.3833     45.8629   8.4110162250e+01   4.6795080738e+01    0.1852482    0.1336661 -13.53 0.0003743066    1.639    0.390
       214  -9.0213    122.3247     45.6656   8.5985833455e+01   4.8632025922e+01    0.1383095    0.1096639 -75.96 0.0007051101    1.713    0.416
       215  -9.1081     44.8251     45.0097   1.1021606524e+02   6.2098420792e+01    0.1778751    0.1412019 -68.32 0.0007921676    2.040    0.510
       216  -9.1858     16.6554     43.8752   1.2094115517e+02   6.4972361757e+01     0.368124    0.1344291 -56.31  0.001716651    2.834    0.647
       217  -9.1030     57.9877     42.4929   1.0444238966e+02   6.0830980017e+01    0.2163783    0.1557999 -74.30  0.001023202    3.390    0.705
       218 -10.3876      4.9238     41.0898   1.2489792093e+02   6.6239229678e+01    0.4228121     0.172499 -64.40  0.001926516    3.516    0.716
       219  -9.3362     69.0941     41.6553   1.0022706270e+02   5.9333978801e+01    0.2099773    0.1644786 -39.96 0.0008518442    1.398    0.285
       220  -8.4790    113.5776     41.5232   8.6816959911e+01   5.1107030275e+01    0.1356813    0.1229998  24.23 0.0001308476    1.025    0.025
       221  -9.0029    105.6700     41.3428   8.8857665347e+01   5.2779653537e+01    0.1311509     0.107648 -75.54 0.0007051076    1.748    0.428
       222  -8.8990     37.0001     41.2196   1.1192317877e+02   6.3592860829e+01    0.1563367    0.1242853 -54.32 0.0007783037    1.619    0.382
       223  -9.2940     83.9386     39.8669   9.4704243986e+01   5.7132122263e+01    0.2015999    0.1556717  10.23 0.0004728895    1.270    0.212
       224  -8.8177    119.5572     38.5007   8.4291519564e+01   5.0222340151e+01    0.1342863    0.1253294  37.55 9.840252e-05    1.040    0.038
       225  -9.0140     95.4972     38.5007   9.0722695897e+01   5.5187572250e+01    0.1291559    0.1198961  16.99 0.0001638248    1.083    0.077
       226  -9.0677    105.8569     37.2051   8.7368803937e+01   5.3301619544e+01    0.1915182    0.1449772  20.95 0.0006088817    1.347    0.257
       227  -8.7826     26.2249     37.0033   1.1478408834e+02   6.5343455089e+01    0.1525616   0.07808943 -43.73 0.0008754133    1.659    0.397
       228  -8.9402    119.5783     33.7701   8.2697180642e+01   5.0824615772e+01    0.1814766    0.1237643 -41.39 0.0007987119    1.651    0.394
       229  -9.6115      6.2207     33.8013   1.2212557510e+02   6.7409379427e+01    0.1585525   0.09518127 -27.75 0.0009702341    1.365    0.267
       230 -11.6133     45.4378    101.8345   1.2566479867e+02   5.0773301841e+01    0.8245181    0.4756261  83.68  0.003249817    3.717    0.731
       231  -8.6637     60.4313     33.2048   1.0011598435e+02   6.1869740826e+01    0.1586681    0.1079433 -41.24  0.000737292    1.632    0.387
       232  -9.4166     12.5813     30.6302   1.1832872097e+02   6.7497189342e+01    0.2617767    0.1272541 -56.79  0.001416569    2.540    0.606
       233 -10.0850      2.7137     27.8321   1.2170692681e+02   6.8606739836e+01    0.2117975    0.1482643 -14.68  0.001599559    1.261    0.207
       234  -8.7263     81.3532     27.6628   9.0975658558e+01   5.9216149550e+01    0.1164723    0.1017136 -76.24 0.0007043801    1.797    0.444
       235  -9.0988     43.9647     25.7458   1.0339390797e+02   6.5133078025e+01    0.1759579    0.1251631  -0.83 0.0004980352    1.261    0.207
       236  -8.9545    110.3812     24.7421   8.1829538617e+01   5.3880053470e+01    0.1681343    0.1209619  -7.64 0.0007469048    1.547    0.354
       237  -8.6978     58.8088     22.2142   9.6377833924e+01   6.3571291245e+01    0.1600268    0.1141775   1.22 0.0002850979    1.289    0.224
       238  -9.9067     13.1268     21.3773   1.1473121399e+02   6.8889860043e+01    0.2287369    0.1608425  -4.67 0.0008410256    1.260    0.206
       239  -8.6416    188.4863     20.5056   6.6329943914e+01   3.5916988714e+01    0.1349459    0.1162582  80.36 0.0001875623    1.026    0.025
       240  -8.3982     73.3836     19.6944   9.0395024028e+01   6.1549025230e+01    0.1095323   0.09864624 -85.49  0.000702123    1.793    0.442
       241  -8.3953     84.5457     21.4589   8.7628801046e+01   5.9373949347e+01    0.1232743    0.1072045  19.17 0.0001444265    1.050    0.048
       242  -9.4118     27.9856     17.9896   1.0682234366e+02   6.8015328188e+01    0.1355974    0.1007616 -15.58            0    1.048    0.046
       243 -11.1898    167.7638    242.5599   1.2097585461e+02  -2.4306722591e-01    0.4445153    0.2642984  51.40  0.001613561    1.591    0.372
