#   1 NUMBER                 Running object number                                     
#   2 MAG_AUTO               Kron-like elliptical aperture magnitude                    [mag]
#   3 X_IMAGE                Object position along x                                    [pixel]
#   4 Y_IMAGE                Object position along y                                    [pixel]
#   5 X_WORLD                Barycenter position along world x axis                     [deg]
#   6 Y_WORLD                Barycenter position along world y axis                     [deg]
#   7 A_WORLD                Profile RMS along major axis (world units)                 [deg]
#   8 B_WORLD                Profile RMS along minor axis (world units)                 [deg]
#   9 THETA_WORLD            Position angle (CCW/world-x)                               [deg]
#  10 FWHM_WORLD             FWHM assuming a gaussian core                              [deg]
#  11 ELONGATION             A_IMAGE/B_IMAGE                                           
#  12 ELLIPTICITY            1 - B_IMAGE/A_IMAGE                                       
         1 -11.4597    215.9078     10.7140   2.8939362651e+02   6.3546957669e+00    0.0816223   0.02961889 -53.52  0.002945246    2.553    0.608
         2 -13.4052    247.6868     86.0455   2.8949405491e+02   5.2977468383e+00    0.2635143   0.08365323 -60.54   0.01928616    3.032    0.670
         3 -12.2268    249.2543     45.5135   2.8922468674e+02   5.7539028736e+00   0.07041059   0.02767722 -56.41   0.00578437    2.378    0.579
         4 -13.1738    232.7268      8.9875   2.8918872189e+02   6.2730020428e+00   0.06930558    0.0236107 -55.49  0.005357341    2.683    0.627
         5 -15.2771    244.7512     18.5732   2.8910946210e+02   6.0903815117e+00    0.2712386    0.1554382   7.90  0.007204248    2.372    0.578
         6  -9.9632    185.7896     20.6990   2.8980353042e+02   6.4216441229e+00   0.02646728    0.0137629 -73.45  0.002272351    2.393    0.582
         7  -9.1095    131.5168     18.5166   2.9041763910e+02   6.7733378114e+00    0.0186247   0.01259707 -62.00  0.001567446    1.477    0.323
         8  -8.8827    159.3314     14.4867   2.9007088538e+02   6.6523307651e+00   0.01474385   0.01060623 -66.71 0.0006886693    1.430    0.301
         9  -7.1630    135.3273      4.3269   2.9028558293e+02   6.9134304589e+00  0.007091468  0.004926083 -26.91 0.0004180976    1.700    0.412
        10  -8.5534    207.2931     10.0328   2.8948889694e+02   6.4144841967e+00   0.01766603   0.01119939  88.55 0.0009356209    2.239    0.553
        11  -7.3826    188.0458    177.2307   2.9074607689e+02   4.6080586138e+00  0.008371331  0.005530116  25.45 0.0003247242    1.538    0.350
        12 -13.8575     12.4897    236.8336   2.9313987379e+02   4.9727791222e+00     0.159627      0.12169  89.27   0.01738191    1.550    0.355
        13 -11.0785     56.1159    164.7051   2.9219284992e+02   5.5432515674e+00   0.03735147   0.03115658  67.53  0.002895379    1.337    0.252
        14  -8.4510    246.9493    155.0000   2.8992938601e+02   4.5094911782e+00   0.01259558  0.008862888  30.79  0.000725657    1.413    0.292
        15  -9.7401    241.8250    153.5696   2.8997961137e+02   4.5567917746e+00   0.02362566  0.009312901  35.76  0.001704755    2.411    0.585
        16  -9.9422    234.4124    146.6570   2.9002232941e+02   4.6809165498e+00   0.02442567   0.01019553  28.71  0.002026133    2.367    0.577
        17  -9.7626     69.6854    146.3251   2.9192278026e+02   5.6737705044e+00   0.01491236   0.01259128 -70.35   0.00159444    1.218    0.179
        18  -8.9287     66.1791    144.3000   2.9195085277e+02   5.7180716680e+00   0.01824109   0.01413161  88.59  0.001462447    1.516    0.340
        19 -11.6061    214.8323     52.9749   2.8966819705e+02   5.8758418047e+00   0.07683963    0.0470934  25.00   0.00337049    1.671    0.401
        20  -8.7786     67.2071    245.8328   2.9256325275e+02   4.5424094560e+00   0.01104811   0.01018063 -10.60 0.0003767096    1.125    0.111
        21 -10.6959    242.6375    119.3910   2.8975879274e+02   4.9449044856e+00   0.01759767   0.01468288  39.19 0.0004758026    1.207    0.172
        22  -8.2335     44.9497    224.6539   2.9269029363e+02   4.9193813869e+00    0.0109712  0.008731326 -43.38 0.0005067968    1.267    0.210
        23 -11.0024     61.0740    160.1769   2.9210765503e+02   5.5657575344e+00   0.03199345   0.02570405  56.15  0.001579879    1.352    0.260
        24  -8.5899    216.6584    131.0429   2.9013054186e+02   4.9673714898e+00   0.01157148  0.008696192  39.93 0.0004385147    1.341    0.254
        25  -8.6343    196.9465    128.0075   2.9033924780e+02   5.1209088061e+00  0.009681154  0.009398448 -26.93  0.001206692    1.029    0.028
        26  -9.5919    228.6454    122.1875   2.8993747315e+02   4.9970365860e+00   0.01585989  0.009773562  48.26  0.001552758    1.772    0.436
        27 -10.6070     48.6739    170.0655   2.9231186833e+02   5.5259936481e+00   0.03042302   0.01985865 -24.71  0.001751551    1.931    0.482
        28  -9.2615    212.2463    117.7767   2.9009938534e+02   5.1465048090e+00   0.01194338   0.01039791  63.67  0.001405819    1.241    0.194
        29  -9.3932    168.4457    114.6845   2.9058596912e+02   5.4455835351e+00   0.01523314   0.01241831  79.87  0.000807048    1.412    0.292
        30  -9.3765    134.1050    109.8355   2.9095281596e+02   5.7076953516e+00    0.0249276  0.009317096 -64.78  0.001882788    2.889    0.654
        31  -9.7039    226.7836    109.4985   2.8988041654e+02   5.1541516346e+00     0.028148   0.01294578  56.98  0.001988717    3.698    0.730
        32  -8.8454    230.4641    106.6802   2.8982050995e+02   5.1643814990e+00   0.01168446  0.009410554  72.27 0.0006120166    1.432    0.302
        33  -9.4173    188.6954    105.6943   2.9029649465e+02   5.4272089697e+00   0.01220086   0.01093203  50.63 0.0004813765    1.154    0.133
        34  -9.1478    205.1403    110.4553   2.9013609646e+02   5.2734818639e+00   0.01695346   0.01088871 -21.90  0.001607262    2.050    0.512
        35  -7.8092    146.2186    100.7930   2.9075690795e+02   5.7389857602e+00  0.009507659  0.007534321 -28.80 0.0007083343    1.370    0.270
        36  -7.6908    192.5214    100.5465   2.9022046224e+02   5.4633900703e+00  0.006580275   0.00639555 -25.64 3.644703e-05    1.028    0.027
        37  -7.8139    153.8258     95.4169   2.9063574415e+02   5.7551208413e+00  0.009188785  0.006408069   7.69 0.0009327792    1.673    0.402
        38  -8.5115    220.1387     91.1122   2.8984324961e+02   5.4055643203e+00   0.02342824   0.01315532  86.20  0.001827256    3.205    0.688
        39 -10.1505    190.5471     91.7355   2.9018872951e+02   5.5765967947e+00    0.0218032   0.01460033  17.39  0.001684297    1.622    0.383
        40 -11.4485     19.6409    192.5721   2.9278579781e+02   5.4400911588e+00   0.03300332   0.02133548  31.95  0.002500946    1.528    0.346
        41  -9.7513    187.6537     87.6801   2.9019704233e+02   5.6406445264e+00   0.01371307    0.0095222 -27.24  0.001364167    1.698    0.411
        42  -9.6131    169.9631     84.0622   2.9037901304e+02   5.7886917701e+00   0.02095417     0.014668 -21.16  0.001650036    1.748    0.428
        43  -9.5167    152.6141     84.3708   2.9058141908e+02   5.8894624626e+00   0.01448445   0.01104064 -55.08  0.000502552    1.287    0.223
        44  -8.5940    222.7957     80.4599   2.8974660616e+02   5.5119983134e+00   0.01297547  0.009142864 -61.17  0.001186425    1.411    0.291
        45  -9.2622    176.0889     79.6490   2.9028091903e+02   5.8025883689e+00   0.01187726   0.01145762 -24.74 0.0003345029    1.039    0.038
        46  -7.9292    212.5441     78.9075   2.8985531561e+02   5.5916149534e+00  0.009987117  0.008556649  29.42 0.0002969377    1.169    0.144
        47  -9.8285    184.1912     77.6190   2.9017474743e+02   5.7771692890e+00   0.01499187   0.01314863  -0.33  0.001780491    1.210    0.174
        48  -9.4304    184.2720     73.6055   2.9014896171e+02   5.8228261140e+00   0.01642285   0.01249115  -0.24 0.0009792108    1.521    0.342
        49  -9.5322    188.8663     70.9131   2.9007921548e+02   5.8261209481e+00   0.01721532   0.01235611 -13.84  0.001779504    1.717    0.418
        50 -10.6008    167.2026     69.9087   2.9032329954e+02   5.9680476447e+00   0.02179346   0.01340925 -38.96   0.00106883    1.780    0.438
        51  -7.8822    155.7623     69.6062   2.9045365851e+02   6.0403325919e+00   0.01098567  0.008166912  80.84  0.001150416    1.663    0.399
        52  -8.7738    173.7136     67.0013   2.9023005449e+02   5.9622996301e+00  0.009701087  0.008579678 -60.71 0.0006548115    1.126    0.112
        53 -10.8601    201.6185     62.4364   2.8987941757e+02   5.8467520886e+00   0.03871807   0.03074781  18.51  0.003755079    1.306    0.234
        54 -10.0061    193.4955     56.7920   2.8993826097e+02   5.9605527243e+00   0.02373872   0.01316686  49.31  0.002178425    2.056    0.514
        55  -8.0791    149.5323     63.3836   2.9048716212e+02   6.1493403555e+00   0.01378441  0.008811997  76.68 0.0008018431    2.274    0.560
        56  -9.0631    170.5363     62.1267   2.9023658339e+02   6.0374586665e+00   0.01687709   0.01298833 -44.97  0.001879243    1.304    0.233
        57  -7.4561    157.9738     62.2910   2.9038280455e+02   6.1111429643e+00  0.008466695  0.008278825   3.79 0.0002183691    1.026    0.025
        58  -7.5912    161.5039     57.4856   2.9031223953e+02   6.1451546276e+00  0.006611985   0.00638799  64.38 -6.63255e-05    1.067    0.063
        59  -7.4514    201.4430    140.5229   2.9036472826e+02   4.9498841097e+00  0.006506462  0.006456392 -62.63 0.0002544703    1.016    0.015
        60  -7.9925    132.4040    139.1687   2.9115363391e+02   5.3803044587e+00   0.00904404    0.0064326 -78.19 0.0004538032    1.599    0.375
        61  -9.3319    211.0709     41.7572   2.8964207517e+02   6.0273908195e+00    0.0170771   0.01231355  84.26  0.001177568    1.752    0.429
        62  -8.6390    148.6055     28.0727   2.9027916210e+02   6.5607897321e+00   0.01298014  0.006639552 -72.98  0.001092085    2.424    0.587
        63 -10.3082    144.6092     23.9380   2.9029976257e+02   6.6323327605e+00   0.01193679   0.01102103 -42.63 0.0003023188    1.078    0.072
        64 -11.1044     23.7404    188.0380   2.9271057169e+02   5.4678647505e+00   0.03078789   0.02217416 -82.93  0.002785079    1.629    0.386
        65 -11.5421     17.6768    186.8497   2.9277336719e+02   5.5177380050e+00   0.03648454   0.02298788 -22.30  0.002974766    2.116    0.527
        66  -9.3297    134.9904     18.0000   2.9037424343e+02   6.7583922491e+00   0.01547019    0.0111645  26.96  0.001674338    1.393    0.282
        67 -10.1552    187.8218    191.9216   2.9083932068e+02   4.4403339652e+00   0.01294436   0.01179974  19.64   0.00040493    1.109    0.098
        68  -9.9004      2.0781    190.6433   2.9297697185e+02   5.5670584866e+00   0.01619832   0.01128505 -69.02  0.001706913    1.505    0.335
