#   1 NUMBER                 Running object number                                     
#   2 MAG_AUTO               Kron-like elliptical aperture magnitude                    [mag]
#   3 X_IMAGE                Object position along x                                    [pixel]
#   4 Y_IMAGE                Object position along y                                    [pixel]
#   5 X_WORLD                Barycenter position along world x axis                     [deg]
#   6 Y_WORLD                Barycenter position along world y axis                     [deg]
#   7 A_WORLD                Profile RMS along major axis (world units)                 [deg]
#   8 B_WORLD                Profile RMS along minor axis (world units)                 [deg]
#   9 THETA_WORLD            Position angle (CCW/world-x)                               [deg]
#  10 FWHM_WORLD             FWHM assuming a gaussian core                              [deg]
#  11 ELONGATION             A_IMAGE/B_IMAGE                                           
#  12 ELLIPTICITY            1 - B_IMAGE/A_IMAGE                                       
         1 -13.9433    211.9176     33.0404   4.2620642411e+01   2.8363851882e+01     1.016444    0.7846174 -56.80  0.003975763    1.189    0.159
         2 -13.2325    218.7679     26.1534   4.0192307805e+01   2.7622770287e+01    0.5587336    0.4964346  60.80  0.001515995    1.274    0.215
         3 -13.9310    232.0893     12.9528   3.5915541913e+01   2.6151770310e+01    0.7557622    0.6592575 -67.49      0.00268    1.087    0.080
         4 -10.5535      2.2061      3.1405   9.0288145510e+01   7.4028467967e+01    0.2473214   0.05241723 -40.85  0.001042565    3.419    0.708
         5 -10.0866    121.9703      3.0046   4.6409335063e+01   5.3452402557e+01    0.2085797    0.1491942 -67.74 0.0009603687    1.791    0.442
         6 -12.3777     53.0851    240.5706   1.1928023483e+02   1.7847307718e+01    0.3668841    0.2623233  49.00  0.001906728    1.241    0.194
         7 -11.7242    244.5992    207.1854   7.7346535672e+01  -5.9535942463e+00    0.3717963     0.260739 -19.39   0.00122517    1.256    0.204
         8 -15.0063    245.7331    187.8964   7.3467399895e+01  -3.3448594996e+00     3.354133    0.7991456 -35.74   0.01151879    3.877    0.742
         9 -12.7076    238.3747    249.8610   8.5770254813e+01  -1.0534031697e+01    0.7297882    0.2283188  32.10  0.002713927    2.854    0.650
        10 -13.3148    244.1000    241.3676   8.3417172378e+01  -1.0288988003e+01    0.6954505    0.4315686  -1.53  0.002647354    1.524    0.344
        11 -14.2655    247.4006    227.4758   8.0505014690e+01  -9.0312132272e+00    0.8779405     0.576552 -28.00  0.003564925    1.481    0.325
        12 -12.4518    249.9463    217.0091   7.8223903049e+01  -8.0360734007e+00    0.4921421    0.2065473 -32.99  0.002420194    2.240    0.554
        13 -13.7891    197.0975    249.2805   9.3020147922e+01  -4.7069995450e+00    0.8999858    0.3197644  39.42   0.00308886    2.393    0.582
        14 -11.6042    189.0515    245.7495   9.3984497155e+01  -3.0275639437e+00    0.3061724    0.2967933 -77.67  0.001982221    1.473    0.321
        15 -14.9005     62.9793    249.8880   1.1819802724e+02   1.4894299820e+01     6.041447     1.298003  32.99    0.0159518    9.168    0.891
        16 -13.2518     40.3622    235.1684   1.2120586414e+02   2.0399856926e+01    0.8392779    0.3498366  77.49  0.001726261    2.912    0.657
        17 -13.6898     32.8315    247.1479   1.2329552634e+02   1.9018676024e+01     0.994634    0.6282063  42.47  0.006678515    1.502    0.334
        18 -14.7151     88.2408    228.6704   1.1149727513e+02   1.5409866182e+01     2.262908    0.5759735  42.23  0.004673031    3.106    0.678
        19 -14.5511      4.4189    180.6727   1.2445772588e+02   3.5438912701e+01     4.292382    0.6523907 -77.64   0.01281637    5.963    0.832
        20 -15.1635      8.0089    239.9482   1.2710288913e+02   2.2961484423e+01     1.960304     1.382764 -75.28   0.01495209    1.510    0.338
        21 -12.9893     19.1677    219.6974   1.2407502738e+02   2.5768234988e+01    0.4863172    0.3554954  68.44  0.001543634    1.069    0.065
        22 -14.8125      9.3000    207.4405   1.2517815404e+02   2.9243515463e+01     1.182616     1.073446 -75.22  0.005079254    1.431    0.301
        23 -13.3727     29.8109    208.9343   1.2132715826e+02   2.6872052862e+01    0.5791631    0.4093801 -46.66 0.0009617888    2.035    0.509
        24 -16.1260     33.2669    188.0303   1.1891022842e+02   3.1057138178e+01      9.33237     3.938819  76.04   0.03410765    3.128    0.680
        25 -11.7459    191.2011    224.7995   9.0299228895e+01  -2.9209567909e-01     0.395799    0.3084969  41.45  0.001888712    1.305    0.234
        26 -10.2546    168.5302    226.4912   9.5016330764e+01   3.1204183703e+00    0.2040018    0.1262812 -59.50  0.001027312    2.315    0.568
        27 -12.6580     48.0300    224.5665   1.1899243766e+02   2.1568574395e+01    0.3719419    0.2246909  65.82  0.001464503    1.432    0.302
        28 -10.6286    180.0991    230.8233   9.3417229490e+01   5.5730078642e-01    0.1921255    0.1620898  46.21 0.0007592892    1.287    0.223
        29 -10.2198     94.1561    220.9161   1.0944267216e+02   1.6058939272e+01    0.1974427    0.1478861  66.05 0.0004909812    1.245    0.197
        30 -11.2761    184.6298    215.9612   9.0107750940e+01   2.1839942589e+00    0.3630039    0.1815092  40.87  0.001716191    1.836    0.455
        31 -11.0893    189.7206    213.1732   8.8622749584e+01   1.7904097437e+00    0.3588824     0.182351  37.60  0.001326551    1.789    0.441
        32 -10.6871    192.5882    192.0854   8.4201625229e+01   4.8684349054e+00    0.3790345    0.3571633  80.64  0.002283129    1.385    0.278
        33 -11.8975     58.4312    180.8984   1.1252829168e+02   2.9738929013e+01    0.3679862    0.2613179 -37.99  0.001344057    1.953    0.488
        34 -11.9146     64.1096    175.0938   1.1046787205e+02   3.0355667914e+01    0.2756363    0.2403937 -50.91 0.0004957928    1.324    0.244
        35 -11.3441     86.7988    238.0675   1.1273910009e+02   1.3840526377e+01    0.1918591    0.1398622  65.35 0.0007495736    1.219    0.180
        36 -11.4343     74.2750    165.0635   1.0656856544e+02   3.1341960267e+01    0.2670547    0.2329765 -73.33 0.0004406277    1.077    0.072
        37 -13.4906     61.2121    161.3901   1.0931167295e+02   3.4009712015e+01    0.5119292    0.2970507 -44.83  0.002006628    2.037    0.509
        38 -12.6165     79.8632    157.8869   1.0401069215e+02   3.2259065584e+01     1.051008    0.6014499  53.55   0.00149364    1.896    0.472
        39 -13.2049     68.1269    144.0836   1.0478692186e+02   3.7324105665e+01    0.8282692    0.5454721  83.30  0.002539661    1.857    0.462
        40 -12.7824     58.5561    133.2927   1.0556967885e+02   4.1258572542e+01      2.28414    0.7686639 -74.88  0.004435967   10.408    0.904
        41 -11.4337     62.1018    235.8754   1.1724179389e+02   1.7596239814e+01    0.2804063    0.1693783  78.31 0.0007839169    1.631    0.387
        42  -9.3321    174.6905    149.3226   7.9016188083e+01   1.6520791004e+01    0.1505201    0.1229019 -84.25 0.0004013324    1.649    0.393
        43 -10.1814    134.0000    146.4810   8.7890772873e+01   2.5474522457e+01    0.5083522   0.08642422 -48.88  0.001143957    5.812    0.828
        44 -11.9194     29.5372    143.6262   1.1509392831e+02   4.1898409786e+01    0.3287795    0.2674488 -14.95  0.002013792    1.693    0.409
        45 -10.3320     96.6398    143.9613   9.7038848616e+01   3.2981397408e+01    0.2376148    0.2139766  17.16 0.0007564145    1.283    0.221
        46 -12.3142     84.5271    142.4773   1.0002329512e+02   3.5312234531e+01    0.3030499    0.2455515 -54.90 0.0005658469    1.176    0.150
        47 -10.4110     75.9037    136.6385   1.0128621480e+02   3.8057896121e+01     0.252102    0.2119314 -81.80 0.0004277319    1.173    0.147
        48 -10.8310     72.6943    134.2858   1.0173857967e+02   3.9105474578e+01    0.2300588    0.1958801  82.72 0.0005801374    1.221    0.181
        49 -10.8915    107.4035    131.6758   9.1491201850e+01   3.4051465707e+01    0.4263629    0.3380312  43.70  0.001694475    1.311    0.237
        50 -11.9212     18.0635    130.5046   1.1653845826e+02   4.6080780272e+01    0.2826292    0.1749099  45.51  0.001162652    1.802    0.445
        51 -10.6584     95.6662    128.2546   9.3974116478e+01   3.6961938543e+01    0.3299367    0.2578025 -17.66  0.001585174    1.643    0.391
        52 -10.2622     67.3345    128.6607   1.0218750433e+02   4.1249487312e+01     0.149643    0.1056792  77.03 0.0007051502    1.751    0.429
        53 -12.1886    193.2096    229.1962   9.0631455260e+01  -1.2778029454e+00    0.6672847    0.2953811  40.06  0.002607263    2.023    0.506
        54  -9.8273    105.9946    120.1902   8.9169107506e+01   3.7047254095e+01    0.2171496    0.1965281 -12.87 0.0003058219    1.225    0.184
        55  -9.6195    168.0097    113.0447   7.1584847526e+01   2.5478978853e+01    0.2609583    0.1954838 -77.42  0.001129453    1.830    0.454
        56 -10.3188    205.1724    110.5947   6.3482194290e+01   1.7568101634e+01    0.3325182    0.2603647  30.26  0.001188174    1.468    0.319
        57 -11.4582    183.4542    235.3064   9.3464902726e+01  -6.5690670123e-01    0.2679088    0.2293539  15.94   0.00137958    1.057    0.054
        58  -9.7015    134.3925    102.8095   7.6849028840e+01   3.5205291194e+01    0.2287634    0.1463863 -33.33 0.0006986579    1.659    0.397
        59  -9.8049     24.8910     82.7007   1.0639695610e+02   5.6963736700e+01    0.1641132    0.1504065 -48.98 0.0003466406    1.128    0.114
        60 -10.7631     13.4184     60.0756   1.0545455805e+02   6.2817062490e+01    0.1861785    0.1744455  -6.16  0.000404319    1.273    0.214
        61  -9.2416     35.6351     56.2429   9.5111340142e+01   6.1750263366e+01    0.1122731   0.09898302  61.70 0.0002945591    1.607    0.378
        62 -12.2873    195.8162     47.3177   4.8392362080e+01   3.0310299632e+01    0.4378536    0.2386275 -32.85  0.001970943    1.824    0.452
        63 -13.5085    204.0016     37.9873   4.4824829266e+01   2.9603795959e+01    0.7600083     0.578533 -59.78  0.002594682    1.252    0.201
        64 -11.6710    209.6679    232.5675   8.8087224455e+01  -4.3007498490e+00     0.417065     0.390746 -39.48  0.002307815    1.477    0.323
        65 -10.9989    134.5114     41.3332   5.7450371307e+01   4.6271322338e+01    0.3788173    0.2593055 -72.63    0.0011996    2.129    0.530
        66 -14.8611    221.2521    235.4712   8.6451212923e+01  -6.4017600594e+00     1.354047    0.8737323 -28.41   0.00513286    1.587    0.370
        67 -14.4092    225.3341    217.8815   8.2703588713e+01  -4.5991237698e+00     1.536265    0.7122653  37.68  0.006304592    2.032    0.508
        68 -10.1849    189.5148     15.0276   4.0485692413e+01   3.5843317461e+01    0.1896681    0.1283002 -31.35 0.0006675184    1.560    0.359
        69 -12.9463    126.3189    244.5872   1.0581534358e+02   6.8325035340e+00    0.5334272    0.4129232 -80.91  0.003431307    1.595    0.373
