#   1 NUMBER                 Running object number                                     
#   2 MAG_AUTO               Kron-like elliptical aperture magnitude                    [mag]
#   3 X_IMAGE                Object position along x                                    [pixel]
#   4 Y_IMAGE                Object position along y                                    [pixel]
#   5 X_WORLD                Barycenter position along world x axis                     [deg]
#   6 Y_WORLD                Barycenter position along world y axis                     [deg]
#   7 A_WORLD                Profile RMS along major axis (world units)                 [deg]
#   8 B_WORLD                Profile RMS along minor axis (world units)                 [deg]
#   9 THETA_WORLD            Position angle (CCW/world-x)                               [deg]
#  10 FWHM_WORLD             FWHM assuming a gaussian core                              [deg]
#  11 ELONGATION             A_IMAGE/B_IMAGE                                           
#  12 ELLIPTICITY            1 - B_IMAGE/A_IMAGE                                       
         1 -12.7291    248.8838     19.9971   5.3424588596e+00   2.1095949496e+01    0.7081818    0.2631641 -27.84 0.0008897427    2.476    0.596
         2 -12.4131    234.4120      9.1941   3.8008121628e+00   2.5317870051e+01    0.5641944    0.3426141  87.62  0.002159256    1.654    0.396
         3 -12.2770    248.3061      7.9630   2.6717711005e+00   2.2493413730e+01    0.5386295     0.357043  71.01  0.003324892    1.648    0.393
         4 -12.3520    241.5652      3.1012   1.9578686327e+00   2.4395109049e+01    0.7641543    0.3173417  84.91   0.00321767    2.547    0.607
         5 -11.9349    233.3916     15.1852   5.2931172416e+00   2.4911038858e+01    0.3265081    0.2626171 -72.78 0.0009214139    1.137    0.121
         6 -12.8047    237.5314     18.5073   5.7868396162e+00   2.3650969247e+01    0.4626436    0.3386036  23.28 0.0008101373    2.048    0.512
         7 -10.4952    137.1113     14.9104   1.5787775968e+01   4.8975131358e+01    0.2549537      0.19278 -41.85 0.0004258197    1.377    0.274
         8 -11.5280    216.5237     25.3528   9.1837546315e+00   2.7595268389e+01    0.3784677    0.2153367  62.23  0.000770874    1.831    0.454
         9 -10.8859    161.8088     19.7328   1.3704163931e+01   4.1937673853e+01     0.393418    0.2446558  10.81  0.001339605    2.411    0.585
        10 -12.2465     28.8640     19.6520   5.5667865975e+01   7.1366175115e+01    0.2928281    0.2188133   5.29 0.0004249874    1.347    0.257
        11  -5.8568     24.3737     20.1785   5.8673915131e+01   7.1781016564e+01    0.6446722    0.4114408 -82.06  0.002514884    4.751    0.789
        12 -10.4775     20.8189     18.6107   6.0151494147e+01   7.2447399433e+01    0.3829484    0.3002546  80.61  0.001373257    2.302    0.566
        13 -12.0337     11.0205     11.7121   6.3379050858e+01   7.4644285796e+01    0.5164509    0.3712409 -61.31  0.003228082    1.628    0.386
        14 -11.2729      3.9544     18.1115   7.1303136749e+01   7.3892497572e+01    0.3097221    0.1934662 -49.64  0.001338321    1.282    0.220
        15 -11.9986      3.2276     13.4681   6.9893521479e+01   7.4865370085e+01    0.4059179    0.2068622 -35.83  0.001031229    1.669    0.401
        16 -10.9893     82.0527      7.1986   2.4842825268e+01   6.3529310810e+01     0.246647    0.1964636  -1.57 0.0003723123    1.285    0.222
        17 -10.9480     71.8186     16.1944   3.2957925689e+01   6.4709307807e+01    0.3586794    0.2816209  11.58  0.002017873    1.283    0.220
        18 -11.4445     75.8274     10.5552   2.8587455521e+01   6.4550424342e+01    0.7523105     0.260087  44.48  0.002862953    2.700    0.630
        19 -11.0600     74.1008      2.1147   2.4618190714e+01   6.5830111775e+01    0.3830049     0.256125 -47.24  0.001991746    1.901    0.474
        20 -10.0868     74.0000      6.9797   2.7303051920e+01   6.5350815320e+01    0.2739229    0.1656505 -26.37 0.0006969779    1.688    0.408
        21 -11.0606     60.2148     13.9414   3.6371856375e+01   6.7333839245e+01     0.265463    0.1908919  -9.85 0.0007854975    1.423    0.297
        22 -11.5971     54.0374     13.9646   3.9122045189e+01   6.8479986562e+01    0.2418947    0.2010197   3.35            0    1.099    0.090
        23 -11.7624    101.8079     10.2729   2.0993330120e+01   5.8514153546e+01    0.5376861    0.3097199  -7.93  0.001683517    2.100    0.524
        24 -10.0177     27.2329     11.5707   5.2308732139e+01   7.2976809702e+01    0.3179046     0.114759 -37.32  0.001354783    2.609    0.617
        25 -10.7641    144.8080     11.4291   1.3296363444e+01   4.7298225101e+01    0.3034286    0.2219029  52.00 0.0009053524    1.333    0.250
        26 -11.2670    145.3590      8.1978   1.2061369265e+01   4.7465371712e+01    0.3313706    0.2676388 -20.66 0.0002592352    1.358    0.264
        27 -10.5250    119.0636     10.6647   1.7405502737e+01   5.4117667486e+01    0.4073135    0.3359353 -51.81  0.001575358    1.323    0.244
        28 -10.4064    176.2349     10.8257   9.1107254421e+00   3.9115061218e+01    0.3196058    0.2149415 -64.08  0.001628371    1.484    0.326
        29 -10.5983    160.1312      8.8814   1.0347155852e+01   4.3503137353e+01    0.2539563    0.2105974 -71.07  0.000353531    1.171    0.146
        30 -10.7443    154.5135      8.4120   1.0897407871e+01   4.5027346901e+01    0.3128277    0.2384409  78.03  0.001394341    1.219    0.180
        31 -11.8696    128.5510     23.9833   2.0818971836e+01   5.0193476055e+01    0.4669605    0.2467441 -34.13 0.0003561834    1.917    0.478
        32 -11.0358     11.4296      2.2178   5.7730691184e+01   7.6300349386e+01    0.4673047    0.4095321 -88.41  0.003142502    1.968    0.492
        33 -10.9100     22.5928      2.3140   4.9662435221e+01   7.5042338956e+01    0.5355944    0.2676767 -21.61     0.002585    2.354    0.575
        34 -10.7055     26.6940      2.2488   4.6892406443e+01   7.4514427671e+01    0.2484069    0.1794973  22.60 0.0007133144    1.332    0.249
        35 -10.2595    215.2621      7.7464   4.7665469337e+00   2.9793975032e+01    0.2290943    0.1530515  88.07  0.001259082    1.444    0.308
        36 -10.1119     36.6266      7.4803   4.4217942840e+01   7.2314724948e+01    0.2352246     0.212751  37.43  0.001569329    1.376    0.273
        37 -11.1374    223.1591      5.1616   3.5673528996e+00   2.8233532493e+01    0.3081385    0.2033987 -12.77  0.001081597    1.883    0.469
        38 -11.0167    179.0936      4.1034   6.7888327473e+00   3.9029952703e+01    0.2977763    0.1766771 -42.38 0.0003670088    1.602    0.376
        39 -11.0462    164.7014      4.9355   8.5274316377e+00   4.2676605861e+01    0.2622902    0.2063033 -56.19 0.0003906494    1.243    0.196
        40 -11.7476    168.1545      2.0129   7.2289575247e+00   4.2040776945e+01    0.2474954    0.1970392  83.31 0.0002778087    1.146    0.127
        41 -11.5255    230.0583      2.9409   2.5915972558e+00   2.6905373873e+01    0.3908477     0.224988 -21.05  0.002082724    1.912    0.477
        42 -10.6583    125.6977      3.9245   1.3469335102e+01   5.3024903857e+01    0.3824454    0.2424199   2.47  0.001820104    1.967    0.492
        43  -9.8454     68.7201      5.4279   2.8288922021e+01   6.6655865201e+01    0.1764179    0.1113908  41.62 0.0005260127    1.444    0.307
        44  -9.3537     60.5418      5.5698   3.1488334395e+01   6.8324878457e+01    0.1304514    0.1143067  17.37 0.0002315189    1.016    0.016
        45 -10.4569     16.6511      2.6981   5.4110275636e+01   7.5682672824e+01    0.3670573    0.2070663 -42.20  0.002109686    1.626    0.385
        46  -9.7221    114.2756      3.0229   1.5122078320e+01   5.6057656862e+01    0.1865262     0.173414  41.31 0.0004259296    1.063    0.060
        47  -9.8313     97.9857      3.3413   1.8687626116e+01   6.0121060463e+01     0.189448    0.1620394  51.08 0.0004165656    1.057    0.054
        48 -11.2464     91.0617      2.2174   1.9828283848e+01   6.1901578041e+01    0.2253632    0.1975894 -35.71 0.0002060231    1.272    0.214
        49 -12.0747    243.4853     14.1538   4.3674714782e+00   2.2851918970e+01    0.3455527    0.2526831 -72.74 0.0003404177    1.267    0.211
        50 -10.2892    140.9874      1.8261   1.0370395926e+01   4.9189900792e+01    0.2052813    0.1796827  78.49 0.0003053551    1.043    0.041
        51 -10.0350    102.8248      1.4404   1.6721488068e+01   5.9089443750e+01    0.1976555    0.1261123  67.44 0.0004395405    1.482    0.325
        52  -9.6277     34.1818      1.4572   4.1756018590e+01   7.3535986387e+01    0.2694616    0.1154817  50.59  0.001133491    3.356    0.702
        53  -9.7983    145.1126    190.1675   6.1512935170e+01   1.5137697379e+01     0.200425     0.166389  13.31 0.0005616326    1.260    0.206
        54 -11.7077    248.2309    248.3408   5.1469390733e+01  -7.5119880684e+00    0.3935307     0.221717  -7.76   0.00273193    1.638    0.390
        55  -9.9533    109.9793    250.0162   7.6172693382e+01   1.0493008770e+01    0.1803507    0.1333977  43.04 0.0007010039    1.030    0.029
        56 -10.4752     91.0700    249.3542   7.9711583718e+01   1.3096485348e+01    0.1929685    0.1473409  71.85 0.0006446734    1.389    0.280
        57  -9.2874     72.2745    250.3449   8.3339086289e+01   1.5314923742e+01   0.09309068   0.08341298   1.88 0.0007000283    1.623    0.384
        58 -12.2546     20.8732    248.2371   9.2652546757e+01   2.1407953193e+01    0.6140368    0.1203907  45.79  0.003041184    2.674    0.626
        59 -11.0228      5.3672    244.2539   9.5257054192e+01   2.3566533247e+01    0.2722744    0.1510105  56.35   0.00108423    1.237    0.192
        60 -10.8167      6.9945    249.0332   9.5108464765e+01   2.2610694262e+01    0.2088089    0.1263674  89.00 0.0009598567    1.590    0.371
        61 -11.3963     10.4444    248.5022   9.4495002166e+01   2.2376242870e+01    0.3796571    0.1305517  49.43  0.001872022    1.858    0.462
        62 -10.2916    244.6905    188.0527   4.2281209404e+01  -4.8983159489e-01    0.1684255    0.1285039  -6.74 0.0005294944    1.068    0.064
        63 -10.0257     61.7875    184.4947   8.0070624940e+01   2.9065261263e+01    0.2282108    0.1667022 -80.92   0.00105358    1.367    0.269
        64 -11.9254     16.0655    182.0244   9.0629666698e+01   3.4605026544e+01    0.4152559    0.1996004  57.18  0.002106047    1.741    0.425
        65  -9.8080    226.3029    188.3279   4.5359053076e+01   2.1447934281e+00    0.1277749   0.08130334   3.19 0.0003290893    1.646    0.392
        66 -10.1197      1.7086    180.2623   9.3793930760e+01   3.6201069829e+01    0.1419974    0.1217497 -73.45  0.001042887    1.364    0.267
        67  -9.8054     96.4935    177.9829   7.0886384630e+01   2.5537799231e+01    0.1838066     0.108733 -36.53 0.0007388625    2.501    0.600
        68 -10.9729     23.3340    180.4706   8.8856503549e+01   3.4263963057e+01    0.3765106    0.1499793  59.17  0.001753604    2.300    0.565
        69  -9.8770     54.2019    176.0473   8.1063093906e+01   3.1874267919e+01    0.1815926      0.16585 -72.29 0.0007014357    1.240    0.193
        70 -10.5434    172.1744    175.2074   5.3150505069e+01   1.3081977829e+01    0.1820002    0.1627296  59.57  0.000861195    1.347    0.258
        71 -10.7678     18.0781    172.9022   8.9620759275e+01   3.6424689893e+01    0.2850609    0.1194392  53.38  0.001417426    2.048    0.512
        72 -10.9792      8.5021    172.9724   9.1896140489e+01   3.7236790965e+01    0.1839451   0.09840245 -83.11   0.00104537    1.633    0.388
        73  -9.1567    116.3236    170.3582   6.4905143970e+01   2.3913659725e+01    0.1411567    0.1098926  -9.76 0.0007044356    1.773    0.436
        74  -9.6433    176.9920    168.7362   5.0929791205e+01   1.3335496035e+01     0.177288    0.1114105  38.50 0.0004180676    1.489    0.328
        75 -10.2516     67.9544    166.2383   7.6488421997e+01   3.2319240458e+01     0.258114    0.1691227  75.18  0.001161546    1.635    0.389
        76  -9.0552     93.3129    166.7319   7.0049929802e+01   2.8482080136e+01    0.1416756   0.09715891  63.19 0.0002296532    1.547    0.353
        77 -10.3634    186.7657    165.5985   4.8339831175e+01   1.2101854498e+01    0.1912817    0.1242435  47.93 0.0009539145    1.649    0.394
        78  -9.7623     36.5248    165.5220   8.4502191424e+01   3.6288591921e+01    0.1281233    0.1067974  73.53 0.0001241868    1.001    0.001
        79 -10.8902     51.0709    161.8625   8.0374550930e+01   3.5493693271e+01    0.4559275    0.2373883 -82.17  0.002152803    2.002    0.501
        80 -11.0893      7.6650    163.7245   9.1601559815e+01   3.9368352920e+01    0.2364505     0.188416  -6.81  0.001232089    1.843    0.457
        81  -9.7159    132.5914    161.2549   5.9387290713e+01   2.2927228577e+01    0.1978861    0.1346834 -38.27 0.0009517579    1.661    0.398
        82 -10.3512     67.0160    157.7399   7.5642705874e+01   3.4415580084e+01     0.209036    0.1781738  87.94 0.0003531245    1.102    0.093
        83 -10.4993     20.0349    157.0390   8.8049570184e+01   3.9863571015e+01    0.3289697    0.1870794 -79.01  0.001054384    1.555    0.357
        84 -10.8254    247.4857    156.5780   3.5880423658e+01   3.1702502184e+00    0.2578449    0.1060165 -31.79  0.001206111    2.150    0.535
        85 -10.0135    215.0689    154.4772   4.0769083038e+01   8.8310146157e+00    0.3477956    0.1261266  44.18  0.001384535    2.818    0.645
        86 -10.3764    158.9078    153.8486   5.1838352142e+01   1.9436958556e+01    0.3536726    0.1917714  32.34  0.001186202    1.973    0.493
        87 -10.2041     11.2518    153.2860   9.0066404029e+01   4.1476850123e+01    0.3675079    0.1311906  48.46  0.001690554    2.447    0.591
        88  -9.9743     40.8691    152.8042   8.2125579942e+01   3.8801561293e+01      0.21423    0.1524278 -70.43 0.0006485232    1.334    0.251
        89  -9.3621    222.5284    151.5240   3.8867327646e+01   7.9784607961e+00    0.1306553    0.1154606  -9.13 0.0002261202    1.062    0.058
        90  -9.3920    176.7058    150.3108   4.7260251993e+01   1.6649376555e+01    0.1340111    0.1154473 -88.51 0.0004254963    1.591    0.372
        91 -11.1751     13.8901    147.9440   8.8999588302e+01   4.2517618837e+01    0.2103821    0.1623217  77.39            0    1.075    0.070
        92 -10.6690      7.5804    145.7685   9.0541616285e+01   4.3517377604e+01     0.223722    0.1147768  53.56   0.00119766    1.773    0.436
        93 -10.4705    216.7310    145.2199   3.8536865623e+01   9.9653462718e+00    0.2534033     0.158129  17.93  0.000800763    1.974    0.493
        94  -9.8226    155.7950    144.5951   5.0594843786e+01   2.1848569418e+01    0.2163347    0.1343973  52.58 0.0009538089    1.746    0.427
        95  -9.5361     72.4833    142.4768   7.1908496877e+01   3.7281279362e+01    0.1435509    0.1267233  74.31 1.298765e-05    1.060    0.057
        96 -10.5320     65.3387    139.0592   7.3430194181e+01   3.9118577837e+01    0.2277391    0.2240768 -60.48 0.0004467668    1.162    0.139
        97  -9.6297    143.8588    148.2123   5.4135551423e+01   2.3475865426e+01    0.1974019    0.1707295  -2.95 0.0007041643    1.299    0.230
        98 -10.0420    188.5107    139.5001   4.2511958085e+01   1.6261958342e+01    0.1415933    0.1328781  -1.29 -9.965367e-05    1.025    0.024
        99  -9.4317     77.3736    139.6908   7.0052082309e+01   3.7230250154e+01    0.1558408     0.101006  66.15 0.0002321927    1.775    0.437
       100  -9.9697    236.2699    137.9905   3.3787430022e+01   7.6019826427e+00    0.1811716    0.1517997 -15.44 0.0008747936    1.021    0.021
       101 -10.2251    144.2639    136.6770   5.1559288677e+01   2.5771399239e+01    0.2522085    0.1819036 -22.98 0.0007276454    1.709    0.415
       102 -13.2603     37.4180    135.2193   8.1126656215e+01   4.3434477286e+01    0.4345843    0.3036911 -82.08 0.0006574432    1.298    0.230
       103 -11.0845     37.9234    126.5157   7.9877032169e+01   4.5537958121e+01     0.388734    0.2524516   5.60  0.001849984    2.197    0.545
       104 -10.5975      3.1272    135.9901   9.1119096693e+01   4.6143049960e+01     0.309699    0.1858124 -74.50  0.001126527    1.428    0.300
       105  -9.6578     20.6551    134.8001   8.6015120826e+01   4.5114383792e+01    0.1884624    0.1025561 -89.74  0.000763846    1.704    0.413
       106 -10.6955    241.2072    133.9397   3.2172236609e+01   7.3387747862e+00    0.1928596    0.1641067 -34.94 0.0006632707    1.223    0.182
       107 -10.6526     53.3384    132.2882   7.5962351827e+01   4.2349851140e+01    0.2889147    0.2242603 -87.95  0.000779648    1.227    0.185
       108 -10.6887     58.9298    131.6031   7.4167065029e+01   4.1809243674e+01    0.2382987    0.1787505 -58.16 0.0005177967    1.315    0.240
       109 -10.8318      4.3574    130.4559   9.0390486769e+01   4.7385565325e+01    0.2240978    0.1873656 -63.96 0.0006928705    1.260    0.206
       110 -11.3045     73.5204    129.0032   6.9313986783e+01   4.0409279650e+01    0.3389331    0.2585192  52.60 0.0009425087    1.305    0.234
       111  -9.7795    216.8393    129.4039   3.5057992263e+01   1.2426829500e+01    0.1847602    0.1223269  32.28 0.0004298293    1.628    0.386
       112 -10.1624    113.5068    128.5214   5.7647616442e+01   3.3657863024e+01    0.1486072    0.1462802  52.60 0.0008100339    1.034    0.033
       113 -11.0425     56.4634    126.7623   7.4150818040e+01   4.3328899139e+01    0.2601788    0.2240077 -25.52 0.0006679651    1.429    0.300
       114 -11.2184     23.6529    126.2686   8.4257519215e+01   4.6952757346e+01    0.3664037    0.2343098  34.57  0.002032399    1.645    0.392
       115 -11.0833      4.2369    123.4487   8.9906281687e+01   4.9084899506e+01    0.3892547    0.1739869 -70.95  0.001741027    1.842    0.457
       116 -10.0432    229.5563    125.5123   3.2122302518e+01   1.0646628529e+01    0.1341413    0.1168897 -19.20 4.848777e-05    1.018    0.018
       117 -10.6557     15.7567    125.2880   8.6573787667e+01   4.7835185714e+01    0.3106168    0.1648102  31.79  0.001591469    1.975    0.494
       118 -10.8297     20.0249    122.5073   8.4977092562e+01   4.8185155352e+01    0.2553085    0.1448988 -62.54 0.0007598198    1.584    0.369
       119 -10.0949     83.0010    124.3658   6.5563342489e+01   4.0066368962e+01    0.2040952    0.1813072  50.04 0.0004558633    1.121    0.108
       120  -9.7896     48.0328    124.4944   7.6428560183e+01   4.4926813041e+01    0.2072274   0.09037165  51.86 0.0008093832    2.598    0.615
       121 -10.3011     30.2564    124.2450   8.1978182691e+01   4.6861086334e+01    0.1930806    0.1655077 -71.88  0.001189927    1.107    0.097
       122 -10.8789     55.5657    121.8004   7.3614863548e+01   4.4680696148e+01    0.3958461    0.2270276 -42.61  0.001775922    2.058    0.514
       123 -11.4566      9.9910    121.1733   8.7962730886e+01   4.9261922224e+01    0.4964619    0.2439371  81.80  0.001670807    2.005    0.501
       124  -9.4615    243.5021    122.4754   2.9365315384e+01   8.5847067224e+00    0.1308871    0.1105959 -17.69 0.0008101102    1.018    0.018
       125 -11.0696     69.1420    121.5477   6.9280525138e+01   4.2892172488e+01    0.4124303    0.2763995  18.56  0.001876061    1.900    0.474
       126 -10.9192     72.1180    115.5755   6.7165008921e+01   4.3928189121e+01    0.4895037    0.2799774 -60.84  0.002186292    1.677    0.404
       127 -10.5037      1.3984    118.5579   9.0395638874e+01   5.0442428205e+01    0.2259786   0.09914316 -79.17 0.0002394115    1.866    0.464
       128 -10.3276    249.5193    117.5062   2.7442225311e+01   8.2397792639e+00    0.1292135    0.1084027 -23.80 7.258925e-05    1.023    0.022
       129 -11.0657     31.0511    108.3117   7.9577103172e+01   5.0774904861e+01    0.5916981    0.2951513 -70.19  0.002769917    1.757    0.431
       130 -10.4790     24.0839    100.1628   8.0819671233e+01   5.3429266252e+01    0.4615679    0.1579398  38.21  0.001435602    2.940    0.660
       131 -12.3692     16.3923    115.3677   8.5366876856e+01   5.0235605050e+01    0.6735938    0.3941933  58.97 0.0007491997    1.755    0.430
       132 -12.0138     14.8390    111.2311   8.5424200943e+01   5.1375214528e+01    0.6104664    0.3067853  77.23  0.002838792    2.175    0.540
       133 -11.1416    181.4900    114.8405   3.8111143398e+01   2.2137745099e+01    0.5021783    0.2842557  36.68  0.001204414    1.979    0.495
       134  -9.9370     86.1579    115.5648   6.2740529167e+01   4.1679134061e+01    0.2848356    0.1077619 -58.81 0.0009659161    2.744    0.636
       135 -10.9871     52.2846    114.8265   7.3479005877e+01   4.6838219058e+01    0.4738008    0.2032931 -77.87  0.001080272    3.078    0.675
       136 -12.0926     26.0064    105.8724   8.0964588583e+01   5.1837473937e+01    0.9315296    0.4759067 -16.35  0.003684489    3.658    0.727
       137 -10.7431    105.6397    114.4408   5.6621881405e+01   3.8415520640e+01    0.2920909    0.2753756 -23.44  0.001053801    1.149    0.129
       138  -9.4998     41.1721    115.3834   7.7241608354e+01   4.7981558144e+01    0.1975476     0.113222  43.10 0.0009505284    1.787    0.440
       139 -10.3455    249.9152    111.9641   2.6179562677e+01   8.9495476218e+00    0.1982089    0.1413149 -52.69 0.0007253938    1.646    0.393
       140 -11.0717     55.2177    109.6574   7.1554724758e+01   4.7765311368e+01    0.2967862    0.2393056 -63.78 0.0006990031    1.148    0.129
       141 -11.0188     53.0643    105.0404   7.1398704315e+01   4.9195105203e+01    0.3235598    0.2150935  55.04  0.001588525    1.659    0.397
       142 -10.2111      3.7082    107.9516   8.8776557133e+01   5.2898368000e+01     0.213339    0.1663104  45.28  0.000689783    1.383    0.277
       143 -10.3063    111.4830    105.9022   5.2785961238e+01   3.9222465154e+01    0.3400962    0.2019115  45.43 0.0008316361    1.690    0.408
       144 -10.3617     38.5141    103.4825   7.6207628859e+01   5.1255655001e+01    0.2209064    0.1365405   4.27   0.00102669    2.307    0.567
       145 -10.8005     75.8365    101.3515   6.2794143268e+01   4.6840344561e+01    0.3143647    0.2268949  88.82  0.001281194    1.763    0.433
       146 -10.4903    119.9706    101.0584   4.9082050909e+01   3.8535019555e+01     0.250414    0.1955188  -2.82  0.001126341    1.728    0.421
       147 -12.0546     61.8340     97.8341   6.6798048420e+01   4.9819565990e+01    0.6598406    0.2800235 -55.44  0.002596183    2.131    0.531
       148 -10.5744     67.0786     97.5446   6.4887072976e+01   4.9129739839e+01    0.2983766    0.2014494  24.25 0.0005379115    1.721    0.419
       149  -9.5989     70.4976    108.0444   6.6105671460e+01   4.6032740530e+01    0.2102193     0.137729 -60.74 0.0003127494    1.455    0.313
       150 -10.8989     32.4547     96.9604   7.7267832530e+01   5.3493684630e+01     0.466358    0.2453915  83.29  0.001938677    2.590    0.614
       151  -9.8244     31.5448     92.5201   7.6825373052e+01   5.4689969202e+01    0.1921784    0.1208117 -82.69 2.707856e-05    1.616    0.381
       152  -9.2279    144.6894     99.3354   4.2156867216e+01   3.3404924774e+01    0.1596098    0.1240786 -80.32 0.0007044082    1.681    0.405
       153 -11.3614     15.5230     96.9835   8.3464552215e+01   5.4870608026e+01     0.407413    0.1576119 -54.44  0.001788854    2.251    0.556
       154  -9.3552      9.5674     99.0587   8.5857858988e+01   5.4744692670e+01    0.1816214    0.1065709 -78.17 0.0002906637    1.437    0.304
       155  -9.5996    225.7358     98.0073   2.6360464471e+01   1.5564396684e+01    0.1883026    0.1601076 -30.37 0.0002980195    1.048    0.046
       156  -9.6575     76.8453     97.2291   6.1442588671e+01   4.7674862919e+01    0.2044377    0.1701371 -28.52 0.0005750891    1.350    0.259
       157  -9.7081      1.4332     93.6957   8.8181874010e+01   5.6516447498e+01     0.174017   0.09429643 -66.99 0.0005264104    1.496    0.331
       158  -9.7507    226.1776     93.1699   2.5138917681e+01   1.6205374672e+01    0.1884993    0.1502982 -54.67 0.0004092191    1.333    0.250
       159 -10.1965    231.6150     91.7384   2.4038776674e+01   1.5316943371e+01    0.1993362    0.1096041 -40.09 0.0008064971    1.618    0.382
       160  -9.8752    249.9662     91.0135   2.1507836933e+01   1.1872101529e+01    0.1611753    0.1298059 -31.56 0.0004545294    1.047    0.045
       161 -11.3827    159.6085     89.9724   3.6091673123e+01   3.1743029164e+01    0.4944991    0.4035541  37.31  0.002440251    1.291    0.225
       162  -9.7180     73.7967     89.5903   6.0524254577e+01   5.0006766283e+01    0.3252182    0.1574131 -46.70  0.001061988    2.017    0.504
       163 -10.8140     56.4466     90.5002   6.7043016967e+01   5.2366511916e+01    0.2939153    0.2053767 -44.22  0.000723954    1.424    0.298
       164 -10.1447     49.0784     90.0190   6.9686856070e+01   5.3429614007e+01    0.2037182    0.1865489 -62.97 0.0003027013    1.008    0.008
       165 -11.3534     95.1765     88.5827   5.3010946620e+01   4.6410468224e+01    0.4888595    0.2584625  48.28  0.001917163    2.008    0.502
       166 -10.6197     84.1853     88.6489   5.6667567862e+01   4.8450873931e+01    0.4658706    0.2420441  43.17  0.001758479    1.987    0.497
       167 -11.3491     10.6308     90.7517   8.4448134338e+01   5.6735403581e+01    0.2246374    0.1876474 -62.85 0.0003443874    1.099    0.090
       168 -11.1604     21.9725     85.3816   7.9263842266e+01   5.7282801266e+01     0.679799    0.2422684 -81.35  0.002288879    3.796    0.737
       169 -11.8575    108.1221     85.1223   4.7945373406e+01   4.4541614608e+01    0.5384816    0.3472393  64.99  0.002199361    2.065    0.516
       170 -10.5203     65.2173     86.1041   6.2695468680e+01   5.2185988331e+01    0.3098452    0.1980597 -58.66  0.001455038    1.496    0.332
       171  -9.3786     38.7219     86.5961   7.2913403798e+01   5.5453494666e+01    0.1493824   0.08901878 -40.84 0.0001495586    1.772    0.436
       172 -11.1533     30.5200     82.4221   7.5301185686e+01   5.7292637967e+01    0.5047439    0.2137267 -62.06  0.001851428    1.970    0.493
       173 -10.1679    167.8106     83.1850   3.2435082972e+01   3.1017895220e+01    0.3221763    0.2397699 -84.81     0.001448    1.783    0.439
       174 -10.9293    117.0406     83.7271   4.4902174756e+01   4.2900876117e+01    0.2966695    0.2315856 -36.82 0.0007212277    1.305    0.234
       175  -9.7508    119.7666     80.7823   4.3221794164e+01   4.2900404992e+01    0.2106115    0.1837385 -88.45 0.0004622009    1.315    0.240
       176  -8.9336    184.6846     85.2944   2.9790619177e+01   2.6629666789e+01    0.1508336    0.1145035 -69.62 0.0002436744    1.601    0.376
       177 -10.7259     76.8277     82.2198   5.7396388288e+01   5.1235619503e+01    0.4523819    0.2245523  46.63  0.001802132    2.215    0.549
       178 -10.7089     42.0095     81.1438   7.0401479979e+01   5.6438528510e+01    0.4265556    0.2697009  83.67  0.001934713    2.212    0.548
       179 -10.8032     37.9592     75.9167   7.0817963045e+01   5.8151775000e+01    0.3710853    0.2268346 -33.47  0.001793628    1.856    0.461
       180 -10.4159      7.2661     81.3360   8.4479011993e+01   5.9247623613e+01    0.3147125    0.1714896 -53.53   0.00167301    1.601    0.375
       181 -10.3748     50.8588     79.0321   6.6343746458e+01   5.5889622853e+01    0.3999416    0.2018675 -63.34  0.001711732    1.958    0.489
       182 -11.1012     44.9314     74.7917   6.7644500095e+01   5.7640588611e+01    0.4178409    0.2623515  68.98  0.001849069    2.417    0.586
       183  -9.9305     84.2981     78.9905   5.3797852946e+01   5.0644571590e+01    0.2075554    0.1823759 -47.55  0.000276987    1.101    0.092
       184  -9.5369     62.3082     79.6963   6.2051939130e+01   5.4148694690e+01    0.1425505    0.1115693  77.35 0.0002215351    1.605    0.377
       185  -9.8135    165.0362     78.4790   3.1638003493e+01   3.2523298547e+01    0.2160496    0.1512173  55.86 0.0008889565    1.453    0.312
       186 -10.1579     88.2780     77.4607   5.1953180474e+01   5.0237785050e+01    0.2552208    0.2138414  72.61 -4.394038e-05    1.415    0.293
       187 -11.0821     18.5951     78.1538   7.9358193359e+01   5.9317384512e+01     0.295399    0.1391853 -53.81  0.001408805    1.791    0.442
       188 -12.1152    167.7892     73.3815   2.9593127270e+01   3.2730529068e+01    0.4363165    0.2433963 -41.57 0.0003511687    1.744    0.427
       189  -9.0380    155.2537     77.2865   3.3339903904e+01   3.5129079157e+01    0.1468879    0.1209126   9.95 0.0002551822    1.477    0.323
       190 -11.1960     99.9440     76.4385   4.7778443921e+01   4.8127852807e+01    0.2907722    0.2242799 -44.53 0.0003103883    1.277    0.217
       191 -10.1251     56.1459     74.5690   6.3021037352e+01   5.6245881581e+01    0.2563873     0.157404 -51.41  0.001217132    1.487    0.327
       192  -9.7529     61.2613     73.8600   6.0786084249e+01   5.5674455960e+01    0.2452565    0.1500444 -32.41  0.001080919    1.927    0.481
       193 -10.8760      6.9224     73.3539   8.3447344429e+01   6.1213362586e+01     0.348577    0.1857473   6.31  0.001200462    2.353    0.575
       194  -9.3113     85.7311     73.6783   5.1630013495e+01   5.1556501464e+01     0.149031    0.1158127 -15.56 0.0006394578    1.565    0.361
       195 -10.9736     25.9883     72.0199   7.5004916531e+01   6.0237062908e+01    0.2217545    0.1369656 -35.74  0.001134154    1.714    0.417
       196 -14.0668     16.7369     67.2748   7.8074453355e+01   6.2093031495e+01    0.4765063    0.3714623 -51.90   0.00114943    1.123    0.110
       197 -10.5473     94.8457     71.3088   4.7758542895e+01   5.0267637844e+01    0.4466171    0.1762541  55.92  0.001282518    4.160    0.760
       198  -9.6831     68.5493     71.1808   5.7132236927e+01   5.5152072316e+01    0.2230248     0.124447 -39.68 0.0009472328    1.849    0.459
       199 -10.1003     38.6053     70.5605   6.9209716062e+01   5.9371643271e+01    0.3279888    0.1746867 -54.26  0.001549961    1.624    0.384
       200 -11.8480    122.7024     67.4845   3.8111082745e+01   4.4845598875e+01    0.3250897    0.2741821 -50.13 0.0002837921    1.216    0.178
       201 -11.4627     50.3064     68.2253   6.3581523316e+01   5.8521148313e+01    0.3144255    0.2436223 -31.29 0.0005247323    1.327    0.247
       202 -10.9390     52.2009     62.3481   6.0969860231e+01   5.9614092989e+01    0.4321963    0.3068077 -31.80  0.002227453    1.464    0.317
       203 -10.9402     58.3160     58.7210   5.7154969856e+01   5.9535218988e+01    0.3604614    0.2645831  -5.89  0.001301971    1.698    0.411
       204 -10.2601      6.6971     68.5154   8.2768100950e+01   6.2395722178e+01    0.2530329    0.1551455 -82.03 0.0008079507    1.525    0.344
       205 -11.4580      3.0199     63.5942   8.3597884625e+01   6.3753625420e+01    0.3776744    0.2750472  84.95  0.001629633    1.420    0.296
       206 -12.5857    146.9997     65.5760   3.1521983783e+01   3.9248147698e+01    0.3225856    0.2941319 -63.07 0.0003739026    1.128    0.113
       207  -9.7445    109.2774     60.3021   3.9420516525e+01   4.9330479034e+01    0.2258121    0.1530854 -32.86 0.0001757869    1.527    0.345
       208 -11.4654    105.4877     65.4140   4.2360656708e+01   4.9200842376e+01    0.5247732    0.3297206 -20.38 0.0009810034    2.193    0.544
       209 -10.3897    110.4558     64.5087   4.0552348058e+01   4.8261208073e+01    0.3952038    0.2811768 -79.41  0.001316108    2.148    0.534
       210  -9.7334     93.7697     66.7258   4.6565149239e+01   5.1443877590e+01    0.1989173    0.1767505 -83.69   0.00046484    1.314    0.239
       211  -9.2244     76.3193     67.6625   5.3047960516e+01   5.4606350849e+01    0.1480416    0.1177064  87.63 0.0007049557    1.707    0.414
       212 -12.4162     30.5028     63.2636   7.0893339007e+01   6.1927198221e+01    0.5707726    0.4962747  60.18  0.001115216    1.347    0.257
       213 -10.6081     81.1951     64.8113   5.0284097927e+01   5.4324677311e+01     0.368098    0.2262686  49.67  0.001073105    1.790    0.441
       214 -10.1003     83.6382     61.0957   4.8092252670e+01   5.4631411078e+01    0.2909846    0.2614939  65.26  0.001572001    1.260    0.207
       215 -10.8660     90.6332     60.9395   4.5586027313e+01   5.3264644265e+01    0.4496073    0.2362124  38.53  0.001262128    2.019    0.505
       216 -10.1747     86.8022     58.3836   4.5983445407e+01   5.4553839373e+01    0.2990203    0.2121856  32.19  0.001423956    1.507    0.336
       217  -9.0117    131.2643     64.6947   3.4947844144e+01   4.3300188726e+01    0.1523036    0.1197451 -70.26 0.0002188681    1.526    0.345
       218  -9.8202     61.8250     64.1472   5.7529493197e+01   5.7801214910e+01    0.1990892    0.1587165 -21.34 0.0004133412    1.361    0.265
       219  -9.7651    209.9860     63.2680   1.9865781528e+01   2.4174057159e+01     0.183053    0.1736947 -65.12 0.0002366633    1.057    0.054
       220 -10.4249    202.0689     62.3725   2.0723372326e+01   2.6149090271e+01    0.2311559    0.1876128 -22.71  0.001234302    1.277    0.217
       221 -10.6958    155.4447     62.6046   2.8775493513e+01   3.7628999299e+01    0.3355517    0.2866246 -26.12  0.001707727    1.220    0.180
       222 -11.6516     46.2128     60.9062   6.3124053719e+01   6.0733097727e+01    0.4193245    0.2657963 -34.37  0.000257903    1.648    0.393
       223 -10.6718    229.8344     61.8641   1.7026137935e+01   1.9956408090e+01     0.204379    0.1834507  -6.06  0.001222278    1.255    0.203
       224  -9.3998    193.2941     62.6715   2.2096643481e+01   2.8198911542e+01    0.1530718    0.1047314 -61.38 0.0003506323    1.628    0.386
       225 -12.0537     11.5491     58.4775   7.8640686083e+01   6.4524390476e+01    0.6659384    0.6013846  88.96  0.004137048    1.206    0.171
       226 -13.3896     12.5985     47.6774   7.5561963171e+01   6.6971233436e+01     0.508998    0.4543126 -51.20 0.0006397006    1.074    0.069
       227  -9.5304      7.2956     40.9732   7.6659458151e+01   6.8804492825e+01    0.3499382    0.1716715 -54.71  0.001438141    1.585    0.369
       228 -11.4533      2.1037     53.8223   8.2298336936e+01   6.6104348747e+01    0.4655524    0.2816031 -58.27  0.002121944    1.310    0.237
       229 -11.7146      3.3445     48.3648   8.0563878480e+01   6.7317902195e+01    0.4526353    0.4000438  88.01   0.00253337    1.254    0.203
       230 -10.6416    150.4673     60.9163   2.9273661197e+01   3.9167875704e+01    0.3118803    0.2171593  62.43 0.0009411221    1.466    0.318
       231 -10.1767    119.6464     60.2281   3.6453074622e+01   4.6917733621e+01    0.3484044    0.1480065 -33.80  0.001009048    2.526    0.604
       232 -10.8189    135.8501     58.5347   3.1756095711e+01   4.3249239882e+01    0.4343012    0.2886907  81.14  0.001791805    2.060    0.515
       233  -9.6164    114.7679     60.3635   3.7853928394e+01   4.8046985488e+01     0.220651    0.1368543  40.90 0.0003973784    1.680    0.405
       234  -9.9305    169.2878     59.3452   2.5103372521e+01   3.4653683706e+01    0.1521105    0.1175793  17.89 0.0003821942    1.652    0.395
       235 -10.5065    127.2867     58.7513   3.3929487011e+01   4.5332159210e+01    0.2628331     0.246848  23.03 0.0001873311    1.106    0.096
       236 -11.2498     80.0035     56.6721   4.7801761874e+01   5.6232481108e+01    0.4693977    0.3140072 -10.50   0.00160183    2.199    0.545
       237  -9.4348     38.6667     57.7331   6.5554985040e+01   6.2361374938e+01    0.1367728   0.09459066 -25.67 0.0002474391    1.585    0.369
       238 -10.5149    177.0943     55.9298   2.2725589986e+01   3.3209501999e+01    0.2140425    0.2121297 -64.24 0.0003821376    1.056    0.053
       239  -9.5716    115.9646     56.0000   3.5960581129e+01   4.8554798795e+01     0.252238   0.08590546  52.47 0.0007977218    2.910    0.656
       240 -12.6368    104.9872     52.6341   3.7893261858e+01   5.1719562697e+01    0.3668039    0.3262553  30.67 0.0004519704    1.135    0.119
       241 -12.6520     38.5585     50.2944   6.3191347773e+01   6.4039447498e+01    0.7047487    0.5988234   7.04   0.00427187    1.251    0.201
       242 -11.7358     45.1189     38.2369   5.5393572934e+01   6.5729658965e+01    0.3229444    0.2702545 -54.54  0.001909556    1.305    0.234
       243 -10.0562    145.8224     54.2001   2.8058042006e+01   4.1446294279e+01    0.2049386    0.1735484  31.29 0.0002443965    1.293    0.227
       244 -10.7161     89.0292     54.2688   4.3670512640e+01   5.4903632861e+01    0.3258086    0.2395276 -76.22  0.001460497    2.052    0.513
       245 -10.2142     89.8772     50.4756   4.1919189860e+01   5.5441197678e+01    0.2760852     0.267099  61.05 0.0008141284    1.119    0.107
       246 -10.0996     27.5101     53.8289   6.9699051232e+01   6.4399839239e+01    0.2139601    0.1857421   0.47 0.0008448295    1.251    0.200
       247  -9.6021     62.0018     52.7329   5.3443709092e+01   6.0233189180e+01    0.1860763     0.174642  -8.70 0.0003212701    1.045    0.043
       248 -11.8658    129.4465     49.9343   3.0290544004e+01   4.6283563637e+01    0.6139263    0.3068825  54.06  0.001197404    1.929    0.482
       249 -10.2350     61.8721     40.6123   4.8653894272e+01   6.2663836660e+01    0.4418741    0.2271136  27.72   0.00183946    2.405    0.584
       250 -11.5144     65.0021     36.6374   4.5587151241e+01   6.2845830247e+01    0.4409465    0.3458131 -76.90 0.0001428766    1.983    0.496
       251 -10.6733     55.9552     43.3921   5.2424393611e+01   6.3098324722e+01    0.3688108    0.2806846  49.10 0.0008753339    1.553    0.356
       252 -12.1522     57.1223     34.9414   4.8269942785e+01   6.4520601817e+01    0.5365443    0.3825101  -9.40   0.00277086    1.626    0.385
       253 -11.6262     52.5047     48.9983   5.6186237407e+01   6.2480048099e+01    0.4026541    0.3030083  -1.29  0.002139566    1.542    0.351
       254 -10.7285     50.8561     44.4267   5.5172316350e+01   6.3665337428e+01    0.3842525    0.1907309 -52.37  0.001687648    2.040    0.510
       255  -9.7078     73.6911     49.9394   4.7624318890e+01   5.8759954733e+01    0.2112646    0.1831973 -37.89  0.001162861    1.121    0.108
       256  -9.9718    164.0375     48.3011   2.2607415480e+01   3.7669399558e+01    0.2053816    0.1891003  79.50  0.000372407    1.070    0.065
       257 -10.4649     77.8556     46.4701   4.4640508078e+01   5.8630057282e+01    0.4244675    0.2083294 -54.26  0.001580969    2.800    0.643
       258 -10.8041     89.2697     41.4135   3.8470468154e+01   5.7181951801e+01    0.2870451    0.2790577 -66.92 0.0009335903    1.150    0.131
       259 -10.5727     78.2338     41.2299   4.2323847374e+01   5.9510337682e+01    0.3692203    0.2542518 -28.95  0.001291325    1.478    0.323
       260 -11.7515     83.3425     36.7351   3.8528974386e+01   5.9232631822e+01    0.6504065    0.4535622 -11.59  0.002194848    1.715    0.417
       261 -11.6782     74.9814     35.4091   4.1024396642e+01   6.1167186636e+01    0.4836271    0.3908869  29.86  0.001542666    1.224    0.183
       262 -10.1823     73.4674     31.5162   3.9840204821e+01   6.2114376310e+01    0.2515019    0.1793935  32.43 0.0005238243    1.411    0.291
       263  -9.3477     69.0202     48.1999   4.8790532453e+01   5.9951746631e+01    0.1812365    0.1113934  39.10  0.000327146    1.675    0.403
       264 -10.3956     62.0735     47.5807   5.1430103105e+01   6.1273148732e+01    0.1910914    0.1716498  15.47 0.0005739523    1.125    0.111
       265  -9.9520    104.5925     46.6952   3.5737580858e+01   5.2846373004e+01    0.1987672    0.1857007  29.87  0.001080789    1.052    0.049
       266 -10.5509    121.8152     43.9610   2.9978406899e+01   4.9140947653e+01     0.464397    0.2169002 -28.20  0.001741649    2.366    0.577
       267 -10.9873    112.4489     45.3467   3.2965747716e+01   5.1213397980e+01    0.2744947    0.2469247  24.21 0.0004266476    1.142    0.124
       268 -10.1414    152.9713     45.0679   2.3574082749e+01   4.1004468143e+01    0.2929572    0.1928423  61.57 0.0006898039    1.485    0.327
       269 -10.5584    141.9012     45.2103   2.5826217055e+01   4.3848063494e+01     0.409446    0.2052746  62.04  0.001321926    1.999    0.500
       270 -10.3998     23.9378     42.3029   6.7927775931e+01   6.7306457246e+01    0.4636432    0.2169633 -65.13  0.001065403    2.280    0.561
       271 -12.8129     27.5855     37.7064   6.4318849716e+01   6.7946809477e+01    0.2775889    0.2362016 -42.32  0.000382566    1.062    0.058
       272 -11.2879     24.2735     34.9824   6.5129076187e+01   6.8844844042e+01    0.2710537    0.1724592 -39.10 0.0007281182    1.374    0.272
       273 -10.8594     96.6972     42.1059   3.6328404204e+01   5.5424628029e+01    0.4198118    0.2798435  13.09  0.001293214    2.132    0.531
       274 -10.3337     72.5270     42.5201   4.5063168610e+01   6.0386770717e+01    0.2950207    0.2187475 -81.47 0.0007401265    2.304    0.566
       275 -11.0269     44.6247     43.8136   5.7886467412e+01   6.4664902761e+01    0.4328341    0.2965408 -76.93  0.001673889    2.346    0.574
       276 -10.3659    131.0430     41.8018   2.6978314852e+01   4.7143763791e+01    0.2483899    0.2182604 -33.88 0.0004904904    1.166    0.143
       277 -11.3973    226.2145     39.3615   1.1823094798e+01   2.3700502167e+01    0.4060573    0.2070775 -25.92  0.001467427    1.967    0.492
       278 -10.3601    187.0488     41.1605   1.6859124888e+01   3.2796043587e+01    0.2018812    0.1915904  32.65 0.0003230089    1.189    0.159
       279  -9.9809    160.4818     41.4949   2.1041600676e+01   3.9562554666e+01    0.4860486    0.1456688  63.82  0.001509595    3.341    0.701
       280 -12.5289    110.8438     35.7080   2.9608757349e+01   5.3100231820e+01    0.5865921    0.3530413 -17.14 0.0008408765    2.031    0.508
       281 -10.6032    236.0674     40.0265   1.1047642672e+01   2.1460727919e+01    0.1940608    0.1753681 -48.33 0.0005177462    1.078    0.072
       282  -9.7665     36.4482     39.0606   6.0119806528e+01   6.6685793150e+01    0.1923325    0.1180822 -50.71 0.0003486835    1.499    0.333
       283  -9.9526    156.3357     37.6533   2.0495978096e+01   4.1170906472e+01    0.3378643    0.1675252  54.04  0.001373969    1.939    0.484
       284 -11.7585    248.1263     36.4446   9.1571144713e+00   1.9367208715e+01    0.2862909    0.2115666 -46.61 0.0002991398    1.118    0.106
       285 -12.5099    241.0722     34.5372   9.2967202861e+00   2.1060617006e+01     0.479762    0.2751302  60.38  0.002560584    1.949    0.487
       286  -9.8673    135.5954     35.8916   2.3830494380e+01   4.6821685198e+01    0.4687694    0.2023364 -51.97  0.001555392    3.220    0.689
       287  -9.8911      1.4092     37.0993   7.8989020642e+01   6.9960858383e+01    0.1871905   0.09530538 -63.15   0.00100541    1.576    0.366
       288  -9.8229    165.0203     36.2654   1.8601359708e+01   3.9089696046e+01    0.1985302    0.1800954  77.53  0.001090502    1.067    0.063
       289 -10.6753     97.1071     36.0670   3.3695344331e+01   5.6303834569e+01     0.213644     0.212108  67.71 0.0005862229    1.090    0.083
       290 -10.0992    193.6490     34.2462   1.4015691939e+01   3.2039760630e+01    0.3751205     0.154787 -46.78  0.001097558    2.359    0.576
       291 -10.4255      9.4990     34.4757   7.3512503928e+01   7.0114143551e+01    0.2367339    0.1825564  -9.28  0.001528984    1.365    0.267
       292 -10.7697      7.4065     30.3682   7.3457405999e+01   7.1129182226e+01    0.3388037    0.2253849  87.23  0.001285735    2.166    0.538
       293 -11.3168    231.3353     33.7743   9.9587569419e+00   2.3249418084e+01    0.2117276    0.1848812  80.87 0.0008301161    1.224    0.183
       294  -9.7040    146.2575     33.9465   2.1039863495e+01   4.4305529951e+01     0.198209    0.1798453 -22.32  0.000328037    1.172    0.146
       295 -10.9384    123.1089     33.1713   2.5553717288e+01   5.0403519151e+01    0.3419751    0.2217849  51.22  0.001188952    1.466    0.318
       296  -9.1729    141.2266     33.6614   2.1892794729e+01   4.5659416544e+01    0.1481243    0.1061623 -56.39 0.0002336687    1.533    0.348
       297  -9.7791     34.0863     33.5458   5.9119033181e+01   6.8089095503e+01    0.1755444    0.1244314  27.27 0.0009949045    1.508    0.337
       298 -10.7295     15.6264     32.1719   6.9101092116e+01   7.0183599004e+01    0.3388587    0.1809924 -30.44  0.001135643    1.893    0.472
       299 -10.4618     19.2960     30.9797   6.6476598667e+01   7.0133591001e+01    0.2226121      0.20134 -41.88  0.000813888    1.130    0.115
       300  -9.5206    221.5106     31.5478   1.0306795398e+01   2.5717287232e+01    0.1355823     0.114081 -57.49 4.389086e-05    1.044    0.042
       301  -9.2881      1.4860     31.4055   7.7409742845e+01   7.1213988952e+01    0.1214781   0.09518344 -45.73 0.0001023662    1.041    0.039
       302 -10.8516    156.7419     28.1741   1.7261215913e+01   4.2286421333e+01    0.2626295    0.2160857  76.99 0.0002917521    1.176    0.150
       303 -10.5145    101.6081     28.4336   2.9112614225e+01   5.6370973149e+01     0.347923    0.2518976 -87.89 0.0009588744    1.960    0.490
       304  -9.4520     12.0011     29.3043   7.0261704664e+01   7.1057670635e+01    0.1564917    0.1312372 -24.58 0.0002152367    1.120    0.107
       305 -11.8298    248.1668     26.7233   6.9230497900e+00   2.0491490197e+01    0.3499607    0.2331008 -52.50   0.00058391    1.269    0.212
       306 -12.4620    226.5276    245.9360   5.4591131466e+01  -4.7026403040e+00    0.5367031    0.3728732   3.98  0.004014846    1.181    0.153
       307 -10.0583    148.4670    248.4668   6.8737459877e+01   5.4206758149e+00    0.1161096   0.08777117  34.47 3.998109e-05    1.036    0.034
       308 -10.3988     83.4230    248.1747   8.1072762199e+01   1.4267073035e+01    0.2344807    0.1194238  44.01 0.0008244948    1.446    0.308
       309 -10.9894     72.8465    244.8495   8.2843321772e+01   1.6139440952e+01    0.2583579      0.17935  51.93  0.001169016    1.102    0.092
       310 -12.5042     74.9385    239.7375   8.2061304954e+01   1.6730347135e+01    0.4944432    0.4642384  76.54  0.003740478    1.298    0.230
       311  -9.5439    102.4763    243.4832   7.7011303421e+01   1.2510825840e+01    0.1172114   0.08922906  44.17 0.0002093192    1.004    0.004
       312 -10.7760    198.5178     28.3789   1.1801133584e+01   3.1552920368e+01    0.2744101    0.1621826  78.03  0.001307878    1.740    0.425
       313 -10.1646    138.8139     19.2784   1.7114634121e+01   4.8054367135e+01    0.2976306    0.2002721  61.31 0.0008825163    1.377    0.274
       314 -10.3915     88.5577    240.9827   7.9501955638e+01   1.4768074551e+01    0.1459134    0.1113015 -74.89  0.001023296    1.583    0.368
       315 -12.4140    132.9680     18.9401   1.8034239317e+01   4.9627687187e+01    0.4024386    0.2636758  60.82 0.0003685948    1.409    0.290
       316 -11.3677    123.0984     26.4442   2.2930371947e+01   5.1295712761e+01    0.2701804    0.2373539 -44.02 0.0002293019    1.196    0.164
       317 -11.1003    118.7894     27.5746   2.4353591706e+01   5.2249013925e+01    0.4327962    0.3425108  86.66  0.001660895    1.441    0.306
       318 -11.4027    112.3866     26.7748   2.5564059332e+01   5.3962188300e+01    0.4144423    0.2756981  -7.94  0.001906642    1.839    0.456
       319 -10.1752     80.0599     26.1639   3.4898282997e+01   6.1582051513e+01    0.3340915    0.2040067 -31.99 0.0007448256    1.644    0.392
       320 -10.6886     83.0448     21.9661   3.1874731908e+01   6.1528355244e+01    0.3044499    0.2539578  66.52  0.001180753    1.374    0.272
       321 -10.3434     87.1129     20.0855   2.9655947761e+01   6.0867935539e+01    0.2107882    0.1848983  25.59            0    1.076    0.070
       322 -12.2386    239.5934     26.1292   7.4316335315e+00   2.2356066991e+01    0.3351766    0.2509902 -62.80  0.002061422    1.203    0.169
       323  -9.8692    176.7373     26.9205   1.3978711552e+01   3.7220441512e+01    0.1966342    0.1733154 -48.84 0.0004213946    1.105    0.095
       324 -10.1160    145.5822     26.7663   1.8637075003e+01   4.5396849489e+01     0.378005    0.1415931  52.44  0.001159741    2.497    0.600
       325  -9.6143     61.4862     26.4675   4.2340331329e+01   6.5223004916e+01    0.3859227    0.2092346 -22.11  0.001275904    2.245    0.555
       326 -11.2712     64.3332     20.2319   3.7990574698e+01   6.5652382163e+01    0.3986387    0.2582362 -15.05  0.001644572    1.707    0.414
       327 -10.4428     59.0758     21.0893   4.0683679860e+01   6.6512455842e+01    0.2409141    0.1884161  43.73 0.0006552603    1.345    0.257
       328 -11.6389    227.6924     25.6100   8.2678927087e+00   2.5016325446e+01    0.3517508    0.1714201  58.10  0.001111571    2.241    0.554
       329 -10.5125     60.3097    241.0800   8.4987942565e+01   1.8300682678e+01    0.1914528    0.1271779  35.48 0.0008788127    1.372    0.271
       330  -9.4366     51.2835     26.3400   4.6944050646e+01   6.7007024315e+01    0.1376687   0.09610682  -7.66 0.0002701269    1.631    0.387
       331 -10.4127    160.2111     24.5426   1.5518855897e+01   4.1809333398e+01    0.3193311    0.2124746 -26.81 0.0008368361    1.574    0.365
       332  -9.6903    114.6621    240.0311   7.4301383606e+01   1.1381996797e+01    0.3065802   0.07383914  43.93  0.001185809    3.297    0.697
       333 -10.4997     54.5254     23.4857   4.3978872080e+01   6.6941543721e+01    0.2861834    0.2351006 -42.86 0.0009747001    1.340    0.254
       334 -10.7880     22.2142     24.0231   6.1812537584e+01   7.1268602276e+01    0.2702059    0.1905701 -20.88 0.0006150664    1.359    0.264
       335 -10.3225    195.5872    238.3900   5.8816457503e+01   1.6881752355e-01    0.2163281    0.1622353  10.23  0.001026715    1.150    0.131
       336 -10.3147     32.8426     15.1652   5.0916926877e+01   7.1646221631e+01    0.4555124    0.2238122  25.30   0.00218033    2.281    0.562
       337 -10.8432     35.1625    237.8949   8.9594404518e+01   2.1706073338e+01    0.1822933    0.1074426  58.67   0.00123212    1.293    0.227
       338 -10.0927     19.4122    237.4899   9.2511474269e+01   2.3399347222e+01    0.2201302   0.08318269  33.96   0.00122674    2.221    0.550
       339 -10.9307      8.8801     24.8206   7.0581783974e+01   7.2208789263e+01    0.5549078    0.2811922  24.74  0.003002586    2.189    0.543
       340 -10.2544     67.6085    236.0720   8.3224370676e+01   1.8273521149e+01    0.2263602    0.1447952  33.76  0.001450331    1.443    0.307
       341  -9.8340      6.7749    235.5041   9.4749953598e+01   2.4953827681e+01    0.2108314   0.07130588  59.06   0.00109697    2.163    0.538
       342 -10.9955    182.9969    234.0495   6.0487487621e+01   2.4663621607e+00    0.2702212    0.1599524  39.23  0.001331767    1.484    0.326
       343 -12.1443     34.3077     22.5889   5.3966243695e+01   7.0154976199e+01     0.264879    0.2106848 -13.95 0.0001583957    1.155    0.134
       344 -10.0107     71.1744     25.8588   3.8053993659e+01   6.3465190211e+01    0.1998204    0.1543085  14.03  0.001072119    1.359    0.264
       345 -10.3176    193.2206     20.9255   1.0272978342e+01   3.3726512286e+01    0.2205846    0.1941812  66.55 0.0002990704    1.186    0.157
       346  -9.5308    155.7975     21.6476   1.5208943303e+01   4.3305766029e+01    0.1961292    0.1301159  81.02 0.0004999086    1.535    0.349
       347  -9.7978    121.7844     20.4655   2.0838239694e+01   5.2359077345e+01    0.4528815    0.1754007  37.30  0.001403077    3.849    0.740
       348  -9.8574     68.9691     21.5064   3.6766821873e+01   6.4555521035e+01    0.2042212    0.1300877  47.30 0.0004129259    1.563    0.360
       349  -9.2481     99.1951     19.9908   2.6067679827e+01   5.8054029454e+01    0.1750681     0.110701 -25.75            0    1.647    0.393
       350  -9.7007     96.2288     17.4062   2.5707211551e+01   5.9077535637e+01    0.3753691    0.1326589  58.72  0.001114704    2.679    0.627
       351  -9.6583     44.8071     18.9790   4.6392844279e+01   6.9272746414e+01    0.2032451    0.1563164 -67.12  0.001084429    2.135    0.532
       352  -9.7829     41.3231     19.0091   4.8241931924e+01   6.9800571618e+01    0.2370773    0.1104034 -45.87    0.0010703    2.255    0.557
       353  -9.6178    108.3909     17.3867   2.2568096329e+01   5.6109536715e+01    0.2590839    0.1325762  -3.55 0.0009509784    3.052    0.672
       354 -10.2341    193.9254     16.5230   8.9532785765e+00   3.4034174785e+01    0.2899042    0.1911734 -81.76  0.001478896    1.533    0.348
       355 -10.4294    169.1857     17.3089   1.1949514399e+01   4.0270306147e+01    0.1929303    0.1840101 -24.06  0.001140716    1.158    0.136
       356 -11.6823    185.2341    228.0033   5.9220872485e+01   2.9371408759e+00    0.4363672    0.2532218  -8.82  0.002286419    2.483    0.597
       357  -9.4405     76.5811     15.7565   3.1018162250e+01   6.3755324339e+01    0.2161766    0.1734318  55.09 0.0002475651    1.299    0.230
       358 -11.7820     30.7899    234.7545   9.0269173256e+01   2.2724620344e+01    0.3719129    0.2323292  67.56  0.002599462    1.308    0.236
       359  -9.4007     88.2660    233.6906   7.8930121347e+01   1.6025979582e+01     0.117009   0.07234789  59.43 0.0002840258    1.537    0.349
       360 -10.9116     39.7438    229.5737   8.8279135880e+01   2.2694256780e+01     0.265212    0.1484516  66.78  0.001670005    1.555    0.357
       361  -9.8234     50.1332     16.7508   4.2514246251e+01   6.8753855015e+01     0.276507     0.205492 -61.08   0.00145989    2.108    0.526
       362  -9.8941    215.6233     16.2657   6.9200170748e+00   2.8819960784e+01    0.3416894   0.08154575  66.13  0.001200644    3.687    0.729
       363  -9.9896     32.0430    230.4538   8.9821425682e+01   2.3365007115e+01    0.1580566    0.1122949  49.25  0.001137801    1.126    0.112
       364 -10.1132     54.5227    231.5114   8.5489244896e+01   2.0659319528e+01    0.1150654   0.08744799  54.70 -6.082141e-06    1.015    0.014
       365  -9.9891     91.6587    235.6942   7.8431055769e+01   1.5234212151e+01    0.1080279   0.08690326   8.33 0.0002837874    1.684    0.406
       366  -9.7170     59.2545    229.3989   8.4405131005e+01   2.0473875158e+01    0.1648342    0.0806072  44.48 0.0008325159    1.545    0.353
       367  -9.8725    131.3412     13.3528   1.6192400386e+01   5.0652987100e+01    0.3298483    0.1788613  76.21  0.001413353    1.932    0.482
       368  -9.4987    151.5433    228.5071   6.5715412838e+01   7.8183922814e+00     0.121907   0.09748548  35.06 0.0001435138    1.059    0.055
       369 -11.1310    160.6293    235.0682   6.4810811433e+01   5.5407286283e+00    0.2756836    0.1345045  29.38  0.001191603    1.801    0.445
       370 -10.8456     28.5725    244.5622   9.1121793884e+01   2.1247327003e+01    0.2276175    0.1454465  82.07  0.001403516    1.468    0.319
       371  -9.8657      3.5084    226.0267   9.5059708327e+01   2.6952533696e+01    0.1476238   0.08599242  88.57 0.0006861924    1.552    0.356
       372  -9.7435     16.4688    222.0489   9.2453941762e+01   2.6488263611e+01    0.1520987   0.09104209  89.16  0.000633287    1.546    0.353
       373 -11.2769     47.6851    218.9532   8.6040102167e+01   2.3772881800e+01    0.4640428     0.206026  24.88  0.002208872    2.848    0.649
       374  -9.6452    211.8045    218.8428   5.3040444556e+01   3.1704196869e-01    0.1449723    0.1285465  17.90 0.0007690398    1.310    0.237
       375  -9.1688    198.6425    219.3229   5.5466977517e+01   2.1371256661e+00    0.1096515   0.09055714  54.32 0.0007044874    1.769    0.435
       376  -9.5124    176.3497    218.7257   5.9539081270e+01   5.5241263210e+00    0.1162106   0.08737654  51.98 0.0003539223    1.634    0.388
       377  -9.8208    136.0690    216.8204   6.7299548156e+01   1.1987071261e+01    0.1960907    0.1498385  50.67  0.001197352    1.279    0.218
       378 -10.4705     29.3336    215.7639   8.9604329732e+01   2.6395332418e+01    0.2081672    0.1480286  27.66  0.001133465    1.612    0.380
       379 -10.2412     23.8658    215.8803   9.0716272272e+01   2.6931350640e+01    0.1617033    0.0975663  63.84 0.0004540927    1.308    0.236
       380 -12.5217      4.9038    208.4698   9.4209624552e+01   3.0151767720e+01    0.6222606    0.2783077  84.15  0.003561218    1.979    0.495
       381 -10.7378     14.5349    215.4712   9.2562452065e+01   2.7919041776e+01    0.2289065    0.1228657  50.91 0.0006793257    1.396    0.284
       382 -11.8093     12.2472    211.1418   9.2840599416e+01   2.8969755240e+01    0.4096819    0.1765037  79.83  0.001733227    2.138    0.532
       383 -10.1207    110.2985    211.9693   7.2114276766e+01   1.6734014901e+01    0.1659775    0.1549143  54.26 0.0006835036    1.130    0.115
       384  -9.9471    217.0000    209.0111   5.0544928702e+01   8.1619280671e-01    0.1769738   0.06320855 -35.67 0.0008013681    2.935    0.659
       385 -10.2054    147.6721    205.8939   6.3377313429e+01   1.1986415061e+01    0.1954288    0.1570902 -11.11   0.00118458    1.469    0.319
       386  -9.8383     27.9683    205.0462   8.9301502498e+01   2.8645123366e+01    0.1411406    0.1077173  66.54  0.000375809    1.032    0.031
       387 -10.9279    175.3765    202.2677   5.7185402649e+01   8.1180616685e+00    0.2333635    0.1899699  25.59 0.0004734721    1.039    0.037
       388 -10.2285     67.0392    202.8441   8.0626742545e+01   2.4558757648e+01    0.2005746    0.1634514  84.57  0.000641776    1.209    0.173
       389 -11.1592     20.4331    200.4319   9.0652512970e+01   3.0329143518e+01    0.4024156    0.1751956 -61.92  0.001957193    2.583    0.613
       390  -9.4939    120.4363    200.4741   6.8449138504e+01   1.7284235157e+01    0.1299617    0.1128907  38.96 0.0008063419    1.038    0.037
       391  -9.1848    206.6958    197.6837   5.0468572063e+01   3.8537922142e+00    0.1279212   0.08375929   5.30 0.0007025306    1.623    0.384
       392  -9.7043     56.7461    197.2213   8.2433658796e+01   2.7004626121e+01    0.1808811    0.1375012 -26.86  0.001047308    2.101    0.524
       393  -9.6384    134.9195    196.3558   6.4687962424e+01   1.5712693996e+01    0.1818219    0.1509675  35.22 0.0004745442    1.052    0.049
       394 -11.9813     15.7494    192.0630   9.1234460117e+01   3.2499099902e+01    0.3462161    0.3236745  61.52  0.001764404    1.303    0.233
       395 -11.2000    186.9552    191.7221   5.3146808256e+01   7.8638740528e+00    0.4372228    0.1398962 -33.41  0.001530027    4.189    0.761
