#   1 NUMBER                 Running object number                                     
#   2 MAG_AUTO               Kron-like elliptical aperture magnitude                    [mag]
#   3 X_IMAGE                Object position along x                                    [pixel]
#   4 Y_IMAGE                Object position along y                                    [pixel]
#   5 X_WORLD                Barycenter position along world x axis                     [deg]
#   6 Y_WORLD                Barycenter position along world y axis                     [deg]
#   7 A_WORLD                Profile RMS along major axis (world units)                 [deg]
#   8 B_WORLD                Profile RMS along minor axis (world units)                 [deg]
#   9 THETA_WORLD            Position angle (CCW/world-x)                               [deg]
#  10 FWHM_WORLD             FWHM assuming a gaussian core                              [deg]
#  11 ELONGATION             A_IMAGE/B_IMAGE                                           
#  12 ELLIPTICITY            1 - B_IMAGE/A_IMAGE                                       
         1 -13.4874     65.3780     50.2605   7.5141691582e+01   5.9384937968e+01     1.617005    0.7271816 -26.36  0.006177312    2.918    0.657
         2 -15.6499      6.7268     67.3810   1.0595219529e+02   6.2233065191e+01     4.375782    0.2959294 -55.21   0.01467095    3.876    0.742
         3 -13.6391      2.9782     10.4551   8.8984899572e+01   7.3328702519e+01     0.767891    0.3994369 -45.88  0.004634365    1.861    0.463
         4 -13.3482      8.3622      2.6139   8.1588622886e+01   7.4004950036e+01    0.5656933    0.3635313  36.92  0.002652745    2.235    0.553
         5 -15.8811     12.2257     21.7907   8.8619969685e+01   7.0796357829e+01     1.763355    0.8932518 -16.23  0.009051787    2.031    0.508
         6 -14.7604     22.6894     13.3346   7.8783261512e+01   7.1047093157e+01     1.229006     0.565356  39.07  0.006261075    2.729    0.634
         7 -13.3695    131.6901     32.7256   4.8966325403e+01   4.7888110403e+01    0.8566536    0.4715798 -44.75  0.003599879    2.078    0.519
         8 -13.4528    138.8732     22.0097   4.4106883397e+01   4.7349300441e+01     1.031619    0.3607157  67.14  0.003077862    2.822    0.646
         9 -14.5484    146.3273     29.7181   4.5196533689e+01   4.4679129645e+01     1.151535    0.6953389  59.25  0.004392074    1.470    0.320
        10 -14.1030    166.3779     30.3218   4.2112904160e+01   3.9694475030e+01    0.9710869    0.7245604  68.94  0.003560167    1.217    0.178
        11 -13.2938    188.3837     25.6964   3.7943880568e+01   3.4932657695e+01     1.025885    0.4701777 -62.99  0.004186829    2.825    0.646
        12 -13.2181    187.7603     12.8260   3.4792835208e+01   3.6481669541e+01    0.8223401    0.2978508 -33.29  0.003620506    2.723    0.633
        13 -12.6862    120.4303     26.6216   4.9304647958e+01   5.1285209877e+01    0.6195867    0.3298477  50.76  0.002931287    1.633    0.387
        14 -11.8394     46.8341     20.4854   7.0302367350e+01   6.6852950239e+01    0.4305199    0.2782977  29.14   0.00224326    1.387    0.279
        15 -15.1207     99.0508     11.7321   4.8776847903e+01   5.7709186676e+01     1.364281    0.7338136  58.11  0.005010271    1.633    0.388
        16 -12.3650     85.3671     14.1700   5.3400605530e+01   6.0457092648e+01    0.3728279    0.3281728 -20.03  0.001752979    1.291    0.225
        17 -12.3309     70.2396     16.5297   5.9219309281e+01   6.3265922026e+01    0.3616483    0.3163639  81.68  0.001607489    1.727    0.421
        18 -11.7036     46.7591     13.1549   6.6805431114e+01   6.7774514074e+01    0.2726533    0.2406743  29.44  0.001353731    1.370    0.270
        19 -12.8627    214.7313     10.4182   3.1720282661e+01   3.0597170555e+01    0.3327383    0.2795374 -64.13 0.0009599145    1.116    0.104
        20 -13.9445     41.6926      4.6467   6.4733103842e+01   6.9515633463e+01    0.7034355    0.4736642   9.00  0.003553805    1.296    0.228
        21 -11.2991     60.1850     16.6872   6.2969836344e+01   6.5106940980e+01    0.2849593    0.1771291 -35.14  0.001585617    1.849    0.459
        22 -11.5897    152.3513      8.6432   3.7915974553e+01   4.5365876647e+01    0.3887727    0.2040933  89.37  0.001767606    2.231    0.552
        23 -10.3602    165.3217      8.2999   3.6146908510e+01   4.2263371214e+01    0.1296439   0.08679319  45.67 0.0002841531    1.626    0.385
        24 -12.0848    224.7520      4.6376   2.9719282628e+01   2.9037363842e+01    0.3394042    0.1703626  47.45  0.001664882    3.032    0.670
        25 -11.3790    120.1430      3.8445   4.1447310031e+01   5.3502081640e+01    0.2053706     0.166282  56.24 0.0005091904    1.039    0.037
        26 -11.0526    117.4732      1.4884   4.1111166291e+01   5.4309360472e+01    0.2151429    0.1486158  70.13 0.0006900598    1.309    0.236
        27 -11.5320     60.9919      1.6925   5.5532971135e+01   6.6450767006e+01    0.3799316    0.1408677  52.01  0.001733042    2.404    0.584
        28 -11.0715     27.9452      1.6728   6.9789804422e+01   7.1852109089e+01    0.1673211    0.1232344  15.15  0.001157181    1.104    0.094
        29 -10.5097    232.7741      1.5968   2.8554193164e+01   2.7671341208e+01    0.1623556   0.08933879 -85.29 0.0009431619    1.627    0.385
        30 -11.8298     81.3876      1.4589   4.9112521232e+01   6.2398270069e+01     0.475726   0.08586963  56.73  0.001591821    3.974    0.748
        31 -11.5601     48.7797    182.0529   1.1059114164e+02   3.0403327477e+01    0.3441268    0.2054526 -49.07  0.001688033    1.861    0.463
        32 -13.5079    107.4170    246.1131   1.0453566514e+02   8.2745834106e+00    0.8883535    0.5365855  71.70  0.004382874    2.377    0.579
        33 -13.9907     91.3791    231.5134   1.0630646621e+02   1.3458640526e+01    0.6644104     0.619984  85.33  0.004394479    1.142    0.124
        34 -13.2704     95.1805    237.8218   1.0619569467e+02   1.1646900810e+01    0.4106424    0.3178244   8.76  0.002314668    1.706    0.414
        35 -12.0905     51.8000    248.7643   1.1613638894e+02   1.5318193387e+01    0.3801828    0.3130223 -69.71  0.002673062    1.411    0.291
        36 -12.2485     58.5242    246.3482   1.1462249142e+02   1.4952913530e+01    0.4342532    0.3861341   5.07  0.002999464    1.590    0.371
        37 -12.6867      2.8772    248.6546   1.2519337227e+02   2.0651409142e+01    0.4702205     0.264778  78.22  0.002909966    1.436    0.304
        38 -13.6152      9.2435    245.8672   1.2394386284e+02   2.0573227920e+01    0.7194954    0.3322413  63.75  0.003430162    1.772    0.436
        39 -12.7465     36.8378    195.3796   1.1487631629e+02   2.8562394569e+01    0.3482183    0.2018154 -76.92   0.00183755    1.578    0.366
        40 -11.7758    198.3934    181.7459   7.4032942689e+01   5.5369184563e+00    0.2594259    0.1742798  46.46  0.001264095    1.707    0.414
        41 -11.2508    122.5041    181.8650   9.1640228838e+01   1.9346184298e+01      0.34405    0.2041895  79.95  0.001083483    4.070    0.754
        42 -12.5997    124.1838    167.1782   8.8405654170e+01   2.2483564815e+01    0.6471738    0.4261988 -71.37  0.002710551    1.998    0.500
        43 -11.2402    177.8002    167.6045   7.5481682697e+01   1.2107113226e+01      0.21169    0.1409574  48.80 0.0009528322    1.674    0.403
        44 -10.7351    192.6874    165.3185   7.1770642798e+01   9.7406858605e+00    0.1406964    0.1203924 -82.38 0.0007036472    1.647    0.393
        45 -13.2723     74.2055    154.5533   9.9754614581e+01   3.3993214340e+01     0.962229    0.5811251  47.49  0.004322243    1.751    0.429
        46 -11.7322    110.2494    154.9111   8.9644621024e+01   2.8000464780e+01    0.5066541    0.2876551 -76.69  0.001708622    3.105    0.678
        47 -12.0062    189.1560    156.0274   7.0475908958e+01   1.2271754405e+01    0.2680866    0.2236812  35.68  0.001218583    1.240    0.194
        48 -11.2783    103.2622    150.3456   9.0647107332e+01   3.0378442664e+01    0.3383569    0.2464485 -23.78  0.001500025    1.736    0.424
        49 -11.8730    245.8546    149.5421   5.8560806155e+01   3.2096100868e+00    0.2883494    0.2089268 -30.35  0.001644754    1.166    0.142
        50 -11.9269    189.3810    149.8056   6.9027371924e+01   1.3483982462e+01    0.2275043    0.1344246 -31.78 0.0009575203    1.741    0.426
        51 -12.4734      7.6027    145.8813   1.1747648929e+02   4.3268694893e+01    0.6340846    0.3329784 -54.00  0.003292438    1.759    0.431
        52 -12.1572     59.6860    148.4670   1.0292759835e+02   3.7539206943e+01    0.3663304    0.2816809  -8.12  0.001851197    1.699    0.411
        53 -10.9414     38.1666    145.8560   1.0882631963e+02   4.0686410284e+01    0.1917924    0.1497777 -46.01 0.0005796404    1.319    0.242
        54 -11.9958    148.6927    141.1399   7.6365701181e+01   2.3721392957e+01    0.2607086    0.2073926 -64.79  0.001202477    1.456    0.313
        55 -10.2661     62.7475    138.6657   1.0029365090e+02   3.9663075151e+01    0.1492534    0.1029352 -38.77 0.0003603141    1.562    0.360
        56 -12.3690     40.5384    136.9149   1.0678756956e+02   4.2733596141e+01    0.3103184    0.2340479  69.95  0.001661088    1.469    0.319
        57 -11.5948     45.5015    135.4910   1.0503656790e+02   4.2569198019e+01    0.3276234    0.2238941 -46.73  0.001667993    1.423    0.297
        58 -10.0983     10.6579    134.2893   1.1537831993e+02   4.5945447464e+01    0.1307104   0.08639654  66.42  0.000633459    1.648    0.393
        59 -12.0295    133.7183    132.4270   7.8126210065e+01   2.8843821531e+01    0.3833368    0.1519158  47.38  0.001232974    2.741    0.635
        60 -12.1551     99.7285    124.0259   8.5748028318e+01   3.7537762878e+01    0.6429665    0.5736359 -67.34  0.003281645    1.179    0.152
        61 -13.2741    108.5550    124.3214   8.3180971358e+01   3.5814969192e+01    0.6702467    0.5759599 -23.97  0.003108012    1.232    0.188
        62 -13.4799    111.3467    117.0838   8.0512410671e+01   3.6997123448e+01    0.4373919    0.3487595  37.40  0.001492899    1.281    0.220
        63 -13.1110     29.0271    122.2690   1.0807701783e+02   4.7563981466e+01    0.6760563    0.3240586 -60.36  0.003114629    1.702    0.413
        64 -10.7615     59.2769    125.4230   9.8834545401e+01   4.3509205051e+01    0.2439671    0.1479747  22.26 0.0006333489    1.911    0.477
        65 -11.9296    180.7919    121.4761   6.4099895398e+01   2.1042776793e+01    0.2991626    0.2307643  15.12  0.001388513    1.622    0.383
        66 -12.0213      4.3616    119.9486   1.1558259001e+02   4.9896350892e+01    0.4790778      0.19137  15.72  0.002053086    3.101    0.677
        67 -13.1044     84.2039    115.2599   8.8448970429e+01   4.2389684107e+01     1.107115    0.6756945  40.54  0.004838325    1.726    0.421
        68 -13.7247     94.6619    110.4693   8.3875826062e+01   4.1730508700e+01     1.266214    0.7135357  42.52  0.005215125    1.860    0.462
        69 -14.6262    107.2100    104.5995   7.8382806094e+01   4.0709524001e+01     1.690334     1.259507  22.38  0.007763218    1.509    0.337
        70 -13.6381      2.2594     96.9947   1.1318460593e+02   5.5596329366e+01     1.084676    0.4072329 -76.47  0.004301309    2.593    0.614
        71 -14.4707     18.1191    111.1978   1.0990849245e+02   5.1196375159e+01     1.087314    0.8195287 -18.64  0.004794801    1.527    0.345
        72 -13.9805     11.7932    103.8918   1.1091188375e+02   5.3410890358e+01    0.7895218    0.6237677 -60.02  0.004847257    1.026    0.026
        73 -14.5827     22.3053     95.3398   1.0562534772e+02   5.4776026428e+01     1.478346     1.048153   9.34  0.008445874    1.637    0.389
        74 -11.8621    120.9687    112.0782   7.6392155909e+01   3.6200194922e+01    0.4050605    0.3164493  76.51  0.001389732    1.716    0.417
        75 -12.5839     31.7606    111.0518   1.0523872121e+02   5.0143512198e+01    0.3272972    0.2523452 -38.39 0.0008631175    1.262    0.208
        76 -11.9767     61.5143    109.0672   9.4529259672e+01   4.7321736748e+01     0.494315    0.3461225 -69.40  0.002378971    1.560    0.359
        77 -13.1700     29.8553     89.9990   1.0165600806e+02   5.5444019946e+01     1.103619    0.6274029  76.70  0.004176529    3.847    0.740
        78 -12.3107    136.3910    103.5218   6.9810724484e+01   3.4745999737e+01    0.6471453    0.2945158  49.95  0.002000858    2.320    0.569
        79 -11.9124     42.6013     90.9988   9.7024013771e+01   5.3971628194e+01    0.4556634    0.2901332 -78.08 0.0008778851    2.131    0.531
        80 -12.2437     49.1958     94.3510   9.5377089024e+01   5.2436572153e+01    0.4478418    0.3634309  71.38  0.001623147    1.635    0.389
        81 -11.8746     46.9875     99.5142   9.7433882021e+01   5.1452364068e+01    0.4981327    0.3595009  70.53  0.002442648    1.975    0.494
        82 -11.6519     52.4921     98.0126   9.5069984197e+01   5.1167439316e+01    0.3734756    0.2204219 -15.84  0.001566497    2.400    0.583
        83 -11.9456     61.1259     97.8389   9.1902195268e+01   5.0094352880e+01    0.4158249    0.3124202 -83.50  0.002018611    1.802    0.445
        84 -11.5067    163.3061     98.0491   6.1788180684e+01   2.9689605686e+01    0.2807214    0.2309482  52.47 0.0008395777    1.240    0.193
        85 -12.3590    136.0801     95.4180   6.7592006509e+01   3.6510389213e+01    0.4076498    0.3076337  46.59  0.001203754    1.329    0.248
        86 -11.4233     34.4583     86.8403   9.9143065288e+01   5.5770802639e+01    0.3544716    0.2021161 -32.74  0.001316827    1.774    0.436
        87 -12.8197    188.0181     84.5091   5.3238884637e+01   2.6429700463e+01    0.5066763     0.259206  45.43  0.001871592    2.170    0.539
        88 -12.1126     47.2442     82.0636   9.2900704923e+01   5.5517312220e+01    0.5027906     0.255143 -54.60  0.002259315    1.820    0.451
        89 -11.7557     41.9558     77.5415   9.3748174430e+01   5.7133398228e+01    0.6049004    0.2602462 -62.44  0.002339266    2.793    0.642
        90 -13.0287    164.1450     71.6921   5.4270550557e+01   3.4307909958e+01     1.094279    0.3855191  50.52   0.00375792    2.757    0.637
        91 -14.0488    169.3884     77.1888   5.4771778329e+01   3.2106373506e+01     1.289944     0.512957  52.09  0.004175538    2.466    0.594
        92 -11.1174     40.8040     68.0225   9.1442496708e+01   5.9333274998e+01     1.644843    0.4345776  22.40  0.004907239    5.369    0.814
        93 -12.6152     28.3447    245.8601   1.2043761998e+02   1.8597953433e+01    0.4320853    0.2804815  57.80  0.002877899    1.211    0.174
        94 -12.9376     52.3174     69.5720   8.7167394785e+01   5.7612036303e+01    0.7539032    0.6699493 -78.55  0.004392854    1.523    0.343
        95 -13.9785     61.0341     75.6725   8.5643163382e+01   5.5124501675e+01    0.8836979    0.4485402 -46.91  0.001587449    1.824    0.452
        96 -12.0591    216.5184     81.4308   4.7880369887e+01   2.0550641533e+01    0.3133945    0.1818559 -49.63  0.001179236    1.616    0.381
        97 -12.6096    135.3278     79.6753   6.3127101628e+01   3.9773437177e+01    0.7480635    0.4033116  55.48  0.002977892    1.965    0.491
        98 -11.9151    114.5135     80.2983   6.8972281185e+01   4.4352157374e+01    0.3898766    0.2835763 -60.57 0.0006612855    1.727    0.421
        99 -13.3586    171.3773    242.3530   9.0559309302e+01  -7.7271222696e-01    0.5051365    0.3455209  31.60  0.002933228    1.249    0.199
       100 -13.4794      6.3221     43.4274   9.9793339569e+01   6.7282290153e+01    0.7998446    0.4545989  14.03   0.00471388    1.891    0.471
       101 -11.9987     17.5113     40.5971   9.3170054816e+01   6.7051503712e+01    0.2203894    0.1587034 -27.72 0.0003160509    1.100    0.091
       102 -11.4908    147.4958    239.4825   9.5151177372e+01   3.3770146410e+00    0.1321044    0.1122274  29.74 0.0002361303    1.020    0.019
       103 -12.6056     24.4487    217.3127   1.1937109378e+02   2.4912890549e+01    0.6156862    0.4434344  51.31  0.004012078    1.246    0.197
       104 -12.7966     13.9833    222.6772   1.2183272756e+02   2.4809514110e+01    0.5125088    0.3671004  61.38  0.002052187    1.145    0.126
       105 -13.5794     26.1475    226.7150   1.1966102962e+02   2.2723197629e+01    0.7560675     0.367432 -57.28  0.003986951    2.387    0.581
       106 -11.7595     27.2299     75.6720   9.9275805932e+01   5.8982138946e+01    0.4676876    0.2614602 -74.62  0.002110383    2.458    0.593
       107 -13.0090     87.0147     65.5996   7.2790414172e+01   5.2788069638e+01    0.6725063    0.4339388  21.46  0.002089415    1.784    0.439
       108 -11.8811     92.0001     60.5068   6.9339276135e+01   5.2738762524e+01    0.4388114    0.2012457  42.13  0.001433934    2.117    0.528
       109 -12.7612     91.5068     57.0763   6.8280071886e+01   5.3431248438e+01    0.4902058    0.3070878  42.25  0.001175359    1.543    0.352
       110 -12.1396     81.1536     69.9850   7.6325787228e+01   5.3033157644e+01    0.4666701    0.3347441  46.56  0.002318663    1.551    0.355
       111 -12.3129     70.5684     75.5485   8.1996212054e+01   5.3702942286e+01    0.4884501    0.3119625  16.28  0.001753422    1.835    0.455
       112 -11.9567     77.1254     73.5460   7.8948499567e+01   5.3029236268e+01    0.3671689    0.2753009 -21.17 0.0009921804    1.362    0.266
       113 -12.9638    199.2091     70.1220   4.7704761873e+01   2.6246783203e+01    0.6416786    0.3739797  47.74   0.00220715    1.918    0.479
       114 -12.6984    134.7059     66.4485   5.9197029317e+01   4.2277156216e+01    0.5835406    0.4185262  39.70  0.001518123    1.409    0.291
       115 -11.5189     31.5927     65.2207   9.4543168600e+01   6.0879776926e+01    0.3367882     0.221524 -43.04  0.001873936    1.275    0.216
       116 -11.5554     31.0000     61.0135   9.3530679797e+01   6.1820756638e+01    0.3343114    0.2075362 -41.00  0.001814803    1.349    0.259
       117 -13.4563    160.7558     81.0219   5.7614537160e+01   3.3497249923e+01    0.8872247    0.5478932  20.14  0.002742157    2.906    0.656
       118 -10.5627    117.0858     71.5300   6.5439428989e+01   4.5445406705e+01    0.2259592    0.1457336  48.48 0.0006155099    1.528    0.346
       119 -13.3321    177.8116     58.1054   4.7988732189e+01   3.3167489534e+01    0.7241616    0.5641367 -56.37  0.002335681    1.288    0.224
       120 -12.6972     78.5461     60.4819   7.3962851774e+01   5.5300190452e+01    0.6520023    0.4587618  36.50  0.003345628    1.405    0.288
       121 -12.5521     82.1419     54.5781   7.0545523493e+01   5.5679695414e+01    0.4628118    0.3766385  -3.14  0.001636147    1.210    0.174
       122 -11.4584     77.4890     53.9698   7.1975575154e+01   5.6646116203e+01    0.3109973    0.2387611 -11.61 0.0009170729    1.311    0.237
       123 -10.9108     38.7916     60.2729   8.9860086701e+01   6.1166807461e+01    0.2362751      0.18083 -73.50   0.00128093    1.930    0.482
       124 -12.1209     24.5371     59.8663   9.6077859054e+01   6.2644046631e+01     0.391762    0.2480128 -42.86  0.001477914    1.293    0.226
       125 -14.4780    119.9530     54.6727   5.9082248067e+01   4.7648381544e+01    0.8188532    0.5618132  37.09  0.003433617    1.460    0.315
       126 -12.8004     54.2717     82.2899   9.0230690548e+01   5.4599012612e+01    0.5681764    0.4247943 -43.50  0.002084905    1.200    0.166
       127 -13.6815    103.1814     50.6631   6.2337408542e+01   5.2033475281e+01    0.9279346    0.6343788 -66.82  0.002909993    2.478    0.597
       128 -13.0296     97.7834     50.5810   6.3933415225e+01   5.3201699744e+01    0.3926627    0.3375142 -66.44  0.001522055    1.539    0.350
       129 -11.9409    136.1952     49.9020   5.3591295344e+01   4.4522713437e+01    0.3445452    0.2647272  34.30 0.0009734044    1.369    0.270
       130 -11.2922     36.5084     53.5398   8.8613906436e+01   6.2759800045e+01    0.2233355    0.1173019  10.04 0.0009572245    2.297    0.565
       131 -10.5116     23.4759     50.4374   9.3610807186e+01   6.4653539719e+01    0.1296502    0.1003986 -26.62 0.0001529205    1.044    0.042
       132 -11.9013    154.0446     46.9871   4.9030943146e+01   4.0583428856e+01    0.4504894    0.1895211  55.85  0.001786264    2.156    0.536
       133 -12.2198    159.0204     43.5643   4.7111839226e+01   3.9829211986e+01    0.4801047    0.3186823  57.56  0.001874978    1.401    0.286
       134 -13.4539    217.4782     42.3951   3.8631389765e+01   2.6167058833e+01     1.029524    0.3309139  62.36   0.00376337    2.959    0.662
       135 -12.9039    204.9177     40.2478   3.9564270770e+01   2.9277334908e+01     1.099401     0.451552  87.87  0.003314573    5.239    0.809
       136 -12.3253    109.6317     42.1812   5.7472338783e+01   5.1847301057e+01    0.5143602    0.2082651  55.85  0.001456121    2.462    0.594
       137 -12.9040     20.9030    224.8719   1.2059156444e+02   2.3656848680e+01       0.4878    0.3484426 -37.59  0.002925877    2.230    0.552
       138 -14.1233    122.2378     37.2514   5.2574433110e+01   4.9585840702e+01     0.981428    0.4668786  39.35  0.002265047    2.279    0.561
       139 -12.7702    113.9960     38.2546   5.4930054951e+01   5.1380083620e+01    0.3627296    0.3571958 -77.48  0.001231124    1.153    0.133
       140 -11.3799    104.5344     36.7551   5.6880262411e+01   5.3722208961e+01    0.3116362     0.131769 -33.12  0.001131484    2.491    0.599
       141 -12.5233     75.6942     37.2813   6.6142663810e+01   5.9616247543e+01    0.3665568    0.2470782  44.17 0.0009974635    1.463    0.316
       142 -11.5931     70.7359     36.5825   6.7662435376e+01   6.0633506120e+01    0.2802382    0.2281006  51.82 0.0008423953    1.503    0.335
       143 -12.3292    241.7054     36.2607   3.4908713756e+01   2.1834535150e+01    0.4443634    0.2138768  68.90  0.001876862    2.113    0.527
       144 -12.7520     45.0206     33.5300   7.6980033103e+01   6.5236608120e+01    0.6718181    0.4465598  31.33  0.003670501    1.497    0.332
       145 -13.7088     65.2588    223.5698   1.1117761434e+02   1.8747593110e+01     1.064185    0.6686503  48.66  0.005932885    1.391    0.281
       146 -11.8707    152.7521     31.4199   4.4599717342e+01   4.2904270884e+01    0.3584593    0.1487467  59.36  0.001158409    2.097    0.523
       147 -13.8880     64.1432    214.8111   1.1053487588e+02   2.0804120339e+01    0.6783623    0.4606553  52.74   0.00382197    1.322    0.243
       148 -12.9228     59.4839    212.9750   1.1139768270e+02   2.1818458293e+01    0.3607683    0.2161677 -60.82  0.001091165    1.722    0.419
       149 -12.1147     94.5165    218.2150   1.0400819396e+02   1.5769378212e+01    0.2664102    0.1744812  38.56  0.001148104    1.386    0.279
       150 -11.8656    249.0114    216.3266   7.1103453903e+01  -7.8476715853e+00    0.2021718    0.1678985 -37.31   0.00134559    1.579    0.367
       151 -11.5860    200.7098    214.9829   7.9951404422e+01  -7.6307409017e-01    0.1937668    0.1616372 -13.34  0.001172664    1.108    0.097
       152 -13.0635     55.4251     27.2338   6.9688325886e+01   6.4589558238e+01    0.6596501    0.3124582  41.61   0.00295863    2.068    0.516
       153 -11.6298     64.2043     24.6244   6.5023993290e+01   6.3434988728e+01    0.4161902    0.2221891  16.13  0.001843716    2.497    0.600
       154 -10.9220     98.1818     27.1508   5.4997584327e+01   5.6314196852e+01    0.2490782    0.1729238  57.39  0.001327505    1.422    0.297
       155 -10.7106     88.7354     25.9859   5.7260828190e+01   5.8481190831e+01    0.1846505    0.1628562   5.20 0.0005493673    1.119    0.106
       156 -11.5585    156.2549    214.6804   8.9379683535e+01   6.5186569103e+00    0.2387283    0.2089629 -27.20  0.001392849    1.201    0.167
       157 -10.8110     51.9568     20.6962   6.8172634609e+01   6.6019387166e+01    0.2580903   0.09941017  31.87   0.00107896    2.685    0.628
       158 -11.1417    223.9877     21.1132   3.3259338677e+01   2.7397041434e+01     0.256481    0.1371254  57.56  0.001361516    2.054    0.513
       159 -10.6291    136.7016    211.3294   9.3263230443e+01   1.0463086451e+01    0.1398107    0.1077459  67.77 0.0004459063    1.639    0.390
       160 -12.0168     72.7080    207.8069   1.0779102985e+02   2.1219709938e+01    0.4602966    0.3023798 -82.63  0.002396192    1.623    0.384
       161 -12.3765      4.3216    211.8669   1.2314195143e+02   2.8020599323e+01    0.4858815    0.2332161 -87.08  0.002682486    1.790    0.441
       162 -10.7957    148.9872    207.4785   8.9800078619e+01   9.1602270155e+00    0.2252423    0.1306533  35.27 0.0006284135    1.592    0.372
       163 -12.0679     41.3430    206.4263   1.1485804524e+02   2.5501672403e+01    0.2428453    0.1479879 -81.45  0.001058482    1.543    0.352
       164 -12.2453     57.3846    203.3784   1.1087984226e+02   2.4266901702e+01    0.4850945    0.2529424 -88.59  0.002170151    2.285    0.562
       165 -13.2233     15.3917    196.6725   1.1984887028e+02   3.0417618490e+01    0.5693666    0.4093082 -77.26  0.003093251    1.242    0.195
       166 -10.2512    198.3262    204.6490   7.8533676310e+01   1.3839187215e+00    0.1265188    0.1128937  82.17 0.0005878255    1.760    0.432
       167 -14.0945     30.0028    169.2314   1.1394359284e+02   3.5598715343e+01     1.074482    0.9930812  48.36   0.00699773    1.215    0.177
       168 -13.5488     22.2259    181.3886   1.1705716526e+02   3.3374885063e+01    0.8923337    0.4125032 -59.18  0.004303677    2.037    0.509
       169 -15.4292      7.8797    183.5878   1.2059133591e+02   3.4111302288e+01     1.558862    0.9846503 -81.02  0.009307914    1.312    0.238
       170 -15.2533     15.9640    175.5244   1.1805502739e+02   3.5350267802e+01     2.400236      1.06118  70.53   0.01039116    2.637    0.621
       171 -12.0838    248.0000    194.9953   6.7308187683e+01  -4.5404835647e+00    0.2750844    0.1493187 -36.56  0.001455773    1.641    0.390
       172 -13.2984     40.5147    195.9681   1.1407344396e+02   2.8016401588e+01    0.4771958    0.2342517 -83.73   0.00220776    2.097    0.523
       173 -12.0820    200.8368    191.5552   7.5499271453e+01   3.3058237419e+00    0.3171168    0.2423396 -14.78  0.001615113    1.262    0.208
       174 -11.2566    216.3999     28.7895   3.5650711179e+01   2.8140265272e+01    0.1628236    0.1205229 -23.94 0.0007713745    1.676    0.403
