#   1 NUMBER                 Running object number                                     
#   2 MAG_AUTO               Kron-like elliptical aperture magnitude                    [mag]
#   3 X_IMAGE                Object position along x                                    [pixel]
#   4 Y_IMAGE                Object position along y                                    [pixel]
#   5 X_WORLD                Barycenter position along world x axis                     [deg]
#   6 Y_WORLD                Barycenter position along world y axis                     [deg]
#   7 A_WORLD                Profile RMS along major axis (world units)                 [deg]
#   8 B_WORLD                Profile RMS along minor axis (world units)                 [deg]
#   9 THETA_WORLD            Position angle (CCW/world-x)                               [deg]
#  10 FWHM_WORLD             FWHM assuming a gaussian core                              [deg]
#  11 ELONGATION             A_IMAGE/B_IMAGE                                           
#  12 ELLIPTICITY            1 - B_IMAGE/A_IMAGE                                       
         1 -17.1318    246.1048    103.0429   3.5506968279e+01   1.2636930376e+01     5.198678     4.912718  53.71   0.01461728    1.336    0.252
         2 -16.5032    248.3433     84.0547   3.1516855316e+01   1.5131373985e+01     6.406177     2.249279 -51.53  0.007578892    2.770    0.639
         3 -11.4031    132.1759     29.1063   3.3291151468e+01   4.7886510224e+01      1.45527     0.760129 -12.88  0.005855258    3.276    0.695
         4 -11.8150    150.6476     44.6166   3.4833939059e+01   4.1411178449e+01     1.248689     0.885924  -3.56  0.006049601    2.225    0.551
         5 -12.7706    139.7093     44.0905   3.6589318406e+01   4.4108346574e+01      1.46009     1.363788 -77.64   0.00884167    1.057    0.054
         6 -10.3694    248.2117     17.3341   1.8577329612e+01   2.3937886241e+01    0.5948333    0.2531271 -49.69  0.003456375    1.716    0.417
         7 -12.6035    117.3069     10.2373   2.9604138419e+01   5.3502497123e+01     1.524884    0.9571676 -73.25  0.006808907    1.875    0.467
         8  -9.7368    214.2592     12.8906   1.9815862014e+01   3.0985610037e+01    0.5807356    0.1775308  56.47  0.002350102    4.224    0.763
         9  -8.7409    221.0051      9.4838   1.8655715675e+01   2.9988691538e+01    0.2408878    0.1313403  58.58 0.0008884197    2.238    0.553
        10  -8.9823     85.9626      4.0074   3.3436662593e+01   6.1425017534e+01    0.1495221    0.1327015  53.76 0.0003197801    1.041    0.039
        11  -8.8489    239.3314    198.4773   5.4310978013e+01  -1.2968437077e+00    0.2283491    0.1816293  46.41 0.0009322081    1.856    0.461
        12  -9.4569    248.4804    250.3386   6.1112636350e+01  -9.2004924510e+00    0.1913113    0.1121597  23.57  0.001348768    1.627    0.385
        13  -9.8936    237.6644    249.5567   6.2725089720e+01  -8.0575227832e+00    0.2049312    0.1240773   1.71   0.00139154    1.445    0.308
        14  -7.8285    169.7492    250.6416   7.5111445606e+01  -5.1781266693e-01    0.1574267   0.09385718  33.80 0.0002707354    1.515    0.340
        15  -7.8368    141.8253    250.6817   8.0752070935e+01   3.0648144419e+00    0.1686444   0.09183614  36.53 0.0002365097    1.588    0.370
        16  -9.8706    225.2786    247.4219   6.4464948050e+01  -6.5179227493e+00    0.2082328   0.09070109  24.38  0.001154741    2.146    0.534
        17  -9.6131    194.4203    173.5357   5.7559224567e+01   9.0553721566e+00    0.3659605    0.2569425 -42.27  0.002011078    1.352    0.260
        18  -9.3857    176.8389    169.2925   6.0199445308e+01   1.2738644463e+01    0.2141915    0.1796968  58.94  0.001186354    1.473    0.321
        19  -8.7726     87.9991    168.2814   8.1744658469e+01   2.8235970569e+01    0.2308367    0.2052277 -63.00 0.0005450652    1.137    0.121
        20  -8.9061    143.9894    168.4275   6.7265071736e+01   1.8638216297e+01    0.2267396    0.1401705  37.92 0.0007034186    1.610    0.379
        21  -9.2069    184.1630    245.7341   7.1630793716e+01  -1.5734963349e+00    0.2895196    0.1657521  56.12  0.001147219    5.046    0.802
        22  -8.6828    223.3583    163.7557   5.0603193767e+01   6.3158497468e+00    0.2276091     0.193022 -13.73 0.0008722352    1.110    0.099
        23  -9.9854    195.9673    159.5602   5.4535972460e+01   1.1366134794e+01    0.3397513    0.3192731 -70.48  0.001100022    1.282    0.220
        24 -11.6442    189.1885    153.7057   5.4625208409e+01   1.3616078759e+01    0.7625021    0.6121623  66.44  0.003717443    1.642    0.391
        25  -8.5123    222.1532    189.1952   5.5495213623e+01   2.3159183143e+00    0.2034212    0.1592142  24.23 0.0004708137    1.349    0.258
        26  -7.6154     52.6964    153.7081   8.9805690736e+01   3.7039289892e+01    0.1440151    0.1092539 -33.62 0.0003127972    1.573    0.364
        27 -10.9946    188.8274    147.1019   5.3325853849e+01   1.4935611000e+01    0.5208425    0.3751946  68.32  0.001776272    2.000    0.500
        28  -9.1000     61.2146    148.6872   8.6392468848e+01   3.7225004127e+01    0.3771461    0.2470909 -12.18  0.001566368    2.388    0.581
        29 -10.9405     69.4930    145.5060   8.3275062133e+01   3.6871449824e+01    0.4634483    0.4410402  28.28  0.002290674    1.115    0.103
        30 -11.5074     66.4960    143.4939   8.3854211329e+01   3.7833749685e+01    0.8931569     0.404088 -63.33  0.003415487    2.178    0.541
        31  -8.8867    180.6119    148.3191   5.5172192004e+01   1.6179122506e+01    0.2403802    0.1792108  56.04 0.0008087265    1.591    0.372
        32  -9.8213    144.5360    145.8266   6.2488588025e+01   2.3485477416e+01    0.3634983    0.2179038 -58.67  0.001527761    1.905    0.475
        33 -11.1781    190.1497    142.0088   5.2004567252e+01   1.5666669250e+01     0.683111    0.4496013 -87.17  0.002680799    3.404    0.706
        34  -8.1343     96.7994    144.1708   7.4784124849e+01   3.2786172115e+01    0.2038114    0.1783384 -19.37 0.0002672288    1.309    0.236
        35  -9.4678     41.7836    129.0155   8.9493423977e+01   4.4874469580e+01    0.2235639    0.2099818  36.63 0.0003525934    1.133    0.118
        36 -12.4800     22.7269    123.5200   9.5303718065e+01   4.8262293164e+01    0.8943728    0.8259987 -72.55  0.004154425    1.030    0.029
        37 -11.7018     48.7356    120.8598   8.5612190294e+01   4.6174767294e+01    0.7780564    0.6096023   6.43  0.002678863    1.501    0.334
        38 -12.6704     63.7973    121.4723   8.0487240089e+01   4.3946920983e+01     1.722611    0.8311914  30.85  0.006798348    2.165    0.538
        39 -11.2134     62.2354    114.3486   7.9493190522e+01   4.6001040402e+01    0.5481965    0.3746056  25.00 0.0004383608    1.596    0.374
        40  -8.9927    210.5690    189.2484   5.7512237844e+01   3.9022613459e+00    0.3864989    0.1669225 -32.55  0.001452707    2.321    0.569
        41 -11.0291    155.6816    109.1519   5.1367787415e+01   2.9005962997e+01    0.5594885     0.413186  36.92  0.001917442    1.531    0.347
        42 -10.1784    157.6282    101.1703   4.8950988831e+01   3.0168662825e+01    0.7204909    0.3101472 -49.56  0.002469474    2.382    0.580
        43  -8.9992    145.6827    110.9359   5.4043104303e+01   3.0785860619e+01    0.2136919     0.194373 -55.31 0.0006059868    1.065    0.061
        44 -10.1544    152.0168    104.0143   5.0870023110e+01   3.0830694352e+01    0.3407232    0.2561646 -50.06 0.0007256593    1.288    0.224
        45  -9.5050    213.4875    186.0030   5.6411170690e+01   4.0300838513e+00    0.2579628    0.1716715 -23.34 0.0007017555    1.417    0.294
        46 -10.8595    218.5246    184.4999   5.5267306302e+01   3.5720938985e+00    0.7058801    0.5425279  76.86  0.002416981    2.686    0.628
        47  -9.5504      5.6143     97.2203   9.7980032662e+01   5.6318104381e+01    0.1996986    0.1010816 -60.99 0.0009512919    1.636    0.389
        48  -9.1997    176.8072     92.4043   4.3073425896e+01   2.7638250534e+01    0.3754336     0.218045 -49.18  0.001723553    1.633    0.387
        49  -8.4669    201.0522    182.6568   5.8034541193e+01   6.4075963841e+00    0.1997006    0.1764344 -63.17 0.0006549785    1.496    0.332
        50  -8.4734    133.0911     74.6928   4.7122064036e+01   4.0741455982e+01    0.4262499    0.1997011  42.34  0.001140884    2.478    0.597
        51 -10.1597    179.3140     70.5806   3.7218787704e+01   3.0818048936e+01    0.5076463    0.3470552 -34.97  0.001760432    1.508    0.337
        52  -9.5574    172.4319     62.7735   3.6293366079e+01   3.3610735587e+01    0.4884293    0.1406317 -39.23  0.001690958    3.142    0.682
        53 -10.1183      6.8625    179.2767   1.0565393019e+02   3.5190163091e+01    0.2679929    0.1270522  81.15  0.001005699    2.077    0.519
        54  -8.9495    102.9584     63.0317   5.1223455590e+01   4.9726477700e+01    0.2121045    0.2027712  67.31  0.001202374    1.036    0.035
        55 -10.1997    151.9046     60.8277   3.9242448870e+01   3.8688388729e+01    0.3658943    0.2510615 -82.13  0.001435019    1.741    0.426
        56  -9.5294    144.6522    178.5574   6.9030831328e+01   1.6349859956e+01    0.2528711    0.2320135 -14.21 0.0003184839    1.086    0.079
        57 -10.2554    108.3512    241.9949   8.6850770908e+01   9.0630803565e+00    0.2242431    0.2170228 -36.44 0.0005074278    1.204    0.169
        58  -8.8602     59.4968    231.1913   9.6759005019e+01   1.7588418824e+01    0.2143688    0.1555795  34.75 0.0003650997    1.247    0.198
        59  -7.6460    238.3303    230.6901   5.9749344555e+01  -5.7066755295e+00   0.09143735   0.08758549 -11.54 0.0007041583    1.667    0.400
        60 -10.6253    168.0170     43.5104   3.1867138067e+01   3.7457150323e+01    0.3480998    0.2612474  50.10  0.001935789    1.512    0.339
        61  -9.8890    165.3919     40.7612   3.1497586393e+01   3.8443848204e+01    0.2305705    0.2221276  -9.26  0.001185457    1.303    0.233
        62 -10.2766    150.7095     38.9288   3.3180627329e+01   4.2171877934e+01    0.3738504    0.2257921  64.60 0.0006650962    1.544    0.352
        63  -9.1645    248.8043     24.8024   1.9952121515e+01   2.2967934600e+01    0.2262516    0.1251469 -46.84 0.0008735158    1.381    0.276
        64  -8.9369    132.8221    230.1021   7.9971254529e+01   7.8765685021e+00    0.2085169    0.1625477  29.31 0.0002986653    1.123    0.109
        65  -8.0774    118.4422    225.4657   8.2557640249e+01   1.0808482681e+01    0.1318936    0.1163536  33.90 0.0001070423    1.032    0.031
        66  -8.0781    187.4591     16.4975   2.2754506036e+01   3.6327088029e+01    0.1711345    0.1218864 -16.88 0.0005941637    1.940    0.485
        67  -8.4946     60.0252    207.4971   9.4391862070e+01   2.2736906317e+01    0.1957671    0.1237067  32.33 0.0004093721    1.492    0.330
        68  -9.7918    192.1946    193.8683   6.1741840308e+01   5.7628927279e+00    0.8154122    0.4166837 -62.43  0.002545634    6.032    0.834
