#   1 NUMBER                 Running object number                                     
#   2 MAG_AUTO               Kron-like elliptical aperture magnitude                    [mag]
#   3 X_IMAGE                Object position along x                                    [pixel]
#   4 Y_IMAGE                Object position along y                                    [pixel]
#   5 X_WORLD                Barycenter position along world x axis                     [deg]
#   6 Y_WORLD                Barycenter position along world y axis                     [deg]
#   7 A_WORLD                Profile RMS along major axis (world units)                 [deg]
#   8 B_WORLD                Profile RMS along minor axis (world units)                 [deg]
#   9 THETA_WORLD            Position angle (CCW/world-x)                               [deg]
#  10 FWHM_WORLD             FWHM assuming a gaussian core                              [deg]
#  11 ELONGATION             A_IMAGE/B_IMAGE                                           
#  12 ELLIPTICITY            1 - B_IMAGE/A_IMAGE                                       
         1 -13.0651    179.8455     43.9571   5.6494864242e+01   3.4202960457e+01     1.257092    0.9287467  12.49  0.004121542    1.561    0.360
         2 -12.8858    201.9037     13.7227   4.3550605380e+01   3.1846999277e+01       1.0348    0.9017074 -24.46  0.005199433    1.088    0.081
         3  -9.0568     83.3848    239.7547   1.1212467416e+02   2.0224154695e+01   0.09958848    0.0869319 -83.47 0.0004350893    1.508    0.337
         4 -19.4371     40.0377    151.6082   1.1398717532e+02   3.9746592706e+01     16.18784     3.259761 -75.14   0.05696288    5.205    0.808
         5  -9.7166     87.4992    202.7034   1.0869838009e+02   2.4962399023e+01    0.1983327    0.1494914  38.29 0.0009912836    1.352    0.260
         6 -11.2531    141.2049    197.3043   9.8400437806e+01   1.8117392184e+01    0.2456089    0.1738752  84.25  0.001550043    2.110    0.526
         7 -11.6138     96.8252    192.5446   1.0603866735e+02   2.5302921060e+01    0.3531635    0.2720615 -36.13  0.001402522    2.039    0.509
         8 -10.4806     13.6430    233.3832   1.2284330965e+02   2.8448521050e+01    0.1000676   0.07838289  78.63 0.0006293961    1.376    0.273
         9 -10.9716     71.2911    191.0498   1.1074292266e+02   2.8892653701e+01     0.278127     0.237523 -38.89  0.001295343    1.849    0.459
        10  -9.2640    191.5016    192.0088   8.8972473025e+01   1.0879909895e+01    0.1335131    0.1006686 -68.92 0.0008103101    2.527    0.604
        11  -9.8368     81.7460    195.4307   1.0913700415e+02   2.6852226233e+01    0.2054817    0.2001865 -28.56  0.001698803    1.533    0.348
        12 -10.3482    149.5455    187.2773   9.5603686091e+01   1.8204304059e+01    0.1802682    0.1163795 -55.05 0.0008324954    2.007    0.502
        13 -12.0275     89.9488    165.2090   1.0447222647e+02   3.0904884915e+01     0.543514    0.3882387 -31.51  0.002045937    2.402    0.584
        14 -10.0377     74.8120    181.8408   1.0927321167e+02   3.0008350951e+01    0.2051974    0.1848327  67.18 0.0008175019    1.229    0.186
        15 -12.3206     81.6512    176.2268   1.0737455320e+02   3.0088364808e+01    0.7770825    0.5612578 -59.58  0.005313124    1.649    0.394
        16 -11.3046     99.3166    181.0756   1.0436583571e+02   2.6815800316e+01    0.2221166    0.2112592 -55.62   0.00108137    1.383    0.277
        17  -9.2239    167.1582    224.8489   9.7258477994e+01   1.0900874835e+01    0.1469249    0.1137144  44.59 0.0004634138    1.163    0.140
        18  -9.8570    149.9780    177.9400   9.4215781760e+01   1.9461944614e+01    0.1811011    0.1527687  46.52 0.0004858809    1.051    0.049
        19 -10.1632    187.1817    175.8428   8.7191278477e+01   1.3512357247e+01    0.2546949    0.2143919  35.83 0.0008485466    1.090    0.083
        20 -10.6884     90.3165    213.4438   1.0908556668e+02   2.2989760876e+01    0.2809899    0.1525512  56.95  0.001320365    1.534    0.348
        21 -12.5224     75.8864    245.5475   1.1365473653e+02   2.0353119509e+01    0.1900862    0.1456963 -83.48 0.0006552355    1.594    0.373
        22 -10.0514      9.7524    210.9695   1.2285382938e+02   3.2148962636e+01    0.1454933   0.05854661  66.88 0.0009781584    1.857    0.461
        23 -11.2158     69.8960    208.9924   1.1234773276e+02   2.6193717735e+01    0.1946159     0.162466  79.48 0.0003163675    1.260    0.206
        24 -11.3259    103.9990    173.1264   1.0252006459e+02   2.7471964958e+01    0.3252246     0.219338  20.12  0.001827617    2.249    0.555
        25 -10.4332    111.3543    168.4400   1.0044177708e+02   2.7159265833e+01    0.3154117    0.1163984  48.96   0.00141103    2.418    0.586
        26 -10.8347     73.4253    208.5192   1.1168762058e+02   2.5839973416e+01    0.2951612    0.2505024 -64.32  0.002247341    1.597    0.374
        27 -10.4151     97.3508    155.2302   1.0164084183e+02   3.1649818101e+01    0.2252827    0.1862871  56.47 0.0003784101    1.053    0.050
        28 -11.3671    101.6120    149.5733   9.9921271660e+01   3.2052869890e+01    0.4593685    0.3457818 -28.76  0.001559734    2.040    0.510
        29  -9.9751     75.2624    250.6618   1.1403701671e+02   1.9777400247e+01    0.1281626   0.06471342  44.06 0.0002317419    1.359    0.264
        30  99.0000     11.1208    206.1917   1.2248198553e+02   3.2782895810e+01    0.2809878    0.1708173  20.02   0.00196336    2.684    0.627
        31 -10.8505    111.1749    136.3900   9.5703918431e+01   3.3007458515e+01    0.3908395    0.2407752 -28.84  0.001746688    2.941    0.660
        32 -10.4567    105.8930    130.9091   9.5988188107e+01   3.4961141561e+01    0.3163139    0.2695944  77.17  0.001156445    1.133    0.117
        33 -10.5326    100.5272    135.2831   9.7982433130e+01   3.4977428965e+01    0.2272568    0.2120433  47.99  0.000246447    1.171    0.146
        34  -9.2912    105.2410    123.5530   9.4826477376e+01   3.6538991205e+01    0.2172435    0.1775056 -59.25 0.0004888425    1.260    0.206
        35  -8.2201    112.2780    117.6381   9.1976789176e+01   3.6500638363e+01    0.1392798    0.1020738  86.04 0.0007010495    1.668    0.401
        36  -8.8457    231.0627    113.5278   6.7550471691e+01   1.3134474136e+01    0.1920303    0.1238996  47.07 0.0008987252    1.558    0.358
        37  -8.7960    168.1760    113.0077   7.8464424754e+01   2.6261823081e+01    0.2272925    0.1625403 -66.43  0.001075126    2.007    0.502
        38  -9.6909     25.4661    206.2921   1.2001634202e+02   3.1436401611e+01    0.1290604   0.09269849  33.88 0.0008811243    1.645    0.392
        39 -12.1250    165.4531     58.8561   6.3954011424e+01   3.5751085113e+01    0.6308312    0.4693048 -29.11   0.00233435    1.312    0.238
        40 -11.7039    249.3296    246.3625   8.7734509948e+01  -2.0259862838e+00    0.3105066    0.1788302 -31.29  0.002432946    2.523    0.604
        41 -11.4331    184.9254     37.6402   5.3603089157e+01   3.3689653842e+01    0.4978869    0.3748942  13.36  0.001198125    1.494    0.330
