#   1 NUMBER                 Running object number                                     
#   2 MAG_AUTO               Kron-like elliptical aperture magnitude                    [mag]
#   3 X_IMAGE                Object position along x                                    [pixel]
#   4 Y_IMAGE                Object position along y                                    [pixel]
#   5 X_WORLD                Barycenter position along world x axis                     [deg]
#   6 Y_WORLD                Barycenter position along world y axis                     [deg]
#   7 A_WORLD                Profile RMS along major axis (world units)                 [deg]
#   8 B_WORLD                Profile RMS along minor axis (world units)                 [deg]
#   9 THETA_WORLD            Position angle (CCW/world-x)                               [deg]
#  10 FWHM_WORLD             FWHM assuming a gaussian core                              [deg]
#  11 ELONGATION             A_IMAGE/B_IMAGE                                           
#  12 ELLIPTICITY            1 - B_IMAGE/A_IMAGE                                       
         1 -13.1345    106.9616      7.3018   1.9106555790e+01   5.7239318729e+01    0.3537116    0.2834374 -40.28  0.001965387    1.325    0.245
         2 -10.5345    141.3216      8.3409   1.3782865129e+01   4.8298818714e+01    0.1506182   0.09863672  36.46 0.0007050401    1.721    0.419
         3 -13.1323     99.2057      3.3839   1.8892344835e+01   5.9507162256e+01    0.5796776    0.2834347  45.58  0.002584617    1.936    0.483
         4 -11.9886     92.3812      3.1891   2.0299406481e+01   6.1175202201e+01    0.3296635    0.2010632  42.64  0.001313406    1.555    0.357
         5 -12.6877    118.5900      3.5368   1.5328700088e+01   5.4632266558e+01    0.3520889    0.2400828  28.67  0.001775761    1.614    0.380
         6 -10.9126    249.5224      3.5381   3.2065643659e+00   2.2437884270e+01    0.3669576   0.04672223 -47.70  0.001194434    4.409    0.773
         7 -12.1857     71.3136      3.2613   2.5944207823e+01   6.5991153974e+01    0.5283038    0.1392193  42.65  0.001729839    3.941    0.746
         8 -11.9529     80.6086      2.3670   2.2790439617e+01   6.4002003559e+01    0.3423922    0.2162149 -58.32  0.001636384    2.248    0.555
         9 -12.2020    110.1499      3.1116   1.6617458889e+01   5.6812274204e+01    0.2616583    0.1729766  53.95 0.0007765705    1.392    0.282
        10 -10.3958      9.8619      2.1486   5.5645610330e+01   7.6477775315e+01    0.1698762    0.1160204 -15.57  0.001078911    1.355    0.262
        11 -10.7078    130.6714      1.6684   1.2716315647e+01   5.1667278092e+01    0.1499213   0.09396236  38.46 0.0007051663    1.715    0.417
        12 -10.6078    222.1181    237.6710   5.6581972849e+01  -3.3310667049e+00    0.1633933     0.139161 -19.20  0.001190827    1.454    0.312
        13 -10.7931    240.4972    250.4939   5.5548790023e+01  -6.8797788202e+00      0.16777   0.08075047  41.15 0.0009569916    2.270    0.559
        14 -11.2887    249.0653    249.9867   5.4188874786e+01  -7.8283298850e+00    0.3682956    0.1029056  31.89  0.001840655    3.022    0.669
        15 -11.0294    234.4297    250.5224   5.6480275031e+01  -6.1615766334e+00    0.2029067     0.079501  34.96  0.001060384    2.076    0.518
        16 -12.3026    197.1333    233.0794   6.0061515739e+01   5.5531953027e-01    0.4259361    0.3759097 -87.11  0.003031723    2.064    0.516
        17 -11.6255    205.1469    239.5812   5.9631866839e+01  -1.3006505358e+00     0.385231    0.2507198  57.42  0.002066575    2.962    0.662
        18 -10.8388    216.8451    239.0357   5.7631339748e+01  -2.7913266038e+00    0.2124935    0.1872804  43.55  0.001267474    1.671    0.401
        19 -11.9504    226.9047    248.2604   5.7333349828e+01  -5.0258085858e+00    0.3855425    0.2652394  19.20  0.002947441    1.073    0.068
        20 -11.9033    221.3172    244.6748   5.7714099021e+01  -3.9633780021e+00    0.3830897    0.2860855 -45.23  0.002766094    2.194    0.544
        21 -11.9969    214.4317    250.2991   5.9594919046e+01  -3.6700410636e+00    0.5566205    0.1400436  38.39  0.002521171    3.254    0.693
        22 -11.9132    213.8009    243.5591   5.8767425464e+01  -2.8811238907e+00    0.3815044    0.3084806  59.75  0.002275028    2.267    0.559
        23 -11.3348    203.7399    250.4592   6.1351036074e+01  -2.3133417047e+00     0.353138   0.08284354  38.49  0.001513271    3.420    0.708
        24 -12.6111    198.3406    243.8433   6.1356658444e+01  -8.6894838440e-01    0.6383261    0.4460224  59.59  0.003851927    2.626    0.619
        25 -11.5884    186.2783    250.2106   6.4224279436e+01   2.4550909082e-02    0.3965503    0.1301814  41.16   0.00194016    2.566    0.610
        26 -12.4484    181.6508    243.1643   6.4103576779e+01   1.4894118405e+00    0.4515152    0.3239549  56.12  0.002352564    1.942    0.485
        27 -11.8649    170.6621    249.4891   6.6803579028e+01   2.2341945273e+00    0.4365394    0.1909179  42.67  0.002427516    1.946    0.486
        28 -10.7657    166.2060    244.7979   6.7003197983e+01   3.4390070886e+00    0.2092331    0.1371473  51.78   0.00134099    1.733    0.423
        29 -10.6223    153.5057    249.9727   6.9857502898e+01   4.5442463290e+00    0.2222278    0.1221765  46.44  0.001356907    1.644    0.392
        30 -10.9719    250.2215    237.4118   5.2177501814e+01  -6.7941727519e+00    0.1346093   0.08332971  35.89 0.0009458913    1.673    0.402
        31 -11.0224    233.7540    234.1378   5.4211385101e+01  -4.4498714490e+00    0.2601844    0.1834927 -51.02  0.001634696    2.941    0.660
        32 -10.0296    238.9354    233.4777   5.3304453200e+01  -5.0330631024e+00    0.1269757   0.08693102  49.60 0.0008071873    2.431    0.589
        33 -11.8402    173.3202    232.4692   6.4143150896e+01   4.0273334527e+00    0.2038519    0.1723597  71.38  0.001142926    1.755    0.430
        34  -9.9656    155.5100    232.5289   6.7380660369e+01   6.6200842418e+00    0.1171935   0.09412269  35.97 0.0008094595    1.046    0.044
        35 -10.2801    148.9973    231.1584   6.8409779565e+01   7.7744090940e+00    0.1984002    0.1162316  55.93  0.001087402    2.074    0.518
        36 -11.0053    204.6569    229.3237   5.8236471821e+01  -4.3777525985e-02    0.2150787    0.2043598  13.83  0.001253969    1.419    0.295
        37 -10.6316    202.8651    225.0910   5.7910691598e+01   7.1897259385e-01    0.1892381    0.1772952  42.76  0.001433078    1.496    0.331
        38 -10.5681    152.0051    238.0020   6.8706695739e+01   6.3640215895e+00    0.1795519    0.1242285  57.44 0.0008987061    1.716    0.417
        39 -11.5643    177.4960    226.9829   6.2635841526e+01   4.1478300478e+00    0.2307767      0.14207  46.66   0.00137616    1.660    0.398
        40 -10.3316    187.2109    226.1887   6.0792457387e+01   2.8307739526e+00    0.1508212    0.1281139  43.85  0.001070839    1.369    0.269
        41 -11.0048    167.1388    225.6805   6.4333534328e+01   5.8613913490e+00      0.19113    0.1297355  47.03 0.0009659238    1.465    0.317
        42 -10.1742    146.6248    226.3088   6.8236710289e+01   8.8425579307e+00    0.1214146    0.0819761  59.13 0.0007030364    1.778    0.438
        43 -10.1180    226.4513    224.9128   5.3965622775e+01  -2.5091249350e+00    0.1280341   0.09590304 -52.68 0.0008069379    2.511    0.602
        44 -11.7806    172.7269    239.7974   6.5220732603e+01   3.1590998146e+00    0.3960754    0.2311872  56.92  0.002133509    2.670    0.626
        45 -11.7588    211.1576    234.1159   5.7851702237e+01  -1.4912547525e+00    0.3464876    0.2637602 -54.55  0.002316806    2.367    0.577
        46 -10.8802    209.5337    222.3535   5.6361715779e+01   1.0923888151e-01    0.2034522    0.1889245  13.30  0.001559157    1.358    0.264
        47 -10.2966    158.4874    223.5063   6.5636730370e+01   7.4717542583e+00     0.119737   0.09869443  34.52 0.0008101992    1.040    0.039
        48 -10.5609    220.6926    221.3271   5.4343864669e+01  -1.3218560165e+00    0.1871938    0.1707926  51.87  0.001387675    1.735    0.424
        49 -10.3052    152.4942    221.4821   6.6489813532e+01   8.6809945729e+00    0.1904055    0.1183697 -63.42  0.001039265    2.449    0.592
        50  -9.9756    233.6124    219.8095   5.2017036902e+01  -2.8942437065e+00    0.1405479   0.09598727 -34.30 0.0009452581    1.735    0.424
        51 -10.4976    189.1491    219.8404   5.9511003005e+01   3.3778585321e+00    0.1735222    0.1502792  36.15   0.00116562    1.258    0.205
        52 -11.2750    197.7804    216.3754   5.7457524763e+01   2.5554030698e+00    0.2249752    0.1966173  62.33  0.001545039    1.712    0.416
        53 -10.5826    214.2950    215.9003   5.4548835511e+01   2.1865661975e-01    0.1625459    0.1420467 -32.33  0.001071951    1.493    0.330
        54 -10.1599    182.6569    215.3028   5.9990568273e+01   4.9688514654e+00    0.1124688   0.09030101  58.93 0.0007039455    1.681    0.405
        55 -11.0017    174.4301    214.2852   6.1345767157e+01   6.3735231251e+00     0.202784    0.1361328  51.72  0.001077768    1.714    0.416
        56 -10.4077    222.5143    209.5067   5.2140596437e+01  -1.7186770137e-01    0.1882669    0.1026756 -42.62  0.001037638    2.375    0.579
        57 -10.4519    180.9819    209.0076   5.9324473982e+01   6.1167600632e+00    0.1815705    0.1474772  64.00  0.001131919    1.736    0.424
        58 -10.5683    196.0434    208.0211   5.6438344501e+01   3.9289194475e+00    0.1757617    0.1480129  62.26  0.001134735    1.746    0.427
        59 -10.2325    157.3244    212.6425   6.4330715432e+01   9.2823586111e+00    0.1208991   0.09173852  66.62 0.0007044752    1.773    0.436
        60 -12.0621     59.5400    205.0396   8.3424738766e+01   2.5084180461e+01     0.354934    0.1292865  65.79  0.001224756    4.640    0.784
        61 -10.1118    208.4829    215.4875   5.5467332529e+01   1.1037808099e+00     0.118023   0.09345911  13.93 0.0008102514    1.017    0.017
        62 -11.9844     73.3241    203.6646   8.0387789082e+01   2.3549345194e+01    0.2570751    0.1292066  67.83  0.001218253    2.368    0.578
        63 -10.6049    101.8235    202.0167   7.4150735317e+01   1.9781971809e+01    0.2098156    0.1322943  76.05  0.001080476    2.035    0.509
        64 -10.3737    189.6851    201.3269   5.6487480970e+01   5.8544514750e+00     0.112386   0.09804957  69.50 0.0005573689    1.671    0.402
        65 -11.1637     83.8141    200.0110   7.7765956271e+01   2.2813050753e+01    0.2118176    0.1253126  73.98  0.001082852    1.998    0.499
        66  -9.8887    106.5268    198.5179   7.2711753597e+01   1.9730040081e+01    0.1289864    0.1098411  55.19 0.0004923549    1.025    0.024
        67 -11.3301     92.4844    196.6839   7.5510461071e+01   2.2210387722e+01    0.2590012    0.1938603  71.55  0.001552621    1.329    0.248
        68 -10.8883     57.3134    196.3300   8.3131736979e+01   2.7125868765e+01    0.1098855   0.09524935 -35.61 0.0007044237    1.675    0.403
        69 -10.1584    116.3255    194.6629   7.0098859685e+01   1.8924363608e+01    0.1354823   0.09207679  67.48 0.0007051441    1.722    0.419
        70 -11.7757     81.0999    190.7077   7.7311808318e+01   2.5076059497e+01    0.3217466    0.1850914  83.38  0.001555081    2.225    0.551
        71 -13.9626     68.2247    191.3112   8.0245907781e+01   2.6741298967e+01    0.7263113    0.3254991  65.18  0.003054327    2.868    0.651
        72 -10.0955     99.4950    191.0164   7.3268519982e+01   2.2276621471e+01    0.1793991    0.1061861  85.14 0.0008097551    2.506    0.601
        73 -11.4919     83.1598    185.2824   7.6202595397e+01   2.5904641383e+01    0.3315387    0.1754022  79.75  0.001386789    2.897    0.655
        74 -10.2291     92.4020    189.2453   7.4614362102e+01   2.3713700350e+01    0.1761898     0.118145 -83.08 0.0009454305    1.697    0.411
        75 -12.1265     39.8518    186.4381   8.6130847387e+01   3.1311358698e+01    0.2815432    0.1195145  86.57  0.001230395    2.775    0.640
        76 -12.7915     69.9031    183.4578   7.9018657202e+01   2.8171954026e+01    0.3512367    0.2085089  75.18  0.001787887    1.862    0.463
        77 -10.8979    100.8317    182.3522   7.1799373175e+01   2.3823988039e+01    0.2904084    0.1952284  79.63  0.001484465    1.823    0.451
        78 -13.2218     49.3822    183.4448   8.3719134661e+01   3.0833888849e+01    0.3387398    0.1865125  79.23   0.00174643    1.883    0.469
        79 -13.0802     58.5173    181.2754   8.1408049678e+01   3.0160438790e+01    0.4120421    0.2073996  76.42    0.0018634    2.440    0.590
        80 -10.4342     86.0343    180.0559   7.4883194718e+01   2.6583390070e+01    0.2238773    0.1411441  67.88  0.001133485    1.725    0.420
        81 -10.2665    115.9994    181.2056   6.8212946666e+01   2.1597041848e+01    0.1943708    0.1453023  84.90  0.001042082    1.620    0.383
        82 -11.2106     71.4189    178.1912   7.8059324140e+01   2.9100303453e+01    0.1836182    0.1146479 -86.87 0.0009471655    1.715    0.417
        83 -11.5138     62.0107    177.1934   8.0156849362e+01   3.0598082088e+01    0.2270597    0.1146149  58.05  0.001033954    1.961    0.490
        84 -12.8748     47.1443    172.5633   8.3200025149e+01   3.3508139691e+01    0.4175404    0.1791225 -88.69  0.001719882    2.881    0.653
        85 -12.1500     40.6992    176.6910   8.5110413212e+01   3.3342483620e+01    0.2690094    0.1229592  79.35  0.001187586    2.552    0.608
        86 -11.5928     75.9907    178.4963   7.7024892532e+01   2.8388267546e+01    0.2772357    0.1327965  72.21  0.001034612    3.410    0.707
        87 -12.1251     65.5102    171.6527   7.8686991146e+01   3.1359643082e+01     0.323471     0.194453  85.04  0.001617846    1.833    0.454
        88 -10.8359     92.0658    172.0444   7.2370557222e+01   2.7381935875e+01    0.2294986    0.1490038  69.66  0.001134228    1.745    0.427
        89 -12.8672     58.0122    170.0847   8.0318944356e+01   3.2709040257e+01    0.4546514    0.2328913  75.85  0.002012095    2.414    0.586
        90 -10.8716     71.9681    168.9728   7.6789495686e+01   3.1063715649e+01    0.3563995    0.1764303  75.36  0.001360935    3.183    0.686
        91 -11.2399     79.6815    172.7642   7.5422274908e+01   2.9105256953e+01    0.3462045    0.1843401  73.53  0.001444539    2.660    0.624
        92 -11.0156     87.6992    168.1172   7.2850294732e+01   2.8920972521e+01    0.2194268    0.1590448  86.66 0.0009304814    1.482    0.325
        93 -11.1327     61.4735    165.9593   7.8988884002e+01   3.3191461940e+01    0.2672086    0.1512767  88.05  0.001265979    1.995    0.499
        94 -10.6914     77.1454    165.8889   7.5111982122e+01   3.1010687973e+01    0.2243593    0.1647927  72.65  0.001230824    1.341    0.255
        95 -10.6451     67.0505    165.0107   7.7489968102e+01   3.2650529967e+01    0.2275835    0.1405382  70.76  0.001131497    1.725    0.420
        96  -9.8929    110.3212    171.6497   6.8018349938e+01   2.4501616092e+01    0.1450681    0.1003536  72.71  0.000704838    1.745    0.427
        97 -11.4642     35.6500    161.6085   8.4938077326e+01   3.7335041858e+01    0.2211762    0.1596234  40.04  0.001328386    1.427    0.299
        98 -10.3853     87.6545    161.3276   7.1851217392e+01   3.0444402531e+01    0.1494485   0.09699863  69.68 0.0007050361    1.749    0.428
        99 -11.0326     58.1919    159.6657   7.9040517761e+01   3.5077872259e+01    0.3225824    0.1652358 -89.85  0.001394613    2.375    0.579
       100 -11.5628     64.8789    157.7190   7.7083179041e+01   3.4634066289e+01    0.4770196     0.253422  80.33    0.0020024    2.537    0.606
       101 -10.1295     80.6998    159.3520   7.3292795741e+01   3.1966357043e+01    0.1466392   0.09645166  72.97 0.0003349118    1.696    0.410
       102  -9.9543     71.6923    159.3305   7.5566988297e+01   3.3301422276e+01    0.1447709   0.09317325  70.56 0.0003637096    1.663    0.399
       103  -9.9843     96.6948    159.3624   6.9299789356e+01   2.9432793694e+01    0.1487449    0.1015626  75.15 0.0004381513    1.735    0.424
       104 -11.3293     51.6564    153.0003   7.9900053750e+01   3.7483676898e+01    0.3562152    0.1895843  78.16   0.00158361    2.242    0.554
       105 -10.4017     88.3651    152.6692   7.0296289723e+01   3.2306631493e+01    0.2276349    0.1551024  73.93  0.001100809    1.682    0.405
       106 -10.2835     82.2026    150.0472   7.1460565825e+01   3.3889531518e+01    0.2397982    0.1516447  82.71  0.001084078    1.984    0.496
       107 -10.5320     47.1899    144.8309   8.0063911766e+01   3.9991899247e+01     0.290922    0.1388772  85.07  0.001144795    2.793    0.642
       108 -10.9081     45.2156    132.7319   7.8990304605e+01   4.3188677731e+01    0.3473646     0.151635 -75.89  0.001431059    2.296    0.564
       109 -10.6277     53.7649    122.3654   7.4840475712e+01   4.4706369453e+01    0.2764065    0.1589598 -78.54  0.001262971    1.782    0.439
       110 -10.1302     62.3954    118.7717   7.1560142759e+01   4.4433842515e+01    0.2115391    0.1185029 -54.42 0.0009562757    1.679    0.404
       111 -10.0938     32.5354    117.5032   8.0629845094e+01   4.8383259295e+01    0.1358158    0.1136357 -85.07 0.0002799464    1.016    0.016
       112 -11.2923    249.5075     80.5076   2.1347323923e+01   1.3090539300e+01    0.1338564    0.1102686 -35.47 9.760335e-06    1.015    0.014
       113 -12.0402    250.3127     56.9142   1.5680924649e+01   1.6090140044e+01    0.4065456    0.1171624 -26.05   0.00135471    3.716    0.731
       114  -9.7853     31.6621     25.6970   5.5650191451e+01   6.9855254902e+01    0.1327329   0.08856951 -15.85  0.000703828    1.669    0.401
       115 -11.3839    250.0000     17.9888   6.5143896078e+00   2.0824392367e+01    0.2072731   0.06078729 -27.75 0.0006396224    2.941    0.660
       116 -11.4901    116.0228     16.4969   2.1293766674e+01   5.4031319539e+01    0.2248814    0.1353692  63.78  0.001038252    1.606    0.377
       117 -10.4647    102.3078     13.3504   2.2860582690e+01   5.7785937268e+01    0.1508505   0.09846136  27.94 0.0007043379    1.710    0.415
       118 -11.1189    120.4701     11.4682   1.8328490277e+01   5.3421056778e+01    0.1390133    0.1332322  58.25 0.0002297805    1.000    0.000
       119 -12.7945    245.9826    244.5469   5.3868088940e+01  -6.9696229091e+00    0.3908835    0.2179463  14.36  0.001876942    1.528    0.345
       120 -11.1205    189.3332    244.9666   6.3025770971e+01   2.1975282744e-01    0.2561941    0.1820399  39.83  0.001423395    1.350    0.259
       121  -9.9346    153.6464    244.3167   6.9172007136e+01   5.2695764471e+00    0.1122378   0.07619755  56.35 0.0005331096    1.742    0.426
       122 -11.1917    163.7936    235.9485   6.6313747168e+01   4.9423001903e+00    0.2585327    0.1533503 -46.66  0.001589637    2.124    0.529
       123 -11.2381    236.2842    245.5164   5.5486056655e+01  -5.9040034160e+00    0.2938452    0.2156401 -54.13  0.001860982    3.410    0.707
       124 -11.5387    229.3164    240.1501   5.5797320760e+01  -4.5090777847e+00    0.2933823    0.2506636 -64.23  0.002071927    2.676    0.626
       125 -11.5872    222.0253    231.0750   5.5621365852e+01  -2.6039765850e+00    0.4177707    0.3441979  83.54  0.002551613    3.267    0.694
       126 -11.8952    187.7475    237.4819   6.2290351832e+01   1.3331664482e+00    0.3969124     0.307036  89.84  0.002368213    3.005    0.667
       127 -11.7648    182.1495    231.5231   6.2444383306e+01   2.8747565761e+00    0.2413242    0.2226468  62.24  0.001606365    1.516    0.341
       128 -11.0529    159.7399    245.5197   6.8232189652e+01   4.2528659978e+00    0.2423775    0.1813506  67.07  0.001614093    1.963    0.491
