#   1 NUMBER                 Running object number                                     
#   2 MAG_AUTO               Kron-like elliptical aperture magnitude                    [mag]
#   3 X_IMAGE                Object position along x                                    [pixel]
#   4 Y_IMAGE                Object position along y                                    [pixel]
#   5 X_WORLD                Barycenter position along world x axis                     [deg]
#   6 Y_WORLD                Barycenter position along world y axis                     [deg]
#   7 A_WORLD                Profile RMS along major axis (world units)                 [deg]
#   8 B_WORLD                Profile RMS along minor axis (world units)                 [deg]
#   9 THETA_WORLD            Position angle (CCW/world-x)                               [deg]
#  10 FWHM_WORLD             FWHM assuming a gaussian core                              [deg]
#  11 ELONGATION             A_IMAGE/B_IMAGE                                           
#  12 ELLIPTICITY            1 - B_IMAGE/A_IMAGE                                       
         1 -12.5959     49.6052     98.8987   1.0313680693e+02   5.0600758807e+01     4.097875     2.057225 -79.60   0.01487632    3.445    0.710
         2 -13.1516     41.2753    111.8283   1.0839193316e+02   4.8385305753e+01     3.639319     1.848934 -85.04   0.01460647    2.851    0.649
         3 -12.3172    101.9039    100.1504   8.7009031686e+01   4.2405586785e+01      3.35998     2.091915 -22.06   0.01326476    2.367    0.577
         4 -10.2128     84.6273     20.8686   6.4420561155e+01   6.0075818720e+01    0.3977317    0.2127275 -33.14  0.001884478    1.915    0.478
         5 -13.0103     10.6928    108.8393   1.1718245762e+02   5.1657110439e+01     3.137442     1.628575  88.57    0.0155022    2.148    0.534
         6 -10.9018     80.3260     12.4087   6.2009374621e+01   6.1883573437e+01    0.3077283    0.2731653  76.89  0.001252731    1.559    0.358
         7 -10.6612     90.1612      6.8261   5.6685436779e+01   6.0433935669e+01    0.2822022    0.1963904  18.65 0.0009630717    1.402    0.287
         8 -10.8112     67.5317      7.7404   6.3990758555e+01   6.4798533885e+01    0.4101972    0.1360353  50.46  0.001698014    2.932    0.659
         9 -10.0432     44.3789      8.6340   7.3391496621e+01   6.8518826353e+01    0.2874085    0.1292211 -42.60  0.001319859    3.030    0.670
        10 -10.5991     79.7166      3.9869   5.8341939091e+01   6.2832802567e+01    0.2711136    0.2120761  67.86  0.001634968    1.624    0.384
        11  -7.4816    237.6581      5.7241   3.5146703295e+01   2.5553171147e+01    0.1139001   0.08984421  49.22 0.0002277956    1.620    0.383
        12  -9.4950     49.4903      6.9970   7.0396451189e+01   6.7938622205e+01    0.1576719   0.09503867 -45.70 0.0008104828    2.568    0.611
        13 -10.3434    106.1086      2.3885   5.0944950503e+01   5.7334481299e+01    0.4328575    0.1401622  49.59  0.001761349    2.453    0.592
        14  -9.5890     66.9871      2.4407   6.1591124340e+01   6.5421775336e+01    0.2733809    0.1430433 -39.43  0.001363214    2.483    0.597
        15 -10.2785     29.8240      3.0743   7.7154942561e+01   7.1189255323e+01    0.2739993    0.1627598  33.72  0.001700237    1.741    0.426
        16 -10.2610     17.3969      2.7938   8.3437043325e+01   7.2657832361e+01    0.2222638     0.185358  14.43 0.0009149328    1.421    0.296
        17 -12.2926      9.0479    128.0586   1.2002055962e+02   4.7201910459e+01     1.783666    0.5217836 -60.83  0.005367534    2.479    0.597
        18  -7.7972    210.5870    249.8394   9.2414894212e+01  -6.5090701268e+00    0.1347826    0.1102164 -40.28 0.0009353039    1.651    0.394
        19  -8.8672    188.2663    248.9984   9.6322951982e+01  -3.1004658974e+00    0.2531969    0.1649084  20.72  0.001307707    1.464    0.317
        20 -10.0715    164.9211    249.0432   1.0064188067e+02   4.6398638062e-01    0.5586517    0.3098758  37.45   0.00317752    1.465    0.318
        21  -9.5426    139.2482    248.9891   1.0543234672e+02   4.4345943077e+00    0.2687066    0.1778179 -24.35  0.001492353    2.456    0.593
        22  -9.5050    104.6410    249.4295   1.1191999196e+02   9.5578923764e+00    0.2601525    0.1967738 -22.49   0.00158389    2.310    0.567
        23 -10.7260    207.6150    215.2272   8.7339755081e+01  -1.3383270409e+00    0.4618189    0.2274256  33.41  0.002252437    1.861    0.463
        24 -11.1078    218.2074    219.7745   8.6165151843e+01  -3.6744563794e+00    0.5192418     0.293896  25.44  0.002773433    1.674    0.403
        25 -10.8581    230.5261    213.4227   8.2810662691e+01  -4.6838218227e+00     0.495495    0.2585816 -14.73  0.002323427    2.467    0.595
        26  -9.6185    237.3611    209.6068   8.0904830662e+01  -5.1932448432e+00    0.3723287    0.2086557  32.97  0.002039021    1.664    0.399
        27 -10.4318    222.9275    213.8648   8.4261651551e+01  -3.5737698336e+00    0.3602484    0.1931271 -21.60  0.001628572    2.096    0.523
        28  -9.2905    225.8963    209.0837   8.2858403035e+01  -3.3552675158e+00    0.2229168     0.174268 -16.19  0.001395305    1.194    0.162
        29  -8.5600    174.1374    214.7853   9.3769149721e+01   4.3106961559e+00    0.2954265    0.1359071  42.21  0.001319545    1.961    0.490
        30  -8.9033    186.6627    213.6774   9.1102997077e+01   2.3686865684e+00    0.1364225   0.09441682   6.68 0.0006975015    1.715    0.417
        31  -9.3154    219.3792    208.8675   8.4011523499e+01  -2.2907868446e+00    0.4672682    0.1982031 -39.82  0.002122185    2.499    0.600
        32  -8.4906    202.3909    208.2347   8.7096090719e+01   5.8805740873e-01    0.1577629     0.122947 -42.40 0.0003029388    1.490    0.329
        33  -9.1767    185.4959    208.5047   9.0443262513e+01   3.4113764151e+00    0.1332542    0.1170596  20.82 0.0001725909    1.006    0.006
        34 -10.2025    227.7004    197.1329   8.0298949691e+01  -1.8879233591e+00    0.3031603    0.2943349  89.12 0.0009817284    1.537    0.349
        35 -10.4698    231.1596    203.1457   8.0811003438e+01  -3.3260941898e+00    0.4978418    0.3089293   9.50 0.0006647246    1.792    0.442
        36 -10.1223    167.4112    204.9093   9.3478764286e+01   7.1761118175e+00    0.3203902    0.2857104  -0.49 0.0006739142    1.165    0.142
        37  -8.4326    157.7681    203.8016   9.5290995336e+01   9.0745024164e+00    0.1895884    0.1686562  21.21   0.00040153    1.106    0.096
        38  -9.4225    238.8136    204.2370   7.9656445990e+01  -4.6672513265e+00    0.3315053    0.2848462  75.30  0.001542592    2.182    0.542
        39  -7.6501    191.0229    191.2271   8.6188588418e+01   5.3733445210e+00    0.1804596    0.1068028  38.55 0.0004919482    1.596    0.374
        40  -9.7243    206.4841    189.4974   8.2803691639e+01   2.9104831564e+00     0.242634    0.1216556 -27.49  0.001033174    2.306    0.566
        41  -9.0556    220.4942    188.8378   8.0015984931e+01   5.8991312342e-01    0.3101265    0.1822798  30.14   0.00131109    1.685    0.407
        42  -8.0111    237.3188    184.6914   7.6147232646e+01  -1.5736802745e+00    0.1160067    0.1065936 -65.95 0.0004454397    1.638    0.390
        43  -8.6462     17.2052    177.6475   1.2271809140e+02   3.5019291557e+01    0.4488058    0.1700532  84.59  0.001848375    3.157    0.683
        44 -10.4572    186.6770    174.3113   8.3732995376e+01   9.2324885885e+00    0.5241725    0.3394673 -81.49  0.001733988    4.591    0.782
        45 -10.0693    209.3479    172.3731   7.8795098060e+01   5.3083429902e+00    0.3723356    0.2412589 -41.50  0.001847707    1.573    0.364
        46  -8.4628     27.2895    176.0918   1.2040588949e+02   3.4404796031e+01     0.268211    0.1697264  18.96  0.001510431    2.299    0.565
        47 -10.2002    225.0000    171.0221   7.5569210892e+01   2.6962951166e+00    0.3787587    0.1594555 -39.03  0.001568606    2.274    0.560
        48  -9.7701    194.8863    172.1256   8.1602633868e+01   8.0689033674e+00    0.2063652    0.2009239 -66.40 0.0004230972    1.232    0.188
        49  -8.9201     19.0381    170.6608   1.2174533202e+02   3.6428906421e+01    0.1605281    0.1343818  84.79  0.001114446    1.102    0.093
        50 -10.0802      6.9036    167.2119   1.2412801317e+02   3.8254470413e+01     0.315809    0.2267257  66.48   0.00192231    1.262    0.207
        51 -10.7117    201.6722    165.6857   7.8885092303e+01   7.9436671247e+00    0.4380559    0.3758439  69.44  0.002368657    1.538    0.350
        52  -7.7708    164.3247    165.6573   8.6732985402e+01   1.5284515883e+01     0.149903    0.1193156  86.44 0.0007050863    1.734    0.423
        53  -9.8075     25.6648    163.1279   1.1955314137e+02   3.7546107785e+01    0.3286853    0.1458074 -51.84  0.001022531    2.495    0.599
        54 -10.1124     15.7672    159.6924   1.2151893489e+02   3.9239055534e+01     0.250972     0.207057  69.28  0.001150565    1.187    0.157
        55 -10.9033      9.4256    158.6174   1.2287993073e+02   4.0011498756e+01    0.3493199     0.321964  61.94 0.0008275472    1.306    0.234
        56 -11.4626    196.8022    158.4886   7.8299321006e+01   1.0221371718e+01    0.7431943    0.2917191 -39.48  0.002737558    2.496    0.599
        57 -10.8932     23.9227    155.1369   1.1915882878e+02   3.9581497993e+01    0.6001682     0.198574 -61.39  0.002620286    2.449    0.592
        58  -9.4208    204.2718    156.1453   7.6296028031e+01   9.1802562654e+00    0.2663337     0.201676  76.66  0.001204381    2.094    0.522
        59  -9.3907    183.5108    155.9958   8.0493422525e+01   1.3367776431e+01    0.2362296    0.1439508 -41.33  0.001043835    1.625    0.384
        60  -9.8067     46.5909    152.2638   1.1322249412e+02   3.7948020860e+01    0.3156535     0.240207  57.08 0.0003323817    1.336    0.251
        61  -9.9989     31.9027    152.0887   1.1687952993e+02   3.9546033918e+01    0.2657435     0.195874 -79.43 0.0006302757    1.118    0.105
        62  -9.0235     10.5085    151.5368   1.2200920480e+02   4.1565083242e+01    0.4004496    0.1319803  57.93  0.001548751    3.914    0.744
        63  -8.1239    221.3077    161.3212   7.4186387185e+01   5.0018973178e+00    0.1453264    0.1028166   0.19 0.0003221393    1.642    0.391
        64 -12.5313    117.6303    100.0163   8.2466612083e+01   3.9351562502e+01     2.449825      2.23528   6.07   0.01280703    1.182    0.154
        65 -12.1150     71.1793    120.0816   1.0101364229e+02   4.2715909225e+01     0.965627    0.7606099 -82.87  0.002619579    1.356    0.262
        66 -11.6919    190.5870    233.5937   9.3589451112e+01  -1.3122185565e+00     1.626012    0.7282181  35.59  0.007941158    1.925    0.480
        67 -11.0588      3.3024    126.7243   1.2140138857e+02   4.7898495976e+01    0.5677122    0.2185748 -79.17 0.0004555907    2.178    0.541
        68 -12.5317     31.8083    120.4244   1.1266765475e+02   4.7213931568e+01     1.538906    0.8584147 -77.67  0.007724321    1.687    0.407
        69 -11.3027    177.8756    239.2589   9.6842648228e+01  -1.3181734526e-01    0.7021338     0.440613 -18.83  0.003816929    2.192    0.544
        70  -9.2814     42.0230    146.7624   1.1365731569e+02   3.9783234724e+01    0.2322732    0.1632072 -73.06 0.0004368555    1.207    0.172
        71  -9.9552     57.0378    143.6582   1.0927041372e+02   3.8800143676e+01    0.3687252     0.179261 -67.05 0.0006028059    1.854    0.461
        72  -8.4350     15.6418    143.9254   1.2002326813e+02   4.2944276785e+01    0.2826082   0.09596583 -73.65   0.00121575    2.375    0.579
        73  -9.9867     50.5673    140.8615   1.1056842117e+02   4.0261982177e+01    0.3377413    0.2371507  44.93  0.001219466    1.529    0.346
        74  -9.2859    182.5243    141.9812   7.7507387465e+01   1.6353127910e+01    0.3390608    0.1859396  28.74  0.001268868    2.448    0.592
        75  -7.8908    100.9515    142.0317   9.7240789209e+01   3.2671660555e+01    0.1747589    0.1599447 -68.42 0.0009484126    1.035    0.034
        76  -9.3603     10.6155    139.6104   1.2083905140e+02   4.4354447733e+01    0.3908975    0.1696872 -71.11   0.00185009    1.772    0.436
        77  -9.9310     72.2271    140.9795   1.0474587604e+02   3.7442777045e+01    0.2345062    0.2043753  47.94 0.0005164578    1.227    0.185
        78  -7.3639     93.4076    140.2631   9.8894362540e+01   3.4371161308e+01    0.1460233    0.1153345 -12.36 0.0006283263    1.743    0.426
        79  -8.9946     83.8762    138.8356   1.0118890037e+02   3.6242722451e+01    0.2819993     0.262258 -44.92 0.0004583896    1.153    0.132
        80  -9.6898     84.0276    134.9862   1.0039434137e+02   3.7158514701e+01    0.2452255    0.2066361 -65.56  0.001327359    1.097    0.088
        81 -12.8603     71.9396    103.4479   9.7027601661e+01   4.6623333419e+01     1.606681     1.220743  26.30  0.001313609    1.505    0.336
        82  -9.6453     83.4693    129.5685   9.9451375693e+01   3.8567882294e+01    0.2571043    0.2249025 -63.51  0.000543298    1.050    0.048
        83  -9.1656     90.9906    126.9666   9.6781166693e+01   3.7992915091e+01    0.2161802    0.2033104 -57.61  0.001203938    1.038    0.036
        84  -8.0696    141.3056    126.3067   8.3194468649e+01   2.8521743724e+01    0.1570436    0.1250771  -4.53 0.0007016179    1.606    0.377
        85  -8.5296    201.0695    122.9288   6.9142592047e+01   1.6075224231e+01    0.2216036    0.2073804 -37.15 0.0002924449    1.046    0.044
        86 -10.4931     96.6986     92.5382   8.6428274357e+01   4.5079157826e+01     1.043377    0.5875133  25.36   0.00412723    2.407    0.584
        87 -10.8048     60.7074    100.0420   9.9789762788e+01   4.8977159488e+01    0.6593457    0.4503334 -53.96  0.001263353    1.274    0.215
        88  -9.9164    125.1777    116.4885   8.4852651391e+01   3.4105660447e+01    0.3256594    0.2765388 -52.42  0.000859951    1.152    0.132
        89  -8.2185    151.4763    114.4829   7.7669784953e+01   2.8889829643e+01    0.1574255    0.1529839 -34.29 0.0001131496    1.004    0.004
        90 -10.2787    139.3302    112.2491   8.0068668961e+01   3.2055041510e+01    0.2732677    0.2710212  -4.37 0.0002364622    1.029    0.028
        91 -12.1360     26.0574    137.6408   1.1664293681e+02   4.3561792825e+01     1.270189    0.6043321 -54.43   0.00513925    1.921    0.480
        92  -8.1558    132.3733    246.8050   1.0646199752e+02   5.8354448551e+00    0.2511571   0.07514796  41.51    0.0010392    2.660    0.624
        93  -8.7555     31.6162     86.5019   1.0647466939e+02   5.5338694482e+01    0.4134308    0.1509985 -50.91  0.001783261    2.137    0.532
        94  -9.5688     80.3848     85.0091   8.9388584867e+01   4.9570315813e+01    0.4898991    0.2946468 -35.44  0.002211548    1.697    0.411
        95  -8.1455     85.2019     84.8270   8.7774453259e+01   4.8810555232e+01    0.2008576    0.1938513  68.03  0.000847509    1.185    0.156
        96  -9.3705     99.0690     85.8076   8.3726531447e+01   4.6112016942e+01    0.2507756    0.2146728 -28.39            0    1.140    0.123
        97  -8.5107    106.9252     78.8999   7.9232190575e+01   4.6027834774e+01    0.2181601    0.1980395 -29.12 0.0004111595    1.046    0.044
        98  -7.6846    184.6449     78.2777   6.0491711314e+01   2.8125023262e+01    0.1565809    0.1170723 -75.32 0.0003117317    1.652    0.395
        99  -8.1809    203.2457     75.3819   5.6454531933e+01   2.4134176123e+01    0.2737717    0.1831531 -22.46 0.0008436802    1.694    0.410
       100  -7.4146     94.7156     52.3446   7.3876464357e+01   5.3469504003e+01    0.1374626    0.1137162 -67.05 0.0007017349    1.643    0.391
       101  -8.2366     77.3235     29.3235   7.0438290666e+01   6.0372064412e+01    0.1408544   0.09352876   9.94 0.0007047432    1.683    0.406
       102 -11.3537     66.7393     89.7335   9.5219657644e+01   5.0572648000e+01     1.529086    0.8467956  36.36  0.007071545    2.001    0.500
       103  -7.7559    115.1719    241.8637   1.0914804813e+02   9.2761959856e+00    0.1487632    0.1324442  27.83 0.0003923964    1.296    0.228
       104  -9.1227    145.6076    238.7637   1.0293730625e+02   5.0643039966e+00    0.1503239    0.1193346 -71.28 0.0005508028    1.614    0.380
       105  -8.1260    132.2770     19.3350   5.1946895694e+01   4.9616272481e+01    0.1424745   0.09699626  28.63 0.0002339788    1.607    0.378
       106 -10.3141     75.2307     17.9957   6.6172602363e+01   6.2230830668e+01    0.2757245    0.2508399 -30.59 0.0007771243    1.332    0.249
       107  -8.2880     89.6955    237.6425   1.1353859845e+02   1.3768306215e+01     0.106106    0.0942532 -13.49 0.0007039781    1.720    0.419
       108  -9.2745    167.0288    234.7301   9.8250091642e+01   2.2767622412e+00     0.426311    0.2487884  24.60  0.002216757    1.855    0.461
       109  -7.3327    200.3491    241.3087   9.2968102027e+01  -3.8953862484e+00    0.1260677   0.08058237  11.05  0.000498604    1.710    0.415
       110  -8.4873    160.2386    231.7584   9.9135281687e+01   3.8428804890e+00    0.2039527     0.139102   5.13  0.001071069    2.084    0.520
       111  -8.1489    137.6668    232.1682   1.0361360577e+02   7.4245947471e+00     0.152169    0.1153458 -41.54 0.0003270836    1.601    0.375
       112  -7.6021    144.6515    230.7532   1.0204890521e+02   6.5388240344e+00    0.1227118   0.09059203  18.07 0.0002612525    1.581    0.367
       113 -10.5914    179.1661    242.8290   9.7119055910e+01  -8.5014060170e-01    0.6163101    0.3548312  31.93  0.003226176    1.490    0.329
       114  -8.8889    140.5942    226.9773   1.0233403263e+02   7.8433312670e+00    0.2278881    0.1618676  21.65   0.00127718    1.620    0.383
       115 -10.7176    182.5492    224.3570   9.3667217251e+01   1.3640830115e+00    0.3781232    0.3319242  49.43  0.002457487    1.293    0.227
       116  -8.4977    157.0012    223.9797   9.8632795975e+01   5.6531971793e+00    0.1591364    0.1374736  35.86 0.0006026957    1.001    0.001
       117 -11.1436    211.8226    217.0362   8.6867719067e+01  -2.2795306438e+00    0.5771375    0.3671191   1.63  0.002665693    1.868    0.465
