#   1 NUMBER                 Running object number                                     
#   2 MAG_AUTO               Kron-like elliptical aperture magnitude                    [mag]
#   3 X_IMAGE                Object position along x                                    [pixel]
#   4 Y_IMAGE                Object position along y                                    [pixel]
#   5 X_WORLD                Barycenter position along world x axis                     [deg]
#   6 Y_WORLD                Barycenter position along world y axis                     [deg]
#   7 A_WORLD                Profile RMS along major axis (world units)                 [deg]
#   8 B_WORLD                Profile RMS along minor axis (world units)                 [deg]
#   9 THETA_WORLD            Position angle (CCW/world-x)                               [deg]
#  10 FWHM_WORLD             FWHM assuming a gaussian core                              [deg]
#  11 ELONGATION             A_IMAGE/B_IMAGE                                           
#  12 ELLIPTICITY            1 - B_IMAGE/A_IMAGE                                       
         1  -9.7849     26.3075     24.4510   8.3304373367e+01   6.8865572837e+01    0.8169143    0.3303946 -22.79  0.003078951    4.070    0.754
         2 -10.8003    134.0186     30.9453   5.0168934724e+01   4.7605810545e+01    0.3697498    0.2797164   4.67            0    1.638    0.389
         3  -9.5945     91.6773     24.7696   5.7998809222e+01   5.7987984389e+01     0.855466    0.2855454 -30.70  0.003142974    3.083    0.676
         4  -9.5185     96.0458     15.0490   5.2948373076e+01   5.8094038226e+01    0.8021829    0.3508365 -19.48  0.003534338    2.671    0.626
         5  -8.2299     97.5586      5.9510   4.8969907440e+01   5.8588455520e+01    0.2506712    0.1392883  43.98 0.0004599914    1.557    0.358
         6  -8.5536     95.8671      3.1350   4.8240602220e+01   5.9189199476e+01    0.2866395    0.1695939  42.06 0.0007362461    1.474    0.321
         7  -8.2356     71.9838      8.6342   5.7049876317e+01   6.3687894019e+01    0.2700158    0.1800956  40.64  0.001094867    1.279    0.218
         8  -9.9804     63.1898      3.0383   5.7312232308e+01   6.5879148827e+01    0.4708629    0.3815366  -0.91  0.001657196    1.200    0.167
         9 -10.3853     69.5511     39.4724   7.1132380640e+01   6.0320280760e+01     1.301898    0.3848202 -34.97  0.004632113    3.488    0.713
        10 -10.1572     73.5902     17.2489   6.0364343857e+01   6.2493965881e+01     1.022895    0.2797667 -24.80  0.003509738    4.451    0.775
        11  -9.4242     78.0207      4.3424   5.3323151766e+01   6.2871302476e+01    0.4733687    0.2693519   1.38  0.002026963    2.089    0.521
        12  -9.9002     76.1186     32.1289   6.5835880726e+01   6.0181071102e+01    0.3927732    0.3375653  77.75  0.001326886    1.687    0.407
        13 -10.1474     64.6443     13.0294   6.1499217416e+01   6.4634081736e+01     0.444249    0.3245409  -6.58  0.001892349    1.337    0.252
        14  -9.8322     79.3979     23.9994   6.1380832466e+01   6.0586416875e+01    0.5945863    0.2810752  29.58  0.002067304    2.572    0.611
        15 -10.3651     45.5771     29.1612   7.6372982593e+01   6.5696926739e+01    0.6467474    0.5254936 -16.43   0.00307311    1.104    0.094
        16 -10.3525     50.9498     15.3990   6.7804620560e+01   6.6733057540e+01     1.069272    0.5390355   8.66  0.004151698    3.380    0.704
        17  -9.5350     63.3144     21.3261   6.5741671579e+01   6.3920433037e+01    0.4283937    0.2693846 -49.33  0.001318643    2.417    0.586
        18  -9.4447    102.8610     21.0278   5.3563712883e+01   5.5978648568e+01     0.404227     0.288542 -42.81  0.001030928    1.645    0.392
        19  -8.5751    104.4152     14.5970   5.0735331131e+01   5.6284866399e+01    0.4713193    0.2494336   8.15  0.002001292    2.947    0.661
        20  -8.5501    119.9068     15.8303   4.7837643886e+01   5.2601848845e+01    0.3602504    0.2073817  31.18  0.001727684    2.020    0.505
        21  -8.9868    115.1534      4.1893   4.4621319765e+01   5.4742201233e+01    0.2822169    0.2018407 -32.42 0.0006963168    1.591    0.371
        22  -8.6920    112.2761     15.3767   4.9264527547e+01   5.4420392025e+01    0.2908933    0.1915933 -36.02 0.0007904497    1.700    0.412
        23  -9.1974    113.8684     10.1466   4.7023808733e+01   5.4537802108e+01    0.4440254    0.1845762  44.13 0.0004021792    2.256    0.557
        24  -8.3386    110.3423      8.1330   4.7007765431e+01   5.5525906954e+01    0.2410074    0.1626094 -44.98 0.0008563744    1.779    0.438
        25  -8.7073    110.2246      3.5127   4.5325873528e+01   5.5932983335e+01    0.3460077    0.2357143 -83.09  0.001855861    1.934    0.483
        26  -9.8187     10.4525     18.7952   8.9167947847e+01   7.1311763366e+01    0.6764141    0.2898626 -11.08  0.002691275    4.241    0.764
        27 -10.2254     18.2890      5.4616   7.8299296195e+01   7.2469135937e+01    0.5685945    0.4171742 -41.09  0.002896898    1.778    0.438
        28 -10.7577     37.2665      9.9933   7.1085149796e+01   6.9469853065e+01    0.8435823    0.3054176 -38.09  0.002091373    3.011    0.668
        29 -10.2555     26.9727     11.3839   7.6780798064e+01   7.0670375466e+01    0.7493242    0.3953573  33.22  0.003551689    1.874    0.466
        30  -9.4243      2.2895     14.2522   9.1827967334e+01   7.2677216726e+01    0.4123928    0.2185709 -59.30  0.002198764    2.867    0.651
        31 -10.4338      5.3615      4.5766   8.5325415685e+01   7.3885752841e+01    0.4696531       0.3483  -4.65  0.001683285    1.101    0.092
        32  -8.6029    137.7663      9.3147   4.2450863185e+01   4.8950501532e+01    0.2295504    0.1862711 -23.29 0.0007816778    1.412    0.292
        33  -8.9715    131.5656      5.4293   4.2181940905e+01   5.0773091673e+01    0.3476567    0.2097857  43.81  0.001842635    1.618    0.382
        34  -8.5993    132.8710     16.8811   4.5738903462e+01   4.9416889310e+01       0.2819    0.1869307 -29.07  0.001162112    1.664    0.399
        35  -9.0026    133.7723     11.5144   4.3815977285e+01   4.9712262071e+01    0.3514952     0.225009 -60.46  0.001222433    1.925    0.480
        36  -9.7659    125.8025      5.1404   4.3042552615e+01   5.2167536583e+01    0.6205473    0.2125558  57.38  0.002621415    2.272    0.560
        37  -8.9566    125.1191     12.8611   4.5798138337e+01   5.1654003000e+01    0.2650958     0.213094 -76.62 0.0007198926    1.433    0.302
        38  -8.8646    126.6349      9.1289   4.4250969600e+01   5.1631353596e+01    0.2537529    0.1977025  25.33 0.0006366117    1.413    0.293
        39  -9.5776     85.3358     13.1446   5.5036890459e+01   6.0562541626e+01    0.3977541    0.2641222 -57.41  0.001814566    2.405    0.584
        40  -7.9361     80.5522     12.3150   5.6060807556e+01   6.1627409849e+01     0.246112    0.1350475 -37.62  0.001252485    2.152    0.535
        41  -8.2625    141.5658     12.6125   4.2897501060e+01   4.7730183592e+01    0.2683289    0.1745401 -16.69  0.001245862    1.848    0.459
        42  -7.4777    192.5153      9.0052   3.5540243586e+01   3.5811792813e+01    0.1661928    0.1182704 -39.28  0.000337041    1.452    0.311
        43  -8.7183    155.0569      6.5913   3.9125215108e+01   4.5010281762e+01     0.523623    0.1927438 -49.90  0.002030014    3.356    0.702
        44  -8.6644    104.1435      2.7473   4.6273986517e+01   5.7376320044e+01    0.4485194    0.1805767  32.08  0.001768473    3.251    0.692
        45  -8.2573     85.4375      6.3023   5.2126745848e+01   6.1171102955e+01    0.3280859    0.1235848  34.57   0.00129368    3.071    0.674
        46  -8.8977    137.5066      1.9836   4.0153418737e+01   4.9632473878e+01    0.3009712    0.1756852 -77.77   0.00146018    2.165    0.538
        47  -8.7975     89.0629      2.3901   4.9557727710e+01   6.0724199708e+01    0.2071134    0.1548566  12.61 0.0006839745    1.377    0.274
        48  -8.6351    101.8850      8.1527   4.8841266964e+01   5.7440686796e+01      0.22175    0.1762805 -39.12 0.0006510069    1.478    0.323
        49 -11.1631    133.6416    109.5129   7.4361915380e+01   3.4099008242e+01      1.70538    0.6366557 -51.01  0.005328973    3.040    0.671
        50  -8.1804    225.5827    249.8227   8.3328775649e+01  -8.9259183616e+00    0.1444046    0.1053591 -38.12 0.0009515446    1.710    0.415
        51 -10.0789    197.5398    249.8094   8.8473531215e+01  -5.0851101341e+00    0.3336487    0.1735085  32.64  0.001325137    1.626    0.385
        52 -10.1512    180.5197    248.6450   9.1549923714e+01  -2.4425917017e+00    0.3937456    0.2487048  51.63  0.002161471    2.013    0.503
        53  -8.3338    142.9451    250.2097   9.9165193002e+01   2.9871396929e+00    0.1776753   0.08405817  37.91 0.0008738892    1.744    0.427
        54 -10.1115    108.7089    114.5279   8.2523678798e+01   3.8146315305e+01    0.7345252     0.495291 -82.01  0.001442214    2.399    0.583
        55 -10.9501    109.0026    101.0036   7.8803010380e+01   4.1150299858e+01     1.159848    0.9498043  73.58  0.004303579    1.504    0.335
        56 -10.5455    123.2270     91.2091   7.1982409083e+01   4.0248584293e+01     1.021945     0.620009 -34.37  0.002468795    1.753    0.430
        57 -11.2587    120.5839    111.0420   7.8262789835e+01   3.6545689696e+01     1.195575    0.6821656 -56.27  0.002664312    1.963    0.491
        58  -9.3033     83.4588    131.7849   9.4022292432e+01   3.8495667083e+01    0.7076657    0.4343761  81.07   0.00263449    2.881    0.653
        59  -7.9423    141.8567    131.6489   7.7932517199e+01   2.7430926379e+01    0.3644696    0.1869315  60.71  0.001193053    3.056    0.673
        60  -9.9299     98.5392    128.6790   8.8923271591e+01   3.6692017661e+01    0.6650584    0.4211986  73.31  0.002295336    2.627    0.619
        61 -10.2587     71.1865    125.7843   9.6441431045e+01   4.1867848280e+01    0.6490527    0.4008501 -80.56  0.001496831    2.159    0.537
        62 -10.0186     42.1193    123.1585   1.0496155917e+02   4.6213365042e+01    0.7887688    0.3901768 -87.24  0.002784732    3.301    0.697
        63 -10.1072    133.8612    131.1594   7.9840632586e+01   2.9218028131e+01    0.6485018    0.6241414  15.81  0.003293352    1.079    0.073
        64 -10.0055     27.1257    122.7674   1.0956598782e+02   4.7776786005e+01    0.6230552    0.3288832  74.40  0.002205455    2.812    0.644
        65 -10.7287    127.6502    102.5844   7.4042110627e+01   3.6898063505e+01    0.8483785    0.6573163  45.80  0.002256637    1.310    0.237
        66  -7.4107    158.1460    122.1356   7.1644706892e+01   2.5980887186e+01    0.2175682    0.1835565 -73.77 0.0007155334    1.364    0.267
        67  -8.5007     99.1550    119.7073   8.6610893835e+01   3.8735993874e+01     0.515452    0.3046883   0.72  0.001474577    4.871    0.795
        68  -8.6109      1.5967    116.9370   1.1660498302e+02   5.1043719949e+01    0.3613692    0.1398872 -81.33  0.001507406    2.512    0.602
        69 -10.2730     92.0781    113.0392   8.7074151544e+01   4.1591684505e+01    0.6391175     0.495096  78.00  0.001777282    1.690    0.408
        70  -9.1114     93.0166    103.6355   8.4337335993e+01   4.3615954734e+01    0.6887473     0.422508  12.88    0.0026189    2.689    0.628
        71  -7.0126    164.6935    116.3374   6.8682221985e+01   2.5735918330e+01     0.159561    0.1229969 -77.82 0.0002886561    1.676    0.403
        72 -10.2709     78.2769    112.9785   9.1346465067e+01   4.3920681334e+01    0.5933969    0.3711894 -77.74  0.001634501    2.326    0.570
        73  -8.4648     78.1040    105.2577   8.9488875523e+01   4.5786854172e+01    0.4269883    0.2838323 -10.54  0.001799648    2.293    0.564
        74  -9.5582     81.5558    100.1849   8.7044164482e+01   4.6403817202e+01    0.8598818    0.3409339 -50.75  0.001089968    2.373    0.579
        75  -7.7816    153.0196    115.3214   7.1099904303e+01   2.8563791861e+01    0.2176739    0.2014496  55.52 0.0004599754    1.110    0.099
        76 -10.6252     62.9631     95.5897   9.2061587971e+01   5.0326543873e+01     1.094699     0.625711 -78.81  0.001661709    3.398    0.706
        77  -9.0139     65.1906     85.9377   8.8659796495e+01   5.2196454580e+01    0.6962605      0.54057 -31.10  0.003574435    1.253    0.202
        78 -10.2502     65.8351    110.8617   9.4839917041e+01   4.6298863937e+01    0.8721377    0.5123509 -79.94  0.001469354    2.637    0.621
        79  -9.9885     59.5987    109.6291   9.6602813767e+01   4.7452284067e+01    0.7972275    0.4613481 -56.96  0.001734603    1.562    0.360
        80  -7.4324    167.3017    113.7032   6.7430609802e+01   2.5688551838e+01     0.154222     0.122297 -79.61  0.000279248    1.578    0.366
        81  -9.8091     14.2955    111.1786   1.1185242173e+02   5.1627197879e+01    0.5128812    0.2711964  79.42   0.00230254    2.617    0.618
        82  -8.4148     14.7401    104.8550   1.1072199659e+02   5.3119996509e+01    0.2220334    0.1230134 -49.48  0.001167803    1.562    0.360
        83  -8.3257    158.8917    111.9787   6.8864140743e+01   2.7942495688e+01    0.2356844    0.2252518 -39.81 0.0004796281    1.028    0.027
        84 -11.1725     21.0432    100.1158   1.0776245455e+02   5.3791870000e+01     1.527665    0.8069336  89.92  0.004655195    2.752    0.637
        85  -9.7284     20.9322     83.5762   1.0451166918e+02   5.7672599332e+01    0.7269626    0.3381008 -57.83  0.002510129    1.721    0.419
        86 -10.5920     25.7586     77.8035   1.0131829029e+02   5.8589142204e+01     0.785292    0.5283744  78.52  0.002017607    2.386    0.581
        87  -9.2629     44.0405     54.3516   8.6895639146e+01   6.1596245377e+01    0.3297762    0.2308231 -40.77  0.000513572    1.286    0.223
        88 -10.2019     49.9443     53.8963   8.4287911651e+01   6.0917056103e+01    0.5968611    0.3424413 -54.12  0.001836883    2.036    0.509
        89  -9.5658     56.2722     43.2903   7.7743027769e+01   6.1888284870e+01    0.6955135    0.3770184   2.68   0.00266197    3.529    0.717
        90 -10.4163     32.0196     64.5792   9.5235020582e+01   6.0884087103e+01     1.042001    0.4252785 -36.07  0.003044949    2.552    0.608
        91  -9.6620     39.1194     56.5612   8.9725319534e+01   6.1755782261e+01    0.8602267    0.2293559 -45.78  0.003171878    3.116    0.679
        92 -10.0023     34.4557     90.4851   1.0099885506e+02   5.4901113355e+01    0.5349222    0.2831429 -76.89  0.001895613    2.599    0.615
        93  -9.9792     36.9478     81.1292   9.7803080251e+01   5.6794612229e+01    0.9061955    0.4265384 -17.42  0.003058333    4.511    0.778
        94  -8.9981     35.8362    111.0246   1.0477147261e+02   4.9854239034e+01     0.203247    0.1723221 -89.77 0.0006843137    1.247    0.198
        95  -9.0474    241.2225    106.8257   5.2662135984e+01   1.1195914400e+01    0.1796594    0.1527278 -12.59 0.0005983661    1.342    0.255
        96 -10.8794     44.9752    102.5038   9.9947945276e+01   5.0960189109e+01    0.8580541    0.4766607  69.28  0.003172103    3.693    0.729
        97  -9.6136      6.4077    103.8590   1.1334185408e+02   5.3893740573e+01    0.4132193    0.2562033  74.82  0.001303205    1.960    0.490
        98  -9.9755    149.5436    102.1194   6.8403767261e+01   3.2096857781e+01    0.7957245    0.3124558 -40.55  0.002276669    2.534    0.605
        99  -8.3175    166.0071    103.9127   6.5157175779e+01   2.7950281160e+01    0.2625967    0.2135874 -44.38 0.0004609769    1.197    0.165
       100  -8.3134     73.6589    102.5286   9.0241826145e+01   4.7128611782e+01     0.287086    0.1692195 -55.66 0.0006171971    1.632    0.387
       101  -8.9938    159.1483    101.1520   6.5928193495e+01   3.0081657944e+01     0.414165    0.2377659 -53.61  0.000680297    1.952    0.488
       102  -9.5322     94.3579     97.0935   8.2119547968e+01   4.4849700960e+01    0.3865171    0.3133724 -73.37 0.0006821133    1.490    0.329
       103  -9.3957     96.5668     89.7893   7.9323786995e+01   4.6031383497e+01    0.5110046    0.3227834 -20.01  0.001228918    2.250    0.556
       104  -9.3716    240.0278     96.5926   5.0564598635e+01   1.3116620644e+01    0.3309142    0.2043941  36.01 0.0009699557    2.294    0.564
       105  -9.9700    138.8999     93.1659   6.8481635717e+01   3.6344189742e+01    0.4318734    0.3887568 -82.24  0.001331169    1.228    0.186
       106  -8.6451    164.4548     94.3954   6.2934448553e+01   3.0165011426e+01    0.2766519    0.2431673 -44.36 0.0008489322    1.114    0.102
       107  -7.6262    250.3076     93.3116   4.8514400102e+01   1.1664477151e+01    0.1231405    0.1005031  -3.79 0.0005707021    1.621    0.383
       108  -9.2057    150.3392     90.1090   6.4872984914e+01   3.4299122541e+01    0.5172205    0.2788276 -28.54  0.001812208    2.297    0.565
       109  -9.2393     40.0043    106.2759   1.0244543641e+02   5.0587687827e+01    0.3612032    0.1812678 -68.14 0.0009614729    1.975    0.494
       110 -10.2059      4.4627     89.4056   1.1174166135e+02   5.7401328415e+01    0.6355227    0.3140025  88.40  0.002300782    2.874    0.652
       111  -9.6004      5.5765     79.1543   1.0948336683e+02   5.9688521551e+01    0.8445746    0.2960095 -28.86  0.003219841    4.012    0.751
       112  -9.6066     16.0482     70.2802   1.0339777044e+02   6.1011085871e+01    0.5047971    0.2144734 -59.35  0.001703386    1.938    0.484
       113 -10.8892     20.9358     54.7650   9.7093877019e+01   6.3909123747e+01     1.127779    0.6685328 -38.66  0.004070698    1.404    0.288
       114 -10.2383     12.3466     45.5862   9.8222340316e+01   6.6394905936e+01    0.9267628    0.4039631  -7.19  0.003959647    3.510    0.715
       115 -10.2338      4.6102     41.9797   1.0084657616e+02   6.7603553903e+01    0.8111409    0.2597016 -55.73  0.003755505    2.450    0.592
       116 -10.7400     23.1272     34.2589   8.8972463257e+01   6.7578963910e+01    0.6211283    0.3930583  -6.99  0.002978111    1.611    0.379
       117  -8.0285    150.3464    249.6837   9.7623416715e+01   1.9457916046e+00    0.1249645   0.08777308  58.63 7.508515e-05    1.722    0.419
       118  -9.4319      6.5425     32.5044   9.6733595319e+01   6.9263057605e+01    0.2410764    0.1800943 -14.44 0.0005524443    1.192    0.161
       119 -10.0747      7.2440     28.1307   9.4753028700e+01   6.9995949038e+01    0.2907497    0.2566167  37.38  0.001081369    1.640    0.390
       120  -9.0395    157.5503     91.0983   6.3524958553e+01   3.2417019952e+01    0.4562992    0.2468968 -34.41  0.001421877    1.950    0.487
       121  -8.8274    192.8615     90.4785   5.6381432040e+01   2.4267563768e+01    0.3220141    0.2418775 -30.38 0.0007943531    1.386    0.278
       122 -10.3230     48.0056     84.4300   9.4489735422e+01   5.4824200329e+01    0.6691281     0.435697 -66.44  0.001783641    1.717    0.417
       123  -9.2481     49.3459     77.0452   9.1944714282e+01   5.6295883306e+01    0.6031272    0.3662726   5.87  0.002678796    2.192    0.544
       124 -10.1695     85.3645     86.5611   8.1946358960e+01   4.8787241976e+01    0.4792366    0.3740909  82.56 0.0008601489    1.881    0.468
       125  -9.7612     86.9668     79.1410   7.9153431005e+01   5.0059662201e+01    0.7490591     0.426612  17.16  0.002305867    2.869    0.651
       126  -7.1061     78.2994     89.6530   8.5197863278e+01   4.9323783818e+01    0.1441363     0.116847  89.43 0.0007036797    1.682    0.405
       127  -7.8968    174.4665     88.5035   5.9286285140e+01   2.8910514942e+01    0.1516795    0.1427777 -67.35 0.0004391119    1.040    0.038
       128  -8.3963    163.5445     87.6727   6.1281054745e+01   3.1647076912e+01    0.2082482    0.1408551 -50.16 0.0009297968    1.511    0.338
       129  -7.9761    241.3400     87.3086   4.8336046295e+01   1.4357209466e+01    0.1265898    0.1041751   6.34 0.0002045007    1.687    0.407
       130 -10.3497    116.6283    125.7258   8.3108125634e+01   3.3979104341e+01     1.028501    0.6412553 -54.99  0.002388169    1.638    0.389
       131 -10.3766    103.8962     82.4419   7.4858435687e+01   4.6119939653e+01    0.6121209     0.371433 -57.10 0.0009404632    2.032    0.508
       132  -9.6088    104.7115     71.6930   7.1203152998e+01   4.8052283275e+01    0.6905414    0.3939199 -27.41  0.002422901    2.084    0.520
       133  -8.7175    157.6320     83.1526   6.1272724122e+01   3.3885377852e+01    0.4279852    0.2462596 -31.09  0.001393575    1.916    0.478
       134  -9.5385    140.4044     81.9901   6.4859501653e+01   3.8169198160e+01    0.7324367     0.337276 -33.47  0.001325665    2.415    0.586
       135  -8.8125    139.9443     75.5008   6.3029811355e+01   3.9472062542e+01    0.4496161     0.284481 -31.57  0.001458757    1.691    0.409
       136  -7.9479    170.6005     82.8380   5.8508469635e+01   3.0850510478e+01    0.2123727    0.1349662 -48.56 0.0009346591    1.585    0.369
       137  -8.4663    149.9286     80.9402   6.2334419101e+01   3.6122163509e+01    0.3239672    0.2123465 -50.06 0.0004822569    1.601    0.375
       138  -8.0351    150.3165     77.3459   6.1199160615e+01   3.6681747977e+01    0.2343378    0.1783276  17.64 0.0007299412    1.718    0.418
       139  -9.1419     74.2452     80.3484   8.3831495215e+01   5.2006421361e+01    0.4180431    0.2813297 -69.12   0.00119621    2.144    0.534
       140  -8.0992     74.3469     75.3262   8.2237012194e+01   5.3038871975e+01    0.2919922    0.1897925  11.60  0.001185572    2.039    0.509
       141  -8.6416    118.9426     80.4330   6.9910347049e+01   4.3338005907e+01    0.3071021    0.2122718 -51.87 0.0005198666    1.570    0.363
       142  -8.4129    119.9662     75.8354   6.8200930579e+01   4.3989772768e+01    0.3037805    0.2569145  11.71 0.0007792474    1.323    0.244
       143  -8.4956     68.3923     78.5809   8.5355608538e+01   5.3311031751e+01    0.4421875    0.2754974 -62.17  0.002001446    2.015    0.504
       144  -8.2494    184.1644     78.1808   5.4714459665e+01   2.8438062385e+01    0.2559931    0.2056961 -54.45 0.0005949817    1.217    0.178
       145  -7.7959    166.4356     78.6348   5.8171510344e+01   3.2591372987e+01    0.2759422    0.1377578 -42.81 0.0009627943    1.966    0.491
       146  -7.7279    174.4610     78.5217   5.6580146167e+01   3.0688708248e+01     0.151704    0.1380785 -71.83 0.0008073547    1.092    0.084
       147  -8.8539    156.7937     75.6461   5.9302412700e+01   3.5432211744e+01    0.4143529    0.2938714 -52.60  0.001398994    1.484    0.326
       148  -9.3830    127.3789     75.2235   6.6051027548e+01   4.2435920930e+01    0.3621473     0.273111 -62.47 0.0008099121    1.596    0.374
       149  -8.6327    129.5045     69.1215   6.3603595461e+01   4.3044796599e+01     0.658606    0.3269173  27.29  0.001945607    4.334    0.769
       150  -8.3355    130.5055     64.5432   6.1907298618e+01   4.3599902833e+01    0.3395886     0.204876 -41.31  0.000993882    1.696    0.410
       151  -9.8681     81.5980     72.4624   7.8814235672e+01   5.2375201544e+01    0.4658915    0.3342759 -67.40  0.001000759    1.989    0.497
       152  -9.1212     83.8457     64.3848   7.5354201165e+01   5.3523384252e+01    0.5359558    0.3555373   1.27  0.002389828    2.132    0.531
       153  -9.2916    115.3831     71.9227   6.8215428882e+01   4.5727770688e+01    0.6071934    0.2960683 -34.67  0.001818261    2.173    0.540
       154 -10.5787     55.1793     70.9011   8.7875571731e+01   5.6845190663e+01    0.7136983    0.3998794  54.23  0.001229843    3.014    0.668
       155 -10.4402     62.8597     60.8286   8.1632092741e+01   5.7744707836e+01     1.248561    0.3008694  36.01  0.003048508    4.415    0.774
       156  -8.1264    162.8490     73.0798   5.7321007400e+01   3.4417623967e+01    0.2352628    0.1921315 -72.44 0.0007536893    1.348    0.258
       157  -7.8067    175.1852     72.3913   5.4766410291e+01   3.1558640876e+01    0.2101432    0.1385263  74.75 0.0004275222    1.759    0.432
       158  -8.7113     54.7694     63.6178   8.5694691157e+01   5.8382357561e+01    0.4473369    0.2860327  19.66  0.002288422    1.721    0.419
       159  -8.6057    169.1064     71.2781   5.5591134436e+01   3.3210489437e+01     0.207366    0.1902817  88.09 0.0004998225    1.082    0.076
       160  -9.3470    147.0683     69.3057   5.9533310833e+01   3.8865409588e+01    0.3811669    0.2587364 -61.87 0.0008280548    1.816    0.449
       161  -8.4476    156.6086     69.5952   5.7583969155e+01   3.6517184993e+01    0.3203273     0.208138 -30.10  0.001447378    1.665    0.399
       162  -9.7260     94.7977     68.3967   7.3147384851e+01   5.0682425035e+01     0.433927    0.2637802 -44.59 0.0007331786    1.678    0.404
       163  -9.4845     97.3789     58.1530   6.8841510697e+01   5.1996169485e+01    0.7537595    0.4791149 -12.55  0.003305972    2.137    0.532
       164  -7.8329     23.3313     69.0335   1.0008559820e+02   6.0723371025e+01    0.1816378    0.1338629 -48.19 0.0003607429    1.126    0.112
       165  -7.4949    231.6818     67.3191   4.5056448050e+01   1.9448521044e+01    0.1417919   0.08962379 -64.49 0.0007041495    1.660    0.398
       166  -9.3107    138.5230     65.0715   6.0168356649e+01   4.1621836190e+01    0.6466279    0.3142709 -29.52  0.001322286    2.374    0.579
       167  -9.0907    130.1260     56.8122   5.9515831185e+01   4.4951693030e+01    0.6424972    0.2373997 -30.69  0.001828614    3.131    0.681
       168  -9.3484    138.8260     55.5043   5.7101114641e+01   4.3087173295e+01    0.6704293    0.2398831 -38.59  0.001503792    2.792    0.642
       169  -9.5644    130.4269     46.7094   5.6140208245e+01   4.6400369298e+01    0.8430325    0.3857635 -18.72  0.002121992    3.537    0.717
       170  -8.8690    142.0738     47.2527   5.3799713963e+01   4.3524842449e+01    0.5524844    0.2376152 -30.00  0.001543862    2.551    0.608
       171  -8.8638    139.7021     40.0630   5.1995967963e+01   4.5085528299e+01    0.4549868    0.3520108 -63.77  0.001295169    1.486    0.327
       172  -8.7290    132.9985     35.9494   5.2027401388e+01   4.7235965438e+01    0.3452533    0.2088946 -50.15 0.0005977998    1.939    0.484
       173  -8.7681    156.4976    248.5293   9.6245871836e+01   1.1931873769e+00    0.1255022    0.1038481  30.00 0.0008099541    1.005    0.005
       174  -9.0758    121.2118     66.0749   6.4755142703e+01   4.5475423883e+01    0.4011067    0.2529498 -47.92   0.00119998    1.726    0.421
       175  -8.3325    122.3345     61.3103   6.2910622203e+01   4.6030802610e+01    0.3423896    0.1944895  40.15  0.001398348    1.831    0.454
       176  -9.4108    109.8199     63.9902   6.7177071842e+01   4.8363660929e+01    0.4108624    0.2653013 -50.59 0.0008378215    1.776    0.437
       177  -8.7146    110.8601     57.8179   6.4801845067e+01   4.9185098918e+01    0.3160779    0.2646831   4.90  0.000748847    1.299    0.230
       178  -7.9216    170.7816     65.0152   5.3523811984e+01   3.3830267119e+01    0.1922335    0.1175391 -36.68 0.0004562697    1.642    0.391
       179  -9.1244    149.8526     46.8458   5.2121570506e+01   4.1686904862e+01    0.6511154    0.1932575 -32.06  0.002140301    3.525    0.716
       180  -8.2861    146.5089     40.4791   5.0795127796e+01   4.3373156055e+01     0.230453    0.1841373 -44.39 0.0009284582    1.314    0.239
       181  -9.0202    144.2639     36.4753   4.9966776213e+01   4.4439905850e+01    0.2744101    0.2098554 -63.63 0.0005657597    1.479    0.324
       182  -9.1135    146.5015     57.7846   5.6155356291e+01   4.0882429685e+01    0.5238856    0.2215048 -34.87  0.001751866    2.426    0.588
       183  -7.9580    147.6340     52.1958   5.4203692763e+01   4.1456297188e+01    0.3045063    0.1847617 -24.60  0.001358865    1.917    0.478
       184  -8.2782    157.6351     63.1066   5.5476067540e+01   3.7335142590e+01    0.2405681    0.1994628  85.57 0.0006107071    1.294    0.227
       185  -8.0493    164.4691     61.0537   5.3562992945e+01   3.5994760026e+01    0.3479829    0.1366461 -37.08   0.00107312    2.506    0.601
       186  -9.8710     73.1424     59.3543   7.7321059728e+01   5.6353525672e+01     0.498271     0.274609 -52.08 0.0009772478    2.194    0.544
       187  -9.8032     74.3224     51.6642   7.4113628251e+01   5.7510607413e+01    0.8792698    0.4828829  12.01  0.003245423    3.424    0.708
       188  -7.6245    152.5569     59.7875   5.5511021787e+01   3.9098377919e+01    0.2696912     0.147805 -29.28  0.001126125    2.028    0.507
       189  -8.4426     87.4132     58.5279   7.2128929706e+01   5.3910779428e+01    0.2688997     0.227898 -62.90 0.0007354121    1.501    0.334
       190  -8.8715     89.1558     53.1904   6.9651222984e+01   5.4483465919e+01    0.6597585    0.2968871  33.73  0.002534908    2.631    0.620
       191  -8.9827    121.1717     46.9738   5.8406872999e+01   4.8534794754e+01    0.3191543    0.2439248 -32.38 0.0005159691    1.371    0.270
       192  -9.3500    118.0217     55.4229   6.2067749039e+01   4.7972215208e+01    0.3723836    0.2965302 -83.99 0.0006664911    1.674    0.403
       193  -8.2539    119.0179     51.2962   6.0414764858e+01   4.8387703097e+01    0.3422921      0.15872  37.40  0.001171566    2.583    0.613
       194  -7.5356    169.6424     56.2733   5.1264060189e+01   3.5465594481e+01    0.1495464    0.1069453 -77.20 0.0007002362    1.649    0.393
       195  -8.5941    162.8371     52.8828   5.1500409575e+01   3.7635611060e+01    0.4379379    0.2064785 -25.20   0.00167385    2.683    0.627
       196  -7.5247    152.8430     53.6244   5.3600516966e+01   3.9973120767e+01    0.1996443    0.1338162  73.53 0.0004258059    1.637    0.389
       197  -8.5414    157.4627     49.1193   5.1373709561e+01   3.9499702036e+01    0.3334304    0.1792483 -47.56  0.001195776    1.991    0.498
       198  -8.3296     96.7087     32.8085   5.9716886367e+01   5.5934992090e+01    0.3028963     0.191851 -44.28 0.0007218313    1.869    0.465
       199 -10.1219    175.5278    249.8089   9.2687023124e+01  -1.8740631984e+00    0.5037155    0.1821107  47.65  0.001912441    3.696    0.729
       200  -8.4759     92.8252    246.9177   1.0882024930e+02   1.1035749428e+01     0.222494    0.1448476  52.23   0.00065523    1.305    0.234
       201 -10.1935     85.2176     48.1066   6.9057918695e+01   5.6079559741e+01    0.4053351    0.3013809 -57.99 0.0009467712    1.839    0.456
       202 -10.3748     90.3736     38.0080   6.3581905626e+01   5.6563065872e+01    0.9027698    0.3432662  35.64  0.003070294    3.334    0.700
       203  -8.9300    205.0007    243.4565   8.6089389265e+01  -5.2601379324e+00    0.2026157    0.1649127 -18.95 4.465025e-05    1.258    0.205
       204  -9.8119    162.1779    243.3403   9.4387924766e+01   1.1508412512e+00    0.2439098    0.1663611  68.09   0.00124274    2.479    0.597
       205  -7.0331    206.4617     47.4776   4.3471822887e+01   2.7930947661e+01    0.1364595    0.1192254 -71.22 1.371255e-05    1.014    0.014
       206  -8.6712    111.9025     46.7672   6.0691166001e+01   5.0679198761e+01    0.3166884    0.2121998 -38.78 0.0004621967    1.574    0.365
       207  -8.4748    112.9942     42.5058   5.8904307821e+01   5.1045464765e+01    0.5189019    0.2706254  23.32  0.001829991    3.464    0.711
       208  -9.0068    105.5164     51.9116   6.4250136269e+01   5.1303560254e+01    0.5302679    0.2628701 -31.89  0.001883874    2.131    0.531
       209  -7.9689    243.4054    238.1806   7.8311111853e+01  -9.7393560163e+00    0.1390983   0.09982315 -32.77 0.0002662512    1.541    0.351
       210  -9.0191    188.1930    234.2723   8.7854294452e+01  -1.4224850342e+00    0.2284784    0.1751132 -48.47   0.00106659    1.644    0.392
       211  -8.9748    203.9828    226.0730   8.3442750092e+01  -2.5631386447e+00    0.2560483     0.242137  75.20  0.001530593    1.588    0.370
       212  -9.4483     60.1305     33.5367   7.2249148084e+01   6.2811251903e+01    0.3866897    0.3194419 -43.98  0.001299538    1.491    0.329
       213 -10.2319    223.8070    219.7045   7.8625708692e+01  -4.5462658034e+00    0.2290734    0.1962167   1.36 0.0003979501    1.102    0.092
       214  -8.6522    191.9833    220.0857   8.4764026928e+01   2.4206489964e-01    0.1881676    0.1653637  13.69 0.0003361127    1.051    0.049
       215  -8.9203     62.8819     26.7848   6.8308265526e+01   6.3295870403e+01    0.7069154    0.2116506  40.64  0.002700938    3.164    0.684
       216  -7.7131     84.1572    219.3709   1.0765363974e+02   1.7708430888e+01    0.1859421    0.1020642  47.23 0.0003550836    1.607    0.378
       217  -8.7659    193.1232    215.7602   8.3791304487e+01   7.7037210524e-01    0.2139924    0.1728532 -18.86 0.0002841097    1.220    0.180
       218  -8.3967    193.9385    211.0737   8.2803620248e+01   1.4201151062e+00    0.2017408    0.1766605 -17.86 0.0003072287    1.134    0.118
       219  -9.1452     84.7296     21.7264   5.8787915216e+01   5.9780572804e+01    0.2898713    0.2186989 -20.56 0.0008293708    1.380    0.275
       220  -7.6541     45.4833     15.4755   7.0133078346e+01   6.7583821285e+01    0.1637836    0.1299936  10.36 -9.651937e-06    1.038    0.037
       221  -7.4166    114.7994    215.8969   1.0047278994e+02   1.3723153462e+01    0.1674417     0.106407 -56.09 0.0005898951    1.719    0.418
       222  -9.8629     10.1478    207.4827   1.2227268827e+02   2.9198144104e+01    0.4566141    0.2858754  27.58  0.002658711    1.948    0.487
       223  -9.8832     38.0684     42.2160   8.5054479334e+01   6.4555256771e+01    0.3473209    0.3110279  87.56  0.001316778    1.814    0.449
       224 -10.2500     35.9036     37.9885   8.4385658595e+01   6.5548797845e+01    0.5040975    0.2541196 -24.41 0.0003574449    2.244    0.554
       225  -7.2080    220.7389    207.9988   7.7089045832e+01  -2.3159363136e+00     0.149156    0.1019294 -30.98 0.0003502191    1.394    0.283
       226  -8.2043    123.0731     40.7635   5.5831955034e+01   4.8962511732e+01      0.36004    0.2072046  10.86  0.001339024    3.272    0.694
       227  -9.0601    105.0082     40.8877   6.0435171201e+01   5.3052931227e+01    0.3736849    0.2303596 -47.53 0.0007318887    1.952    0.488
       228  -8.4767    106.0147     36.4894   5.8553822631e+01   5.3428427643e+01    0.2816376    0.1865374  37.94 0.0007122878    1.460    0.315
       229  -9.0200    153.2563     40.3023   4.9492568326e+01   4.1743339463e+01    0.3621383    0.2110381 -43.17  0.001162894    1.785    0.440
       230  -8.3601    159.5996     39.4954   4.8143971578e+01   4.0290303066e+01    0.2418536     0.203875 -50.25  0.000631638    1.218    0.179
       231  -8.3335     53.4223     38.7731   7.7097958722e+01   6.3058240110e+01    0.2528562    0.1741042 -27.32  0.001430356    1.347    0.258
       232  -7.5624    166.7827     37.6142   4.6423002635e+01   3.8768528273e+01    0.2038115    0.1257593  78.05 0.0009554334    1.706    0.414
       233  -8.7943    118.9146     34.5065   5.4634519734e+01   5.0750697286e+01    0.2928586    0.1949005 -25.72 0.0006615235    1.631    0.387
       234  -9.1521    110.3849     33.2324   5.6238399712e+01   5.2868742144e+01    0.3191535    0.2418675 -47.86 0.0009175353    1.539    0.350
       235  -9.2007    100.9440     32.3705   5.8377400642e+01   5.5076422076e+01    0.4562739    0.2233119 -28.84  0.001500261    2.171    0.539
       236  -7.1504    163.4880     34.4558   4.6032987778e+01   3.9976476504e+01    0.1375897    0.1258782  71.37 9.550667e-05    1.044    0.042
       237  -9.1897    153.4907     33.8557   4.7498874841e+01   4.2507298627e+01    0.3508647    0.2284508  17.99  0.001594315    2.322    0.569
       238  -7.3689    141.6543     29.7183   4.8312546802e+01   4.5901064043e+01    0.1435267    0.0959202  37.58 0.0007013444    1.640    0.390
       239  -8.4546      1.4245     27.8115   9.7769816303e+01   7.0437768509e+01    0.2485446   0.08535084 -51.98 0.0007532962    2.306    0.566
       240 -10.0052    155.1658     25.6791   4.4762425376e+01   4.3060327533e+01    0.3595949    0.3327887 -35.48  0.002225657    1.192    0.161
       241  -8.1213    110.2640     26.6428   5.3859466647e+01   5.3689040974e+01    0.1966193    0.1154937  -8.22 0.0006907535    2.241    0.554
       242  -8.4893    128.3352     25.7255   4.9561062917e+01   4.9572022742e+01    0.2589186    0.1992914 -68.68 0.0007025401    1.566    0.361
       243  -7.8383    130.0242     21.4752   4.7796492936e+01   4.9630015223e+01     0.325253    0.1029429  41.07 0.0009895234    4.435    0.775
       244 -10.2163    161.0021    205.4692   8.8661050401e+01   7.9892135952e+00    0.2321901    0.2227837   0.04 0.0001151452    1.075    0.070
       245  -8.5232    113.0469    202.6177   9.8949510157e+01   1.6787783924e+01    0.2198438    0.1928715 -56.48 0.0005438368    1.225    0.183
       246  -8.6994    144.1781     25.8891   4.6648349715e+01   4.5725551004e+01    0.2514472    0.1750903 -33.43  0.001063249    1.547    0.354
       247  -8.5351    231.6188     23.1032   3.5242063633e+01   2.5449378984e+01    0.2073562    0.1606094  76.48 0.0005167981    1.292    0.226
       248  -8.7022    140.3875     22.7727   4.6322663968e+01   4.6990989482e+01    0.2394287    0.1228729 -33.15 0.0007459808    2.065    0.516
       249  -9.5156    118.8737     21.5137   5.0059938867e+01   5.2266976203e+01    0.2874778    0.2498197 -71.02 0.0007369772    1.340    0.254
       250  -9.1625    192.3293    194.8466   8.0142855197e+01   4.5102289772e+00    0.8559319    0.3885469 -58.57   0.00247062    5.925    0.831
       251  -8.3423    111.3719     21.4910   5.1707966655e+01   5.4006589849e+01    0.3017923    0.1686846 -18.01  0.001444961    2.090    0.522
       252  -7.0835    250.3249    193.3191   6.9135134192e+01  -4.4437986506e+00    0.1303817   0.08358607  -4.17 0.0007045625    1.676    0.403
       253  -8.9729     45.3818    192.7124   1.1344867561e+02   2.8794190544e+01    0.2120671    0.1915945 -80.41 0.0003194434    1.174    0.148
       254  -8.7759    183.0289    190.7887   8.1283317787e+01   6.8839518609e+00    0.2110767    0.1908344 -27.51 0.0003203957    1.120    0.107
       255  -7.5378    168.6308    187.7941   8.3783646230e+01   1.0058054700e+01    0.1956941    0.1353895 -55.52 0.0009285284    1.685    0.406
       256  -7.2715     92.2334    180.6353   1.0056732015e+02   2.5138357753e+01    0.1440141    0.1039956  82.21 0.0004866601    1.592    0.372
       257  -7.4425    110.8171    179.2039   9.5716117917e+01   2.2390859598e+01    0.1817877    0.1673108 -13.54 0.0002405721    1.263    0.208
       258  -8.8555     47.1492    176.9839   1.1130904032e+02   3.2299608173e+01    0.2124982    0.1886274  33.99            0    1.309    0.236
       259  -8.8914     40.8902     20.2472   7.4426535139e+01   6.7637462134e+01     0.254621    0.1590345 -37.27 0.0008678698    1.676    0.403
       260  -7.2984    116.1440    175.6072   9.3763644586e+01   2.2290388584e+01    0.1922421    0.1397768  25.66 0.0003869053    1.550    0.355
       261  -8.0089    230.2091    167.0313   6.7380149933e+01   2.8823575197e+00    0.2114808    0.1509067 -58.59  0.001075655    1.943    0.485
       262  -7.2827    141.9810    160.9379   8.4530188192e+01   2.0806262058e+01    0.1757973    0.1653858 -45.93 0.0003161833    1.070    0.065
       263  -8.7660    133.7239    146.9774   8.3556371631e+01   2.5615320279e+01     0.673438    0.1936989 -53.92  0.001779726    4.341    0.770
       264  -8.1229    139.7144     17.9990   4.4911707943e+01   4.7652878762e+01    0.1755532    0.1720303 -88.14 0.0004117947    1.107    0.096
       265  -7.8586    155.2930     17.6578   4.2352775735e+01   4.3892486267e+01    0.1377072   0.09302486 -66.19 0.0005224764    1.656    0.396
       266  -9.3886    235.2501    145.9119   6.2089950646e+01   5.6335127702e+00    0.2862472    0.2209203 -82.32  0.001481341    2.069    0.517
       267 -10.1627     66.5130    136.2209   9.9927167628e+01   3.9931132251e+01    0.5151529    0.4313538  67.47  0.002808929    1.275    0.216
       268 -10.2750     58.3415    124.5799   1.0016228310e+02   4.3938195085e+01    0.9772341    0.5367146  81.28  0.003355713    3.740    0.733
       269  -9.5236     67.1901    128.7089   9.8262882974e+01   4.1714359125e+01    0.4744718    0.3824686 -84.68  0.001899071    1.321    0.243
       270  -8.0183    129.2478     15.9853   4.6096652077e+01   5.0373372747e+01    0.1991059    0.1722878 -83.21 0.0005599223    1.250    0.200
       271  -9.6989    240.9534    143.6784   6.0691225835e+01   5.0145623740e+00    0.3490116    0.2206482   3.54  0.001557108    2.573    0.611
       272  -9.6201     66.5556    143.7991   1.0129848951e+02   3.8024844490e+01    0.5738227    0.3610975  62.95  0.002302602    1.939    0.484
       273  -7.9438    250.3309    141.3154   5.8740029618e+01   3.8056629753e+00    0.1329977   0.09561653  -5.22 0.0007045933    1.681    0.405
       274  -9.5347    188.4565    137.2527   6.8732391911e+01   1.6320108994e+01    0.2546725    0.2525658 -79.54 0.0002537148    1.085    0.079
       275  -8.7650    132.0383    136.3076   8.1540973591e+01   2.8413897440e+01    0.2792706    0.2235306 -47.39 0.0002724957    1.232    0.188
       276  -7.5848     96.1119    136.1919   9.1300714823e+01   3.5290883328e+01    0.2077775    0.1757427  80.28 0.0005270977    1.318    0.242
       277  -8.2848    243.7637     17.8825   3.3192267270e+01   2.3518619181e+01    0.1634349    0.1447456 -68.53  0.000616478    1.189    0.159
       278  -8.7522    112.2371    133.8356   8.6247995010e+01   3.2915316040e+01    0.3866348    0.2700656  88.25 0.0009726514    2.154    0.536
       279  -8.1265    193.5364    133.9462   6.6940607635e+01   1.5913118315e+01    0.2726621    0.2062046  24.64   0.00067125    1.551    0.355
       280  -9.6884    110.1702     90.1956   7.5350384979e+01   4.3237867743e+01     2.744274     1.023998  29.88  0.005228666    9.717    0.897
       281  -9.8938    140.6413    118.3412   7.4901814164e+01   3.0645824993e+01    0.6983036    0.3421144 -52.55  0.001930879    2.236    0.553
       282 -10.2730    139.5742    103.9949   7.1348586107e+01   3.3966373629e+01    0.9759607    0.4287066 -50.96  0.002077125    2.545    0.607
       283 -10.5993    131.6914    119.7309   7.7554386719e+01   3.2261322500e+01    0.8988134    0.5854216  84.14  0.002400842    2.985    0.665
