#   1 NUMBER                 Running object number                                     
#   2 MAG_AUTO               Kron-like elliptical aperture magnitude                    [mag]
#   3 X_IMAGE                Object position along x                                    [pixel]
#   4 Y_IMAGE                Object position along y                                    [pixel]
#   5 X_WORLD                Barycenter position along world x axis                     [deg]
#   6 Y_WORLD                Barycenter position along world y axis                     [deg]
#   7 A_WORLD                Profile RMS along major axis (world units)                 [deg]
#   8 B_WORLD                Profile RMS along minor axis (world units)                 [deg]
#   9 THETA_WORLD            Position angle (CCW/world-x)                               [deg]
#  10 FWHM_WORLD             FWHM assuming a gaussian core                              [deg]
#  11 ELONGATION             A_IMAGE/B_IMAGE                                           
#  12 ELLIPTICITY            1 - B_IMAGE/A_IMAGE                                       
         1 -15.0117     83.9388     26.1222   7.9240436475e+00   6.0341804054e+01     2.733554     1.753094  43.53   0.01361188    1.607    0.378
         2 -15.2088     27.4780     63.7465   4.8375614108e+01   6.3808594960e+01     2.565971     1.527117  19.36   0.00907464    1.763    0.433
         3 -15.1217     12.1965     48.3427   5.3058258108e+01   6.9024091545e+01     1.529361     1.107805 -13.19  0.006392009    1.418    0.295
         4 -15.8660     30.6210     34.7645   3.5555387654e+01   6.9811182036e+01     3.672989     1.326032  32.79    0.0139915    2.747    0.636
         5 -15.1395      5.9781     34.7074   5.3034247387e+01   7.2640118156e+01      1.99736     1.085434 -55.91  0.008227276    1.696    0.410
         6 -10.5747     14.9841     10.3969   3.3237224300e+01   7.6450582886e+01    0.4075999    0.1920139  24.88  0.001875901    2.293    0.564
         7 -10.0064     48.0925      6.6915   1.0265296453e+01   7.0879461242e+01    0.2058138    0.1540613  71.81   0.00117214    1.479    0.324
         8 -10.5948     46.9446    229.3613   6.4676400712e+01   1.9152401803e+01    0.2086624    0.1579057  64.53 0.0007908026    1.322    0.243
         9 -10.2074     42.5028    250.5518   6.7047697252e+01   1.5373421024e+01     0.221586    0.1162011  31.27 3.644496e-05    1.476    0.322
        10 -11.1027     40.1097    247.3482   6.7410724349e+01   1.6216509727e+01    0.2400566    0.1696971 -80.55 0.0006144814    1.647    0.393
        11 -14.1828     53.0212    215.2956   6.2087977350e+01   2.1536389369e+01     1.718375    0.7228573 -75.24  0.007395121    2.771    0.639
        12 -14.4360      9.2742    179.2641   7.1577062672e+01   3.4325260970e+01     1.277427    0.8648583  54.81  0.001391762    1.312    0.238
        13 -15.0753      9.4543    242.9442   7.4175097696e+01   1.9834497733e+01     1.839863     1.261844  37.97   0.01207346    1.148    0.129
        14 -15.7128      7.6743    206.9453   7.3303144385e+01   2.7728809842e+01     2.727757     1.494594  81.35   0.01420043    1.791    0.442
        15 -15.4138      6.3107    140.2261   7.0103051972e+01   4.4896464710e+01     2.579227     1.494233  87.37  0.008241804    1.650    0.394
        16 -11.2419     32.9778    222.1680   6.7651463822e+01   2.2071216071e+01    0.2187244    0.1416219  48.70  0.001239737    1.322    0.243
        17 -11.7713    108.1339    218.5501   4.8744088802e+01   1.4341038979e+01     0.431001    0.2951781  14.95  0.001576686    1.407    0.289
        18 -10.5742    122.7846    219.9023   4.5520652112e+01   1.2260987502e+01    0.3141885    0.1916855  28.87  0.001238867    1.444    0.308
        19 -12.2738     36.4252    218.3054   6.6543697599e+01   2.2583283386e+01     0.355621    0.1675871  42.44  0.001535975    1.747    0.428
        20 -12.4797     73.6847    223.4943   5.7628606338e+01   1.7474981619e+01    0.5536303    0.4188305  -4.12  0.003195796    1.528    0.345
        21 -12.0880     66.3607    218.6965   5.8997891551e+01   1.9319301951e+01    0.6862137    0.3143113  88.26  0.002562583    3.958    0.747
        22  -9.9310    121.3463    211.3054   4.4697748190e+01   1.4085058242e+01    0.1366892   0.09387009 -10.22 0.0007041912    1.695    0.410
        23 -15.3063     22.1561    172.6034   6.7304493933e+01   3.4973082265e+01      2.03038     1.485482 -87.72   0.01091025    1.327    0.246
        24  -9.2256    103.5197    202.5637   4.7797930104e+01   1.8192612008e+01    0.1356361    0.1218144  26.10 7.308551e-05    1.029    0.028
        25 -10.1490    210.9754    198.7395   2.4815493337e+01   5.1484072008e+00    0.1579296     0.125777  -7.75 0.0005092924    1.075    0.070
        26 -11.7091     97.7599    224.0035   5.1851067114e+01   1.4538092254e+01    0.3247711    0.2940178 -74.01  0.001250483    1.322    0.244
        27  -9.2182    206.7240    190.3355   2.4138357749e+01   6.9159694566e+00    0.1036625   0.09034339 -53.26 0.0003197531    1.606    0.378
        28 -10.3065     71.7124    185.9194   5.4046344421e+01   2.6138074106e+01    0.2591076    0.1889927  32.10 0.0005211637    1.267    0.211
        29 -11.2795     67.5208    186.0081   5.5235869831e+01   2.6647266032e+01    0.4134582    0.3074636  72.95   0.00199272    1.499    0.333
        30 -10.8354     64.0019    183.0184   5.5879071242e+01   2.7814850832e+01     0.338893    0.2136924  67.91 0.0009115521    1.881    0.468
        31 -11.3689    100.1963    185.9957   4.6309699560e+01   2.2271954359e+01    0.4062729    0.3150054  59.93  0.001458723    1.481    0.325
        32 -10.9885     80.0222    183.2364   5.1376798694e+01   2.5693163400e+01    0.3629789    0.2622497 -77.87  0.001046123    1.577    0.366
        33 -10.3103    139.6706    183.4606   3.6182865519e+01   1.7105903612e+01    0.3131571    0.1795665 -20.65  0.001327348    2.492    0.599
        34 -12.7756    118.0115    178.8928   4.0612165913e+01   2.1266345494e+01     0.822033    0.5845361 -31.37  0.002667432    1.535    0.349
        35 -12.9661    104.9779    173.7846   4.3140198664e+01   2.4364919469e+01    0.8924696    0.7359883 -27.80  0.003180922    1.304    0.233
        36  -9.7504     78.3229    177.6707   5.1093292802e+01   2.7264039716e+01    0.3066215     0.182213 -88.11  0.001270174    2.362    0.577
        37 -10.3715     77.0218    174.4966   5.1021290788e+01   2.8217990231e+01    0.3322192    0.1585397  34.79  0.001363575    1.909    0.476
        38 -12.1803    100.6889    222.6613   5.1001379259e+01   1.4448082623e+01    0.4530278    0.2556376  33.67  0.002351065    1.531    0.347
        39 -10.3147     72.7202    167.3648   5.1262722290e+01   3.0584175789e+01    0.2565531    0.1977887 -72.66 0.0008461658    1.364    0.267
        40 -11.3652     55.1760    165.7333   5.6388329840e+01   3.3282012369e+01    0.4951625     0.252396  82.66  0.001793339    2.907    0.656
        41 -10.5052    239.5074    162.4673   1.4382127320e+01   7.2302770026e+00    0.1143389   0.08611454 -27.24 0.0002434728    1.004    0.004
        42  -9.7746    153.6705    162.6896   2.9305995760e+01   1.9154146036e+01    0.1424412    0.1022685 -10.86 0.0005899859    1.666    0.400
        43 -12.7256     74.6454    157.4637   4.9173813541e+01   3.2836441382e+01     1.419563    0.8154359  55.33   0.00585747    2.022    0.505
        44 -12.8208     54.6080    129.7383   5.1201167881e+01   4.2995583117e+01      1.40964    0.9399154  64.97  0.006193884    1.741    0.426
        45 -13.3639     69.6390    144.6414   4.8637216484e+01   3.6893633238e+01     1.028447    0.5956805  42.43  0.002684377    1.691    0.409
        46 -13.3364     49.1274    143.5030   5.5345073330e+01   3.9952038462e+01     0.619324    0.4260672 -21.85  0.001341546    1.898    0.473
        47 -12.1418     44.5504    159.9190   5.9036143354e+01   3.6067314666e+01    0.4578908    0.3148726 -16.59  0.001542677    1.926    0.481
        48 -12.0717     51.1110    155.5984   5.6365656637e+01   3.6450199011e+01    0.4779704     0.372762  44.26 0.0007506424    1.228    0.186
        49 -10.5153    108.9515    145.4900   3.6903269308e+01   3.0379122685e+01    0.2747303    0.2226961 -56.98 0.0005921088    1.247    0.198
        50 -10.5855     36.8984    142.6570   5.9490051207e+01   4.1587613803e+01    0.2847014     0.207862 -86.38 0.0007351998    1.374    0.272
        51 -11.9236     77.0096    131.2336   4.3712208656e+01   3.9285054026e+01    0.3386919    0.2863428 -48.40 0.0004773051    1.204    0.169
        52 -10.2390     94.0882    132.1175   3.8454367549e+01   3.6203800556e+01     0.245157    0.2132057 -20.41  0.001234638    1.297    0.229
        53 -15.5474     33.8926    185.5753   6.4839359351e+01   3.0553941096e+01     1.984658     1.303077  48.93  0.005273718    1.385    0.278
        54 -10.5372    105.1521    130.6899   3.4857623125e+01   3.4590548493e+01    0.2701494    0.2144661 -69.42  0.001308793    1.367    0.268
        55 -11.3484     67.3726    125.3324   4.5814430186e+01   4.2345191272e+01    0.4204832    0.2784438  32.82  0.001878234    1.512    0.338
        56 -10.2221    174.5425    223.5274   3.5173839635e+01   5.4542108860e+00    0.1199564   0.09515628  -4.29 1.028524e-05    1.027    0.026
        57 -11.2755     90.5233    121.0896   3.7124848816e+01   3.9580223226e+01    0.3463701    0.2970108  15.85 0.0007584898    1.306    0.234
        58 -13.0346     64.0996    148.4558   5.1077342946e+01   3.6669291678e+01    0.4727464     0.439351   0.93 0.0006733628    1.172    0.147
        59 -10.6006     14.6906    120.0464   6.5107924146e+01   4.9905119375e+01    0.3680997    0.1878825  49.66  0.001095472    2.035    0.508
        60 -11.0543      1.7268    117.3867   7.0064437838e+01   5.1472615965e+01    0.4383253    0.1780846 -79.96  0.001568751    2.248    0.555
        61  -9.8399    102.9500    115.7387   3.2031678014e+01   3.8580342699e+01    0.2103745     0.194464  47.67 0.0003163353    1.092    0.085
        62 -10.9178     59.7053    111.7428   4.5772583886e+01   4.7118272412e+01    0.6056144    0.3195609  65.81   0.00198406    3.266    0.694
        63 -10.4315     66.1567    107.1768   4.2291424759e+01   4.7310195614e+01    0.2247797     0.183726  70.94   0.00108419    1.359    0.264
        64  -9.5164     33.7479    106.7740   5.5268530278e+01   5.1850756004e+01    0.2031509    0.1615242  60.41 0.0004551408    1.327    0.246
        65  -9.5132     24.2947    105.2712   5.9088063424e+01   5.3215628052e+01    0.1478051    0.1045798 -36.58 0.0006355211    1.518    0.341
        66  -9.4706     74.5671     96.7692   3.6528859751e+01   4.8506829671e+01    0.2202372    0.1487196 -70.44 0.0009400598    1.727    0.421
        67 -10.3083     32.9657     85.8711   5.1337792646e+01   5.7566540576e+01    0.2651861    0.2109009 -63.74 0.0009890586    1.219    0.179
        68 -11.3134     24.4519     82.9050   5.4845425332e+01   5.9254846755e+01    0.4867539    0.4238676 -59.50  0.001588986    1.092    0.084
        69  -9.8720     19.6425     84.2988   5.7547000997e+01   5.9329426764e+01    0.2061162    0.1432968  86.35 0.0009835241    1.623    0.384
        70  -9.8750     11.0587     84.5193   6.1923358048e+01   5.9934152178e+01    0.2033633    0.1401925  13.21 0.0008668593    1.546    0.353
        71 -13.8993    115.9810    242.9599   4.9826492394e+01   8.9179546048e+00     1.091595    0.4632821  22.73  0.004732105    2.105    0.525
        72 -14.7778     20.7480    193.7910   6.9145649861e+01   2.9758060044e+01     2.280572    0.7483122  50.80  0.008200631    2.786    0.641
        73 -13.9299      3.5664     63.3361   6.2279608548e+01   6.5931642926e+01     1.163536    0.4789011 -69.03  0.004561751    2.188    0.543
        74 -11.7123     54.9299    236.5004   6.3263029610e+01   1.6869510537e+01     0.323329    0.1804809 -72.58  0.001107335    2.093    0.522
        75 -10.7277     39.0773    233.0370   6.6818150831e+01   1.9174853194e+01    0.1892421    0.1551755  42.83 0.0003395865    1.012    0.012
        76 -12.1713     60.9453    228.8403   6.1224005957e+01   1.7788373657e+01    0.3765301    0.3020778  46.98  0.001775074    1.132    0.116
        77 -13.4504    228.0069     57.9800   3.5545957189e+02   2.4076658365e+01    0.7965494    0.4639478 -51.81  0.004894301    1.370    0.270
        78 -13.2008    236.4335     52.1202   3.5357582037e+02   2.3401489218e+01    0.5248019    0.3502491  61.75  0.001395874    1.898    0.473
        79 -12.8990    249.0062     46.1840   3.5151584347e+02   2.2081914270e+01    0.4273977    0.2734722 -39.17  0.001891583    1.261    0.207
        80 -13.0159    248.7437     41.9856   3.5072277436e+02   2.2628742821e+01    0.4336602    0.3876397  12.05  0.002395799    1.786    0.440
        81 -12.6433    219.7435     61.8073   3.5701238743e+02   2.5012265434e+01    0.4229228    0.3624889  46.89  0.002166592    1.589    0.371
        82 -10.9980     63.3845    224.3908   6.0250719874e+01   1.8446395058e+01    0.3228028    0.1917028  20.83  0.001087883    1.582    0.368
