#   1 NUMBER                 Running object number                                     
#   2 MAG_AUTO               Kron-like elliptical aperture magnitude                    [mag]
#   3 X_IMAGE                Object position along x                                    [pixel]
#   4 Y_IMAGE                Object position along y                                    [pixel]
#   5 X_WORLD                Barycenter position along world x axis                     [deg]
#   6 Y_WORLD                Barycenter position along world y axis                     [deg]
#   7 A_WORLD                Profile RMS along major axis (world units)                 [deg]
#   8 B_WORLD                Profile RMS along minor axis (world units)                 [deg]
#   9 THETA_WORLD            Position angle (CCW/world-x)                               [deg]
#  10 FWHM_WORLD             FWHM assuming a gaussian core                              [deg]
#  11 ELONGATION             A_IMAGE/B_IMAGE                                           
#  12 ELLIPTICITY            1 - B_IMAGE/A_IMAGE                                       
         1 -16.1530    188.3689     98.5792   6.9045097992e+01   2.3553287527e+01     3.666452     2.199205  83.32   0.01219843    3.420    0.708
         2 -17.0368    216.5663    127.0517   7.0856342800e+01   1.1926195722e+01      3.60275     2.389677 -41.89   0.01221003    1.474    0.322
         3 -19.6366    170.8632    146.7645   8.4788619841e+01   1.8042268671e+01     8.715058     8.540979 -31.34   0.04858525    1.047    0.045
         4 -11.9370    124.2443     41.8759   6.5808264958e+01   4.9023551314e+01    0.5273372    0.2648011 -45.32    0.0011218    2.308    0.567
         5 -12.2980    239.0336     15.8571   4.0234425854e+01   2.3741280748e+01    0.4617568    0.2435891 -59.27   0.00227063    1.831    0.454
         6 -12.0029    248.4213      8.9142   3.7907262669e+01   2.2414079258e+01    0.3666908    0.1576531 -23.49   0.00160434    2.850    0.649
         7 -10.4404    156.9911      7.2028   4.7113329545e+01   4.5019740442e+01     0.247514    0.1240129  43.90  0.001076467    2.053    0.513
         8 -10.4467     26.7860      7.0681   8.5967634536e+01   7.1179941152e+01    0.1621922    0.1351636 -16.66 0.0004977403    1.217    0.179
         9 -10.9333    178.6088      5.8762   4.3788528803e+01   3.9615441925e+01    0.2741451    0.1818507 -59.82 0.0009287538    1.604    0.377
        10 -10.1607      7.3008      4.8407   9.5508987058e+01   7.3298168308e+01    0.1666509    0.1269969   9.38 0.0006742258    1.408    0.290
        11 -11.3264    237.9591      4.0502   3.7599645142e+01   2.5290218579e+01    0.1886876    0.1482485  39.44 0.0008879953    1.711    0.416
        12 -10.8618    158.0981      2.2993   4.5367205944e+01   4.5178484988e+01    0.2391182    0.2056448  36.45 0.0003102697    1.222    0.182
        13 -10.7526    206.2203      1.7802   3.9714219667e+01   3.3065143474e+01    0.1729105    0.1455289  53.46 0.0005598688    1.311    0.237
        14 -10.3141    101.9365      2.5139   5.5861580225e+01   5.8766915776e+01    0.1970969     0.116469  55.76 0.0005713411    1.531    0.347
        15 -10.1381     39.9098      2.4990   7.7137948667e+01   7.0169700289e+01    0.1663913    0.1046188  32.37  0.001025279    1.570    0.363
        16 -10.0968     62.3862    148.8848   1.1190696114e+02   3.7066292970e+01    0.1889988    0.1471817 -71.19 0.0004497129    1.150    0.130
        17 -11.4542    220.4123    250.1979   9.3945837742e+01  -7.3270541198e+00    0.2058401    0.1298093  32.43 0.0005453102    1.247    0.198
        18 -13.9025    192.6435    249.0316   9.8671831094e+01  -3.0222198935e+00    0.3794301    0.2393795  32.87  0.001003352    1.251    0.200
        19 -12.2772    135.3580    250.3213   1.0923132141e+02   5.7363749250e+00     0.317933    0.1594314  50.05 0.0006371546    1.690    0.408
        20 -10.7548    125.7476    248.7538   1.1080809491e+02   7.4527853683e+00    0.2332994    0.1655241 -65.09 0.0005147799    1.747    0.428
        21 -11.3716    122.0536    244.3707   1.1101140546e+02   8.7101666222e+00    0.3910049    0.1883712  43.86  0.001758141    1.632    0.387
        22 -10.2235     42.9879    235.7148   1.2449752004e+02   2.1085897584e+01    0.1516724    0.1099666  64.73 0.0004536617    1.041    0.039
        23 -11.2656    215.3813    233.9128   9.2335663577e+01  -4.6211347809e+00    0.3374411    0.2107984  -8.32  0.001610065    1.925    0.481
        24 -10.8956    175.0763    224.6335   9.8384638062e+01   3.2117068273e+00    0.2467607    0.2228027  27.79  0.001663446    1.094    0.086
        25 -12.9736    164.4808    230.7773   1.0131357670e+02   4.0422302715e+00    0.3727126    0.2926678  52.65 0.0006802942    1.268    0.211
        26 -13.2806    165.9987    223.9993   1.0004324057e+02   4.8415127773e+00    0.6928406    0.3103459  42.55  0.002274661    1.874    0.466
        27 -11.1300    175.3029    232.0917   9.9445991630e+01   2.0569748800e+00    0.3748876     0.248119  24.70  0.002168491    1.507    0.336
        28 -11.3150    173.0997    228.5171   9.9341907395e+01   2.9536716123e+00    0.3515678    0.1858571  44.69  0.001117474    1.637    0.389
        29 -14.9919    239.1308    143.6305   7.0688194869e+01   4.5568083618e+00     1.378062    0.7992149 -23.73  0.002088722    1.762    0.433
        30 -16.4194    129.6613    136.9373   9.2332558084e+01   2.8736175664e+01     3.297826     2.131727 -31.44   0.01404341    1.960    0.490
        31 -10.1984    170.9926    248.6439   1.0253052390e+02   4.0224329474e-01    0.1670392    0.1194469  37.40 0.0005143512    1.095    0.087
        32 -11.4897    175.6717    244.9081   1.0117770640e+02   1.7585451091e-01    0.4758751    0.1810673  34.89  0.001635783    2.353    0.575
        33 -15.8504    169.4439    107.0958   7.5334408838e+01   2.6411858706e+01      2.20866     1.625211 -73.04  0.008551948    1.839    0.456
        34 -16.9098    186.1468    178.1554   8.8120831030e+01   8.9456355949e+00     1.884344     1.531938  70.61  0.008926852    1.622    0.383
        35 -10.1549    182.8904    248.4741   1.0034967705e+02  -1.4385662708e+00    0.1861847    0.0937664  38.24  0.001020801    1.562    0.360
        36 -12.7853     72.9779    141.8978   1.0807823166e+02   3.7301708020e+01    0.5798771    0.3217403 -80.79  0.001549044    2.191    0.544
        37 -11.8626     59.2918    142.7548   1.1179665629e+02   3.8915272093e+01    0.3527166    0.2617213  14.23  0.001481532    1.875    0.467
        38 -10.4237     30.7998    143.6202   1.1918908272e+02   4.1837055282e+01    0.1952601    0.1642658 -63.67 0.0005678262    1.228    0.185
        39  -9.9536     36.7502    141.2211   1.1740267295e+02   4.1819039634e+01    0.1602231    0.1303689 -58.80 0.0004625992    1.262    0.207
        40 -10.9677     90.3787    217.7865   1.1419794281e+02   1.8179784585e+01    0.2297468    0.1170571 -64.42 0.0009298975    2.110    0.526
        41 -11.0311     68.0616    135.5156   1.0831350944e+02   3.9507416628e+01    0.1964892    0.1349718  38.31  0.001026218    1.573    0.364
        42 -13.1683     78.1703    129.9535   1.0454919651e+02   3.9415912913e+01    0.7331961    0.4316899 -73.73  0.001945149    1.882    0.469
        43 -12.2351     80.5424    123.6502   1.0264651835e+02   4.0574068329e+01    0.4430364    0.3607459  26.27  0.001982759    1.431    0.301
        44  -9.7988     23.8682    219.1149   1.2682463399e+02   2.6306653069e+01    0.1329318    0.1093301  88.93 0.0003602171    1.275    0.216
        45  -9.8445     47.4779    133.5049   1.1354650804e+02   4.2519577831e+01    0.1325166    0.1119784 -78.88 0.0002855111    1.001    0.001
        46 -12.4114     63.0770    128.8827   1.0853710175e+02   4.1760522875e+01    0.3538297    0.2662382  58.19 0.0004853044    1.415    0.293
        47 -10.1955     47.8357    123.1447   1.1184399342e+02   4.4962985246e+01    0.1907769    0.1579964 -86.09 0.0002477374    1.123    0.110
        48 -10.9949     12.1724    122.7640   1.2163930877e+02   4.8246574042e+01    0.1987886    0.1555968 -83.36 0.0004130476    1.046    0.044
        49 -10.4606    249.6287    114.7750   6.2442275042e+01   7.1663006720e+00    0.3706709    0.2040208 -25.45  0.001673625    1.839    0.456
        50 -12.2213     93.0011    114.9171   9.7190651727e+01   4.0661594330e+01    0.4973355    0.2525568 -57.97  0.001282592    1.948    0.487
        51 -12.2280     95.5548    110.8872   9.5501854786e+01   4.1171803587e+01    0.4277925    0.3064947 -19.03  0.001941972    1.947    0.486
        52 -11.8576     88.1140    109.1553   9.7264329057e+01   4.2830454655e+01    0.4602678    0.2763849  27.54  0.001736493    2.040    0.510
        53 -10.2804     84.2766    108.5906   9.8269399444e+01   4.3581595376e+01     0.246794    0.2094614 -48.76 0.0002480544    1.112    0.100
        54 -11.6255     60.6148    216.0705   1.1983120329e+02   2.2621023876e+01    0.3832466     0.218618  32.42  0.002114641    2.056    0.514
        55 -10.5100     12.9149    216.3418   1.2859265288e+02   2.7942052608e+01     0.174104    0.1083629  77.96 0.0003110442    1.203    0.169
        56 -10.6181     26.5675    234.6863   1.2723042399e+02   2.3118979015e+01    0.2027006    0.1123754  41.74  0.001353348    1.699    0.411
        57 -10.1989     18.3008    112.2956   1.1866300304e+02   5.0248842533e+01    0.1228543   0.07707218 -48.29 0.0001922009    1.574    0.365
        58 -11.1641     72.9738    110.6209   1.0210860934e+02   4.4803419549e+01    0.2881492    0.2226501 -54.93  0.001554982    1.171    0.146
        59 -11.4948      3.4660    109.4077   1.2252483116e+02   5.1890779105e+01    0.3313115   0.07301137 -68.51   0.00131745    2.964    0.663
        60  -9.4332     24.2912    108.6447   1.1640025443e+02   5.0647526355e+01    0.1279193   0.08430479  78.26 0.0007028402    1.683    0.406
        61 -11.8625    229.2585    209.7879   8.5777878589e+01  -3.6523391100e+00    0.3507103    0.2491403 -62.27   0.00149372    2.998    0.666
        62 -10.4707    241.3356    104.3894   6.1266077944e+01   1.0524562135e+01    0.2626172     0.189749 -43.94 0.0006659325    1.305    0.234
        63 -13.8773    248.3583     88.1622   5.6392656910e+01   1.1638877746e+01       0.3744    0.3272393 -28.95 0.0009418189    1.087    0.080
        64 -11.7318    237.2638    100.5431   6.0966091594e+01   1.2012339560e+01    0.6793652    0.6235626  27.22  0.002699696    1.189    0.159
        65 -13.3073    246.3024     96.3901   5.8631239957e+01   1.0773755000e+01    0.3665283    0.3165685  47.98 0.0006486003    1.292    0.226
        66 -10.4254     69.4307    230.2037   1.1937243903e+02   1.8783982782e+01    0.2004659    0.1341223  48.34 0.0003470633    1.277    0.217
        67 -11.2048     66.8887    103.6232   1.0241799377e+02   4.7310625816e+01    0.2654371    0.1862025 -63.08 0.0004996149    1.323    0.244
        68  -9.7080     46.0406    106.4324   1.0944957326e+02   4.9156729964e+01    0.1658434    0.1332619  26.64 0.0003782405    1.477    0.323
        69 -13.0538     89.7133     87.3672   9.1108596144e+01   4.7551498537e+01      1.08736    0.4212906 -42.60  0.003881495    2.545    0.607
        70 -11.6227     85.2350     99.7502   9.5823960087e+01   4.5493262687e+01    0.4532007    0.2965345 -23.64  0.001985085    2.121    0.528
        71 -10.5674     85.0000     95.9716   9.4924718379e+01   4.6401165547e+01    0.3687496    0.1772506 -42.80  0.001005294    2.060    0.515
        72 -11.5877     78.8899    100.4665   9.7956092094e+01   4.6325259336e+01    0.2812092    0.2606504  56.47 0.0002914984    1.179    0.152
        73 -11.6225     97.1712    206.8003   1.1158812650e+02   1.9295769462e+01    0.3672189     0.171211 -67.72 0.0008841792    2.430    0.589
        74 -10.2181     44.1412    209.1559   1.2242311196e+02   2.6016096206e+01    0.1586482    0.1350453  84.01 0.0003494365    1.197    0.165
        75 -11.7074     72.3857     96.9421   9.9127660118e+01   4.8111159936e+01    0.5132968    0.2752412 -39.72  0.002231358    1.982    0.495
        76  -9.9488     46.9344     97.1753   1.0733715513e+02   5.1251860987e+01    0.1990741    0.1656455 -87.39  0.000547582    1.278    0.218
        77  -9.7193     11.5077    208.4528   1.2842556806e+02   2.9608199721e+01    0.1087799   0.08011118  77.49 6.409776e-05    1.047    0.045
        78 -11.1112    228.2342     90.6433   5.9929303768e+01   1.5618779064e+01    0.4005294    0.2904243  78.38  0.001534707    1.729    0.422
        79 -12.1833    104.1782     91.6687   8.7918482561e+01   4.3978801472e+01    0.5288259     0.230499  36.24  0.001914835    2.620    0.618
        80 -10.2840     66.7805     91.0902   9.9478970699e+01   5.0251863103e+01    0.4429077    0.1126766 -50.06  0.001437536    3.277    0.695
        81 -10.2432     52.0798     90.9828   1.0429955110e+02   5.2126777119e+01    0.2041733    0.1758182 -55.50 0.0004445759    1.010    0.010
        82 -12.5934     57.4357    205.0387   1.1948261338e+02   2.5229867761e+01    0.3221916    0.1925535  51.66  0.001004599    1.436    0.304
        83 -12.4449     14.4158     86.0075   1.1589988384e+02   5.6611683595e+01    0.2288315    0.1917691 -67.37 0.0003985159    1.073    0.068
        84 -10.2117    240.0125     86.0343   5.7044557003e+01   1.3757761182e+01    0.2116434    0.1928204 -45.68    0.0004655    1.029    0.028
        85 -12.6378    103.8918     71.4522   8.1851050994e+01   4.8281687538e+01    0.5714971    0.4037705 -30.75 0.0003143466    1.432    0.302
        86 -12.9454    121.4685     80.2356   7.9530982370e+01   4.2871463342e+01    0.5561775    0.4237771  23.09  0.001831173    1.519    0.342
        87 -12.2906    119.7231     75.7997   7.8628245791e+01   4.4134957978e+01    0.3282883    0.2988883 -19.85 0.0003323306    1.093    0.085
        88 -11.7313    107.0460     78.0030   8.2988184287e+01   4.6328759674e+01    0.2948464    0.2812679  32.14 0.0002943801    1.087    0.080
        89 -12.6152    111.6044     75.3263   8.0799642383e+01   4.5945970750e+01    0.5736756    0.4115757 -43.28 0.0004009219    1.362    0.266
        90 -14.4715    243.3800    221.7070   8.5392616405e+01  -7.3500184368e+00    0.4689783    0.3769558  17.69  0.001338145    1.123    0.109
        91 -10.6654     97.9193     82.1709   8.7034835964e+01   4.7214172884e+01    0.2685143    0.2077991 -29.62  0.000689394    1.320    0.242
        92 -10.7003     70.4868     82.8946   9.6095110700e+01   5.1589383956e+01    0.2672551    0.2036276 -22.67 0.0008341906    1.457    0.314
        93 -11.0419    239.3309     81.6817   5.6081461614e+01   1.4593081690e+01    0.2466662     0.218954 -43.21 0.0003816469    1.016    0.016
        94  -9.4841     19.4689    205.5013   1.2681119166e+02   2.9420025751e+01    0.1140396   0.08152989  75.09 -7.134014e-06    1.031    0.030
        95 -11.2655    233.9129    226.7590   8.7890412270e+01  -6.5557330169e+00    0.2291067    0.1669596  15.22 0.0003956925    1.125    0.111
        96  -9.8501      2.8253     80.8145   1.1893109077e+02   5.8438773984e+01    0.1543681    0.1169671 -86.33 0.0003667114    1.291    0.225
        97 -11.3219     12.0809    203.3397   1.2804148501e+02   3.0566881494e+01    0.2908287    0.1106341  60.66  0.001546159    2.257    0.557
        98 -10.2511    248.0196     78.2866   5.4091898583e+01   1.3235172930e+01    0.1841094    0.1751459 -63.49 0.0005407061    1.093    0.085
        99 -10.2036     92.1839     77.1787   8.7310915285e+01   4.9318856475e+01     0.193396    0.1697686 -68.94 0.0003481912    1.310    0.236
       100 -11.1918    201.4670    233.2322   9.4748022304e+01  -2.3497934188e+00     0.234574    0.1930669  46.00 0.0004854919    1.364    0.267
       101 -10.1905     77.8513     74.1827   9.1086825183e+01   5.2375018854e+01    0.1964717    0.1885837 -61.11 0.0003921018    1.153    0.133
       102 -10.5206    186.1947     72.2325   6.2150801887e+01   2.8785865125e+01     0.244836    0.2412064 -25.53 0.0003782982    1.044    0.042
       103  -9.9812     99.0749     71.6439   8.3393345127e+01   4.9181762594e+01     0.255834    0.2069185 -67.30 0.0009891706    1.530    0.346
       104 -11.0330    191.4832     67.8853   5.9956618704e+01   2.8181091446e+01    0.4512374    0.2341619 -51.22 0.0008072645    2.177    0.541
       105 -10.2367    222.5685     70.2688   5.5613794355e+01   2.0204592917e+01    0.2433909    0.1942204  67.72 0.0006177372    1.324    0.245
       106 -11.9962     68.4487    200.2230   1.1678862699e+02   2.4781992850e+01    0.7331726    0.2994172 -76.71   0.00319723    2.837    0.647
       107 -12.3564    215.0545     66.5642   5.5759497973e+01   2.2575332746e+01    0.3307416     0.286467 -30.56 0.0003660581    1.162    0.140
       108 -10.6522    244.5894    199.2733   8.1151665029e+01  -4.6758269575e+00    0.2187918    0.1665639   4.46 0.0003867034    1.130    0.115
       109 -12.3908     94.3246     66.0258   8.3042705786e+01   5.1197896780e+01    0.3094633    0.2680967  28.34 0.0003826774    1.186    0.157
       110 -11.1595     99.5039     65.0040   8.1065351883e+01   5.0407741097e+01    0.3173538    0.2528031 -79.55  0.001551032    1.812    0.448
       111 -10.4217     97.3435     61.2371   8.0455728718e+01   5.1545305060e+01    0.2512431    0.1940809 -24.43 0.0002890705    1.290    0.225
       112 -11.3626    221.6889    224.9370   8.9748778944e+01  -4.4549281258e+00    0.4089931    0.1876168  26.94  0.001939573    2.242    0.554
       113  -9.7215     27.6644    196.7039   1.2467878581e+02   3.0376536770e+01     0.101396   0.08368513 -54.44 0.0003775316    1.648    0.393
       114 -12.1965    193.6133     61.4338   5.7762415424e+01   2.8678639656e+01    0.6884818    0.3387401 -50.68   0.00199608    2.289    0.563
       115 -10.3770    177.4037     52.7608   5.8049684363e+01   3.4143676261e+01    0.1997115    0.1469474 -15.76  0.000453434    1.587    0.370
       116 -11.2175    177.4815     57.4711   5.9448108589e+01   3.3398781832e+01    0.3759044    0.2696837 -45.45 0.0008452954    1.406    0.289
       117 -11.0921    186.3286     61.0088   5.8895403834e+01   3.0588466162e+01     0.527443    0.2514729 -29.77  0.002011921    2.213    0.548
       118 -10.6370    181.4260     61.5451   5.9932421904e+01   3.1748707672e+01    0.3182094    0.2543516  84.37 0.0006414449    1.384    0.278
       119 -10.6604     36.3404    194.4641   1.2279669060e+02   2.9916465893e+01    0.2010809     0.151904  79.23 0.0001390217    1.033    0.032
       120 -11.8518    124.9049     76.2771   7.7347770691e+01   4.2906826917e+01    0.3510948    0.2643148  55.21   0.00166616    1.424    0.298
       121 -11.6950    205.6885     62.5582   5.6118293297e+01   2.5487046962e+01    0.3719673    0.2775493  72.42 4.439306e-05    1.412    0.292
       122 -10.2735    211.0076     60.5208   5.4757165294e+01   2.4491231709e+01    0.3389228    0.1484365  66.12   0.00126677    2.534    0.605
       123 -10.1585    200.1348     59.8285   5.6243855682e+01   2.7290377615e+01    0.2209489    0.1923168 -69.13 0.0003559603    1.159    0.137
       124 -12.3101    183.7934    221.5014   9.6228847178e+01   2.2160249710e+00    0.5562965    0.3014237  49.77  0.001636022    1.918    0.479
       125 -10.8967     53.2924    191.6981   1.1908702790e+02   2.8529280448e+01    0.2050158    0.1600777  83.45 0.0003782114    1.066    0.062
       126  -9.5217     63.4849     62.5500   9.2482292147e+01   5.6946512994e+01    0.1357024    0.1200628 -32.35 0.0001335725    1.027    0.026
       127 -10.6855     37.3514     61.2934   1.0201601260e+02   6.0298060795e+01    0.2198646    0.1908006 -49.45 0.0003304417    1.110    0.099
       128  -9.5903    235.4868     60.5105   5.1390188022e+01   1.8683584393e+01    0.1418923    0.1251358 -55.77 0.0001211647    1.031    0.031
       129 -12.6040    138.6347     57.6780   6.7738318977e+01   4.3106324578e+01    0.6170695    0.3980821  11.00   0.00121431    2.431    0.589
       130  -9.7603     79.8715     58.1510   8.5157020874e+01   5.5296717256e+01    0.1860243    0.1489405 -15.61 0.0002702418    1.250    0.200
       131 -10.3852    113.1408     56.2743   7.3969280405e+01   4.9203234982e+01     0.426119    0.2467559  66.08  0.001241257    2.683    0.627
       132 -11.5021     56.0285    188.9173   1.1823874777e+02   2.8785642225e+01     0.240652    0.1931512  63.59 0.0004005728    1.112    0.100
       133  -9.9963     15.1619    223.8878   1.2859161347e+02   2.6291402066e+01    0.1698132    0.1026807  66.97 0.0006246293    1.219    0.180
       134 -10.5019    210.6259     54.5644   5.3215221681e+01   2.5478078377e+01     0.240693    0.2224841  86.29  0.000421743    1.072    0.067
       135 -12.0066    200.7664     52.1812   5.4021152878e+01   2.8282917813e+01    0.4424597    0.3448098  46.80  0.001531851    1.376    0.273
       136 -11.0501    123.6599     52.5422   6.9765526674e+01   4.7488305096e+01    0.3467717    0.2606156 -18.36 0.0004789598    1.426    0.299
       137 -10.8088     73.1707     51.9640   8.5323946960e+01   5.7569323969e+01    0.3796411    0.1913739 -49.74  0.001656438    2.143    0.533
       138  -9.9391    249.2843     53.3080   4.8017249471e+01   1.6628033138e+01    0.1956193    0.1320996 -51.99 0.0002729333    1.345    0.256
       139 -11.6853    250.1391     49.9813   4.7143442116e+01   1.6903934411e+01    0.2241811    0.1713571 -37.73 0.0003650105    1.204    0.170
       140  -9.6826     84.5555     53.5219   8.1906606278e+01   5.5355057674e+01    0.1395386    0.1280533 -19.28  4.85259e-05    1.051    0.049
       141 -11.9738     66.7542    185.1941   1.1553357231e+02   2.8204418755e+01     0.231802    0.1962817  69.66 0.0002505653    1.063    0.059
       142 -12.4609     31.3283     51.9955   1.0170608481e+02   6.2797618571e+01    0.2703959    0.2325179 -74.25 0.0004917155    1.436    0.303
       143  -9.9633    222.8614     51.5001   5.0736842284e+01   2.2950247611e+01    0.2833351    0.1950662  -6.82  0.001317045    2.038    0.509
       144 -10.8453    184.8262     51.4371   5.6362394084e+01   3.2440439236e+01    0.3042017    0.2166694 -59.55  0.001180073    1.541    0.351
       145  -9.7485    248.1658    185.4809   7.7894122109e+01  -3.3629341859e+00    0.1780731    0.1149006  33.52 0.0005442136    1.490    0.329
       146 -10.8771     96.6319    231.0776   1.1436749235e+02   1.4803276188e+01    0.2268486    0.1524227  40.46 0.0007848291    1.384    0.277
       147 -11.8063     18.4208     49.1709   1.0629090070e+02   6.4406417260e+01    0.2320031    0.1805151 -39.90 0.0002928097    1.053    0.050
       148  -9.7451     17.4742    184.4886   1.2583276924e+02   3.3943356301e+01    0.1163791   0.08712625  81.47 1.679753e-05    1.001    0.001
       149 -11.6091     73.8916    220.0937   1.1764142915e+02   2.0079746502e+01    0.3301652    0.2446806 -52.55  0.001648284    1.779    0.438
       150 -10.3423     36.0321     49.0534   9.8831155318e+01   6.2949223047e+01    0.1892865    0.1517826 -33.70 0.0003067003    1.029    0.029
       151 -10.1609    160.1102     47.9042   5.9809472547e+01   3.9299882341e+01    0.2358334    0.1989188 -62.40 0.0009092992    1.290    0.225
       152 -10.4215    115.2060     47.6893   7.0317287463e+01   5.0189068884e+01    0.3723008    0.2103362  35.74 0.0006768815    1.919    0.479
       153 -11.1334    118.9553     44.5559   6.8158059163e+01   4.9838702489e+01    0.2210694    0.1901579 -24.89 0.0003193822    1.166    0.142
       154 -10.9581    185.5976    243.3155   9.9142116510e+01  -1.1789480199e+00    0.2424826    0.1777695 -46.31   0.00128427    1.776    0.437
       155 -10.0449     18.6768     39.6409   1.0332347941e+02   6.6301210476e+01    0.3109145   0.09136058 -39.35  0.001269787    3.051    0.672
       156 -10.5199    154.5379     42.6859   5.9231550993e+01   4.1476705909e+01    0.2510001    0.1839585 -88.15  0.001161917    1.712    0.416
       157 -11.3650    149.2128     40.3830   5.9554112701e+01   4.3149037654e+01     0.387199    0.2790812  13.55 0.0005021704    1.751    0.429
       158  -9.9073     41.8735    177.6503   1.2017101872e+02   3.2923186473e+01    0.1636174    0.1576568 -35.90 0.0007815998    1.465    0.317
       159 -11.1051     65.9041     40.9158   8.3849049783e+01   6.0701003203e+01    0.4807424    0.1752309  39.92  0.001683101    2.923    0.658
       160 -10.1039     41.5506     40.6411   9.3592757874e+01   6.3995063769e+01    0.2925685    0.1438367 -32.52  0.001416559    1.971    0.493
       161  -9.7563    231.4449     40.5202   4.6921722395e+01   2.2435128642e+01    0.1380974    0.1215263 -62.14 0.0001005838    1.013    0.013
       162 -10.4323    165.4963     38.8134   5.5891017666e+01   3.9211350985e+01    0.4224569    0.2584838 -81.89  0.001683521    2.437    0.590
       163 -11.8864    229.8782    220.2056   8.7489929221e+01  -5.1203743712e+00    0.2855154    0.2076439  35.31  0.001505784    1.307    0.235
       164 -10.8320     90.7338     39.5769   7.4569365350e+01   5.6587674209e+01    0.2370396    0.2081746 -34.43 0.0005069248    1.210    0.173
       165 -10.0934     13.6019    175.7756   1.2600998964e+02   3.6159927916e+01    0.1626999   0.08603493  89.23 0.0009406795    1.570    0.363
       166 -10.7052    177.7029     37.5890   5.3417347479e+01   3.6227424687e+01    0.2357903    0.2035368  57.82 0.0006374191    1.128    0.114
       167 -11.7550     55.0202     37.4299   8.6747422278e+01   6.2894223614e+01    0.2760281    0.2287405  -0.87 0.0003310152    1.131    0.116
       168  -9.9785    134.3435     37.2911   6.1725425905e+01   4.7267639111e+01    0.1547393    0.1056251  28.20 0.0002469787    1.655    0.396
       169 -10.2640    108.7719     36.4671   6.7909762478e+01   5.3322804361e+01    0.2333451    0.2126081 -77.02  0.001219616    1.384    0.277
       170 -10.1168     76.0358     37.0663   7.8569381763e+01   5.9687654006e+01    0.1938018    0.1733835 -18.13 0.0003485358    1.106    0.096
       171 -10.4997     68.7620    174.9318   1.1387148360e+02   3.0203057978e+01    0.2151178    0.1869619 -69.27  0.000205228    1.216    0.177
       172 -10.2913     55.0694    171.9914   1.1664353608e+02   3.2636837409e+01    0.1925261    0.1593335  85.98 0.0003365531    1.014    0.014
       173 -10.5652     98.0583     32.4210   6.9427783072e+01   5.6188675697e+01    0.2940023    0.2033676  13.39  0.001225078    1.638    0.390
       174 -10.0204    200.0154     32.5104   4.8663184607e+01   3.1173324495e+01    0.2113628     0.134031  68.83 0.0005887508    1.525    0.344
       175  -9.8640     35.2591    171.4232   1.2102693102e+02   3.5024284652e+01    0.1657108   0.09507356  51.57  0.000937416    1.641    0.391
       176 -10.2480     58.9800     31.4317   8.2693241961e+01   6.3337533647e+01    0.2405448    0.1546247 -20.95 0.0005749787    1.508    0.337
       177 -10.9871      3.0069    168.6482   1.2771667449e+02   3.8580699839e+01    0.2373088    0.1302713 -82.60 0.0007478757    1.412    0.292
       178 -10.4414     71.1265    168.3344   1.1247698436e+02   3.1371982922e+01    0.2231226    0.1447849 -76.28 0.0007251255    1.469    0.319
       179 -10.8837    141.7427     27.2512   5.6583720414e+01   4.6743857696e+01    0.2499181    0.1962617 -21.61 0.0003959728    1.356    0.263
       180 -11.1173    126.1790     27.1610   5.9923098598e+01   5.0567209056e+01    0.2710995    0.2087764  17.43 0.0005276641    1.397    0.284
       181 -11.8113    247.9703    166.2501   7.4047084639e+01  -5.5720124852e-01    0.2248064    0.2093768   5.97 0.0003322796    1.198    0.166
       182 -10.7941     23.7799    166.6591   1.2312693071e+02   3.7231762824e+01    0.2646664    0.2031693 -26.16  0.001260309    2.088    0.521
       183 -10.4607     49.6111     28.7660   8.5427199177e+01   6.5090512065e+01     0.199097    0.1595837  14.91 0.0003494457    1.236    0.191
       184 -10.6154      8.2516     28.4241   1.0454224887e+02   6.9147478390e+01    0.2439995    0.1589612  -9.28  0.001613898    1.594    0.373
       185 -10.0903    203.0496     28.4971   4.7169344361e+01   3.0911282144e+01    0.2197399    0.1309399  68.15  0.001037474    1.607    0.378
       186 -10.7501     65.7766    165.4596   1.1336091823e+02   3.2754419134e+01    0.2527185    0.2042556 -77.60 0.0007720094    1.124    0.110
       187 -11.0308     68.3619    160.1880   1.1203116348e+02   3.3625101666e+01    0.4142031    0.1399682 -52.83  0.001569189    3.024    0.669
       188 -10.1513     67.3125     26.3094   7.7242411396e+01   6.2823919463e+01    0.1349057   0.09067026   3.16 0.0003337394    1.626    0.385
       189 -10.7071     33.8088     25.5609   9.1106492240e+01   6.7527308301e+01    0.3197447    0.1873105  41.09  0.001169412    2.322    0.569
       190 -10.3595    209.2535     25.2096   4.5537435518e+01   2.9761404024e+01    0.2262142    0.1705684  63.28 0.0003134144    1.311    0.237
       191  -9.9856     42.2976    162.3578   1.1851029440e+02   3.6317083804e+01      0.22007   0.09878908 -72.93  0.000907204    1.964    0.491
       192 -11.0363     18.5131     43.4131   1.0457064198e+02   6.5566730527e+01    0.2016673    0.1708017 -48.82  0.000322571    1.162    0.139
       193 -10.1234    101.8428     22.1860   6.4159030110e+01   5.6737079689e+01     0.191189    0.1470294  14.63 0.0007553448    1.297    0.229
       194 -10.4696     49.3657     21.2158   8.2198222598e+01   6.6310328281e+01    0.2010814    0.1340011 -19.18  0.001177066    1.352    0.260
       195 -10.2063     13.0019    162.7713   1.2517134651e+02   3.9056846127e+01     0.157436    0.1262598  83.81  0.001120259    1.073    0.068
       196 -12.4982    182.2544    238.2826   9.9040090421e+01   4.0577993725e-02    0.4118786    0.2520615  25.61   0.00134436    1.598    0.374
       197 -10.1048    175.2603     17.0649   4.7566142075e+01   3.9337576869e+01     0.187104    0.1744658 -59.05 0.0003624983    1.105    0.095
       198 -11.4040     17.4941    158.6743   1.2383972609e+02   3.9588059023e+01    0.3211891     0.155452 -57.27  0.001267362    2.059    0.514
       199  -9.8184     12.4674     16.0119   9.7680972286e+01   7.1088322820e+01    0.1687646   0.09017841 -46.20 0.0005100417    1.541    0.351
       200 -11.5412     13.9343    155.2934   1.2435719745e+02   4.0649437361e+01    0.3851979    0.1749921  81.61  0.001900083    2.238    0.553
       201 -10.0118     50.1292     15.1994   7.9048528755e+01   6.7073373926e+01    0.1884961    0.1400846  -0.44 0.0006041711    1.186    0.157
       202 -11.7092     80.9940    160.8240   1.0904881869e+02   3.1688189508e+01    0.4409907    0.2577558  85.00  0.001936863    2.280    0.561
       203  -9.3677    162.3105     13.3253   4.8289054091e+01   4.3061982677e+01    0.1463033   0.09747528  36.72 0.0002527062    1.657    0.397
       204 -12.8944    193.4680    237.5683   9.6870073766e+01  -1.6564034629e+00    0.2934163     0.236603   2.56 0.0005507852    1.288    0.224
       205 -12.2735     76.8701    156.6383   1.0942885907e+02   3.3263437820e+01    0.4113087     0.249085 -56.63  0.002026104    1.604    0.377
       206 -11.6360    190.0226    231.0577   9.6528799574e+01  -2.0764399103e-01    0.3485284    0.2139562  37.95  0.001522484    1.345    0.256
       207 -10.2213    112.0084    241.0014   1.1250905526e+02   1.0791113612e+01    0.1954404    0.1190508  65.50 0.0007212816    1.723    0.420
       208 -10.3753      2.9935    241.0360   1.3132345771e+02   2.4376748852e+01    0.1510284    0.1015996  71.84 0.0003267792    1.025    0.024
       209 -11.2121    108.1191    219.7885   1.1090837613e+02   1.5111572585e+01       0.1947    0.1689158 -88.23 0.0005196379    1.208    0.172
       210 -11.3378    104.0078    236.7392   1.1355669641e+02   1.2715244103e+01     0.457029    0.2401991  61.46  0.002429349    1.963    0.491
       211 -10.2302    245.0680    237.9444   8.7819369199e+01  -9.4751497355e+00    0.1842643    0.1365063  12.55  0.001086135    1.027    0.026
       212 -10.6076     57.0199    158.2159   1.1451815641e+02   3.5553805903e+01    0.2081682    0.1611758 -78.87 0.0003399885    1.132    0.116
       213 -11.8241    231.9502    237.1057   8.9926368774e+01  -7.5015849080e+00     0.397623    0.2289215  29.43  0.002010472    1.415    0.293
       214 -10.6892    133.3977    234.4883   1.0774703880e+02   8.5341927383e+00     0.209382    0.1715303  49.65 0.0004827388    1.018    0.018
       215 -12.1338    125.6030    235.1622   1.0931110492e+02   9.6616960645e+00    0.3684911    0.2461783  75.22  0.002125184    1.859    0.462
       216 -11.5997    118.3690    235.4010   1.1071058472e+02   1.0754114040e+01    0.2667029    0.2330024  61.84  0.000660798    1.107    0.096
       217 -11.2725     68.7625    236.4116   1.2000180460e+02   1.7745595262e+01    0.1980447    0.1547452  71.19 0.0003102895    1.074    0.069
