#   1 NUMBER                 Running object number                                     
#   2 MAG_AUTO               Kron-like elliptical aperture magnitude                    [mag]
#   3 X_IMAGE                Object position along x                                    [pixel]
#   4 Y_IMAGE                Object position along y                                    [pixel]
#   5 X_WORLD                Barycenter position along world x axis                     [deg]
#   6 Y_WORLD                Barycenter position along world y axis                     [deg]
#   7 A_WORLD                Profile RMS along major axis (world units)                 [deg]
#   8 B_WORLD                Profile RMS along minor axis (world units)                 [deg]
#   9 THETA_WORLD            Position angle (CCW/world-x)                               [deg]
#  10 FWHM_WORLD             FWHM assuming a gaussian core                              [deg]
#  11 ELONGATION             A_IMAGE/B_IMAGE                                           
#  12 ELLIPTICITY            1 - B_IMAGE/A_IMAGE                                       
         1 -11.2379    197.2678     21.0208   5.8365491145e+01   3.2909285884e+01    0.8300705    0.6204628 -25.50  0.001831618    1.350    0.259
         2  -9.3441    200.5086     16.4828   5.6627393810e+01   3.2547455866e+01    0.3177656    0.2700704 -29.58 0.0008798079    1.185    0.156
         3  -7.6191    171.9665     14.0154   5.9547373505e+01   4.0260228683e+01     0.217333     0.154968  33.56  0.001060637    1.488    0.328
         4  -8.7355    120.1391    249.4768   1.2353566269e+02   1.1334343914e+01    0.1998048    0.1565022 -47.68 0.0008898487    1.751    0.429
         5  -8.6005     96.6752    249.7886   1.2769530614e+02   1.4354732702e+01    0.3189371    0.1331508  46.06  0.001884249    1.760    0.432
         6  -9.4999     69.1279    244.9251   1.3214151860e+02   1.8415510328e+01    0.3386754    0.2516177  60.32  0.002045157    1.105    0.095
         7  -9.3563     73.4941    250.4842   1.3174820350e+02   1.7080259597e+01    0.2569401    0.1772041 -65.05  0.001893051    1.850    0.459
         8  -9.4397     69.9507    250.5175   1.3235274555e+02   1.7487504805e+01    0.2907273    0.1307935  39.05  0.000782458    1.693    0.409
         9  -9.6821     61.5340    249.9411   1.3373974554e+02   1.8529774790e+01    0.3509672    0.1792699  66.77  0.001254809    1.893    0.472
        10  -8.7042     63.4703    247.5284   1.3327160379e+02   1.8671825219e+01    0.1996333   0.09337491  62.17 0.0006278467    2.004    0.501
        11 -10.9050     77.3382    218.1312   1.2869458278e+02   2.1718806328e+01    0.6610119    0.4229407 -69.64  0.003372767    1.771    0.435
        12 -11.0445     66.3540    199.9713   1.2934389055e+02   2.6273802200e+01    0.5908528      0.51285  78.84  0.003161348    1.138    0.122
        13 -12.9039     57.7947    210.9511   1.3190543413e+02   2.5286434449e+01     4.536665     1.229298  55.62   0.01741584    4.368    0.771
        14 -10.9910     29.0799    250.1767   1.3906872189e+02   2.1883034112e+01    0.5848517    0.1232362  39.77   0.00114058    2.815    0.645
        15 -10.8185     29.3427    243.9074   1.3877773752e+02   2.2811825947e+01    0.3797486    0.2566927  54.92   0.00132474    1.058    0.055
        16 -11.7527      6.0537    235.4312   1.4224330530e+02   2.6261375068e+01    0.6836666    0.4076764  58.27  0.002975401    1.158    0.137
        17 -13.6794     17.9381    243.7249   1.4060849567e+02   2.3914482708e+01     2.313028    0.5810826 -67.53   0.01236664    4.257    0.765
        18  -7.6094     72.2345    238.6057   1.3117938337e+02   1.9018130253e+01    0.1382067   0.08434328  34.02 0.0004321724    1.543    0.352
        19  -7.6087    101.9498    235.4617   1.2555338974e+02   1.5772960279e+01     0.151132    0.1270351  59.73 0.0004630252    1.157    0.135
        20  -8.2074     67.0922    235.0627   1.3185449013e+02   2.0176432629e+01    0.1696582   0.09100416  60.30 0.0003344174    1.642    0.391
        21  -7.6428    120.9708    232.3401   1.2171881677e+02   1.3646871767e+01    0.1828046   0.08477576  21.93 0.0007045318    4.321    0.769
        22  -8.7421    114.8580    231.2012   1.2275006639e+02   1.4668210431e+01    0.2204061     0.145436 -69.59  0.001447055    1.993    0.498
        23  -9.2791    103.3936    228.5010   1.2464672185e+02   1.6648316880e+01    0.3239998    0.1372175  57.82  0.001511625    2.984    0.665
        24  -9.9778     54.8500    230.8054   1.3376731718e+02   2.2247772572e+01    0.3387014    0.2061789  58.42 0.0008689908    1.296    0.229
        25  -7.8729    121.5136    227.4669   1.2110654500e+02   1.4297438653e+01    0.1164819   0.09079456  41.70 3.046936e-05    1.018    0.017
        26 -10.2952     59.2695    227.2915   1.3275028268e+02   2.2328963002e+01     0.615194    0.2058846  60.76  0.002736395    3.663    0.727
        27 -11.6307     47.4323    232.4121   1.3517183728e+02   2.2791159706e+01    0.7333126    0.4506745  62.50  0.005413808    1.303    0.232
        28  -8.9322    110.3694    224.6424   1.2294256097e+02   1.6297302766e+01    0.2089421    0.1763315  34.37 0.0009492455    1.185    0.156
        29 -10.0721    156.1396    218.5412   1.1337688845e+02   1.0464570581e+01    0.2036759    0.1723213  34.72  0.001423645    1.093    0.085
        30  -7.3489    187.6525    217.3107   1.0721083637e+02   5.7282708198e+00    0.1141808   0.08739436  53.84 0.0002753003    1.710    0.415
        31  -9.7521     40.0666    214.7175   1.3550245845e+02   2.6536326610e+01    0.3029342    0.1648656  46.09 0.0009747089    1.443    0.307
        32 -11.7197     35.8649    230.2252   1.3707380099e+02   2.4342158428e+01    0.9008686    0.6827944 -40.38  0.006044002    2.270    0.559
        33  -7.5372    169.1483    213.8410   1.1021398561e+02   9.0981123305e+00    0.1724305    0.1392418  41.80 0.0003610157    1.215    0.177
        34  -8.3238      2.4156    213.3883   1.4217716747e+02   3.0205408313e+01    0.1549534    0.1323112 -80.50  0.001381685    1.447    0.309
        35 -11.4139     11.1150    207.0360   1.4042203957e+02   3.0597252555e+01     0.473252    0.2730046  32.36  0.002103829    1.796    0.443
        36  -8.5681     36.8259    207.9835   1.3572127875e+02   2.8055429202e+01    0.1806802    0.1182929  51.12 0.0004886825    1.217    0.179
        37  -7.5758    157.7410    204.0038   1.1102890671e+02   1.2356716158e+01    0.1635043    0.1388514  33.44 -0.000275831    1.060    0.057
        38  -9.0384    198.9808    200.0213   1.0234740367e+02   6.1806822818e+00    0.3182638    0.1824858  31.70  0.001565881    1.439    0.305
        39  -8.0539      9.9294    195.8084   1.4018580697e+02   3.2726310636e+01    0.1928384    0.1221633  44.49 0.0007056026    1.394    0.283
        40  -7.9810     12.3004    193.7013   1.3964683011e+02   3.2921072858e+01    0.1633115    0.1096271  63.31 0.0005526248    1.145    0.127
        41 -11.9032      3.4664    249.1770   1.4302042078e+02   2.4361732117e+01    0.5324853     0.368833  85.72  0.003426014    1.380    0.275
        42 -11.9501    243.6327    240.7319   1.0095078148e+02  -4.9109580547e+00    0.2297349    0.1687265  16.93 0.0005467294    1.151    0.131
        43  -8.3671    208.8562    187.7070   9.8343050807e+01   6.1886993834e+00    0.2435133    0.1380387 -15.99  0.001216987    2.086    0.521
        44  -9.2470     77.9313    183.9839   1.2536003274e+02   2.7868276345e+01    0.2972852    0.2195629 -50.66 0.0004814735    1.624    0.384
        45  -9.4428     81.9452    178.0323   1.2380319719e+02   2.8512608542e+01    0.3270095    0.2175123 -39.87   0.00164011    2.057    0.514
        46  -7.2804    214.2882    183.6599   9.6589034691e+01   5.8158601662e+00    0.1096068    0.1056284  72.50 0.0002087675    1.641    0.391
        47  -7.5246    199.2178    180.2110   9.8809709583e+01   8.8758728505e+00    0.1906146    0.1015143 -45.40 0.0006555328    2.497    0.600
        48  -7.7254     32.9888    173.2783   1.3425980451e+02   3.5064438998e+01    0.1543681    0.1274517  61.42 0.0004024769    1.097    0.089
        49  -7.6345    174.4737    169.0200   1.0171445059e+02   1.5030658554e+01    0.1857648    0.1345865 -33.96 0.0003246944    1.506    0.336
        50  -9.5761     89.1130    167.6664   1.2086187437e+02   2.9620382807e+01    0.3545045    0.2362863  63.89 0.0004555567    1.600    0.375
        51 -10.7768     77.9489    163.4529   1.2296850467e+02   3.2023801237e+01    0.3789683    0.2658035 -42.05  0.002138253    1.781    0.439
        52  -9.2767     19.5197    165.7498   1.3669024016e+02   3.7795148592e+01    0.2718582    0.1196055  42.05  0.001548838    1.999    0.500
        53  -9.2970    248.7211    162.8171   8.6455744915e+01   2.7350446329e+00    0.2728385    0.1984082  31.05 0.0009554202    1.319    0.242
        54  -9.1986    249.2837    157.9152   8.5362569731e+01   3.2489172672e+00    0.2346741    0.1814785  -1.78 0.0002350202    1.057    0.054
        55  -8.4508     40.8408    163.1283   1.3169294507e+02   3.6399933073e+01     0.194604    0.1369812  66.65 0.0006907692    1.269    0.212
        56  -9.2407     94.6209    160.6456   1.1856682665e+02   3.0274031470e+01    0.4297739    0.2575807 -40.81  0.001393064    2.122    0.529
        57  -9.3338    104.8397    160.5912   1.1608688148e+02   2.8732678732e+01    0.2157456    0.2059596 -71.47 0.0003014039    1.117    0.105
        58  -8.4020    170.9301    156.0955   9.9942394221e+01   1.7872960721e+01    0.2080237    0.1821571  19.64 0.0003014675    1.025    0.024
        59  -8.8130    249.4052    153.0067   8.4324956649e+01   3.8433237474e+00    0.2286611    0.1815379  19.15 0.0001882012    1.147    0.128
        60  -7.5653     49.4998    153.0587   1.2866325487e+02   3.7660969516e+01    0.1718987    0.1086221 -71.92 0.0004811229    1.477    0.323
        61 -10.3064    217.3789    151.3164   8.9558337984e+01   9.7724702715e+00    0.2503075    0.2108674  22.25  0.000264312    1.106    0.096
        62  -9.9028     70.3958    146.1960   1.2256889839e+02   3.6725004414e+01    0.4553857    0.3047488 -66.95  0.002033437    1.454    0.312
        63 -10.1221     67.2232    143.4003   1.2300639356e+02   3.7744510069e+01    0.3715534    0.3236027 -77.01  0.001859118    1.096    0.087
        64  -8.1541    107.4512    143.5100   1.1257469197e+02   3.1890690468e+01    0.2632466     0.188004 -15.13  0.001186358    2.091    0.522
        65  -7.5447      4.3521    137.6863   1.3842453022e+02   4.4831671666e+01    0.1209754   0.06449125  62.90 0.0007045931    1.730    0.422
        66  -8.9959    236.3923    133.2160   8.2194370632e+01   8.7751477586e+00    0.2361673    0.1976091  10.39 0.0002724513    1.058    0.055
        67  -9.1088    103.4516    145.3750   1.1392844404e+02   3.2141542653e+01    0.2620534    0.2324561  47.38 0.0003176816    1.074    0.069
        68  -7.6016    114.3437    133.3923   1.0885533018e+02   3.2886027523e+01    0.2109187    0.1682125  -9.43 0.0007493524    1.588    0.370
        69  -7.5697    222.2049    132.4199   8.4485883110e+01   1.1607765402e+01    0.1802953    0.1339249  55.27 0.0006466145    1.687    0.407
        70  -7.6662    101.9703    129.9599   1.1147084329e+02   3.5733846353e+01    0.2140059    0.1680559 -17.05  0.000483509    1.629    0.386
        71  -7.2427    169.5683    129.2607   9.4384596630e+01   2.2924442654e+01    0.1482826    0.1174623  73.87 0.0006925272    1.798    0.444
        72  -8.8057     29.9974    128.3850   1.3108047271e+02   4.5027233506e+01    0.4106919    0.1434406  37.63  0.001806884    2.715    0.632
        73  -8.5072     87.7405    242.6103   1.2871556914e+02   1.6523509045e+01    0.1926341    0.1345624  54.67  0.000536303    1.146    0.127
        74  -7.3093    109.7129    121.6730   1.0764557249e+02   3.6240282867e+01    0.1446297    0.1128236 -15.29  0.000376348    1.611    0.379
        75  -7.6799      8.4689    116.5841   1.3584095435e+02   4.9249039078e+01    0.1158446   0.09307519  88.47 9.604106e-05    1.048    0.045
        76  -7.4060    167.9884    113.5149   9.0886476398e+01   2.6147688110e+01    0.2055448     0.137707  71.04 0.0004755437    2.440    0.590
        77  -7.3938    196.5210    107.5137   8.3277065352e+01   2.0862915862e+01    0.1492659    0.1394105   1.24 9.572135e-05    1.050    0.048
        78  -7.7705     14.0373    105.5163   1.3320894122e+02   5.1438508146e+01    0.1533754    0.1187402  24.33   0.00102107    1.557    0.358
        79  -9.6967    232.6597     78.0178   6.9400132972e+01   1.7247677782e+01    0.2840034    0.2471677 -11.06 0.0006270367    1.064    0.060
        80  -8.4089    237.0361     73.9824   6.7745775160e+01   1.6836672067e+01    0.2099361    0.1891324 -13.62  0.000301371    1.014    0.014
        81  -7.4646    227.5095     67.5456   6.7411590982e+01   1.9813327580e+01    0.1415884     0.130472  -8.44 8.592542e-05    1.030    0.029
        82 -10.8967    180.1307     39.3729   6.6560586584e+01   3.5217111179e+01     1.281379    0.5053759  47.18  0.004567581    2.525    0.604
        83 -10.0293    190.2534     34.4342   6.3406443859e+01   3.3203797883e+01    0.5933537    0.2943307  56.66  0.002465575    1.908    0.476
        84 -10.8091    190.4632     30.0093   6.2011587302e+01   3.3672111283e+01    0.8504555    0.5408147  62.99  0.003996523    1.536    0.349
        85  -9.2956    226.5310     29.1842   5.7284544096e+01   2.4766286917e+01    0.3680975    0.2415771 -26.40   0.00130764    1.458    0.314
        86  -8.3531    133.9938    249.7729   1.2110521691e+02   9.4109593487e+00    0.1537455   0.06832941  38.40 0.0007565184    1.647    0.393
        87 -11.7736     40.3181    247.5271   1.3714009204e+02   2.1164623991e+01     1.092261    0.4622883  48.67  0.004202553    1.632    0.387
