#   1 NUMBER                 Running object number                                     
#   2 MAG_AUTO               Kron-like elliptical aperture magnitude                    [mag]
#   3 X_IMAGE                Object position along x                                    [pixel]
#   4 Y_IMAGE                Object position along y                                    [pixel]
#   5 X_WORLD                Barycenter position along world x axis                     [deg]
#   6 Y_WORLD                Barycenter position along world y axis                     [deg]
#   7 A_WORLD                Profile RMS along major axis (world units)                 [deg]
#   8 B_WORLD                Profile RMS along minor axis (world units)                 [deg]
#   9 THETA_WORLD            Position angle (CCW/world-x)                               [deg]
#  10 FWHM_WORLD             FWHM assuming a gaussian core                              [deg]
#  11 ELONGATION             A_IMAGE/B_IMAGE                                           
#  12 ELLIPTICITY            1 - B_IMAGE/A_IMAGE                                       
         1 -11.5303    242.8597     28.8953   3.5531644664e+01   2.2384589699e+01    0.8303165    0.8072001  60.30   0.00574934    1.396    0.284
         2 -13.0936    246.1306     12.2186   3.1883690662e+01   2.3682660760e+01     2.612004      1.35959  88.46   0.01470757    1.860    0.462
         3 -11.1527    147.0304     15.5415   4.2956120451e+01   4.6120769494e+01    0.4448214    0.3365651  75.88  0.002559436    1.218    0.179
         4 -11.2492    218.2992     27.6583   3.7457865294e+01   2.7814394206e+01    0.6999934    0.4093494 -62.79  0.003479812    1.638    0.389
         5 -10.6041    212.3704     16.9752   3.5565387250e+01   3.0392485025e+01      0.37226    0.2419099 -42.58  0.002165414    1.463    0.316
         6  -9.5468    220.2266     13.2498   3.4043581082e+01   2.9052758483e+01    0.3665752    0.1707955  60.60  0.001842316    2.179    0.541
         7  -8.7770    112.5092     13.5184   4.8534441315e+01   5.4543874870e+01    0.2297703    0.1062844 -37.52  0.001038983    2.423    0.587
         8 -10.6250     16.1877     12.1141   8.2864149812e+01   7.1788605882e+01    0.6906152    0.3014429  42.85  0.003106706    4.142    0.759
         9  -9.5700    133.2762     10.7010   4.3632680844e+01   4.9905485965e+01    0.2662975    0.1573531  87.33  0.001271206    2.025    0.506
        10  -9.7045     92.7897     15.0628   5.3797237385e+01   5.8797129303e+01    0.3620005    0.2716011  49.65  0.002150725    1.190    0.160
        11  -9.8327     94.9394      8.1930   5.0486184473e+01   5.8972041160e+01    0.4510044    0.1694266 -26.94  0.001977969    2.816    0.645
        12  -9.5670     95.6801      2.5611   4.8054135074e+01   5.9275310360e+01    0.3424746    0.1001624  52.13  0.001399513    2.536    0.606
        13  -8.8167    162.3771      9.0901   3.8904490815e+01   4.3008130750e+01    0.3200356    0.1587353 -86.45  0.001363016    2.539    0.606
        14  -9.9240    184.4052      3.9859   3.5082152805e+01   3.8206938635e+01    0.5361985    0.2768811 -46.11  0.002781093    1.894    0.472
        15  -9.3323    100.9666      6.4894   4.8403363268e+01   5.7787283975e+01    0.2254919    0.1741176 -45.06  0.001355217    1.574    0.365
        16 -10.5384    148.5580      2.3551   3.8727308994e+01   4.6944782640e+01    0.6738052    0.2452949  67.19  0.002885198    2.261    0.558
        17 -10.7317     49.1553      2.7342   6.2276355163e+01   6.8399924135e+01    0.6841558     0.256049  51.65  0.003072967    2.944    0.660
        18  -9.0305      4.0593     27.9298   9.6388039189e+01   7.0250082745e+01    0.2483793    0.1585578 -69.37  0.001422144    2.411    0.585
        19 -10.8912    225.0376    239.2480   8.1724703434e+01  -7.4702839983e+00    0.9011975    0.4129408 -45.36  0.004388563    2.952    0.661
        20 -10.6571    187.1934    230.7436   8.7484196388e+01  -7.1710158814e-01    0.6483728    0.4909348 -47.57  0.003909682    1.619    0.382
        21 -11.4635    192.1508    243.6092   8.8550485882e+01  -3.4204964336e+00    0.5765293    0.4065418 -22.83  0.003382584    1.507    0.337
        22  -9.3946    222.7521    208.0874   7.6733541582e+01  -2.6353088628e+00    0.3007213    0.2044201   0.09  0.001446216    1.534    0.348
        23 -11.2361    186.4627    245.3152   8.9905376092e+01  -2.8313681101e+00    0.8822177     0.521729 -32.30  0.004978971    1.889    0.470
        24  -9.2036    124.0043    205.9998   9.6959857976e+01   1.4246179887e+01    0.1938069    0.1771736  48.84            0    1.010    0.010
        25  -9.1048    181.0766    202.5659   8.3889794081e+01   5.0576097079e+00    0.4441453    0.2270369  16.99  0.001573555    3.518    0.716
        26  -8.5459    176.3624    197.2435   8.3901306536e+01   6.8560474344e+00    0.1886341    0.1313431 -52.60 0.0006581758    1.670    0.401
        27 -10.2381    231.5716    191.0079   7.1920465856e+01  -1.2992809392e+00    0.6925935    0.2848997 -39.14  0.003063018    2.278    0.561
        28  -9.7552    227.4132    180.4921   7.0602857494e+01   1.0777855644e+00    0.5609046     0.356547 -64.25  0.002336516    3.402    0.706
        29  -9.8646    220.9218    177.2678   7.1135621503e+01   2.7008837494e+00    0.3395723    0.2799608 -27.68  0.002001312    1.116    0.104
        30  -8.8142    146.6975    175.7551   8.6409287149e+01   1.6635637666e+01    0.2401878    0.1132199  49.42 0.0008936318    2.338    0.572
        31 -10.7277    211.4523    171.7915   7.1787511474e+01   5.3011009805e+00    0.5916319    0.3234836 -49.40  0.002627617    2.093    0.522
        32  -8.6550    176.8730    170.1255   7.8460775756e+01   1.2034682364e+01    0.2222269    0.2078518  89.49   0.00115906    1.278    0.217
        33  -9.7034    250.0037    165.2804   6.3708597890e+01  -4.7813309074e-02    0.2684607    0.1606939 -23.81  0.001396831    1.606    0.377
        34  -8.9855    205.2480    169.0074   7.2402268112e+01   6.9222277885e+00     0.291367     0.170825 -35.76 0.0008281093    1.628    0.386
        35 -10.1469    202.9558    165.4793   7.2108085034e+01   7.9969622348e+00    0.7101063    0.2754406  34.19  0.002469403    3.242    0.692
        36 -11.0570    238.5670    166.0090   6.5734689209e+01   1.6639063287e+00    0.4957179    0.3500723 -38.78  0.002791916    1.314    0.239
        37 -11.3851    237.8220    157.1924   6.4041983720e+01   3.2642406336e+00    0.5751106    0.4073596 -41.36  0.002335455    1.327    0.246
        38 -12.0823    231.6525    145.5906   6.2618486833e+01   6.3304051832e+00     1.392947    0.7897201 -59.20  0.005746895    2.804    0.643
        39  -9.4914    194.4869    162.6672   7.3195414207e+01   1.0124076383e+01    0.3692471    0.2254967  63.57  0.001481325    2.704    0.630
        40  -8.6371     23.7671    158.3704   1.1511699083e+02   3.9293740210e+01     0.156006    0.1268774   9.27 0.0009498473    1.632    0.387
        41  -9.5611    141.5781    157.0800   8.3810782398e+01   2.1751711198e+01    0.2901501    0.2114815  56.53 0.0006121097    1.519    0.341
        42  -8.6866    128.7159    151.3676   8.5793204989e+01   2.5588066121e+01    0.1582837    0.1217911  88.52  0.000701812    1.696    0.410
        43  -8.6847     58.8754    146.1556   1.0389436245e+02   3.8462419822e+01     0.227596    0.1872855  81.10  0.001254161    1.232    0.188
        44  -8.9546    128.8370    142.6112   8.3825213008e+01   2.7600990770e+01    0.2180747    0.1984162 -31.47  0.000864824    1.142    0.124
        45 -10.0470    217.3814    139.2970   6.3699456392e+01   1.0109737100e+01    0.3891546    0.2562691 -59.78  0.001795405    1.970    0.492
        46  -9.3778    192.7596    139.8994   6.8478051362e+01   1.4906455759e+01    0.5868921    0.3181346  64.80  0.002065982    3.266    0.694
        47  -9.9253    241.1835    129.8874   5.7703137420e+01   7.3157012321e+00    0.9549522    0.3531636 -52.80  0.002868335    4.838    0.793
        48 -11.3475    247.1765    129.6148   5.6743164439e+01   6.2917794596e+00     1.108248    0.4557932 -46.14  0.004622356    2.327    0.570
        49 -10.6627    241.2579    122.7338   5.6141108048e+01   8.5156566236e+00    0.3824463     0.303493 -31.76  0.002223789    1.129    0.114
        50  -9.6581    166.3635    137.4455   7.3512191554e+01   2.0947128843e+01     0.635708    0.3233745 -57.01  0.002261557    2.590    0.614
        51  -8.3017    113.2509    139.4096   8.7237976427e+01   3.1390954368e+01    0.2144918    0.1446862  49.86 0.0009435689    1.559    0.359
        52 -10.8118    222.7610    113.6622   5.6973618643e+01   1.3659925514e+01    0.7618004    0.5183265  87.47  0.003481428    2.310    0.567
        53  -8.8313     24.8902    117.8727   1.0950047107e+02   4.9175318355e+01    0.3369235     0.159795  55.42  0.001414426    2.933    0.659
        54  -8.8324    171.8889    116.1290   6.7056019357e+01   2.4164854633e+01    0.2436906    0.2114661 -71.26  0.001086254    1.271    0.213
        55  -9.9050    197.1229    108.5623   6.0150763051e+01   2.0010766192e+01    0.6870459    0.2190982 -48.34  0.002062483    3.600    0.722
        56  -9.2976    161.0066    108.6864   6.7521330918e+01   2.8137633483e+01    0.4524882    0.3312172 -69.22  0.002005782    1.720    0.419
        57  -9.9985    122.2900    109.5716   7.7401179657e+01   3.6517490456e+01    0.5953261    0.4266462 -52.93  0.002029849    1.423    0.297
        58  -7.7233    105.4880    108.4723   8.1871185572e+01   4.0166317189e+01    0.1531141    0.1478824 -70.47 0.0008089583    1.069    0.065
        59 -10.2042    122.6705     98.0817   7.4118960306e+01   3.8935167039e+01    0.6263068    0.4977275  31.04  0.003028541    1.349    0.259
        60 -10.1312    235.3639     88.1991   4.9313232165e+01   1.5413357213e+01    0.6381462    0.2414522 -43.48   0.00258893    2.266    0.559
        61 -11.0392    239.9841     98.9708   5.1097869195e+01   1.2735079076e+01    0.7071208    0.4865582  66.41  0.003820292    1.727    0.421
        62  -9.2496     57.3457    100.3365   9.5187914656e+01   4.9976430772e+01    0.3730735    0.2545641 -74.82  0.001797032    1.759    0.432
        63 -10.4354    214.8756     95.8967   5.4062917373e+01   1.8414551344e+01    0.6269559    0.2974494 -42.70  0.002646437    1.897    0.473
        64  -9.0468    106.5392     98.4647   7.8811428212e+01   4.2202097766e+01      0.41601    0.2974043 -21.35  0.001856448    1.725    0.420
        65  -8.8026      4.1903     99.4284   1.1342671277e+02   5.5071006718e+01    0.1508133    0.1118398  39.78 0.0005868072    1.631    0.387
        66  -8.7822    197.5261     94.7927   5.6657121886e+01   2.2437245447e+01    0.3531445    0.2132339 -79.49  0.001300003    3.018    0.669
        67  -7.9691     27.5164     91.4536   1.0375212562e+02   5.5311445958e+01      0.13411    0.1093226 -47.32 6.578324e-05    1.059    0.056
        68 -10.0441    248.3769     84.5528   4.6861649467e+01   1.3412508423e+01    0.5782124    0.3600924 -30.08  0.003032858    1.638    0.390
        69  -7.9532    231.3050     90.6734   5.0424128731e+01   1.5838366589e+01    0.1429051   0.09578354 -63.58 0.0003191031    1.648    0.393
        70  -8.3783    212.7875     83.5927   5.1426219682e+01   2.0957109523e+01    0.1896671    0.1343599  77.79 0.0006930488    1.629    0.386
        71  -9.3824    181.8669     80.5432   5.5754154867e+01   2.8576273916e+01      0.53509    0.3217315  86.26  0.002049821    2.682    0.627
        72  -8.2823     64.0578     80.0200   8.7346368502e+01   5.3657038721e+01    0.2277323     0.159539 -18.12  0.000713895    1.655    0.396
        73  -9.9046    217.0615     74.7831   4.8690266175e+01   2.1448157150e+01    0.6783101    0.3518835 -60.80  0.002801909    2.410    0.585
        74  -9.7421    148.2352     71.0191   5.9789151566e+01   3.8291876288e+01    0.5555206     0.288432 -53.05  0.002129218    2.355    0.575
        75 -10.9676    234.3754     58.6210   4.2784932325e+01   2.0166688311e+01     0.816639    0.6667671 -78.18  0.005045917    1.165    0.141
        76 -10.7356    246.9529     58.4696   4.1405575107e+01   1.7599897184e+01    0.8091616    0.5583615  19.19  0.003946004    2.949    0.661
        77 -10.5573    248.4461     73.5846   4.4487571528e+01   1.5082145098e+01    0.7686234    0.6595334  50.13  0.004908192    1.442    0.306
        78 -10.6185    248.8509     65.6252   4.2736332471e+01   1.6185953099e+01    0.6020781    0.3542133 -48.62  0.002847869    1.429    0.300
        79  -9.6822    106.4016     72.1066   7.0838502715e+01   4.7621309917e+01    0.6047569    0.4118709 -74.74  0.002465765    2.583    0.613
        80  -9.3204     29.7263     66.7782   9.6823993976e+01   6.0641618883e+01    0.4257738     0.211784 -30.11  0.001971436    2.214    0.548
        81  -8.0898     81.8356     66.2168   7.6658504788e+01   5.3545949841e+01    0.2242286    0.1611864 -89.76 0.0009397864    2.809    0.644
        82  -8.9104    214.2498     64.5111   4.6608739906e+01   2.3673950067e+01    0.2618698    0.1787471 -38.74 0.0009672148    1.388    0.280
        83  -8.5799    203.2610     65.2181   4.8306058579e+01   2.6067643664e+01    0.2710954    0.1705562 -80.27  0.001220258    2.044    0.511
        84  -9.2877    199.9401     60.3550   4.7559443509e+01   2.7582113741e+01    0.5123882    0.1669281 -40.37  0.001866389    2.743    0.635
        85  -8.1484     47.4847     64.9986   8.9027862138e+01   5.9065290067e+01    0.2057632    0.1191231 -47.82  0.001025523    1.569    0.363
        86  -9.3080     15.5029     54.4975   9.9454903531e+01   6.4389295762e+01    0.2003084    0.1005127  32.92  0.001037949    2.387    0.581
        87  -8.0842    124.6253     52.7564   5.9509689840e+01   4.6869894215e+01    0.2052792    0.1300664 -44.66 0.0009445084    1.703    0.413
        88  -9.6085    244.5688     49.8919   3.9811628195e+01   1.9286244723e+01     0.845872    0.3184785 -51.77  0.003632363    2.479    0.597
        89  -8.6022     97.7119     48.9964   6.5475579100e+01   5.3420936030e+01    0.1976531    0.1848508  -8.16  0.001163544    1.069    0.065
        90  -8.5193      4.5278     48.5040   1.0279922025e+02   6.6319441219e+01    0.1202128   0.09247436 -39.96 0.0001351501    1.002    0.002
        91  -8.9288    221.6394     46.5036   4.1449165226e+01   2.4631265425e+01    0.2399033    0.1265521 -30.46  0.001008517    2.038    0.509
        92  -9.3307    225.4882     42.2831   4.0066073346e+01   2.4355949435e+01    0.3487845    0.2749858  41.91  0.002058239    1.686    0.407
        93  -8.1800     26.5427     47.4539   9.2189487572e+01   6.4842765972e+01    0.1256391    0.1012313 -26.69 4.797322e-05    1.008    0.008
        94  -9.1089    250.0349     44.9157   3.8248098571e+01   1.8858914005e+01    0.3536642    0.1546483 -38.55  0.001732837    1.959    0.490
        95  -8.9171    250.4929     39.0038   3.6983577974e+01   1.9549036550e+01    0.2650525    0.1168206 -29.62  0.001210161    2.596    0.615
        96  -9.4296    235.8431     44.1207   3.9421844987e+01   2.1883445936e+01    0.3487522     0.281755  61.10  0.002195315    1.424    0.298
        97  -9.1998    201.0818     44.3135   4.3365650517e+01   2.9616504866e+01    0.3819691    0.2052388 -78.25   0.00158836    2.561    0.609
        98  -8.7394    157.8116     45.0798   5.0109719021e+01   3.9980827063e+01    0.2257292    0.1870233 -69.50  0.001007863    1.270    0.213
        99  -8.7553     57.1838     45.4565   7.8221598267e+01   6.1385175279e+01    0.3073548    0.1223387  40.29  0.001239731    2.624    0.619
       100  -8.5215     85.8532     43.0788   6.6950149719e+01   5.6734613359e+01    0.1987842    0.1935555 -69.55 0.0008934932    1.276    0.217
       101  -8.9342    178.2040     44.3995   4.6559679213e+01   3.5077195957e+01    0.2026622     0.127488  79.25 0.0009546796    1.693    0.409
       102  -9.4772    128.8356     40.1301   5.4309638950e+01   4.7687543633e+01    0.5035356    0.3155723 -54.56  0.002329358    1.995    0.499
       103 -10.6702    239.8342    239.5088   7.9148980553e+01  -9.4543034978e+00    0.4335789    0.2268656  17.10  0.002387117    1.933    0.483
       104  -9.9464    235.3157    244.3680   8.0733857040e+01  -9.4943947264e+00    0.2700824    0.1429761  -9.06  0.001148573    2.289    0.563
       105  -8.2863    184.5926     25.3193   4.0562689746e+01   3.5931335134e+01    0.2435453    0.1160317 -36.54 0.0008933415    2.068    0.517
       106  -9.8423    145.9973     24.8898   4.6022334880e+01   4.5393047473e+01    0.3304495    0.2546943 -86.48  0.001826686    1.391    0.281
       107  -8.4973     33.2404     25.7092   8.0476560990e+01   6.7859352919e+01    0.2057637    0.1401706  28.10  0.001274059    1.488    0.328
       108  -8.3675     94.4886     27.4862   5.8278867392e+01   5.7070720525e+01    0.1328655    0.1200506  31.16 0.0008101665    1.035    0.034
       109 -10.0317    152.6284     19.9428   4.3434999632e+01   4.4306345965e+01    0.3009954    0.2140971 -73.49   0.00120442    1.564    0.361
       110 -11.2669    132.9642    246.6905   1.0071696046e+02   5.0981811914e+00    0.8920871    0.4741417 -72.18  0.003946926    3.475    0.712
       111  -8.6313     41.7232     32.3249   7.9431503103e+01   6.5744132081e+01    0.2124016    0.1441919  30.88  0.001259692    1.499    0.333
       112  -9.3887    146.6125    245.2187   9.7772886011e+01   3.2472307322e+00    0.1611871    0.1170418 -35.21 0.0009559946    1.655    0.396
       113  -9.0499    155.1749    241.5971   9.5546468124e+01   2.5194321680e+00    0.2331729    0.1589124 -23.69  0.001133321    1.889    0.471
       114  -8.0686      9.0186    240.7502   1.2430887142e+02   2.2490939818e+01    0.1308894   0.07797989  43.45 0.0004027969    1.516    0.340
       115  -9.0000     65.1636     30.7632   6.9161620783e+01   6.2357697619e+01     0.195595    0.1489009 -79.64 0.0009541552    2.842    0.648
       116  -9.2426    232.5604    235.3577   7.9734680531e+01  -7.9609061966e+00    0.2054133    0.1064207 -38.36  0.001127137    2.055    0.513
       117  -9.2838    149.5748    234.7345   9.5710659812e+01   4.5611572843e+00    0.1540829    0.1279317 -67.72 0.0004857081    1.528    0.345
       118  -9.9022    142.4790    235.1112   9.7230514153e+01   5.6228640727e+00     0.215992    0.1685128  17.17  0.001190686    1.357    0.263
       119 -11.9716    226.4686    220.7263   7.8320361523e+01  -5.0791135260e+00    0.9910437    0.7818937 -62.39  0.005772436    2.300    0.565
       120  -9.6238    245.8602    229.9064   7.6493004546e+01  -8.9823460722e+00    0.1900244    0.1296605  -3.02  0.001063645    1.270    0.212
       121 -12.1226    246.1050    206.3985   7.2283693978e+01  -5.7715627308e+00     1.294331    0.7516624 -43.46  0.007077917    1.978    0.494
       122  -8.9949    156.5164    225.5244   9.2896229619e+01   5.0569096759e+00    0.2251992     0.180654 -28.26   0.00056698    1.394    0.283
       123 -11.2696    246.6210    179.9018   6.7166032196e+01  -1.8476973485e+00    0.5896952    0.3730426 -28.07  0.003301517    1.377    0.274
       124 -11.1298    247.6320    191.8559   6.9307006432e+01  -3.8380223473e+00    0.9677494    0.3822482 -48.57  0.003556898    4.178    0.761
       125 -10.1416    242.9489    222.4923   7.5710866134e+01  -7.6070039875e+00    0.4770353     0.350942 -26.85  0.003150645    1.305    0.234
       126 -10.8501    248.6362    220.4868   7.4384764644e+01  -8.0856598238e+00    0.6373893    0.3247749 -37.05  0.003522269    1.925    0.481
