#   1 NUMBER                 Running object number                                     
#   2 MAG_AUTO               Kron-like elliptical aperture magnitude                    [mag]
#   3 X_IMAGE                Object position along x                                    [pixel]
#   4 Y_IMAGE                Object position along y                                    [pixel]
#   5 X_WORLD                Barycenter position along world x axis                     [deg]
#   6 Y_WORLD                Barycenter position along world y axis                     [deg]
#   7 A_WORLD                Profile RMS along major axis (world units)                 [deg]
#   8 B_WORLD                Profile RMS along minor axis (world units)                 [deg]
#   9 THETA_WORLD            Position angle (CCW/world-x)                               [deg]
#  10 FWHM_WORLD             FWHM assuming a gaussian core                              [deg]
#  11 ELONGATION             A_IMAGE/B_IMAGE                                           
#  12 ELLIPTICITY            1 - B_IMAGE/A_IMAGE                                       
         1 -15.5012    244.3341    103.0502   7.9851030623e+01   9.8196526451e+00     4.746237     1.915547 -31.59   0.01704359    2.852    0.649
         2 -15.7476    247.5277     48.3194   6.7108397772e+01   1.7926602975e+01     4.793318     1.721714 -37.07   0.01943813    2.600    0.615
         3 -10.6691    211.7280    227.4748   1.1183764122e+02  -5.3164711917e+00    0.2554018    0.1993779 -32.24  0.001014871    1.404    0.288
         4 -10.1916    224.7833    250.1156   1.1320836566e+02  -1.0596700503e+01    0.1688813    0.1512883  31.35 0.0008962929    1.271    0.213
         5 -10.6399    209.1339    249.5829   1.1596253861e+02  -8.0316662281e+00    0.2236584    0.2038626   6.15  0.001586081    1.180    0.153
         6 -10.9801    191.6837    248.9120   1.1907847792e+02  -5.0464837252e+00    0.2921299    0.2359083  68.95  0.001827761    1.652    0.395
         7 -10.4994    175.8990    247.1219   1.2176300709e+02  -2.0919358236e+00    0.2266461    0.1757011 -52.77  0.001417427    1.603    0.376
         8  -9.5571    156.6354    248.3043   1.2555136737e+02   1.0447999045e+00    0.1303929   0.08684871  64.92 0.0007036714    1.738    0.425
         9 -10.2917    250.4891    246.0392   1.0799054843e+02  -1.3958438606e+01     0.161072     0.128652  -8.80  0.001131812    1.197    0.164
        10 -11.2205    246.7417    241.1672   1.0781763014e+02  -1.2814233621e+01    0.3169473    0.2410506 -59.00  0.001876483    2.504    0.601
        11 -10.8548    225.3888    243.3094   1.1198834274e+02  -9.8075469405e+00    0.2297319    0.2281089 -44.10  0.001323893    1.438    0.305
        12 -10.4834    201.9471    242.5900   1.1618509593e+02  -5.8684277705e+00    0.2111003    0.1808987 -65.95   0.00135318    1.663    0.399
        13 -10.1747    240.1467    240.6695   1.0889670206e+02  -1.1760021836e+01    0.1910335    0.1615625 -58.96  0.001186987    1.961    0.490
        14 -10.0480    214.3810    241.2003   1.1365336834e+02  -7.7430924635e+00    0.1522841    0.1174388 -46.78 0.0009398361    1.678    0.404
        15 -10.6335    183.5556    239.9780   1.1924149305e+02  -2.3237843234e+00    0.2671353    0.2239911 -82.28   0.00155644    1.654    0.396
        16 -10.0044    219.6913    240.1285   1.1249966441e+02  -8.4640721087e+00    0.1674097    0.1539435 -46.85 0.0008693587    1.464    0.317
        17 -10.6914    159.0759    238.7386   1.2374562821e+02   2.1805920568e+00      0.26816    0.1887653 -74.76  0.001467545    1.988    0.497
        18  -9.8800    148.3190    240.6461   1.2608011605e+02   3.7494674251e+00    0.1324332   0.09076539  70.65 0.0004198678    1.748    0.428
        19 -11.5102    230.6837    236.6985   1.0991700054e+02  -9.7670851608e+00    0.3356397      0.27834  67.78   0.00155443    1.946    0.486
        20 -11.3945    190.9084    235.6718   1.1716217263e+02  -2.9442275874e+00    0.4133005    0.3017514 -69.11  0.002265536    2.148    0.534
        21 -11.3557    205.0623    235.6003   1.1446740156e+02  -5.3809185026e+00    0.3683962    0.2985459  79.85  0.002103519    1.951    0.487
        22 -10.6518    176.5338    235.7785   1.1993732167e+02  -4.2730673797e-01    0.3349576    0.1293346 -43.99  0.001422272    3.051    0.672
        23 -13.8841    236.1064    216.9697   1.0542871847e+02  -7.8834186452e+00     2.753329     1.873083 -80.88  0.008601659    7.829    0.872
        24 -13.6606    224.8812    177.4377   9.9773461762e+01   4.7157025040e-01     2.354922    0.7733157 -33.50   0.00763079    3.665    0.727
        25 -14.2088    227.5362    158.2591   9.5185076748e+01   3.3736588434e+00     3.208738    0.4854479 -38.02  0.006956422    7.392    0.865
        26 -12.0991    247.6022    226.4763   1.0509300166e+02  -1.1044941723e+01    0.5208875    0.3631451 -50.10  0.002822079    2.140    0.533
        27 -13.8117    226.2593    195.7896   1.0322467004e+02  -2.9001301928e+00     2.047133     1.344965 -70.24  0.008303932    3.535    0.717
        28 -13.4190    231.0564    183.4997   9.9864615955e+01  -1.7333687290e+00     3.264761    0.6041844 -34.95   0.00687542    9.051    0.890
        29 -13.6303    237.3994    195.9125   1.0118266507e+02  -4.9027477781e+00     2.888887    0.5499048 -41.76  0.008146184    5.623    0.822
        30 -13.1172    234.7395    148.4336   9.1714444775e+01   3.7033930054e+00     1.950504    0.6856794 -29.08  0.005430304    4.780    0.791
        31 -12.6460    247.7852    216.7279   1.0328400829e+02  -9.7369741647e+00    0.6223785    0.3918985 -38.77  0.002237777    1.726    0.421
        32 -12.4882    244.2610    202.7158   1.0126562674e+02  -7.1254129876e+00    0.9622961    0.5111777 -53.24  0.004047349    3.277    0.695
        33 -10.4547    242.5686    248.1186   1.0972098276e+02  -1.3052066149e+01    0.1904774    0.1421271  33.43 0.0008738547    1.266    0.210
        34 -10.6699    198.9707    226.9907   1.1418518379e+02  -3.0144231005e+00    0.2676107    0.1951616 -49.77  0.001027231    1.683    0.406
        35  -9.9750    184.5086    227.9851   1.1715057876e+02  -5.9000238515e-01    0.1812794    0.1324611 -43.82 0.0007451771    1.576    0.365
        36 -10.5322    223.1145    226.7087   1.0957308179e+02  -7.1369944115e+00    0.1995288    0.1754036 -35.99  0.001146839    1.356    0.262
        37 -10.5272    190.3863    225.9994   1.1567773709e+02  -1.3250612435e+00    0.2887184    0.1596655 -42.78   0.00121097    2.056    0.514
        38 -10.2015    162.7562    227.0521   1.2127720283e+02   3.5130116794e+00     0.160777    0.1153431 -51.33 0.0008867347    1.613    0.380
        39 -10.8392    205.8991    225.1589   1.1254406858e+02  -3.9507690073e+00    0.2877555    0.1941342 -42.97  0.001193701    1.702    0.412
        40 -11.1991    216.9282    223.4664   1.1015705794e+02  -5.6092552444e+00    0.3432592    0.2657576 -61.52  0.001515383    1.944    0.486
        41 -10.4974    180.4641    223.4308   1.1719332125e+02   8.9918408634e-01    0.2482295    0.1341448 -45.62  0.001065548    2.114    0.527
        42  -9.8657    174.5724    222.7539   1.1824781547e+02   2.0950276463e+00    0.1712116    0.1309935 -62.67 0.0009472038    1.634    0.388
        43 -10.2716    147.9796    223.0076   1.2360462818e+02   6.9303208451e+00    0.1638639    0.1495892  60.42  0.001014787    1.062    0.059
        44 -10.2826    185.5800    221.5268   1.1586590742e+02   2.8302268710e-01    0.2523157    0.1325775 -44.27  0.001191596    2.154    0.536
        45 -10.9542    210.7770    218.4707   1.1043543495e+02  -3.7691999493e+00    0.3179175    0.1833034 -43.77  0.001238942    1.970    0.492
        46 -11.1707    202.2093    218.7303   1.1213089416e+02  -2.2803502701e+00     0.348552    0.2431816 -43.67  0.001518918    1.625    0.385
        47 -11.1209    193.4286    218.7845   1.1385235154e+02  -6.9594303886e-01    0.3472983    0.2598596 -51.21  0.001877115    1.600    0.375
        48  -9.8229    158.5973    219.1974   1.2087343600e+02   5.6781342446e+00    0.1781071      0.12979 -36.23  0.000950943    1.673    0.402
        49 -11.9937    217.6694    213.1979   1.0816505287e+02  -4.1602504099e+00    0.6088299    0.3554634 -50.32  0.002953041    2.239    0.553
        50 -11.3132    217.3488    204.5587   1.0661160413e+02  -2.7194868550e+00    0.3391563    0.2249027 -38.58  0.001174198    1.586    0.370
        51 -11.8536    227.5330    220.6612   1.0767650416e+02  -6.9950704136e+00    0.3898964      0.36361 -49.82   0.00170175    1.423    0.297
        52 -10.5573    170.5200    216.5098   1.1802551786e+02   3.9423541916e+00    0.2629227    0.1371347 -46.44  0.001207446    2.157    0.536
        53 -10.5509    209.8631    212.3159   1.0949716617e+02  -2.6252746629e+00    0.2445789    0.1957743 -21.81 0.0009049774    1.311    0.237
        54 -10.6978    192.9966    209.9618   1.1237414515e+02   8.7431871032e-01    0.2956746    0.2038662 -52.38  0.001060878    1.737    0.424
        55 -10.1994    186.1967    210.7807   1.1387954570e+02   2.0101725832e+00    0.1904695     0.155917  11.79 0.0006624532    1.342    0.255
        56 -10.6043    176.8964    210.6621   1.1573552275e+02   3.7905012373e+00    0.2582493    0.2082264 -56.77   0.00126152    1.437    0.304
        57 -10.1995    160.6063    210.7849   1.1908816945e+02   6.8601882751e+00    0.1846113     0.133302 -63.66 0.0009519058    1.655    0.396
        58 -10.9990    206.0198    207.6773   1.0938791251e+02  -1.1614749875e+00    0.3202284    0.1991507 -38.46  0.001385927    1.717    0.418
        59  -9.9432    206.0000    202.9756   1.0851102850e+02  -3.6510965249e-01    0.2130567   0.07789446 -41.32 0.0007971277    2.906    0.656
        60  -9.7415    182.7702    207.0210   1.1389873604e+02   3.3274407583e+00    0.1745009    0.1169876 -44.34 0.0008761348    1.638    0.389
        61 -11.2478    197.7073    203.7985   1.1030477953e+02   1.0542048978e+00    0.3505512    0.2365558 -31.76  0.001460622    1.631    0.387
        62 -10.5115    186.9456    203.4206   1.1239732671e+02   3.1752615229e+00    0.2562899    0.2005684 -64.25  0.001359963    1.618    0.382
        63 -10.0594    178.7697    203.9792   1.1416606801e+02   4.6486427820e+00    0.1773222     0.118172 -44.23 0.0008771615    1.639    0.390
        64 -11.2753    210.4364    201.0775   1.0728281167e+02  -8.7101109365e-01    0.4066146    0.2631989 -56.57  0.001539541    2.135    0.532
        65 -10.1597    192.6662    201.8864   1.1095698921e+02   2.3516847130e+00    0.1912429    0.1287097 -53.18 0.0009381582    1.771    0.435
        66 -10.4614    164.4976    201.9923   1.1676629974e+02   7.7875557362e+00    0.2086782    0.1417376 -47.14  0.001037995    1.608    0.378
        67 -10.8135    202.1470    197.0656   1.0814401546e+02   1.3878132415e+00    0.3153452    0.2054213 -41.38  0.001365299    1.625    0.385
        68 -10.1728    176.3078    197.4908   1.1348628798e+02   6.3405744410e+00    0.2422764    0.1315956 -45.90  0.001067734    1.989    0.497
        69 -10.6631    184.2525    196.3725   1.1163349679e+02   4.9896819750e+00    0.2555398    0.1738843 -31.49  0.001155074    1.686    0.407
        70 -10.9180    219.5047    194.5712   1.0426751795e+02  -1.4588855697e+00    0.2516512    0.2190111 -46.83 0.0008903217    1.320    0.242
        71 -10.7161    209.1499    194.3751   1.0623725887e+02   5.2139926780e-01    0.2654555    0.2022802 -42.97  0.001014612    1.407    0.290
        72 -10.2632    194.3452    194.2677   1.0917002752e+02   3.3993516509e+00    0.2426399    0.1846637 -53.49  0.001262873    1.515    0.340
        73  -9.9628    161.7660    192.0325   1.1554402986e+02   1.0282054556e+01    0.1890622    0.1225026 -49.54 0.0008863682    1.654    0.395
        74  -9.9701    205.2480    190.9660   1.0633666829e+02   1.8715528641e+00     0.198872    0.1756873 -26.93 0.0006771584    1.157    0.135
        75 -10.5012    198.9057    190.7853   1.0756936620e+02   3.1405447366e+00    0.2499704    0.2047266 -36.29  0.001064354    1.272    0.214
        76 -10.3122    185.4081    190.3067   1.1023278105e+02   5.9009246946e+00    0.2608328    0.1390932 -39.01 0.0009311985    2.041    0.510
        77 -10.1023    172.3674    190.7848   1.1305426804e+02   8.4157655942e+00    0.1995528    0.1361491 -35.45 0.0009472976    1.665    0.399
        78 -10.3366    178.6847    189.5411   1.1148557423e+02   7.3925263362e+00     0.250931    0.1341934 -45.58  0.001074652    1.989    0.497
        79 -10.7033    210.2301    188.6222   1.0488614493e+02   1.3242265954e+00    0.2607595    0.1917371 -38.99  0.001087933    1.401    0.286
        80 -10.1521    193.1142    187.8712   1.0816913828e+02   4.8226922654e+00    0.2133107    0.2008148  78.21 0.0007851014    1.208    0.172
        81 -10.9734    203.4495    183.3388   1.0516639992e+02   3.6053155711e+00     0.355315    0.2497666 -48.07  0.001193898    1.546    0.353
        82 -11.2073    210.8977    181.9787   1.0340982262e+02   2.3813133228e+00    0.4450805    0.2283036 -37.41  0.001431076    2.000    0.500
        83 -10.8472    183.5021    182.5792   1.0910564317e+02   7.7714931435e+00    0.2965553    0.1454043 -44.00  0.001202525    2.135    0.532
        84 -10.2304    197.4639    182.0567   1.0611448766e+02   5.0405064499e+00    0.2163266    0.1421125 -41.09 0.0008238323    1.572    0.364
        85 -10.1238    176.5199    181.0432   1.1027433578e+02   9.5025911894e+00    0.2230975    0.1465917 -44.80  0.001033824    1.595    0.373
        86 -10.9372    190.9942    179.1409   1.0684760281e+02   6.9082785293e+00      0.32062    0.2106123 -47.20  0.001504446    1.610    0.379
        87 -10.2065    215.5056    173.0042   1.0064217168e+02   3.0972558571e+00    0.2706934    0.1366856 -43.93 0.0008107038    2.025    0.506
        88 -10.8074    205.0807    176.6693   1.0346767962e+02   4.5128185538e+00    0.2810586    0.2106131 -32.33 0.0009735993    1.367    0.269
        89 -10.5552    197.7248    176.4721   1.0491345176e+02   6.0437020213e+00    0.2755398    0.1980286 -41.46  0.001082459    1.426    0.299
        90 -10.3670    210.4046    175.0302   1.0206717859e+02   3.7456383610e+00    0.3492952    0.1675502 -42.78  0.001104389    2.115    0.527
        91 -10.3986    182.4852    175.9514   1.0797472350e+02   9.2867613266e+00    0.2243359    0.1470377 -43.93  0.001029779    1.582    0.368
        92 -10.3664    192.5767    172.7472   1.0519410499e+02   7.8222742572e+00    0.2779457    0.1430214 -37.87  0.001122926    2.063    0.515
        93 -10.1089    214.7890    176.9299   1.0160472703e+02   2.5267390561e+00    0.2711446    0.1797335 -23.94 0.0008987729    1.695    0.410
        94 -11.1071    223.4282    146.1457   9.3259687213e+01   6.4456870280e+00    0.4327641     0.305381 -12.02  0.001989599    1.820    0.451
        95 -10.6674    224.2173    139.8840   9.1694725810e+01   7.4482802045e+00    0.4029643    0.1869572 -36.58 0.0009436401    2.115    0.527
        96 -11.7519    218.7327    167.9014   9.8933883570e+01   3.3835913578e+00    0.5041113    0.3150045 -33.85  0.001611022    1.605    0.377
        97 -11.0014    221.0658    161.5037   9.7106981897e+01   4.0859680729e+00    0.3752399    0.2085573 -36.21 0.0008994846    1.775    0.437
        98 -10.6658    222.0000    155.9907   9.5722243646e+01   4.9122946341e+00    0.3132893    0.1871911 -39.37 0.0009627751    1.616    0.381
        99 -10.6300    221.2974    151.9863   9.4967020550e+01   5.8009974455e+00    0.3229768    0.2422121 -26.42 0.0009209537    1.369    0.269
       100  -9.8053    200.5473    171.5051   1.0329726851e+02   6.4123385066e+00    0.1463268    0.1389852   8.04 0.0002911658    1.029    0.028
       101 -10.8046    211.9728    169.1638   1.0051724247e+02   4.5147081513e+00    0.2931766    0.1993914 -38.74 0.0008091018    1.463    0.316
       102 -12.1117    212.7401    162.6444   9.8960905959e+01   5.5765082166e+00    0.5383491    0.2952998 -36.21  0.002309524    1.841    0.457
       103 -10.4847    178.6917    168.5304   1.0723709303e+02   1.1578593609e+01    0.2713562    0.1377986 -44.81  0.001077891    2.024    0.506
       104 -10.8589    191.6485    165.1755   1.0377477851e+02   9.5077290917e+00    0.3470265    0.1783723 -39.34  0.001393669    2.013    0.503
       105 -10.5911    199.5381    164.2463   1.0194677357e+02   8.0232638209e+00    0.3490818    0.1454164 -39.55  0.001263393    2.461    0.594
       106 -10.1087    184.5116    165.0520   1.0525065025e+02   1.1049920164e+01    0.2315312    0.1489432 -42.39  0.001030814    1.587    0.370
       107 -11.1019    205.3202    161.1591   1.0010499838e+02   7.4044368033e+00    0.3766243      0.24991 -35.63  0.001402915    1.526    0.345
       108 -10.1389    176.5073    159.0051   1.0565949102e+02   1.4013230362e+01    0.2377134     0.151191 -43.08  0.001035105    1.603    0.376
       109 -10.6734    197.0376    156.7697   1.0081598841e+02   1.0024993194e+01    0.3349018    0.2172868 -35.08  0.001351973    1.601    0.375
       110 -11.0672    216.0994    156.1027   9.6872054185e+01   6.1107883961e+00    0.3610955    0.2142349 -36.78  0.001143646    1.662    0.398
       111 -10.1158    187.5177    155.4678   1.0251099021e+02   1.2349436312e+01     0.280644    0.1448538 -31.97  0.001035165    2.381    0.580
       112 -11.1225    205.1608    168.9593   1.0182509710e+02   5.9463986035e+00    0.3435177    0.2121112 -42.02  0.001332768    1.631    0.387
       113 -10.6210    205.8383    153.8844   9.8389777488e+01   8.7017941712e+00    0.2333041    0.2004541  -6.19 0.0008377653    1.280    0.219
       114  -9.8740    202.3625    150.8397   9.8401304384e+01   1.0045824181e+01    0.2194214     0.139248 -30.48 0.0009431521    1.727    0.421
       115 -11.3085    215.1232    148.6242   9.5387687441e+01   7.7320894758e+00    0.3422611    0.2204113 -43.88  0.001329827    1.526    0.345
       116 -10.6410    207.9825    144.4924   9.5835204012e+01   1.0066111021e+01    0.2987377    0.2102822 -24.05  0.001160523    1.621    0.383
       117 -10.0125    200.4670    144.9277   9.7434185950e+01   1.1629274797e+01    0.2370102    0.1474944 -41.98  0.001027476    1.583    0.368
       118  -9.9360    218.5082    144.0547   9.3707023713e+01   7.8786660432e+00    0.2277235    0.1418976 -36.85 0.0008366812    1.562    0.360
       119  -9.5109    194.3120    143.3136   9.8318918201e+01   1.3317889604e+01    0.1552085    0.1223517   4.77  0.000504079    1.634    0.388
       120 -10.2332    214.1164    141.8990   9.4049153009e+01   9.2337496373e+00    0.2286359    0.2011901 -58.10 0.0006784427    1.200    0.167
       121 -10.6801    218.7580    137.7300   9.2211330635e+01   9.0239335704e+00    0.3253107    0.2308131 -26.96  0.001309813    1.505    0.336
       122 -10.4523    208.5168    137.4854   9.4108783207e+01   1.1314072109e+01    0.3185731    0.1463987 -39.61  0.001197982    2.127    0.530
       123 -10.0803    198.5989    136.6749   9.5887745269e+01   1.3690543446e+01    0.2964435     0.147342 -36.79  0.001122185    2.080    0.519
       124  -9.7811    192.6113    136.2267   9.7007043814e+01   1.5134778102e+01    0.2233611    0.1461324 -31.08 0.0009489342    1.684    0.406
       125  -9.6676    216.4642    133.9806   9.1771784692e+01   1.0237538031e+01    0.4517253    0.2682095   2.70  0.001281645    5.122    0.805
       126  -9.4621    187.6681    135.3090   9.7820909667e+01   1.6446416683e+01      0.15933    0.1239287 -84.77 0.0007041536    1.669    0.401
       127 -10.8112    225.7362    132.9763   8.9835354250e+01   8.4134008623e+00    0.3549467    0.2181524 -26.57  0.001077015    1.848    0.459
       128  -9.8220    179.6691    131.6639   9.8653324923e+01   1.9032553169e+01    0.1618126    0.1264697   5.01 0.0007052127    1.733    0.423
       129 -10.3432    205.6265    130.2321   9.2962706289e+01   1.3378970172e+01    0.2191629    0.1428082 -31.43  0.000948494    1.634    0.388
       130 -11.5718    220.8857    128.4440   8.9661446969e+01   1.0316993534e+01    0.3045444    0.2466694 -39.28  0.001156832    1.176    0.150
       131  -9.7757    192.3996    128.7622   9.5260959243e+01   1.6694247865e+01    0.2220042    0.1477904 -30.68 0.0009477304    1.655    0.396
       132 -10.1553    211.9646    128.5190   9.1336735977e+01   1.2284133829e+01    0.2542793    0.1935712 -40.57  0.001071754    1.266    0.210
       133  -9.9862    212.5111    122.0134   8.9683496998e+01   1.3411058740e+01    0.2385779    0.1451933 -39.70   0.00103042    1.583    0.368
       134 -11.3872    224.5112    117.4038   8.6418153184e+01   1.1579935804e+01    0.5115867    0.1494098 -30.62  0.001027994    8.197    0.878
       135 -10.4009    219.6572    114.7987   8.6653637934e+01   1.3154657052e+01    0.2269795    0.1277155 -47.55 0.0009469183    1.746    0.427
       136 -10.2223    222.4046    104.2520   8.3645788254e+01   1.4475224388e+01    0.2853599     0.141073 -35.12  0.001003426    2.040    0.510
       137 -12.5981    248.7579    180.8142   9.6117806236e+01  -4.4762586153e+00     1.217463    0.3058468 -43.11  0.003819408    4.359    0.771
       138 -11.0165    225.0000     92.9794   8.0503882972e+01   1.5899070001e+01    0.2426847   0.07999293 -37.78 0.0007746481    2.889    0.654
       139 -10.8189    233.0990    246.9646   1.1120589012e+02  -1.1482580584e+01    0.2394947    0.2094242  38.40  0.001246208    1.367    0.268
       140 -12.2326    230.0192     82.7920   7.7286814732e+01   1.6500093931e+01    0.3531379    0.2674247  -1.79  0.001685959    1.995    0.499
       141 -12.5136    238.7543    160.6765   9.3670227525e+01   7.4059396501e-01     1.116462    0.3905273 -45.60  0.003908285    3.089    0.676
       142  -9.6628    225.4580     81.5033   7.7669290349e+01   1.7778135555e+01    0.1462407    0.1332251 -66.23  0.000114873    1.005    0.005
       143  -9.2972    215.0000     79.9506   7.8932616614e+01   2.0520914460e+01     0.239673   0.08146027 -36.94  0.000792914    2.877    0.652
       144  -9.6466    211.4678     76.4755   7.8637372586e+01   2.1962635840e+01    0.1478081    0.1375984 -74.98 8.694844e-05    1.007    0.007
       145 -12.4794    242.8741    137.1010   8.7786608342e+01   4.0973063913e+00      1.11041    0.2876891 -42.42  0.003454262    3.561    0.719
       146 -14.0485    245.9794    155.7243   9.1338309377e+01   2.2250486515e-01     2.382202    0.7498066 -39.07  0.008430553    2.920    0.658
       147 -13.5672    248.3529    125.9762   8.4405827881e+01   4.9614484213e+00     2.492476    0.3098446 -39.60   0.00570491    6.583    0.848
       148 -13.1648    245.3857    191.5128   9.8869998171e+01  -5.5924767692e+00     1.281939    0.6079954 -53.75  0.004553809    4.269    0.766
       149 -12.6296    241.3997    179.7710   9.7210755224e+01  -3.0004574358e+00    0.8707417    0.3326654 -42.26  0.003082592    2.637    0.621
       150 -11.4156    216.1942    233.8028   1.1208387921e+02  -7.0013074724e+00    0.3321452    0.2986211  62.66  0.001632365    1.486    0.327
       151  -9.8684    170.4814    235.0042   1.2098792952e+02   7.7474058479e-01    0.1771402    0.1314535 -46.65 0.0009750348    1.585    0.369
       152 -11.7398    236.4494    229.8605   1.0768772706e+02  -9.7569773800e+00    0.4007781    0.3462015  70.20  0.002121336    1.865    0.464
       153 -10.8595    229.0552    228.0934   1.0872140014e+02  -8.3185375986e+00    0.2617647    0.1778825 -41.93  0.001125764    1.741    0.426
