#   1 NUMBER                 Running object number                                     
#   2 MAG_AUTO               Kron-like elliptical aperture magnitude                    [mag]
#   3 X_IMAGE                Object position along x                                    [pixel]
#   4 Y_IMAGE                Object position along y                                    [pixel]
#   5 X_WORLD                Barycenter position along world x axis                     [deg]
#   6 Y_WORLD                Barycenter position along world y axis                     [deg]
#   7 A_WORLD                Profile RMS along major axis (world units)                 [deg]
#   8 B_WORLD                Profile RMS along minor axis (world units)                 [deg]
#   9 THETA_WORLD            Position angle (CCW/world-x)                               [deg]
#  10 FWHM_WORLD             FWHM assuming a gaussian core                              [deg]
#  11 ELONGATION             A_IMAGE/B_IMAGE                                           
#  12 ELLIPTICITY            1 - B_IMAGE/A_IMAGE                                       
         1 -11.7632      6.5059     61.9705   1.2926411600e+02   6.2175304283e+01    0.7751377    0.1115543 -50.73   0.00307243    3.381    0.704
         2 -10.4351     60.5607     25.0077   9.6415751040e+01   6.2757232095e+01    0.5172405    0.2100145 -32.85  0.002085527    2.378    0.579
         3 -12.3504     60.4987     45.4679   1.0415206443e+02   5.9838324598e+01    0.9476542    0.4253727 -38.42  0.004571686    2.064    0.516
         4 -11.2865    105.8590     20.2042   8.1013544275e+01   5.5103082154e+01    0.4723076    0.2536469 -36.18  0.001483827    2.094    0.522
         5 -11.6851    110.8302     24.2378   8.1219493266e+01   5.3624348163e+01     0.416538    0.2776622 -39.72   0.00201005    1.736    0.424
         6 -11.6653     22.7638     11.2131   1.0565000810e+02   6.9263670797e+01    0.5148551    0.2979135  -2.00  0.002996883    1.704    0.413
         7 -12.6249     18.4147     22.6170   1.1225344968e+02   6.8112707755e+01    0.8598915    0.6824635  50.15  0.005941164    2.358    0.576
         8 -11.3479     16.7507     13.3852   1.0927204267e+02   6.9556788953e+01    0.3579439    0.1543259 -33.79  0.001341237    1.907    0.476
         9 -10.9651     14.4763      9.5211   1.0866732411e+02   7.0272278044e+01    0.2754845    0.2404207  18.90  0.002248882    1.623    0.384
        10 -11.1917    178.1156     21.4098   6.7757785011e+01   3.8195445610e+01    0.4913794    0.3149622  31.86  0.002221998    2.129    0.530
        11 -10.5770    153.3364     25.5073   7.2818410048e+01   4.3767028459e+01    0.5525911    0.3418399   1.32  0.002538376    2.497    0.600
        12  -9.7902     32.1728     12.1833   1.0201399540e+02   6.8123428720e+01    0.2030952    0.1620348  37.06 0.0003805186    1.736    0.424
        13 -11.0663     47.1144     18.6264   9.8763968812e+01   6.5468993500e+01    0.3448132    0.2653044  -2.89  0.001490651    1.041    0.039
        14 -12.1655     49.2266     12.9334   9.5557729724e+01   6.5854296890e+01    0.5621167    0.3008567  41.57  0.002718062    1.946    0.486
        15 -11.0745     42.1758     14.2181   9.8821641868e+01   6.6654786253e+01    0.3947171      0.17433  38.20  0.001751268    2.282    0.562
        16 -11.8240     35.9294     18.9905   1.0334683267e+02   6.6825736579e+01    0.5239742    0.2948139 -25.40  0.002958953    1.556    0.357
        17 -10.7816     86.9892      7.4905   8.1153739753e+01   6.0098278538e+01    0.5476879    0.3088613  51.87   0.00307382    1.616    0.381
        18 -11.5508     90.6669     19.9279   8.4908031753e+01   5.8172966897e+01    0.5144989    0.3862059 -19.46  0.002539239    1.374    0.272
        19 -12.0908     69.5397     17.9507   9.0526048588e+01   6.2176549120e+01     0.658142    0.3576942  51.18  0.003515885    2.104    0.525
        20 -10.9051    165.3837     17.0806   6.8436441986e+01   4.1764614992e+01    0.3381256    0.2215812  43.32 0.0006664323    1.608    0.378
        21 -12.3787    238.4256     15.6077   5.9617243562e+01   2.4604444678e+01    0.4375592    0.3304224 -75.89  0.001531025    1.085    0.079
        22 -11.5288    234.1551     16.5048   6.0189401655e+01   2.5453770432e+01    0.2974836    0.2709259   0.56   0.00143633    1.632    0.387
        23 -11.9691    244.6609     13.9780   5.8747324178e+01   2.3423344386e+01    0.3141793    0.2260237 -38.47  0.001207537    1.524    0.344
        24 -12.3521    245.5631      6.5946   5.7202366772e+01   2.4084069731e+01     1.176122    0.4750516 -87.81  0.005053403    2.915    0.657
        25 -11.2802    239.9795      7.8247   5.7893439672e+01   2.5163859069e+01    0.3030287    0.1874609 -67.51 0.0002801836    1.410    0.291
        26 -11.4020    133.4976     15.2161   7.3292954379e+01   4.9521765395e+01    0.8868616    0.2588987  58.09  0.003391737    2.723    0.633
        27 -11.1850    125.4478     11.0926   7.3524316234e+01   5.1739905304e+01    0.5317478    0.3043512  78.96  0.002516685    2.287    0.563
        28 -12.1623    104.8794     12.9710   7.8657880769e+01   5.6026558331e+01    0.4350134    0.3496609  -2.71   0.00188108    1.304    0.233
        29 -11.6063    211.5385      9.8590   6.0911275504e+01   3.1419175352e+01    0.4282196    0.3385029  11.71  0.001659111    1.977    0.494
        30 -11.6595     86.1221     14.2632   8.4020283386e+01   5.9623315171e+01    0.5235684    0.3136799  -8.35  0.002368652    1.850    0.459
        31 -11.1304    192.2331      7.9658   6.2532947306e+01   3.6202177478e+01    0.3730004    0.2791377  -5.86  0.001498753    1.911    0.477
        32 -10.1756    169.1327      9.9609   6.5940782137e+01   4.1572976845e+01    0.3229274    0.1824673  49.20  0.001641824    1.729    0.422
        33 -10.8636     66.6582     10.4713   8.8403812980e+01   6.3447672994e+01     0.421078    0.1782312  41.53  0.002150547    2.069    0.517
        34 -10.6622     62.8364      6.4532   8.7969172274e+01   6.4468625552e+01    0.3101214    0.1807318  -3.45  0.001381551    1.806    0.446
        35  -9.7793      4.3109     10.4941   1.1386715892e+02   7.0967969390e+01    0.2751129    0.1136616 -18.76   0.00139482    2.962    0.662
        36  -9.7766    150.7941      7.9811   6.8079643351e+01   4.6150401506e+01    0.2280187    0.1692859  78.50   0.00074594    1.286    0.222
        37 -11.1891     77.3791      4.9744   8.2843214479e+01   6.2106496202e+01    0.4953645    0.2977568  -8.90  0.002922431    1.746    0.427
        38 -10.7373     71.7237      3.1901   8.3783575576e+01   6.3267579529e+01     0.373622    0.2584415  22.80    0.0024405    1.237    0.192
        39  -9.9892      1.2624      7.3545   1.1403559371e+02   7.1616668745e+01    0.1489415   0.07020409 -41.00  0.000166495    1.767    0.434
        40 -10.2872    199.6096      6.0457   6.1262359001e+01   3.4636522278e+01    0.3153483    0.1508073  74.39  0.001527434    1.822    0.451
        41  -9.8465    162.9372      5.6363   6.5617558430e+01   4.3467720828e+01    0.2169885    0.1743254  21.72 0.0007616772    1.534    0.348
        42  -9.2222     51.2646      6.6579   9.2081193621e+01   6.6237254143e+01    0.1520802   0.08544394  30.30 0.0004486714    1.565    0.361
        43 -10.6198     42.5565      3.4227   9.3909857994e+01   6.7798072641e+01    0.4363109    0.2198118   5.96  0.002259309    2.554    0.609
        44 -10.8483    218.6335      3.2378   5.8766418582e+01   3.0474199561e+01     0.291166     0.236035 -87.52 0.0007583209    1.028    0.027
        45 -11.3467    223.5121      2.0245   5.8075810494e+01   2.9485131957e+01    0.6149201    0.2495943  85.04  0.002704172    2.535    0.605
        46  -9.5848    174.7583      4.4012   6.3721569017e+01   4.0744567872e+01    0.1812849    0.1003312  61.63 0.0009354296    1.525    0.344
        47 -12.1692    133.8325      2.6034   6.9240032717e+01   5.0564534219e+01    0.3274836    0.2185476  52.21 0.0005555709    1.260    0.206
        48 -10.8114    205.4522      2.2559   5.9787939271e+01   3.3638244966e+01     0.416527    0.1904876  89.05  0.001180805    2.345    0.574
        49 -10.1719    142.1247      3.6110   6.8162708867e+01   4.8567205375e+01    0.2864843    0.2056754  58.89  0.001709249    1.165    0.141
        50 -11.1199    113.4372      1.9894   7.2878755027e+01   5.5155027787e+01    0.4897788     0.202524  67.77  0.001781477    2.668    0.625
        51 -10.9249      2.7818      1.8049   1.1087324636e+02   7.2234614338e+01    0.3367453    0.1481179  12.79  0.002027024    2.433    0.589
        52  -9.2888    193.9794      1.4063   6.0757488484e+01   3.6429944146e+01    0.1874924    0.1048461  74.88 0.0003998668    1.513    0.339
        53  -9.6542    162.5909      1.2794   6.4467265492e+01   4.3934079514e+01    0.2079467   0.09671955  68.54 7.386131e-05    1.804    0.446
        54 -11.1541    106.0663      1.9342   7.4423077049e+01   5.6728653865e+01    0.5765175    0.2221858  65.02  0.002202687    2.816    0.645
        55  -9.1622     74.4549    145.5052   1.2577628615e+02   3.6771783477e+01    0.1417389    0.1254038 -74.64   0.00080892    1.006    0.006
        56 -10.7572     33.1821    144.3844   1.3618585040e+02   4.2088525067e+01    0.2633241    0.2163816 -88.30 0.0007636541    1.111    0.100
        57  -9.7431    133.3681    140.7812   1.0961325076e+02   2.7374513467e+01    0.2829202    0.1988298 -40.77  0.001032443    1.495    0.331
        58 -11.5041     12.8669    139.3725   1.4056628205e+02   4.5048213874e+01    0.4245855    0.2347834  53.64  0.002388406    2.076    0.518
        59 -12.1677     23.2270    136.1920   1.3756680514e+02   4.4924751458e+01    0.7210004     0.427696  54.16  0.004039917    1.949    0.487
        60 -11.9494     29.8251    133.0380   1.3541101115e+02   4.5061633172e+01    0.5278004    0.2982816 -73.59 0.0004233755    1.552    0.356
        61 -10.6452     81.5505    135.3247   1.2193650281e+02   3.8145165086e+01    0.4786745    0.3345948 -11.47  0.001747322    2.373    0.579
        62 -10.5253     47.5478    134.2558   1.3090809463e+02   4.2948277154e+01    0.2621992    0.1925615 -63.96 0.0008260123    1.152    0.132
        63 -10.6982     72.4596    133.3999   1.2401536351e+02   3.9958213905e+01    0.3824884    0.2519456 -18.62   0.00167685    2.545    0.607
        64 -10.9022     10.7752    127.2164   1.3955749915e+02   4.7970871495e+01    0.4863733     0.137264 -55.29  0.001695964    2.643    0.622
        65 -10.7126     14.2598    133.1087   1.3943478906e+02   4.6370291778e+01     0.278592     0.192035 -87.17  0.001099949    1.328    0.247
        66  -9.8842     62.5487    132.2872   1.2650159742e+02   4.1583058887e+01    0.3576042    0.1137816 -57.45  0.001310525    2.646    0.622
        67 -10.5790     92.8825    129.2145   1.1756495730e+02   3.7764535471e+01    0.3748741    0.3244664 -64.04  0.001401148    1.089    0.082
        68  -9.8092     78.7198    128.5202   1.2130574135e+02   4.0195371189e+01    0.2593875    0.1491351 -49.24 0.0005782075    1.620    0.383
        69  -9.6725      2.0023    124.8184   1.4150943515e+02   4.9103893062e+01    0.3035804    0.1352053 -73.05  0.001605801    1.761    0.432
        70 -10.1831      4.3139    121.9976   1.4055623111e+02   4.9586774743e+01    0.3040775     0.173056  64.22  0.001706995    2.200    0.546
        71 -10.1510     18.4788    124.9375   1.3722012985e+02   4.7906482000e+01    0.2760257    0.1089348 -56.27 0.0006782865    1.970    0.492
        72 -11.0213     55.8729    123.2373   1.2662361912e+02   4.4564505779e+01    0.5672087    0.3344415  30.01  0.002004215    1.992    0.498
        73 -10.2114    239.6717    124.3306   8.3585204838e+01   7.3249771177e+00    0.1480037    0.1071363 -69.40 0.0007051449    1.712    0.416
        74 -11.6178    104.9398    121.1489   1.1240628468e+02   3.7517003801e+01    0.5206546    0.4884934 -61.88  0.002047208    1.020    0.020
        75 -10.3645     45.7776    120.7468   1.2900441834e+02   4.6313996773e+01    0.2766002    0.2142265 -85.73   0.00135203    1.358    0.264
        76  -9.8209    221.4366    120.4995   8.5788550940e+01   1.1920142118e+01    0.1486272    0.1377403 -50.09  0.000152216    1.009    0.009
        77  -9.1618     72.3267    120.3086   1.2134962261e+02   4.3068017043e+01    0.1420697    0.1037844 -27.79 0.0006417993    1.656    0.396
        78 -10.7880     34.4042    119.4648   1.3198609036e+02   4.7774926549e+01    0.2896707    0.1846749 -45.80 0.0006763987    1.493    0.330
        79  -9.3982     37.4831    115.4704   1.3039826114e+02   4.8394426023e+01    0.1303287    0.1066872 -56.98 0.0002592074    1.047    0.045
        80  -9.7418    148.4962    119.5101   1.0073462724e+02   2.8880353993e+01    0.1557357    0.1540648 -22.52 -0.0001072964    1.058    0.055
        81  -9.1315     81.4600    117.5623   1.1812960020e+02   4.2342880832e+01     0.142522    0.1305439 -51.76 7.304665e-05    1.025    0.024
        82  -9.9528    113.9942    115.9841   1.0867200710e+02   3.6971817468e+01    0.2225827    0.2154503 -46.97 0.0003173098    1.026    0.025
        83 -10.5889     67.1145    112.2021   1.2107245760e+02   4.5673495452e+01    0.4960118    0.2852103 -62.44  0.002330401    1.711    0.416
        84 -12.3793     36.6443     87.8973   1.2496262973e+02   5.4597629940e+01     1.607449     1.155401 -43.89  0.005550147    1.175    0.149
        85 -11.4485     44.5454     85.2008   1.2172128683e+02   5.4368352111e+01    0.7891065    0.5389787  68.70  0.004031663    2.473    0.596
        86 -12.1224      9.7238     97.6424   1.3540915569e+02   5.4622822938e+01    0.8433194    0.5752748  51.12   0.00535942    1.898    0.473
        87 -12.2847      7.2955     88.8705   1.3460826426e+02   5.6655425953e+01    0.5112569    0.4256962 -59.89  0.001094244    1.093    0.085
        88 -12.0327     25.6081    113.5363   1.3346250683e+02   4.9920438525e+01    0.8751076    0.4238878   6.27  0.003877126    3.674    0.728
        89 -12.7331     26.8031    106.4663   1.3186789032e+02   5.1412786477e+01     1.196063    0.6486778 -19.06  0.005644774    2.964    0.663
        90 -12.4081     18.7997    106.2801   1.3419319623e+02   5.2093560519e+01    0.3507418    0.2313658 -42.02  0.000282133    1.456    0.313
        91 -13.2203     19.5345     95.8266   1.3208551744e+02   5.4339698799e+01    0.4427415    0.4017052  36.33 0.0005524004    1.371    0.271
        92 -12.2493     18.4561     90.4892   1.3138815719e+02   5.5571633595e+01    0.5228071    0.2612959 -47.99 0.0006320555    1.607    0.378
        93 -10.0449      7.5127    114.5509   1.3868877238e+02   5.1042000867e+01    0.2153268    0.1698829 -70.50 0.0007375667    1.047    0.044
        94 -11.6843      2.5207    112.1027   1.3971076870e+02   5.1897306313e+01    0.3868467    0.2335384 -69.04 0.0009121376    1.266    0.210
        95 -10.6731      5.5336    108.5252   1.3836180255e+02   5.2503439886e+01    0.2004323    0.1767316 -89.36 0.0009262529    1.228    0.186
        96 -11.7307      3.5071    104.8924   1.3839443123e+02   5.3423380313e+01    0.3423008    0.3280675 -13.05  0.001098518    1.328    0.247
        97 -10.0138    126.8789    113.9774   1.0473869119e+02   3.4804131779e+01    0.2258458    0.2226351 -36.65 0.0004169299    1.036    0.035
        98  -9.4269     87.7698    114.4650   1.1559989784e+02   4.2048479613e+01    0.2677588    0.1364293  44.91  0.001118577    2.145    0.534
        99 -10.3516    108.0098    112.5554   1.0943509773e+02   3.8896895170e+01    0.3034295     0.214937 -69.26  0.001376846    1.705    0.413
       100 -10.7960    170.6257    110.1428   9.3217399421e+01   2.5734834431e+01    0.4504683    0.3846832 -33.88  0.001931504    1.221    0.181
       101 -10.5873    175.1566    107.1014   9.1450016820e+01   2.5274308688e+01    0.3154002    0.2928136  23.09 0.0007327482    1.197    0.164
       102  -9.8269     48.9132    112.1297   1.2642191946e+02   4.7955307661e+01    0.2014978    0.1715105 -87.55  0.001228836    1.273    0.215
       103 -11.0043     79.3841    108.7025   1.1664409398e+02   4.4691678445e+01    0.5609186    0.3737555  51.32  0.002551329    1.760    0.432
       104 -10.5361    102.9610    108.0582   1.0968621853e+02   4.0845549101e+01    0.5154321    0.3094215 -33.58  0.002191014    1.928    0.481
       105  -9.6090    130.5047    107.4992   1.0209451551e+02   3.5445126650e+01    0.1531371    0.1500431 -63.77 -1.793846e-05    1.009    0.009
       106 -10.3977    157.9928    105.6536   9.4877011324e+01   2.9630654378e+01    0.2810008    0.2336303 -33.33 0.0006214627    1.262    0.207
       107 -10.0591    143.6003    105.9302   9.8375614960e+01   3.2888739098e+01    0.3125618    0.2829255 -78.71  0.001267775    1.176    0.150
       108 -10.3737    145.3802    101.7970   9.6824504274e+01   3.3343215141e+01    0.3541967    0.2704987 -27.54  0.001437482    1.470    0.320
       109 -10.5040    147.0046     98.8415   9.5624719034e+01   3.3574342887e+01    0.5162569     0.300962 -65.86  0.001840853    2.727    0.633
       110 -10.8223     86.3618    105.1949   1.1372451088e+02   4.4373230144e+01    0.4391258    0.3169753  15.95  0.001966168    1.758    0.431
       111  -9.8095    182.3377    104.6574   8.9316414282e+01   2.4044071263e+01    0.1660896    0.1207635 -77.77 -0.0001967169    1.769    0.435
       112 -10.3659     48.0756    103.0640   1.2476249479e+02   5.0101766764e+01    0.2215337    0.1905485 -33.18 0.0003688763    1.172    0.146
       113 -10.3307     52.1184     97.8497   1.2233553285e+02   5.0799238316e+01    0.6459199    0.1014768 -50.07  0.001902236    4.479    0.777
       114  -9.2256     82.1414    102.8415   1.1437443550e+02   4.5573777310e+01    0.1907038    0.1564234 -28.53 0.0004073788    1.264    0.209
       115 -10.3339     67.1764     99.4248   1.1804462667e+02   4.8539892797e+01    0.4025152    0.2684252  55.22  0.002007006    1.958    0.489
       116 -10.4000     68.4467     95.6112   1.1669468361e+02   4.9197640672e+01    0.3415327     0.263548 -17.40  0.001082757    1.474    0.321
       117  -9.8540    210.7030     98.0463   8.2288768859e+01   1.8554179503e+01     0.219662    0.1915517 -50.25  0.001161193    1.090    0.082
       118 -10.1566     57.6413     97.6228   1.2055766990e+02   5.0184138306e+01    0.2518899    0.1908049 -48.42 0.0008697432    1.147    0.128
       119  -9.2450     77.9478     97.0313   1.1413993955e+02   4.7498964782e+01    0.1695354    0.1458363 -45.31 0.0003171079    1.064    0.060
       120  -9.6613    140.3856     96.2900   9.6534238683e+01   3.5602034905e+01    0.2735261    0.1874055  37.34 0.0006663486    1.574    0.365
       121  -9.9907     42.4613     94.4606   1.2459681420e+02   5.2603928358e+01    0.2292063    0.1949385 -48.51 0.0006167197    1.014    0.014
       122  -8.9381    136.7345     94.3255   9.6894927553e+01   3.6819884554e+01    0.2051902    0.1339134  47.34 0.0004863965    1.535    0.348
       123  -8.8106    139.3218     92.3477   9.5693559858e+01   3.6632244989e+01    0.2245195     0.157395  34.55  0.001001986    1.581    0.368
       124 -10.3861    117.4360     93.0562   1.0158619394e+02   4.1227687198e+01    0.7675037    0.4690083  11.94  0.002673655    3.343    0.701
       125 -10.5422    126.2998     93.1410   9.9239823715e+01   3.9348446872e+01    0.6389707      0.43111 -71.69  0.002378059    2.221    0.550
       126 -10.5691    122.3389     93.6750   1.0043964733e+02   4.0081906533e+01    0.2986943    0.2328849 -67.35  0.001176112    1.534    0.348
       127 -10.3763    102.9168     90.4680   1.0491614329e+02   4.4619024000e+01    0.5844225    0.4527232 -38.33  0.001977714    1.249    0.199
       128 -11.6106     81.8223     93.0240   1.1189322028e+02   4.7754733308e+01    0.5246024    0.4202265  72.64  0.001293743    1.679    0.404
       129 -11.0919     89.3703     90.0333   1.0878125093e+02   4.7139963889e+01    0.4282714    0.2706226 -40.51  0.001046714    1.506    0.336
       130  -9.5293     92.9330     85.6642   1.0646646693e+02   4.7418822417e+01    0.2373944    0.1922005  16.57 0.0004346117    1.356    0.263
       131 -10.9044     66.7264     81.7969   1.1354178756e+02   5.2346070532e+01    0.4567914    0.3997637 -12.79  0.002798915    1.134    0.118
       132 -11.5875     73.6762     77.3159   1.1000584279e+02   5.2236360154e+01    0.7474849    0.5527441  37.97  0.004157018    1.470    0.320
       133 -10.3040    152.8461     92.2174   9.2415682235e+01   3.3530454371e+01    0.3448038    0.2893262  -7.87  0.001683757    1.441    0.306
       134 -10.1711    183.7591     86.6647   8.4332037300e+01   2.7114523892e+01    0.4996299     0.182862 -44.77  0.001674229    2.734    0.634
       135 -10.6743    113.5144     83.7195   9.9959910160e+01   4.3895033959e+01    0.6903378     0.286244 -36.48   0.00248262    2.622    0.619
       136 -11.0596    107.3769     79.5032   1.0042308085e+02   4.5936624309e+01    0.6740513    0.4626258 -78.00  0.002398349    2.638    0.621
       137 -11.2819     79.7390     82.6815   1.0964523485e+02   5.0229292922e+01    0.5463871    0.4840436 -88.72  0.002402416    1.451    0.311
       138  -9.4569    212.3784     87.2022   7.9347267160e+01   2.0111437709e+01    0.2076479    0.1289963 -48.34 0.0003245556    1.543    0.352
       139 -11.1042    143.5612     83.5340   9.2147373280e+01   3.7363032847e+01    0.4168657    0.3510005  -9.49  0.001406788    1.387    0.279
       140 -10.4699    119.6045     85.3597   9.8779017542e+01   4.2318033891e+01    0.3730347    0.1343041  41.79  0.001224946    2.934    0.659
       141 -10.5020    165.6253     82.9708   8.7009458027e+01   3.2214777619e+01    0.3927786    0.3032834 -49.00  0.001499371    1.314    0.239
       142 -10.0947    127.5650     83.5870   9.6152916399e+01   4.0957603593e+01    0.2458186     0.202659  57.11  0.001014253    1.270    0.213
       143 -10.9477     58.2711     78.1121   1.1528614785e+02   5.4221821720e+01    0.3040251    0.2500014  30.67 0.0009952704    1.356    0.263
       144 -10.2418     53.5488     80.5119   1.1751916980e+02   5.4319961569e+01    0.3192183    0.1893067 -43.67  0.001245147    1.458    0.314
       145 -11.2642     52.9691     76.1693   1.1652210285e+02   5.5269428774e+01    0.4562252    0.3156909 -45.56  0.002625868    1.259    0.206
       146  -9.2703    121.5937     79.2073   9.6422887666e+01   4.3076052820e+01     0.197741    0.1399975 -28.40 0.0004533071    1.518    0.341
       147 -10.7433     13.7878     54.2460   1.2455846477e+02   6.3181207104e+01    0.4302036    0.2020608 -24.35  0.001933958    2.423    0.587
       148 -12.0171     13.8400     74.4046   1.2953235396e+02   5.9252211357e+01     0.413377    0.3452587 -47.16  0.001641082    1.081    0.075
       149 -12.0960      2.0612     70.6667   1.3278489111e+02   6.0705992568e+01    0.8005343    0.1121111 -59.05  0.002839038    3.752    0.733
       150 -10.8586    142.6254    249.1309   1.2660269070e+02   3.0013765425e+00     0.261695     0.166315  39.30  0.001298344    1.396    0.284
       151 -11.4213     11.1450     62.4866   1.2769260280e+02   6.1792807175e+01    0.3529479    0.2308163   6.94  0.002332046    1.780    0.438
       152 -10.5434     93.9833     76.3169   1.0337323615e+02   4.9069522935e+01    0.5588864    0.2962686  34.82  0.001834975    2.036    0.509
       153 -12.2974     74.0667     50.2663   1.0118632387e+02   5.7032271738e+01    0.9216109    0.6758086 -43.40  0.005333792    1.471    0.320
       154 -11.5750     85.7253     73.6524   1.0508355664e+02   5.1017697749e+01    0.5917472    0.5138431  42.35  0.002659665    1.263    0.208
       155 -11.7474     79.0116     67.3599   1.0524332192e+02   5.3298939821e+01    0.7086382    0.5784327  56.83  0.004043023    1.575    0.365
       156 -11.8431    186.5247     70.4572   7.9519017573e+01   2.9263638971e+01     0.775704    0.6185755 -30.11   0.00373094    1.382    0.276
       157 -10.6737     38.5027     73.5176   1.2075916374e+02   5.7390944898e+01    0.2411351    0.1910098 -11.80  0.000842363    1.304    0.233
       158 -10.0048    161.7586     70.2909   8.4263367415e+01   3.5387721523e+01    0.3119704    0.2468959  62.55   0.00156933    1.241    0.194
       159 -11.7622    122.4546     68.3885   9.2894920178e+01   4.4843764241e+01    0.5666227    0.3836074  47.16  0.002420999    1.447    0.309
       160 -11.1130     14.0616     66.6330   1.2764860005e+02   6.0792167245e+01    0.2968218     0.241211 -70.17 0.0008522144    1.398    0.285
       161 -10.3647    172.1371     67.5573   8.1410598331e+01   3.3297914448e+01    0.3757113    0.3068533 -66.63   0.00164985    1.303    0.233
       162 -10.3180    208.0930     68.1937   7.5339243846e+01   2.4358412625e+01    0.3928869    0.1805299  49.35  0.001550542    2.369    0.578
       163 -11.2867    219.4342     66.3066   7.3188955016e+01   2.1952581653e+01    0.5997512    0.3081669  63.82  0.002631244    1.957    0.489
       164  -8.9694     46.6962     77.3210   1.1896346876e+02   5.5762188964e+01    0.1176576    0.0992332 -89.78 0.0007029291    1.633    0.388
       165 -10.9801     58.2588     61.6687   1.1038451994e+02   5.7380054209e+01    0.4806884    0.3022305 -55.28  0.002079764    1.872    0.466
       166 -11.8888    127.1906    241.8161   1.2862063849e+02   6.9063626863e+00    0.4245223    0.2583917 -67.82  0.002268478    1.978    0.494
       167 -10.0184    198.9830    244.5060   1.1516087389e+02  -5.8647747342e+00    0.2027861    0.1072628  40.34  0.001041799    1.622    0.384
       168 -10.8471     60.6472     36.3903   1.0078619399e+02   6.1195829896e+01    0.3266673    0.1921618 -36.27  0.001105697    1.638    0.390
       169 -10.9944     56.6394     30.8413   1.0011327206e+02   6.2556651451e+01    0.3556027    0.2214432  41.18  0.001952957    1.780    0.438
       170 -11.9997     48.1670     30.2600   1.0303896051e+02   6.3786957557e+01    0.6597146    0.2720169  29.21  0.003005312    2.583    0.613
       171 -11.3613     32.4028     71.8148   1.2243929530e+02   5.8313792786e+01    0.5303293    0.2325963  25.99  0.002192738    2.616    0.618
       172 -10.2587     21.0873     65.0473   1.2471605450e+02   6.0597477776e+01    0.1965815    0.1487807 -20.17 0.0008239711    1.286    0.222
       173 -10.4112    204.4440     63.8095   7.4810571832e+01   2.5945641047e+01    0.2703561     0.226036  36.61 0.0008746156    1.457    0.314
       174  -9.7490    167.7873     63.1460   8.1023075587e+01   3.5086803437e+01    0.2225345    0.1913024 -86.07  0.001174435    1.220    0.180
       175 -10.5568    159.5249     61.7188   8.2266838230e+01   3.7339532325e+01    0.4302818    0.2611185  42.80  0.001908339    1.736    0.424
       176 -10.0392     98.5192     62.2668   9.7585670190e+01   5.0770650955e+01    0.2716777    0.2127109  22.25  0.001479516    1.310    0.236
       177 -10.9928     91.9331     62.1934   9.9532672465e+01   5.2004734395e+01     0.347191    0.3090886  44.26  0.001134114    1.233    0.189
       178 -10.6167     91.3628     58.0545   9.8340418620e+01   5.2808815963e+01    0.3539044    0.2995895  32.76  0.001122984    1.173    0.147
       179 -10.5207     87.5588     56.7257   9.9065241698e+01   5.3710539082e+01    0.3851757    0.1984504 -37.45    0.0012615    1.894    0.472
       180 -10.6108    113.5029     61.0567   9.2958093042e+01   4.7986306497e+01    0.6858737    0.2476458 -38.50  0.002514421    2.791    0.642
       181 -11.1436    122.0434     58.5489   8.9903432464e+01   4.6571126909e+01    0.5011934    0.3709423  62.05  0.001859474    1.499    0.333
       182 -10.2909    117.0243     56.2041   9.0450632287e+01   4.8025183422e+01    0.3353376    0.1906993  42.85  0.001004916    1.700    0.412
       183  -9.2900     34.8540     57.1513   1.1742515555e+02   6.0893745353e+01    0.1890925     0.134212 -29.12 0.0006294506    1.202    0.168
       184 -11.4662     40.4595     56.0279   1.1499888551e+02   6.0524655420e+01    0.5125485    0.3855595  71.31  0.002832696    2.653    0.623
       185 -11.6396     51.1909     61.5009   1.1281690062e+02   5.8305090453e+01    0.4952125    0.2987888 -51.82 0.0009217468    1.698    0.411
       186 -11.0932     46.4829     58.4836   1.1356298985e+02   5.9412501272e+01    0.4216505    0.2164541 -51.41  0.002139663    1.951    0.487
       187  -9.9297     26.1872     60.0126   1.2148428786e+02   6.1151968910e+01    0.9356044    0.4427361  49.18  0.003847823    4.769    0.790
       188 -10.8759     25.3581     55.3324   1.2045320070e+02   6.2094637342e+01    0.6161641    0.3019657   8.26  0.003092501    2.714    0.632
       189 -10.6247     29.3182     52.6842   1.1815240051e+02   6.2228760006e+01    0.4186992    0.1867728  33.05  0.002182136    2.601    0.616
       190  -9.5327    146.9336     60.5604   8.4601468139e+01   4.0558183944e+01    0.2230486    0.1378687  54.94 0.0006378531    1.545    0.353
       191 -10.7563    136.8883     55.9568   8.5469226155e+01   4.3635583292e+01    0.8523447    0.4630295  35.98  0.003538626    2.160    0.537
       192 -10.0385    145.5064     52.0260   8.2337729528e+01   4.2204665444e+01    0.3381671    0.2045408 -36.10  0.001466281    1.735    0.424
       193 -11.2868    145.9581     46.3248   8.0507301141e+01   4.2916079205e+01    0.4936505    0.3179137 -24.47  0.001986955    1.777    0.437
       194 -10.4416    157.4846     56.5288   8.1175540930e+01   3.8645665242e+01    0.3600618     0.251896  34.94  0.001130786    1.632    0.387
       195 -11.1095    156.6749     53.3256   8.0402157890e+01   3.9325296579e+01     0.609953    0.4138705 -61.40  0.002861136    1.802    0.445
       196  -9.8748      2.0938     56.1297   1.2949004367e+02   6.3538097474e+01    0.1729071    0.1118342 -37.83 0.0005419126    1.227    0.185
       197  -9.8143     67.1626     54.9104   1.0510040107e+02   5.7325299362e+01    0.1831579    0.1711765 -31.55 0.0006891724    1.229    0.186
       198 -11.0975     40.9928     70.1817   1.1898207209e+02   5.7799043360e+01    0.3342079    0.2475358 -56.91  0.001362041    1.379    0.275
       199 -10.3963    249.0638     53.1075   6.6463518070e+01   1.7238680750e+01    0.2563219    0.1865308  65.34  0.001013373    1.444    0.307
       200 -11.7208    240.9540     50.5251   6.6813276233e+01   1.9406220457e+01    0.5216032    0.2475658  68.48  0.001804582    2.124    0.529
       201 -10.7944    113.0027     50.0098   8.9477717702e+01   4.9824945448e+01     0.631426     0.437722  24.98  0.003194671    1.593    0.372
       202 -12.5031    117.6469     43.2821   8.6037771921e+01   4.9798902707e+01      1.02721     0.629851  72.07  0.004514303    2.432    0.589
       203 -12.9114    120.1425     38.9769   8.3986019622e+01   4.9834644492e+01    0.8191105    0.6500975  84.24  0.002387833    1.649    0.393
       204 -10.5528     27.2249     47.5385   1.1735474352e+02   6.3330125048e+01    0.4125284    0.2035076  -9.65 0.0009671566    3.138    0.681
       205 -10.1427     52.0883     47.6769   1.0795580770e+02   6.0609922882e+01    0.2819418    0.1932945 -20.67   0.00168482    1.356    0.262
       206 -11.3375     32.5838     42.4444   1.1356963227e+02   6.3691237441e+01    0.7289057     0.450284  37.38  0.003387894    2.045    0.511
       207 -11.9785     46.3734     48.6520   1.1039819894e+02   6.1149062225e+01     0.537594    0.3469756 -31.72  0.001484136    1.340    0.254
       208 -11.6096     41.7714     45.4749   1.1104740500e+02   6.2212719769e+01    0.2728685    0.2170419 -11.57 0.0003100254    1.092    0.084
       209  -9.1559     54.9098     51.3450   1.0818768015e+02   5.9632650588e+01    0.1622041    0.1059413  14.64 0.0006060125    1.661    0.398
       210 -10.6879    173.6421     48.2950   7.5785330971e+01   3.5886729278e+01    0.4358312    0.2705811  71.75  0.001870063    1.654    0.395
       211  -9.7601      3.0755     48.9894   1.2729052657e+02   6.4812905484e+01    0.1955418    0.1407122   5.56  0.001426326    1.566    0.362
       212 -10.7133    202.0557     46.6064   7.0853181201e+01   2.9114979371e+01    0.3565033    0.2949797 -55.89  0.002021304    1.179    0.152
       213  -8.7953     90.7049     48.3648   9.5243022862e+01   5.4472323291e+01     0.126759    0.1069112 -69.56 0.0007030469    1.715    0.417
       214 -10.8729     20.8064     47.0400   1.1972332527e+02   6.3963350014e+01    0.2897041    0.1991444 -43.79  0.001144012    1.222    0.182
       215  -9.9279     14.1728     46.1333   1.2208375917e+02   6.4626247053e+01    0.2539514   0.07626607 -39.78  0.001150902    2.696    0.629
       216 -10.0151     18.0100     42.1407   1.1930508398e+02   6.5036220281e+01    0.2603758    0.1439702  -8.89  0.001502814    2.080    0.519
       217  -9.1434    132.4678     45.4708   8.3194389895e+01   4.6190860339e+01    0.1409431    0.1282604  36.75 1.291665e-05    1.043    0.041
       218  -9.4737    139.1396     43.7472   8.1164615382e+01   4.4882640162e+01    0.2804485    0.1533988  52.19   0.00127379    1.664    0.399
       219 -10.4508    100.0476     42.5493   9.0481482567e+01   5.3543799924e+01    0.3619802    0.2468808 -61.67  0.001732006    2.408    0.585
       220 -11.1738     93.9744     41.2546   9.1772967255e+01   5.4900671569e+01    0.5541604    0.2636166  43.98  0.002003802    1.986    0.497
       221 -10.0136      4.3247     43.9529   1.2540475878e+02   6.5649471436e+01    0.3432009    0.1551096 -13.52 0.0009344206    2.852    0.649
       222 -11.3393    156.1576     41.8605   7.7132766111e+01   4.1070565926e+01    0.4291667    0.3068284  59.56 0.0008928966    1.283    0.221
       223 -11.0482    231.7333     39.4599   6.5411994018e+01   2.3064867725e+01    0.3788083    0.2208651 -59.88  0.001857369    1.654    0.395
       224 -11.2006     81.5070     39.3619   9.4885672862e+01   5.7436813754e+01    0.4593535     0.311696  47.06   0.00166019    1.582    0.368
       225 -11.0277     77.6838     34.1922   9.4195076957e+01   5.8808143790e+01    0.3647007    0.2412522  32.66  0.001132756    1.416    0.294
       226 -11.4395     82.4108     31.5084   9.1702128231e+01   5.8336460661e+01    0.3936849    0.3459093  46.83  0.002053525    1.327    0.246
       227 -10.8960     22.1303     36.4323   1.1572317635e+02   6.5652410154e+01    0.4105836    0.2355797  40.75  0.002347682    2.588    0.614
       228 -11.3196      4.4019     36.2245   1.2307351560e+02   6.6986745204e+01    0.4415586    0.2137642 -26.78 0.0009393449    1.901    0.474
       229  -8.9568      6.2056     30.9086   1.2058957807e+02   6.7757499818e+01    0.3069131    0.1377341   8.04  0.001726821    2.645    0.622
       230  -9.5578    218.5335     38.5137   6.6731320697e+01   2.6271766057e+01    0.1363774    0.1172862 -81.56 0.0005319542    1.005    0.005
       231 -10.6545    176.5918     36.9239   7.2165889157e+01   3.6701624562e+01    0.3376309    0.2591031 -38.55  0.001560581    1.395    0.283
       232 -10.3554    172.3197     33.3553   7.1871522258e+01   3.8207656988e+01    0.2876727    0.2248668 -75.21  0.001147223    1.360    0.265
       233  -9.8892    133.6041     37.4163   8.0371789954e+01   4.7005492982e+01    0.3659999     0.240104 -75.07  0.001622897    2.493    0.599
       234  -9.7696    206.9970     37.0785   6.7832932042e+01   2.9224494048e+01    0.2146964    0.1865297 -83.86 0.0007501816    1.013    0.013
       235 -10.4278    153.4922     36.3278   7.5999757821e+01   4.2436800750e+01    0.2729529    0.2245313 -86.63 0.0007064395    1.331    0.249
       236 -11.5976    105.7752     32.7799   8.5494583901e+01   5.3681320713e+01    0.8073574    0.4504355   3.70   0.00330997    2.992    0.666
       237 -10.6937    150.8784    237.6881   1.2342755566e+02   3.5448279907e+00    0.2800024    0.1740569 -41.19  0.001466902    2.004    0.501
       238 -10.3143    143.4872    235.4938   1.2457372075e+02   5.2338014587e+00    0.1329623    0.1131276  52.40 8.774054e-05    1.009    0.009
       239 -11.6139    115.5267     24.5148   8.0194342323e+01   5.2586372810e+01    0.3707887    0.2311602  54.13 0.0009315243    1.457    0.313
       240 -10.1946     70.9070     32.1023   9.5624234101e+01   6.0215980485e+01    0.3434874    0.2417884  -0.38  0.001096544    1.428    0.299
       241  -9.7227     67.6712     31.7079   9.6564622390e+01   6.0786118182e+01    0.3936815    0.1981658 -16.37   0.00179784    2.580    0.612
       242 -11.6852    240.7112     31.5865   6.2753372574e+01   2.2091715248e+01    0.3438201    0.3057428  -7.46  0.001812424    1.646    0.392
       243  -9.5566    160.7874     33.5595   7.3864672558e+01   4.1010435777e+01    0.2787682    0.2039485  78.02   0.00147019    1.385    0.278
       244  -9.9270    159.8121     29.2268   7.2782040308e+01   4.1771119612e+01     0.237929    0.2059118 -13.06 0.0007176181    1.357    0.263
       245 -11.1534    164.3783     27.5494   7.1536542977e+01   4.0854850834e+01    0.3278373    0.2540902 -86.38  0.001493632    1.365    0.267
       246  -9.7502    189.7717     32.3914   6.8986123182e+01   3.4032084050e+01    0.3143854    0.1847692  52.82  0.001410315    1.683    0.406
       247 -10.3126    189.3891     27.6163   6.7811919758e+01   3.4714735186e+01    0.3545063    0.2790473  -0.60  0.001537301    1.782    0.439
       248  -8.8249    182.6800     31.7209   6.9833650115e+01   3.5859482027e+01    0.1361069   0.09840409  41.50 0.0003356657    1.581    0.367
       249 -11.6673     26.3555     27.7906   1.1083105868e+02   6.6615180617e+01    0.4382524    0.3459492  22.71   0.00260301    1.464    0.317
       250  -9.2635     15.4241    233.7740   1.4827420348e+02   2.4317843950e+01    0.1476057   0.08154351 -70.47  0.000944045    1.709    0.415
       251 -10.3920    131.0003    240.7610   1.2774458494e+02   6.4486250583e+00     0.247466    0.1674756  46.38  0.001396787    1.254    0.202
       252  -9.9725    247.3234    231.3034   1.0403952825e+02  -1.1669426474e+01    0.1261722   0.08120876   5.71 0.0006980938    1.637    0.389
       253  -9.1745     23.3207    231.6760   1.4681044674e+02   2.3866480417e+01    0.1222831   0.06176083  69.83 0.0007046129    1.678    0.404
       254 -10.8134    198.3942     28.7368   6.6898757605e+01   3.2380597340e+01     0.375577    0.2414129  52.01  0.001485878    1.622    0.383
       255 -10.1472    199.6807     24.9811   6.5810157037e+01   3.2525589455e+01    0.2630207     0.200169  83.60 0.0004911346    1.169    0.145
       256 -11.6110    182.7387     25.1014   6.8080882904e+01   3.6642203807e+01    0.5964962    0.2657932  52.63  0.002136706    2.141    0.533
       257 -10.2709    175.9518     29.5130   7.0251399109e+01   3.7784964057e+01    0.3112059    0.2160212 -21.70  0.001103098    1.757    0.431
       258  -9.2414    190.0162    229.9754   1.1451709129e+02  -2.0769486901e+00    0.1600515    0.1382661  31.11 0.0005401792    1.009    0.009
       259 -12.0137    125.2065     27.5638   7.9017638095e+01   5.0108375974e+01    0.5866464    0.4351048  57.54  0.002631139    1.257    0.204
       260  -9.8362    100.2614     30.0317   8.5988479584e+01   5.5137846890e+01    0.2515678    0.1578141  29.07  0.001309703    1.620    0.383
       261 -10.1940    230.4164     26.8073   6.2763269956e+01   2.5037751691e+01    0.1644331    0.1259642 -25.10 0.0009515622    1.685    0.407
       262  -9.5052    181.3025    228.3056   1.1595407182e+02  -2.5399669015e-01    0.1311334   0.09873371   9.68 0.0002962813    1.597    0.374
       263  -9.7874    156.9359     24.9923   7.2044830770e+01   4.2956321439e+01     0.269963    0.1705145  66.05 0.0005417083    1.434    0.303
       264  -9.3056     98.4576     26.5254   8.5209792588e+01   5.5913385349e+01    0.1279377    0.1133195  25.33  0.000330432    1.035    0.034
       265 -11.3702    250.3807     23.4798   6.0171891860e+01   2.1015001622e+01    0.4318852    0.1592988 -42.17   0.00199191    2.333    0.571
       266 -11.7227    246.2881     20.9740   6.0024136795e+01   2.2217965506e+01    0.3012486    0.2061203 -66.68  0.001003312    1.241    0.194
       267 -10.9215    214.9015     23.4651   6.3664661322e+01   2.9064910176e+01    0.3821178    0.2940297 -43.18  0.001661714    1.361    0.265
       268 -11.1431    140.6193     20.5063   7.3609620817e+01   4.7333813425e+01    0.7545818    0.1647226  48.84  0.002400073    3.915    0.745
       269  -9.3208    143.3178     24.6760   7.4391406987e+01   4.6250231023e+01    0.1348841     0.100424 -73.44 0.0007044328    1.671    0.401
       270  -9.4626      9.0558    227.4503   1.4894286076e+02   2.6228148085e+01    0.1425326    0.0939365  48.73 0.0003604568    1.531    0.347
       271 -10.1679    234.4924    222.5107   1.0476785795e+02  -8.4511507069e+00    0.1275081    0.1077841   8.45 9.911027e-05    1.002    0.002
       272  -9.8028      9.6226    217.7477   1.4823421198e+02   2.8120018954e+01     0.156802   0.08016481 -89.53 0.0007766802    1.567    0.362
       273  -9.3858    152.5033    207.5053   1.1837532747e+02   8.8943737256e+00    0.1415578    0.1290243  52.24 3.584291e-05    1.001    0.001
       274 -10.5992     38.7597     21.9995   1.0343580101e+02   6.6093343183e+01    0.2447018    0.1316377 -30.06 0.0006835606    1.639    0.390
       275  -9.8857    238.5397    204.5079   1.0066957620e+02  -6.3846483200e+00    0.2627435    0.1206579 -37.31  0.001199077    2.137    0.532
       276  -9.8751     80.7933     19.3483   8.7549177732e+01   6.0072893740e+01    0.2823013     0.170053  44.17  0.001144023    1.521    0.343
       277 -10.1650      4.4930    204.5846   1.4826416241e+02   3.1331450021e+01    0.2330702   0.08475955 -75.61  0.001203185    2.154    0.536
       278 -11.2090    244.7489    199.7223   9.8627439374e+01  -6.6648869079e+00     0.377782    0.1986497 -52.52  0.001612888    2.979    0.664
       279  -9.5012    223.7237     22.3902   6.2478737244e+01   2.7129839678e+01    0.1755194    0.1068835  64.96 0.0009379549    1.550    0.355
       280 -10.6276     66.2427     22.0214   9.3257933694e+01   6.2243684418e+01    0.2162039    0.1490766  25.42 0.0003418924    1.300    0.231
       281 -10.2482    233.9221    197.1489   1.0008650562e+02  -4.4260946139e+00    0.2376165    0.1861586 -29.07 0.0008838788    1.228    0.186
       282  -8.9543    158.3318     20.3169   7.0457534485e+01   4.3130766843e+01    0.1401276   0.09163122  38.32 0.0007047206    1.687    0.407
       283  -9.4975      1.7538     20.4665   1.1893811121e+02   6.9690849985e+01    0.1395875   0.08058809  -7.32 0.0009415805    1.671    0.402
       284 -10.0369    220.9685     19.0284   6.2014129609e+01   2.8174208206e+01    0.1919264    0.1625161  89.72 0.0004925579    1.069    0.065
       285 -10.8672    246.8311    194.3529   9.7207491946e+01  -6.1649664307e+00    0.2426965    0.1743783 -54.33  0.001303532    1.886    0.470
       286  -9.4224     16.7705    192.3959   1.4504480807e+02   3.2761137711e+01    0.1302121    0.1143389  32.53 0.0006164051    1.599    0.375
       287 -12.3294      4.7340    184.5671   1.4676235042e+02   3.5580175310e+01    0.6632788    0.4013706  79.69  0.004245824    1.380    0.276
       288  -9.5713    169.2157    191.6330   1.1194877749e+02   8.8244387912e+00    0.2043564     0.131435  35.04 0.0004588741    1.588    0.370
       289 -10.2622    250.1721    179.4546   9.3641125632e+01  -4.3234108206e+00    0.2687832    0.0912457 -35.96  0.001009112    2.796    0.642
       290  -9.6530     28.4855    176.4538   1.4115201161e+02   3.5132799367e+01    0.1249233   0.09728967 -89.14 0.0001852061    1.017    0.017
       291 -10.1033    170.9179     17.7827   6.7812415887e+01   4.0346315453e+01    0.1923852    0.1630489  77.12 0.0004123163    1.039    0.038
       292  -9.0312     57.3417    175.2666   1.3460844603e+02   3.2039667245e+01    0.1205871    0.1000861 -37.99 0.0003203541    1.601    0.376
       293 -10.2492    186.4563     15.1908   6.5025914351e+01   3.6843771380e+01    0.2470538    0.1780709  59.30 0.0006119931    1.299    0.230
       294  -9.7385    145.9179     16.4840   7.1418212266e+01   4.6496799619e+01    0.2684187    0.1082279  59.49  0.001151248    2.060    0.514
       295  -9.6653    213.6843    180.6890   1.0061066699e+02   2.1313981411e+00    0.1455775    0.1082392   2.82  0.000703239    1.637    0.389
       296 -10.1213     39.5062    173.5099   1.3841358409e+02   3.4615759821e+01    0.2259977   0.09075856 -59.45 0.0007895645    2.175    0.540
       297  -9.7401    218.1725     13.1479   6.0986547806e+01   2.9505098556e+01    0.2769395    0.1093381  53.68  0.001178994    2.772    0.639
       298 -10.0025     34.6056    170.2169   1.3912504939e+02   3.5916737352e+01    0.1849056   0.09473894 -62.54 0.0009560452    1.675    0.403
       299 -10.0051      8.8926    155.8955   1.4333266224e+02   4.1604795144e+01     0.191282    0.1461083 -80.34  0.001027886    1.019    0.019
       300 -11.8943      9.6523    165.7896   1.4413706434e+02   3.9312712559e+01    0.5369735    0.2983555 -64.16  0.002832142    1.516    0.340
       301 -11.4927     13.6478    157.6422   1.4244464749e+02   4.0816933584e+01    0.4592901    0.2003382 -76.36  0.001389514    1.883    0.469
       302  -9.7660    198.1636    167.8020   1.0099726511e+02   7.6915632667e+00    0.2121704    0.2052859 -75.76  0.000562749    1.120    0.107
       303 -10.0799     18.7624    165.3237   1.4210820558e+02   3.8617164563e+01     0.238172    0.1691632 -75.08  0.001099649    1.127    0.113
       304 -10.2175    205.2020    163.3496   9.8612306149e+01   7.1080064187e+00    0.2625464    0.2386599 -38.73 0.0006668366    1.087    0.080
       305  -9.1557    188.6033    164.2087   1.0220372584e+02   1.0412582378e+01    0.2113498    0.1416564 -32.03 0.0008366658    1.634    0.388
       306 -10.1012     80.8654    160.0852   1.2671442828e+02   3.2312219771e+01    0.3391989    0.2539127  31.44  0.001786134    1.578    0.366
       307 -10.7612    104.5116    152.9612   1.1948012298e+02   3.0092728389e+01    0.5377354    0.2990757 -66.11  0.002218949    1.989    0.497
       308 -10.5651     31.4976    153.8707   1.3786219634e+02   4.0038241008e+01    0.3793735    0.2425387  71.74  0.002127894    1.666    0.400
       309 -10.7361     30.4686    149.0197   1.3748295331e+02   4.1272439238e+01    0.2608826    0.1831651  77.73 0.0006207154    1.442    0.306
       310 -10.4162     71.5007    151.4876   1.2759442554e+02   3.5761701942e+01    0.2590292    0.2258058  70.38  0.001516988    1.154    0.133
       311 -12.1366     22.8758    149.3539   1.3935920684e+02   4.1910294011e+01    0.5660264    0.3069542 -35.09  0.002744227    2.868    0.651
       312 -11.6730     16.4968    148.2304   1.4074419912e+02   4.2726475160e+01    0.4151498    0.2606488  65.49  0.001719728    1.709    0.415
       313  -9.3938     41.9560    148.5142   1.3458071356e+02   4.0198952619e+01    0.2598355    0.2174811   0.59  0.001058415    1.673    0.402
       314 -10.6989     48.3287    151.4507   1.3342378671e+02   3.8780667859e+01    0.4594298    0.2590993  33.86  0.001737168    2.042    0.510
       315 -11.2876     47.1220    146.4342   1.3297264015e+02   4.0111225693e+01    0.5092353    0.2754119 -69.14  0.001937685    1.620    0.383
       316 -12.0778      4.8936    148.1071   1.4344025907e+02   4.3670874472e+01    0.6255586    0.3484638 -61.19  0.003429753    1.493    0.330
       317 -11.1157      2.6238    141.5052   1.4327230304e+02   4.5319885117e+01    0.3398739    0.2642418 -70.58   0.00238677    1.103    0.093
       318 -11.4483      3.9410    136.5200   1.4240784845e+02   4.6350387085e+01    0.2231609    0.1878763 -75.85  0.000460006    1.121    0.108
       319 -10.8375     62.1567    149.8496   1.2969518764e+02   3.7439430235e+01    0.4965309    0.3505684 -86.80  0.002361292    1.455    0.313
       320  -9.5499     85.7414    149.9833   1.2368533094e+02   3.3975095284e+01    0.1950958    0.1157497 -59.11 0.0008904216    1.559    0.358
       321 -10.4469     56.3714    149.1827   1.3105598557e+02   3.8344602887e+01    0.2447209    0.1533464 -72.92 0.0007840405    1.468    0.319
       322 -10.7975    249.7558    141.2393   8.5673280143e+01   2.3002486812e+00    0.4041741    0.2185908 -25.74  0.001721943    2.197    0.545
