#   1 NUMBER                 Running object number                                     
#   2 MAG_AUTO               Kron-like elliptical aperture magnitude                    [mag]
#   3 X_IMAGE                Object position along x                                    [pixel]
#   4 Y_IMAGE                Object position along y                                    [pixel]
#   5 X_WORLD                Barycenter position along world x axis                     [deg]
#   6 Y_WORLD                Barycenter position along world y axis                     [deg]
#   7 A_WORLD                Profile RMS along major axis (world units)                 [deg]
#   8 B_WORLD                Profile RMS along minor axis (world units)                 [deg]
#   9 THETA_WORLD            Position angle (CCW/world-x)                               [deg]
#  10 FWHM_WORLD             FWHM assuming a gaussian core                              [deg]
#  11 ELONGATION             A_IMAGE/B_IMAGE                                           
#  12 ELLIPTICITY            1 - B_IMAGE/A_IMAGE                                       
         1 -14.4647     68.4281    144.4091   1.0370690773e+02   3.7379029944e+01     5.076754     2.560297  70.58  0.005411583    4.467    0.776
         2 -13.9178    225.7677     18.8106   3.6243620795e+01   2.7499637562e+01    0.9785548    0.9164546  17.27  0.002789156    1.405    0.288
         3 -13.7783    200.4015     41.0121   4.4417293994e+01   3.0603816262e+01     1.387791     1.034078  17.40  0.004151178    1.896    0.473
         4 -14.0832    209.1497     35.1802   4.1846797268e+01   2.9308853962e+01     1.578205     1.306154 -14.71  0.006688513    1.456    0.313
         5 -12.5516    216.7787     27.7854   3.9199501306e+01   2.8466908230e+01    0.4839211    0.4216171  44.79  0.001163674    1.378    0.274
         6  -9.7976    129.8858      8.5907   4.5570947312e+01   5.1222359378e+01     0.234593    0.1873613 -69.63 0.0007134444    1.501    0.334
         7 -10.2844      2.3201      3.1147   9.0398227085e+01   7.4025457693e+01    0.2254445   0.06656271 -39.92  0.001090689    2.548    0.608
         8 -11.4734    247.6179      1.9706   3.0994628172e+01   2.4692426038e+01    0.4649762    0.1871749  78.00   0.00236164    2.404    0.584
         9  -9.1694     44.6338      1.3067   6.6733741955e+01   6.9324951659e+01   0.09963523   0.09794021 -60.01 0.0007036857    1.748    0.428
        10 -10.2157    209.9148    199.7419   8.0273550570e+01   1.4904437500e+00    0.2360365    0.1848275 -36.32 0.0005631262    1.369    0.270
        11 -10.0722    139.3997    250.2124   1.0251786333e+02   4.3285455448e+00    0.1478455    0.1185979 -74.63 0.0009497182    1.667    0.400
        12 -13.4449      3.2020    183.5162   1.2431679769e+02   3.4675288199e+01     1.255098    0.4574714 -83.90 0.0008448958    2.397    0.583
        13 -13.9495     85.9030    228.4892   1.1081586843e+02   1.5961409710e+01     1.220755     1.090192 -70.94  0.007296205    1.247    0.198
        14 -13.4601     19.5326    220.0211   1.2332019238e+02   2.5493926663e+01    0.7026681    0.4591476  61.84   0.00245558    1.252    0.201
        15 -16.1627     37.1730    189.7618   1.1742715337e+02   3.0198184294e+01     9.759198     4.075022  70.65   0.03851902    3.397    0.706
        16 -12.0446     66.4138    172.9776   1.0861410944e+02   3.0690667817e+01    0.3303408    0.2722598 -36.52 0.0007103145    1.455    0.313
        17 -15.4411     66.0915    246.9451   1.1642186366e+02   1.5070441638e+01     9.090695     2.593508  27.59   0.02161205   11.384    0.912
        18  -8.9542    150.4112    178.4879   8.8908737801e+01   1.5886788272e+01    0.1427033    0.1385982  19.25 6.608517e-05    1.045    0.043
        19 -14.7520      9.3855    207.4585   1.2452055261e+02   2.9013905291e+01     1.142625     1.032772  -2.52  0.007283589    1.672    0.402
        20 -13.1834     33.3715    205.8334   1.1960431455e+02   2.7059669184e+01    0.5158508    0.3918242 -44.14  0.001115776    1.780    0.438
        21 -13.5930     63.5532    159.3521   1.0742111436e+02   3.4336578199e+01    0.5740689    0.4001102 -40.22  0.002111631    1.657    0.396
        22 -11.9739     76.2074    163.4387   1.0472412610e+02   3.1664026692e+01    0.4529358    0.3600289  49.51 0.0004429591    1.272    0.214
        23 -12.8652     83.1431    157.0331   1.0184363777e+02   3.2224679677e+01     1.077905    0.8598378 -61.60  0.001350103    1.192    0.161
        24 -13.7903     36.9368    249.0165   1.2188911984e+02   1.8108193298e+01     1.804814    0.3166575  36.07  0.007225652    4.148    0.759
        25  -9.3030    125.2326    154.2661   9.0201965989e+01   2.5871629065e+01     0.199071    0.1745167  82.73  0.000432824    1.315    0.239
        26  -9.4575    175.0200    149.2723   7.7065846966e+01   1.7217774799e+01    0.2142105    0.1964949  26.30 0.0004922262    1.093    0.085
        27 -10.4908    133.3029    141.7979   8.5393192562e+01   2.7205481353e+01    0.6617201    0.2173614 -55.56  0.001772881    4.356    0.770
        28  -9.3073    132.6584    172.3148   9.1946520557e+01   2.0438384024e+01    0.1512918    0.1155262  72.88 0.0003834172    1.706    0.414
        29  -9.9097    109.0903    192.3117   1.0105509900e+02   2.0031626013e+01    0.3125312    0.1902636 -83.65  0.001121042    2.489    0.598
        30 -11.0006     22.3586    146.2707   1.1661489018e+02   4.1821532462e+01    0.2226615    0.1904958  74.60 0.0005554457    1.164    0.141
        31 -10.6094     32.3104    144.2533   1.1371137658e+02   4.1449822170e+01     0.430179    0.2760977  37.12  0.002382895    1.709    0.415
        32 -11.0331     98.9040    141.6314   9.4617777817e+01   3.3502225625e+01    0.6505364    0.3860578 -23.73  0.002422687    2.813    0.644
        33 -12.4263     85.9283    141.2406   9.8181250436e+01   3.5668274694e+01    0.3114209    0.2573664 -45.08 0.0004242528    1.196    0.164
        34  -9.5917    158.3128    134.3749   7.7408930456e+01   2.3774981965e+01    0.2490177    0.1882967 -64.02 0.0004492211    1.631    0.387
        35 -10.2676     25.0817    134.2266   1.1442752764e+02   4.4529331878e+01    0.2666539    0.1787498  49.91  0.001507783    1.654    0.395
        36 -10.9194    107.6329    131.2128   8.9892022373e+01   3.4499688012e+01    0.5312496    0.3463109  34.53  0.002163945    1.612    0.380
        37 -10.0115    137.3222    169.8617   9.0337756924e+01   2.0132612997e+01     0.275894    0.2278951 -85.98  0.001047754    1.522    0.343
        38 -10.8904    135.7927    127.1414   8.1249752970e+01   3.0030260435e+01    0.7940457    0.1248109 -46.85  0.001679836    6.364    0.843
        39  -9.1148    158.6273    161.8008   8.3594582596e+01   1.7852432306e+01    0.2124661    0.1412931 -56.01 0.0009094405    1.734    0.423
        40 -10.4263     31.6892    129.8951   1.1194409213e+02   4.5031148389e+01    0.1964995    0.1756221 -24.53 0.0005495736    1.308    0.235
        41 -11.2073     96.5620    127.4539   9.2204350176e+01   3.7323221485e+01    0.3226763    0.2655458 -22.31  0.000779829    1.353    0.261
        42 -10.2044    116.1260    125.4118   8.6134630186e+01   3.4303427392e+01    0.3028128    0.2190244 -45.81  0.001404237    1.336    0.251
        43  -9.2060    120.4663    120.4953   8.3705484462e+01   3.4605274426e+01    0.1552229    0.1494437 -31.31 8.785463e-05    1.008    0.008
        44  -9.8197    106.3945    119.8770   8.7544401677e+01   3.7407367061e+01     0.221346    0.2080691  47.98 0.0003860271    1.130    0.115
        45 -15.5272      8.4986    239.7667   1.2634601045e+02   2.2704395940e+01     1.987214     1.821463  84.94   0.01695129    1.398    0.285
        46  -9.4561    168.0077    113.0286   6.9747031941e+01   2.6128439394e+01    0.2550503    0.1974757 -78.96  0.001136463    1.801    0.445
        47 -10.0880    205.2630    110.5613   6.1522985860e+01   1.8404827901e+01    0.3245594     0.246547  31.52   0.00111741    1.484    0.326
        48 -10.4280    134.6093    105.0504   7.5755120802e+01   3.5130612789e+01      0.37168    0.1483243 -42.96  0.001258039    2.448    0.592
        49 -11.0123    249.3352    103.4927   5.2812672320e+01   1.0704195986e+01    0.2561993    0.1089278 -36.29  0.001096261    2.001    0.500
        50  -9.2368     79.7576    183.5691   1.0678388366e+02   2.6410861067e+01    0.1911396    0.1165501  47.52 0.0009409226    1.597    0.374
        51  -8.7710    130.2867     96.3045   7.4433901080e+01   3.7901231115e+01    0.1560889    0.1214949  -1.64 0.0004524052    1.564    0.361
        52  -9.7192     41.8768     92.0377   1.0171393805e+02   5.3280951711e+01    0.2054032    0.1732544 -43.67 0.0004943218    1.033    0.032
        53 -10.3170     52.8324     90.8519   9.7525724575e+01   5.2371100743e+01    0.2234903    0.1699312 -34.26 0.0006504944    1.232    0.189
        54 -10.3207    249.8585     87.8331   4.9248934625e+01   1.3066227151e+01     0.188708    0.1391425 -54.98 0.0005426701    1.323    0.244
        55  -8.8668     71.4961     82.9719   8.8755497665e+01   5.1681081265e+01    0.1814626     0.127294 -76.37 0.0004537217    2.230    0.552
        56  -9.2451     45.8791     61.4667   9.1855566463e+01   5.9630175079e+01     0.173481       0.1271  22.56 0.0004412477    1.468    0.319
        57 -10.6886     13.5620     60.2296   1.0507205809e+02   6.2723261034e+01    0.2265608    0.1907096 -49.92 0.0004451999    1.128    0.114
        58 -11.0647    193.4306    195.2825   8.2728900614e+01   4.9865089330e+00    0.8478966     0.462994 -63.85  0.002464548    6.500    0.846
        59 -10.1494    170.8512    233.3049   9.3886273412e+01   2.2646717871e+00    0.1936767    0.1752973 -46.42 0.0005425673    1.372    0.271
        60  -9.8496    144.5253    180.3380   9.0635543519e+01   1.6566711279e+01    0.2535304    0.2197801 -82.24  0.001353379    1.406    0.289
        61  -9.4363     99.2529    181.0672   1.0166848982e+02   2.4096302388e+01    0.2051614    0.1883865 -36.87 0.0006113388    1.207    0.172
        62  -8.7651     58.2018     60.6133   8.6645512010e+01   5.8252106667e+01    0.1885602    0.1229303  14.29 0.0009490867    1.701    0.412
        63  -9.0586    155.6154     45.8159   5.2955055660e+01   4.0798732990e+01    0.1949751    0.1287771 -42.82 0.0002297497    1.583    0.368
        64 -10.2484    136.5876     42.9351   5.5964962180e+01   4.5789880825e+01     0.247122    0.2030904  66.43 0.0003883006    1.268    0.212
        65  -9.1435    138.7417     36.8085   5.3452997745e+01   4.6084383139e+01    0.1867028    0.1622905 -75.00 0.0005800442    1.334    0.251
        66 -10.2958    189.8220     15.3317   3.9011093511e+01   3.6112518870e+01     0.220039    0.1647518 -49.66 0.0006410351    1.323    0.244
        67 -12.7812    173.4548    218.9494   9.1076440092e+01   4.2206074110e+00    0.6827244    0.2978151  27.10  0.002753444    2.621    0.619
        68 -12.1243     61.3071    178.3736   1.1057351467e+02   3.0064158301e+01    0.4486955    0.2997576 -35.73  0.001644938    2.030    0.508
        69 -11.4291    183.8953    215.9579   8.8426518963e+01   3.0341672987e+00    0.3001855    0.1734055  39.52  0.001516224    1.628    0.386
