#   1 NUMBER                 Running object number                                     
#   2 MAG_AUTO               Kron-like elliptical aperture magnitude                    [mag]
#   3 X_IMAGE                Object position along x                                    [pixel]
#   4 Y_IMAGE                Object position along y                                    [pixel]
#   5 X_WORLD                Barycenter position along world x axis                     [deg]
#   6 Y_WORLD                Barycenter position along world y axis                     [deg]
#   7 A_WORLD                Profile RMS along major axis (world units)                 [deg]
#   8 B_WORLD                Profile RMS along minor axis (world units)                 [deg]
#   9 THETA_WORLD            Position angle (CCW/world-x)                               [deg]
#  10 FWHM_WORLD             FWHM assuming a gaussian core                              [deg]
#  11 ELONGATION             A_IMAGE/B_IMAGE                                           
#  12 ELLIPTICITY            1 - B_IMAGE/A_IMAGE                                       
         1 -14.8596     11.7026    156.4142   1.4599732709e+02   4.1426192230e+01     6.790689     2.413465  87.59   0.02881826    3.227    0.690
         2 -13.3394    194.4329     27.9937   6.8938124180e+01   3.2673999170e+01     1.487452     1.409375 -21.05  0.007549916    1.180    0.152
         3 -13.3957    210.1492      9.0019   6.1927953232e+01   3.0682236747e+01     1.214509    0.9874763  35.10  0.006998604    1.499    0.333
         4 -12.9015      4.0424      6.7583   1.2037332659e+02   7.3408371013e+01     1.114371    0.4848351 -46.80  0.006548823    1.787    0.441
         5  -9.0858     22.8560    245.1413   1.4919512256e+02   2.3125988875e+01    0.1641289   0.09214553  63.05 0.0005523975    1.261    0.207
         6 -11.4531    247.8466    248.9021   1.0983895933e+02  -1.0275839656e+01    0.4347984    0.2829316  48.26   0.00273523    2.151    0.535
         7 -11.6437    238.6096    247.1696   1.1112180504e+02  -8.7856858436e+00    0.3258579    0.2762873 -25.08  0.002465273    1.619    0.382
         8 -11.6006    139.2513    249.2148   1.2918501175e+02   6.6140670815e+00    0.3865727    0.2387122  50.94    0.0023886    1.330    0.248
         9 -11.1241    125.2125    250.3576   1.3186862916e+02   8.6538705045e+00    0.5014743    0.1057502  41.03  0.001839671    3.628    0.724
        10 -10.1040     98.1152    249.5654   1.3667262145e+02   1.2861883988e+01    0.1913952    0.1489924 -45.91  0.001332694    1.931    0.482
        11  -9.7908     29.6803    250.2014   1.4834441597e+02   2.1546062395e+01    0.1823065   0.09484535  56.02 0.0005414782    1.355    0.262
        12  -9.0809     13.3082    240.3332   1.5050726753e+02   2.4923447885e+01   0.08344417   0.07221102 -73.31 0.0003377864    1.670    0.401
        13  -9.2575     68.5459    236.3391   1.4086829679e+02   1.9193528552e+01    0.1915057    0.1010569 -80.13 0.0007826583    2.060    0.515
        14 -11.7247     55.8031    225.8213   1.4238097729e+02   2.2712710749e+01     1.706097    0.6918941 -51.07  0.007646848    4.338    0.769
        15 -14.1777    103.3200    229.0118   1.3371450250e+02   1.5487038860e+01     8.919065          nan  44.91   0.01466148   17.395    0.943
        16 -12.5936     35.2618    233.8739   1.4655606800e+02   2.3711661457e+01    0.2728421    0.2217388  76.55 0.0007670172    1.221    0.181
        17 -12.4171      9.0498    207.2067   1.4970082426e+02   3.1304890054e+01    0.6651182    0.4820598  31.68  0.004261651    1.784    0.439
        18  -8.7774    152.5126    213.0372   1.2192356573e+02   1.0019386351e+01    0.1599662    0.1334354 -51.94 0.0003602963    1.452    0.311
        19 -11.4581     61.7780    199.4468   1.3899524818e+02   2.7001979266e+01    0.2671891    0.2353937 -51.18 0.0005801488    1.547    0.353
        20 -10.5152     17.5493    198.6111   1.4766836462e+02   3.2165155569e+01    0.3260546    0.1307816  52.57   0.00104566    2.030    0.507
        21  -9.4272    191.8770    193.1525   1.1065700179e+02   6.0011533537e+00    0.3116622    0.1916331 -67.14  0.001200531    3.892    0.743
        22  -8.9209     93.8004    216.1674   1.3421044634e+02   1.9236889645e+01    0.2327626      0.10836  67.06 0.0009737664    3.053    0.672
        23 -11.7137     67.8741    191.1863   1.3688758151e+02   2.7875893485e+01    0.2545251    0.2208707 -71.97 0.0004309402    1.285    0.222
        24 -13.7244     40.6482    226.3677   1.4515865950e+02   2.4440369704e+01    0.7416937    0.5546356  72.32  0.002537069    1.058    0.055
        25 -12.9966     64.6691    176.3964   1.3595045687e+02   3.1429237996e+01     0.452395    0.2712002 -47.38  0.001823228    2.153    0.536
        26 -10.7361     77.9203    178.2703   1.3316974433e+02   2.9189796490e+01    0.2228839     0.197055  79.36 0.0003171087    1.062    0.058
        27  -8.7775    100.1848    176.8631   1.2786735314e+02   2.6048680687e+01    0.2048372    0.1585661  72.04 0.0004777703    1.274    0.215
        28 -11.6063     85.7215    168.9260   1.3009659228e+02   3.0055295938e+01    0.6704996    0.5658009  17.14  0.003264325    1.554    0.356
        29  -9.8607     97.8141    152.7083   1.2456429717e+02   3.1722167352e+01    0.2820494    0.2583843  50.26 0.0007820608    1.109    0.098
        30 -11.8425     86.5225    152.0169   1.2730311876e+02   3.3703781875e+01    0.2760355    0.2479617 -50.73 0.0007097222    1.241    0.194
        31 -11.0436    141.2277    231.0796   1.2663652464e+02   9.0384060546e+00    0.3216608     0.147555  37.80  0.001563668    1.874    0.466
        32  -8.7390    100.9058    148.5152   1.2303130660e+02   3.2140851472e+01     0.199552     0.137154  38.87 0.0004377092    1.466    0.318
        33 -12.1217     67.1883    143.7056   1.3095531516e+02   3.8417732152e+01    0.6923827    0.4281936  62.28  0.003476018    1.779    0.438
        34  -8.8655    134.0000    146.9820   1.1441424300e+02   2.6268581053e+01    0.2415499   0.08617201 -49.00 0.0008031551    2.947    0.661
        35  -8.3945    192.2517    144.3078   1.0055050365e+02   1.4283521497e+01    0.1464831    0.1132895   4.70 0.0002115042    1.511    0.338
        36 -10.7241    101.9277    247.6647   1.3581625409e+02   1.2604127310e+01    0.2849901    0.1655801 -73.65  0.001740073    2.141    0.533
        37  -9.5751    109.5868    137.6459   1.1867134510e+02   3.3049515402e+01    0.3571961    0.2509472 -15.86  0.001535166    2.342    0.573
        38 -10.2701     96.8106    134.8967   1.2150986755e+02   3.5938901588e+01    0.2391956    0.2224594 -18.05 0.0003485362    1.262    0.207
        39  -8.8660     80.3221    132.4639   1.2552473112e+02   3.9151199817e+01    0.1904849    0.1233167  52.12  0.000929472    1.612    0.380
        40 -10.1834     34.2433    133.0481   1.3814166476e+02   4.4672436823e+01    0.2898967    0.1310739  49.56  0.001392594    2.375    0.579
        41 -10.2503     56.1822    128.5378   1.3152293748e+02   4.3347315426e+01     0.262449    0.0953728 -67.18  0.001009407    2.697    0.629
        42 -10.4141    173.8015    222.4759   1.1911749549e+02   4.7737674924e+00    0.3731999    0.2776681  68.41  0.002132596    1.852    0.460
        43  -8.7827    106.7194    124.0889   1.1652544740e+02   3.6645808244e+01    0.1895992    0.1813301 -51.32 0.0002963874    1.068    0.064
        44  -9.3723    167.5791    112.9435   9.8259156599e+01   2.5882974780e+01    0.2873107    0.2218101  69.99 0.0009114449    1.534    0.348
        45  -8.9475    203.1762    111.8007   9.0496537075e+01   1.7616514510e+01    0.2145263    0.1776529  10.66 0.0005768148    1.344    0.256
        46  -8.6240     44.1427     68.3197   1.2281148030e+02   5.8409404894e+01    0.1684693    0.1112465  38.69   0.00052404    1.776    0.437
        47  -8.7189     36.0763     64.0376   1.2474345541e+02   6.0123770369e+01       0.1818    0.1458962  67.87 0.0006917402    1.708    0.415
        48 -10.0799      2.0000     56.9650   1.3653832281e+02   6.3937218362e+01    0.1937205   0.05140022 -66.88 0.0008031675    2.948    0.661
        49 -10.4305     15.9219     55.9582   1.3070727152e+02   6.3403822012e+01    0.2228981    0.1665688  29.89 0.0008348328    1.647    0.393
        50 -11.7705      2.2588     38.5047   1.3220881764e+02   6.7698425701e+01    0.5068422     0.218972 -72.76  0.002444942    2.806    0.644
        51 -10.8245     35.2732    244.9765   1.4717098735e+02   2.1795072163e+01    0.3450411    0.2534848 -57.66   0.00259868    2.043    0.511
        52  -9.9367    109.9516    250.5085   1.3464059926e+02   1.0963153872e+01    0.1847424   0.08855493  43.32    0.0010319    1.587    0.370
