#   1 NUMBER                 Running object number                                     
#   2 MAG_AUTO               Kron-like elliptical aperture magnitude                    [mag]
#   3 X_IMAGE                Object position along x                                    [pixel]
#   4 Y_IMAGE                Object position along y                                    [pixel]
#   5 X_WORLD                Barycenter position along world x axis                     [deg]
#   6 Y_WORLD                Barycenter position along world y axis                     [deg]
#   7 A_WORLD                Profile RMS along major axis (world units)                 [deg]
#   8 B_WORLD                Profile RMS along minor axis (world units)                 [deg]
#   9 THETA_WORLD            Position angle (CCW/world-x)                               [deg]
#  10 FWHM_WORLD             FWHM assuming a gaussian core                              [deg]
#  11 ELONGATION             A_IMAGE/B_IMAGE                                           
#  12 ELLIPTICITY            1 - B_IMAGE/A_IMAGE                                       
         1 -15.3768    244.9216     18.7777   1.0272150965e+01   2.5049628491e+01     3.385896    0.6352653 -34.31   0.01475499    3.187    0.686
         2 -12.3880      2.9079     50.2963   8.7707099275e+01   6.9574554123e+01    0.6403883    0.2924613 -70.47   0.00280901    2.026    0.506
         3 -13.3034     12.0210     23.6434   7.1932254965e+01   7.5340851480e+01    0.7903155    0.3598459 -36.47  0.003369382    2.424    0.588
         4 -11.5953      1.7395     25.2780   8.2490814563e+01   7.5742328531e+01    0.5033482    0.1709928 -70.18  0.001979835    2.944    0.660
         5 -13.2497      6.8353     10.8583   7.0503127038e+01   7.8528104047e+01    0.9951642     0.542891 -32.96  0.004967819    1.914    0.477
         6 -12.4093     10.5016      2.0858   5.9942146339e+01   7.9777442072e+01     1.135681    0.2186532  31.96  0.003439176    5.043    0.802
         7 -12.0470     13.7318     12.6168   6.4160831240e+01   7.7429669458e+01    0.3574201    0.2266326 -34.38  0.001367176    1.627    0.385
         8 -12.3161     15.7416      7.0825   5.8222628195e+01   7.8188354700e+01    0.4741298    0.3157189  -9.33  0.002332121    1.854    0.461
         9 -12.0698     20.0584     13.8720   5.8917410092e+01   7.6346443846e+01    0.3930652    0.2351233 -25.03  0.001889626    2.086    0.521
        10 -12.6204     25.0886      4.0243   4.7185138806e+01   7.7164661116e+01    0.5647494    0.3493097  23.40  0.002852033    1.854    0.460
        11 -10.7945     41.4745      2.6731   3.5183151329e+01   7.4013063273e+01    0.2523937     0.136659  40.03  0.001197773    1.805    0.446
        12 -11.4214     57.5455    242.2464   8.6500074549e+01   1.6655185071e+01    0.4503043    0.1810196  42.88  0.002231753    1.991    0.498
        13 -11.9870    248.9463    225.3067   4.6971580307e+01  -9.6950947141e-01    0.3950569     0.258502  12.31  0.003239934    1.374    0.272
        14 -11.4343    243.5128    235.4731   4.9148352858e+01  -1.6205601231e+00    0.2239249    0.1278611 -24.54  0.001100152    1.382    0.276
        15 -11.9689    244.9121    230.4290   4.8254697627e+01  -1.1904290466e+00    0.3605119    0.1393294 -33.48  0.002269743    2.163    0.538
        16 -12.6796    234.3232    244.4126   5.1692651138e+01  -1.8246461220e+00    0.5786485    0.2125535 -29.21  0.003516993    2.355    0.575
        17 -12.2072    243.0840    245.5863   5.0567513737e+01  -2.6557279662e+00    0.5318025    0.2061059 -21.48  0.003189885    2.471    0.595
        18 -12.0114    247.3028    239.3613   4.9136839059e+01  -2.3406738000e+00    0.4129135    0.1885645 -23.18  0.002274686    1.764    0.433
        19 -11.3854    250.0388    232.8012   4.7861326188e+01  -1.8678768032e+00    0.3010984    0.1707504 -20.63  0.001636053    1.313    0.238
        20 -11.2777    248.9323    250.0656   5.0323160628e+01  -3.5653766748e+00    0.3217887    0.1366537  18.83  0.002229163    2.090    0.522
        21 -11.0763    248.8789    245.1239   4.9683319683e+01  -3.0608531403e+00    0.2629896    0.1308541 -21.24   0.00195202    1.555    0.357
        22 -11.9756    225.6319    248.2297   5.3508655437e+01  -1.5145086779e+00    0.2767735    0.1786717  -9.45  0.001652318    1.131    0.116
        23 -12.5667    212.3862    248.1414   5.5582752795e+01  -3.6321551428e-01    0.4231133    0.2138082  -1.95  0.002673344    1.973    0.493
        24 -11.1111    169.1785    250.3003   6.3369994371e+01   3.4610670681e+00    0.2271457   0.08027953  20.69  0.001087538    2.633    0.620
        25 -10.8981     74.3977    250.2997   8.3187582770e+01   1.3496310190e+01    0.3351631    0.1002235  32.29  0.001513646    2.257    0.557
        26 -11.3756     65.3993    249.2126   8.5149130625e+01   1.4611237699e+01    0.3682821     0.180991  38.45  0.002057072    1.558    0.358
        27 -11.1370     50.1938    250.0733   8.8664005959e+01   1.5976942847e+01    0.4151638    0.1234143  28.27  0.001868033    2.309    0.567
        28 -11.1489     44.8314    245.0742   8.9623951052e+01   1.7397172797e+01    0.3899913    0.1804807  49.08  0.001749115    1.870    0.465
        29 -11.8033     36.7925    248.6358   9.1646164056e+01   1.7508406344e+01    0.4773071    0.1911608  42.07   0.00250852    1.819    0.450
        30 -10.7532     27.2378    248.6056   9.3818452597e+01   1.8380562711e+01    0.3354416    0.1418301  43.02  0.001353399    1.712    0.416
        31 -11.8718     20.3573    249.0101   9.5387621712e+01   1.8906888141e+01    0.4514568    0.2103917  33.07  0.001836684    1.503    0.335
        32 -12.2652      2.3762    211.3021   9.8633232757e+01   2.7887753737e+01     0.743367    0.2495254  82.85  0.003140597    3.170    0.685
        33 -11.9155     12.1502    248.9710   9.7226925439e+01   1.9602485889e+01    0.4779387    0.1627255  36.50  0.001858788    1.871    0.466
        34 -12.4080     16.0126    240.3306   9.6109752129e+01   2.0895084794e+01    0.7132235    0.2519098  38.99  0.002958232    1.882    0.469
        35 -12.0313      6.7295    236.3638   9.8156081785e+01   2.2416698273e+01    0.5326095    0.2470889  48.12  0.003000199    1.611    0.379
        36 -12.0198      4.8408    228.3899   9.8418666484e+01   2.4139564013e+01    0.5419473     0.218513  48.73  0.001926392    1.842    0.457
        37 -11.7862      2.3233    220.8935   9.8861331259e+01   2.5863148883e+01    0.4417442    0.2236167  74.94  0.001616323    1.935    0.483
        38 -11.4614     14.2245    231.8739   9.6272948505e+01   2.2687656896e+01    0.4388517    0.2167472  48.31    0.0018368    1.568    0.362
        39 -11.4235     11.2348    225.7045   9.6808679383e+01   2.4173113320e+01    0.4269429     0.167718  42.90  0.001686698    1.819    0.450
        40 -11.3562      3.5682    250.3035   9.9156874845e+01   2.0046405328e+01    0.3700124    0.1514151  17.71  0.001892991    2.288    0.563
        41 -12.6818      3.3687    243.1260   9.9066916912e+01   2.1389299827e+01     0.592912    0.2917281  62.80  0.003477855    1.809    0.447
        42 -12.4881    226.1435    241.2370   5.2505037148e+01  -7.8674638008e-01    0.2927092    0.1457454 -21.04  0.001981753    1.727    0.421
        43  -9.8066     49.4966    243.4630   8.8451803072e+01   1.7237880637e+01    0.1241689   0.09220853  36.19 0.0002071223    1.034    0.033
        44 -11.8177     29.5474    240.7227   9.2974804430e+01   1.9638058339e+01    0.4580774    0.2218188  49.79  0.002043281    1.702    0.413
        45 -11.0681    202.6882    240.4393   5.6166718430e+01   1.4297739326e+00    0.1890023     0.100286 -17.22  0.001200975    1.792    0.442
        46 -10.6375     38.1482    240.3232   9.0940315900e+01   1.8917653446e+01    0.3157471    0.1410021  43.47   0.00136768    1.717    0.418
        47 -10.4218     32.8434    236.2523   9.2001605383e+01   2.0190336094e+01    0.3093562    0.1250843  51.04  0.001440269    2.123    0.529
        48 -11.4887    214.8667    239.4470   5.4034549910e+01   4.1745727919e-01     0.205521    0.1023326 -19.92  0.001250495    1.853    0.460
        49 -10.7207    157.9810    245.5156   6.4920285823e+01   5.2546095314e+00    0.1680656   0.07984134   6.46  0.000810481    2.614    0.617
        50 -10.7314    107.9876    239.9920   7.4734152451e+01   1.1588434550e+01    0.1973545    0.1216857  45.74  0.001142694    1.723    0.420
        51 -10.1662     64.7720    239.9106   8.4649062877e+01   1.6336648035e+01    0.2596485    0.1035688  43.91  0.001240166    2.122    0.529
        52 -10.9264    220.0528    238.6914   5.3108862975e+01   3.7267618888e-02    0.1486266    0.1010391  -0.64   0.00116156    1.072    0.068
        53 -10.9599     97.1721    244.6417   7.7597160009e+01   1.2015785236e+01    0.3224794   0.08756979  35.58  0.001351956    2.680    0.627
        54 -11.0046     45.1653    237.3227   8.9122369691e+01   1.8810120473e+01     0.327202    0.1540881  42.10  0.001460706    1.645    0.392
        55 -11.8845    231.4111    234.8754   5.0842065752e+01  -5.3060149763e-01    0.2607654    0.1369314 -20.59  0.001821485    1.569    0.363
        56 -11.8614    240.0366    239.4439   5.0188434352e+01  -1.7613292064e+00    0.2932949    0.1451627 -20.34  0.001563099    1.650    0.394
        57 -11.0680     72.6883    240.1691   8.2815601098e+01   1.5452341673e+01    0.2833712    0.1379862  43.66  0.001489974    1.787    0.441
        58 -10.9629    217.4932    232.0006   5.2598384567e+01   1.0542058623e+00    0.2257306   0.07753682 -32.74  0.001210735    2.643    0.622
        59 -10.4975     59.3625    231.8073   8.5361885868e+01   1.8421415781e+01     0.337345   0.09937721  37.51  0.001428457    2.385    0.581
        60 -10.5615     48.6610    230.5809   8.7881081814e+01   1.9761891256e+01    0.3241426    0.1479653  57.13  0.001554291    2.319    0.569
        61 -10.9416     39.7227    230.8663   9.0076154591e+01   2.0589248090e+01    0.3142016    0.1818463  57.32  0.001774855    1.650    0.394
        62 -11.9745     25.6424    228.6321   9.3401799309e+01   2.2346796383e+01    0.5860736    0.2915107  58.23  0.003126089    1.858    0.462
        63 -11.4514     18.6719    221.8351   9.4850113653e+01   2.4345307593e+01    0.4023089    0.2071577  57.15  0.001675338    1.713    0.416
        64 -12.0243     12.0619    217.0368   9.6339292880e+01   2.5904071077e+01    0.5713912     0.262145  49.36  0.002410454    1.721    0.419
        65 -12.0301    236.8516    228.3190   4.9124520650e+01  -2.6682811221e-01    0.2582956    0.1394754 -25.41  0.001856239    1.482    0.325
        66 -10.4284     32.5103    229.3727   9.1758786921e+01   2.1570397753e+01    0.2837973    0.1277896  51.66  0.001187008    1.930    0.482
        67 -11.0926    202.8043    249.3958   5.7316980152e+01   3.5132905009e-01    0.2101026    0.1151109  -3.41  0.001265929    1.683    0.406
        68 -10.3501     43.6458    221.1704   8.8541507475e+01   2.2152911707e+01    0.3017486    0.1380579  45.34   0.00148129    1.804    0.446
        69 -12.1580    248.6688    214.8324   4.5511884804e+01   2.1990090455e-01    0.4516656    0.1642056 -29.36  0.002633873    2.269    0.559
        70 -11.8304    239.1899    219.2765   4.7497694602e+01   5.5716426238e-01    0.2434427    0.1286827 -22.29  0.001685938    1.521    0.342
        71 -10.7387    227.7243    219.2272   4.9193007881e+01   1.6219776163e+00    0.2155628   0.09190229 -21.22  0.001174333    2.465    0.594
        72 -11.0577     34.5497    216.8922   9.0607230730e+01   2.3936085468e+01    0.3522249    0.1560608  55.67  0.001652786    2.151    0.535
        73 -10.5469     24.3458    217.3525   9.3238590297e+01   2.4785093645e+01     0.315477    0.1358859  49.85  0.001529277    1.919    0.479
        74 -11.1831     21.7282    211.3235   9.3646859748e+01   2.6307481514e+01    0.3748268     0.214936  83.82  0.002017124    1.869    0.465
        75 -10.2272    233.1511    212.2732   4.7358218628e+01   1.9426727541e+00     0.210405   0.08976655 -25.53  0.001213936    2.121    0.528
        76 -10.6731     28.9808    211.4658   9.1760859510e+01   2.5620588664e+01    0.2539705     0.151419  65.28  0.001372552    1.652    0.395
        77 -12.3870     12.2036    205.5150   9.5915726605e+01   2.8388221480e+01    0.6914921    0.3035139  47.17  0.002960947    1.789    0.441
        78 -10.3739    239.7788    206.9068   4.5592386586e+01   1.9554384087e+00    0.2256209   0.09398676 -32.24  0.001358504    1.958    0.489
        79 -10.0104     36.2339    207.8217   8.9643022177e+01   2.5721790612e+01    0.2463407   0.08336792  52.42 0.0009560676    2.828    0.646
        80 -10.2337    246.6307    205.7508   4.4454186098e+01   1.4493608932e+00    0.1906927   0.07337455 -32.14  0.001119677    2.083    0.520
        81 -10.7419     18.7358    201.5541   9.4012397749e+01   2.8729092021e+01    0.2965727    0.1407635  77.13  0.001386235    2.244    0.554
        82 -11.4434     16.3135    196.2246   9.4442488791e+01   3.0149593074e+01    0.3730847    0.1569143  40.97  0.001732765    1.833    0.455
        83 -12.0796      3.5904    197.1035   9.7954077527e+01   3.0948971351e+01    0.5460086    0.2753482  65.90  0.002299587    1.801    0.445
        84 -11.7303      5.3706    182.9278   9.7022961682e+01   3.4139388282e+01     0.383698     0.210981  73.38  0.001933789    1.723    0.420
        85 -11.5610      1.9555    178.1240   9.7864967311e+01   3.5542366340e+01     0.517588    0.2343714  87.25  0.002256507    2.186    0.542
        86 -10.5276      9.1866    198.0165   9.6464333946e+01   3.0315744139e+01    0.3353826    0.1461037  58.57  0.001367776    2.027    0.507
        87 -12.3299      4.4565    189.3032   9.7488308408e+01   3.2691403301e+01     1.040572    0.2253682  57.91   0.00340138    4.102    0.756
        88 -10.2557    250.4825    200.4888   4.3134532840e+01   1.7076943131e+00     0.205212   0.07705693 -34.31  0.001145055    2.127    0.530
        89 -10.4031    243.5045    200.4252   4.4084168129e+01   2.3759673745e+00     0.207216   0.07992724 -34.80  0.001196998    2.117    0.528
        90  -9.6895     31.3364    201.6549   9.0594092401e+01   2.7565139740e+01    0.1501837   0.07474991  51.41 0.0007049058    1.772    0.436
        91 -10.6333     24.3943    198.1452   9.2303537662e+01   2.9005816969e+01    0.1845717    0.1090003  73.65 0.0009451461    1.726    0.421
        92  -9.9270    246.0000    192.0331   4.2443920950e+01   3.1473721034e+00    0.1686523   0.04644642 -36.62 0.0008034291    2.949    0.661
        93 -11.0493     11.3168    190.6961   9.5608814845e+01   3.1842241706e+01    0.2785608    0.1668218  80.04  0.001228443    1.653    0.395
        94 -12.3035     11.6912    184.2607   9.5242766958e+01   3.3340615165e+01    0.4263631    0.2188718  82.08  0.002038802    1.971    0.493
        95 -11.5502     17.0877    189.8106   9.3938382829e+01   3.1580028297e+01    0.3579764    0.1723187  63.50  0.001514559    1.995    0.499
        96 -10.5424     24.1801    186.3050   9.1718255652e+01   3.1796055221e+01    0.2838923    0.1310386  61.53  0.001238895    2.152    0.535
        97 -12.1697     17.3832    182.3591   9.3493010428e+01   3.3337214925e+01    0.4867738    0.1722704  73.05  0.001761066    3.333    0.700
        98 -10.0764    249.5047    184.0211   4.0710214177e+01   3.7757021166e+00    0.1608493   0.07945921 -33.48 0.0008028713    1.600    0.375
        99 -10.5689     23.3373    179.6910   9.1580090638e+01   3.3472399367e+01    0.2408033    0.1224009  52.96  0.001108444    1.767    0.434
       100 -11.5563     11.1756    172.4870   9.4882516356e+01   3.6263704327e+01    0.2876872      0.14452  67.67  0.001231737    1.916    0.478
       101 -11.9775      5.6178    161.4054   9.6140084049e+01   3.9471055509e+01    0.3751433    0.1960851  65.14  0.001692682    1.778    0.437
       102 -11.8086      9.0276    177.7431   9.5757612357e+01   3.5127048720e+01    0.2836816    0.2102343  79.88  0.001276727    1.295    0.228
       103 -12.0582      6.6606    171.6990   9.6230511646e+01   3.6795046050e+01    0.4118525    0.2184352  86.61  0.001973051    1.858    0.462
       104 -10.7258      1.5030    170.4558   9.7760976679e+01   3.7460722320e+01    0.3629038    0.1651375 -77.87  0.001503114    2.194    0.544
       105 -11.6871      2.4294    165.7766   9.7318145927e+01   3.8572939215e+01    0.5225888    0.2284888  52.12  0.002325335    1.959    0.490
       106 -11.8693     17.5051    170.4701   9.2825103793e+01   3.6265082209e+01    0.3188877    0.1620118  83.01  0.001044061    2.038    0.509
       107 -12.3569     10.7466    166.7500   9.4747984116e+01   3.7739591124e+01    0.3645351    0.1945388  64.23  0.001611244    1.758    0.431
       108 -11.0149     19.5226    164.4744   9.1830933202e+01   3.7620038932e+01     0.254975    0.1167832  79.77   0.00103329    2.369    0.578
       109 -12.7386      3.7739    154.2214   9.6442806383e+01   4.1450255160e+01    0.5773841    0.2786266 -66.63   0.00258169    2.104    0.525
       110 -12.7984      9.8451    155.3887   9.4475527045e+01   4.0731658190e+01    0.4671943    0.2424017  83.07  0.002108178    1.910    0.476
       111  -9.9543    249.6484    150.8246   3.5184043537e+01   7.9511784145e+00    0.1572199   0.07741737 -40.08 0.0009447191    1.722    0.419
       112 -13.2034      7.4981    143.2163   9.4636974488e+01   4.4113614858e+01    0.7786912    0.2517078  75.73  0.002523193    3.617    0.724
       113 -12.4877      4.1701    136.7823   9.5497744403e+01   4.6052324418e+01    0.4460654    0.2302923  82.44  0.001793051    1.879    0.468
       114  -9.7616    244.3623    148.7792   3.5485836146e+01   8.8435307798e+00    0.1609341   0.08060211 -28.73 0.0009450965    1.657    0.396
       115 -12.4244      5.1891    147.1696   9.5648035243e+01   4.3211803478e+01    0.5769719    0.1855814  47.86  0.002139153    2.679    0.627
       116 -10.1209    248.5497    135.0124   3.2533380230e+01   1.0148119885e+01    0.1752731   0.08354311 -35.52  0.001030828    1.602    0.376
       117 -10.3744    242.4782    134.0054   3.3077099929e+01   1.1051280696e+01    0.1777187   0.08680363 -35.49   0.00103146    1.589    0.371
       118 -10.6374    248.0918    129.7724   3.1642259261e+01   1.0896555350e+01     0.249945    0.1204446 -44.50  0.001436605    1.907    0.476
       119 -12.3818      3.2812    128.5232   9.5395297122e+01   4.8343294295e+01    0.5988216    0.2095797  78.61  0.002070404    3.091    0.676
       120  -9.4664    233.3213    129.6554   3.3408458449e+01   1.2864717629e+01    0.1124784   0.07948349 -55.20 0.0005919117    1.730    0.422
       121 -10.7714    241.7759    125.4061   3.1579113398e+01   1.2304422351e+01    0.2237329     0.103977 -41.39  0.001253541    1.769    0.435
       122 -12.3082      5.4856    122.0366   9.4143926472e+01   4.9993420906e+01    0.3487277    0.2052527  88.68  0.001626913    1.629    0.386
       123 -11.3000    248.6477    118.8454   2.9579334700e+01   1.2266778976e+01    0.2588312    0.1272965 -39.36  0.001485144    1.573    0.364
       124  -9.6944    239.3041    120.6660   3.0983156530e+01   1.3283959893e+01     0.111583   0.07560848 -53.29 0.0006677179    1.663    0.399
       125  -9.8847    243.4625    118.9626   3.0181425197e+01   1.2946088489e+01     0.160864   0.07339307 -49.73 0.0007566388    2.486    0.598
       126 -10.8139    249.5128    123.9807   3.0426660486e+01   1.1477435145e+01    0.2486124   0.08365907 -36.38  0.001072313    2.243    0.554
       127 -11.3582    247.8143    112.5658   2.8502252218e+01   1.3206976135e+01    0.1870978     0.104053 -38.96 0.0006750416    1.382    0.276
       128 -12.8332    247.1947    102.7781   2.6719736192e+01   1.4581901913e+01     0.675501    0.2494846 -52.10  0.002770668    4.041    0.753
       129 -10.5329    238.6079    102.8069   2.7632069875e+01   1.5813942283e+01    0.1702918   0.08212283 -42.37 0.0009469002    1.662    0.398
       130 -11.0320    249.2264     98.0978   2.5624334978e+01   1.4906382752e+01     0.246038    0.1111063 -43.16  0.001057257    1.753    0.429
       131 -11.8942    247.6971     92.7545   2.4750059439e+01   1.5818727335e+01    0.3274625    0.1512889 -28.42  0.001765227    2.027    0.507
       132 -11.2309      1.6613     94.9361   9.3890677886e+01   5.7668836140e+01    0.3332315    0.1229528 -80.66  0.001238092    2.526    0.604
       133  -9.6343    236.2808    107.6164   2.8828694866e+01   1.5500059438e+01    0.1188026   0.07295648 -52.90 0.0007006382    1.727    0.421
       134 -12.1768    243.1302     82.6868   2.3218128392e+01   1.7803111023e+01    0.2714721    0.1120145 -39.21   0.00145854    1.794    0.443
       135 -12.6827    248.5756     74.5704   2.1137998034e+01   1.8008003001e+01    0.4288613    0.1647345 -37.39  0.002292891    1.890    0.471
       136 -11.1695    249.2804     87.6510   2.3617106628e+01   1.6246042624e+01     0.237919    0.1221447 -41.65 0.0008220681    1.470    0.320
       137 -12.1493    250.0737     81.3089   2.2320381338e+01   1.6936122005e+01    0.4387499    0.1841883 -44.67  0.002435002    1.863    0.463
       138 -11.5709    244.5303     88.4792   2.4224833963e+01   1.6839807255e+01    0.1636994    0.1226492 -40.25 0.0009375401    1.023    0.022
       139 -10.7996      6.1729     85.6732   9.0758352872e+01   6.0003029749e+01     0.280434    0.1030194 -82.04  0.001003571    2.697    0.629
       140 -11.3155    243.3712     76.5243   2.1974306248e+01   1.8558522355e+01    0.2001036   0.08492637 -35.06 0.0009056461    1.821    0.451
       141 -11.3259    239.2225     72.1955   2.1474256891e+01   1.9765073959e+01    0.1655053    0.1061594 -51.89 0.0007742316    1.351    0.260
       142 -11.9438    142.6847    247.5418   6.8187992067e+01   6.5901399948e+00    0.3677042    0.1225695  18.75  0.001462127    3.507    0.715
       143 -10.3332      9.3904     68.8095   8.6679178451e+01   6.4398366771e+01     0.214552    0.1140005 -60.87 0.0009562413    1.713    0.416
       144 -12.0052      2.6411     40.3798   8.5855927567e+01   7.2078782696e+01    0.4860004    0.2086148 -62.36  0.002140183    2.046    0.511
       145  -9.9246    110.3169    248.6700   7.5088140464e+01   9.9239542135e+00    0.1177812   0.07548771  45.52 0.0007046543    1.683    0.406
       146 -11.3756      8.4459     43.8628   8.2145512121e+01   7.0893742932e+01    0.3317609    0.1190201 -66.83  0.001289345    2.563    0.610
       147 -12.0762     12.2574     37.5333   7.7255544598e+01   7.2150033842e+01    0.3359712    0.2437605 -62.00  0.001828413    1.373    0.272
       148 -11.3832     18.8839     30.7245   6.9189937196e+01   7.3063282400e+01    0.3256982    0.1816974 -31.57  0.001472411    2.065    0.516
       149 -11.6109      3.0050     33.8062   8.3891448606e+01   7.3663308987e+01    0.4106905     0.150262 -60.62  0.001715558    2.328    0.570
       150 -11.8563    194.4508    246.0031   5.8297155238e+01   1.5335485107e+00    0.2748871    0.1410963 -14.14  0.001666068    2.032    0.508
       151 -11.0518    127.1899    247.3922   7.1360689643e+01   8.2848331005e+00    0.1766762   0.08218007  33.22 0.0009561736    1.752    0.429
       152 -12.1910      1.9317     60.1824   9.0004829981e+01   6.7054436164e+01    0.6400108    0.1872876 -80.72  0.002122896    3.519    0.716
       153  -9.9887     77.3347    246.6803   8.2249249198e+01   1.3809717912e+01    0.1274318   0.07056548  46.51 0.0007049332    1.701    0.412
       154  -9.8168    183.5094    250.4557   6.0778425353e+01   2.0317877219e+00    0.1092837   0.07743637   3.38 0.0008086081    1.040    0.039
       155 -11.7436    177.9966    244.0101   6.0961572897e+01   3.3956501046e+00    0.2850631    0.1442064  -7.19  0.001533582    2.444    0.591
       156 -11.3028     84.5276    244.5099   8.0437918927e+01   1.3415167941e+01    0.2792763    0.1302891  49.64  0.001381105    2.364    0.577
       157 -11.1798     26.3017     16.1294   5.5093893865e+01   7.4977169691e+01    0.2178196    0.1625454 -18.71  0.001192882    1.502    0.334
       158 -10.6044    134.9739    245.0000   6.9475960697e+01   7.7970735474e+00    0.1986007   0.05309398  27.38 0.0008053569    2.963    0.662
       159 -11.2468    115.6883    243.8467   7.3439172133e+01   1.0100462845e+01    0.2472328     0.105455  33.55  0.001266712    1.857    0.461
