#   1 NUMBER                 Running object number                                     
#   2 MAG_AUTO               Kron-like elliptical aperture magnitude                    [mag]
#   3 X_IMAGE                Object position along x                                    [pixel]
#   4 Y_IMAGE                Object position along y                                    [pixel]
#   5 X_WORLD                Barycenter position along world x axis                     [deg]
#   6 Y_WORLD                Barycenter position along world y axis                     [deg]
#   7 A_WORLD                Profile RMS along major axis (world units)                 [deg]
#   8 B_WORLD                Profile RMS along minor axis (world units)                 [deg]
#   9 THETA_WORLD            Position angle (CCW/world-x)                               [deg]
#  10 FWHM_WORLD             FWHM assuming a gaussian core                              [deg]
#  11 ELONGATION             A_IMAGE/B_IMAGE                                           
#  12 ELLIPTICITY            1 - B_IMAGE/A_IMAGE                                       
         1 -15.6883    211.4388    120.3252   7.7332382231e+01   1.5955767273e+01     6.082677     3.482976 -59.21   0.02679983    2.742    0.635
         2 -18.0841    235.7383     34.6090   5.5477383109e+01   2.3119895539e+01     8.383902     5.826343 -47.60   0.03522674    1.146    0.127
         3 -15.2602    220.8095     41.2047   5.8115996999e+01   2.5320834167e+01     1.621153     1.497999  68.01  0.008559416    1.291    0.225
         4 -14.2545    203.9927     55.9661   6.3305800528e+01   2.6997362100e+01     1.108204     1.057664 -12.88  0.006000637    1.240    0.193
         5 -12.2606     34.1210     19.4573   9.5044373150e+01   7.2243287964e+01    0.6035578    0.3734081 -47.80  0.003106439    1.876    0.467
         6 -11.4842    146.6131     11.9198   5.7549175641e+01   4.6146078204e+01    0.9957571     0.226341 -46.52  0.003023637    4.496    0.778
         7 -11.7906    151.5245     12.2716   5.7096724646e+01   4.4839946203e+01    0.4025998    0.2340605 -33.28 0.0008739879    1.751    0.429
         8 -11.1198    150.6909      4.0601   5.4577213344e+01   4.5809927941e+01    0.3415426    0.2440548 -16.61  0.001195864    1.689    0.408
         9 -11.9933    141.7055     11.5707   5.8028042542e+01   4.7459702986e+01    0.4216327    0.2475917 -32.70  0.001001022    1.767    0.434
        10 -11.7205    139.1422      8.1174   5.7173878472e+01   4.8452219197e+01    0.3723378    0.2056352 -22.13  0.001389672    2.069    0.517
        11 -12.3849      3.9386      5.4779   1.1120734564e+02   7.8486286424e+01    0.5835578    0.4189676 -68.40  0.003490666    1.940    0.485
        12 -10.9021    214.6936      4.5560   5.0072410314e+01   3.0582008397e+01    0.3230819    0.2584324 -46.38  0.001719306    1.167    0.143
        13 -11.2481    155.6504      2.8136   5.3718184277e+01   4.4647651097e+01     0.363038    0.2318577 -66.22   0.00192912    1.466    0.318
        14 -10.1904    207.8330      2.2855   4.9911240595e+01   3.2276331319e+01    0.2847006    0.1583704  60.97 0.0008472688    2.029    0.507
        15 -10.9537    134.2386    148.0280   9.9186112737e+01   2.5630193333e+01    0.6232059    0.2416633 -54.15  0.002087014    3.215    0.689
        16 -12.9456    249.3375    211.4521   8.8503324408e+01  -2.0146693473e+00     1.092743     0.181736 -34.03  0.003957479    5.421    0.816
        17 -13.1058    248.5871    245.8349   9.3796954264e+01  -5.6651985856e+00     1.035844    0.3378657 -28.96  0.005728269    2.813    0.644
        18  99.0000     68.4999    145.0130   1.1769260271e+02   3.7778436666e+01     2.465765     1.016799 -72.11  0.006624676    3.158    0.683
        19 -13.3320     47.8388    174.8727   1.2790933404e+02   3.3100279270e+01    0.6854719    0.6248105  79.66   0.00177218    1.100    0.091
        20 -12.8024    188.4856     67.3832   6.8160873991e+01   2.8824987380e+01    0.7941743    0.4052377  38.16  0.003148376    3.016    0.668
        21 -11.5444    135.1804    121.5132   9.2947631727e+01   3.1053624229e+01    0.6936337     0.205505 -48.35  0.002040588    3.661    0.727
        22 -10.5033    160.2160    128.2178   8.8627811413e+01   2.4503633648e+01     0.359699    0.3068669  66.05  0.001907982    1.363    0.266
        23 -13.0853    184.7691    121.4245   8.2096693093e+01   2.0812990681e+01    0.8379718    0.3730984 -29.98   0.00321879    2.606    0.616
        24 -11.4673    168.1592    113.7979   8.3509733894e+01   2.5567318224e+01    0.3709335    0.2971924 -67.49 0.0008943393    1.501    0.334
        25 -11.9835    134.8369    108.0146   8.9615398406e+01   3.3944467218e+01     1.098997    0.2830321 -42.69  0.003057029    3.988    0.749
        26 -11.9948    120.0437    111.2752   9.4416304614e+01   3.6475102030e+01    0.5575202    0.3615621 -82.24  0.002011953    2.865    0.651
        27 -11.4066    127.2787    111.5113   9.2496685518e+01   3.4865231513e+01    0.2521071    0.2455359 -48.55 0.0008241264    1.051    0.048
        28 -10.1823    172.3115    234.3164   1.0538063328e+02   4.3122560985e+00    0.1223392   0.07734761   1.72 0.0004365908    1.639    0.390
        29 -13.0047    188.7146     88.6954   7.3547822426e+01   2.5488291504e+01     0.588303    0.4769008  -9.11  0.001190875    1.464    0.317
        30 -12.3082    183.6796     80.8261   7.2358411798e+01   2.7846248497e+01    0.8732957    0.5415924 -34.85  0.004229927    1.550    0.355
        31 -12.2409    177.9271     75.3517   7.1851944101e+01   3.0013221751e+01    0.4407441     0.403201  71.92  0.001739373    1.121    0.108
        32 -12.3608    122.1500    102.2498   9.1424100089e+01   3.7966358422e+01    0.5832124    0.3788331  30.23  0.002438908    1.827    0.453
        33 -11.6409    146.5137     99.4910   8.4520255280e+01   3.3024535105e+01    0.3964568    0.3156766 -43.73 0.0006706831    1.257    0.205
        34 -11.3421    112.7479    104.3224   9.4669741515e+01   3.9573674102e+01    0.3745704    0.2690011  70.14  0.001043056    1.783    0.439
        35 -10.8439    141.0947    103.7850   8.6947471289e+01   3.3407404635e+01    0.2739254    0.2349979 -20.66 0.0007441797    1.289    0.224
        36 -11.0643    155.9243    100.6593   8.2739419323e+01   3.0673200776e+01    0.4567299    0.2086413 -46.25  0.001732936    2.243    0.554
        37 -10.4176    133.2462     95.8971   8.6729274584e+01   3.6769485531e+01    0.2779168    0.2481894  76.35 0.0004819167    1.189    0.159
        38  -9.9255    113.4911     95.0506   9.1864020664e+01   4.1431831451e+01    0.2295219    0.1561203 -45.59 4.397131e-05    1.511    0.338
        39 -12.5115    156.0461     91.9637   8.0389599319e+01   3.2249771714e+01    0.6812493     0.405982  40.15  0.002781422    1.879    0.468
        40 -11.4117    140.0271     88.5606   8.2995489347e+01   3.6622931355e+01    0.3492914    0.3208689 -61.11 0.0006431051    1.105    0.095
        41 -12.2155    170.6315     80.9561   7.4589578542e+01   3.0787769186e+01    0.5353529    0.4066562  23.95  0.002645168    1.722    0.419
        42 -12.5368    153.8261     81.5281   7.7954609359e+01   3.4635776139e+01    0.4035627    0.3691991  16.37  0.001040074    1.246    0.197
        43 -10.0577     87.9913     77.4938   9.4699544397e+01   5.0794947991e+01    0.4513893    0.2125645 -61.88  0.001369516    3.731    0.732
        44 -12.2419    131.0941     64.8588   7.7880684116e+01   4.3098986831e+01    0.6018782    0.3684748 -32.06  0.002596762    1.786    0.440
        45 -12.9738    100.5737     52.2283   8.1536273871e+01   5.2836574196e+01    0.6393234    0.5793411  14.60   0.00300795    1.219    0.180
        46 -12.7300     92.3368     45.4052   8.1418362724e+01   5.5970370619e+01    0.6412275    0.4126947 -48.86  0.002912965    1.745    0.427
        47 -10.4772    146.9404     56.3921   7.1838506584e+01   4.0484095125e+01    0.2740462     0.188772 -54.50 0.0005000088    1.512    0.339
        48  -9.4120    165.8346     47.1906   6.5882669773e+01   3.7083390843e+01     0.172526    0.1635771  11.84 0.0003153323    1.265    0.209
        49 -13.1999     54.5261    169.6273   1.2539603988e+02   3.3556140381e+01     0.808892     0.563957  62.21   0.00237268    1.425    0.298
        50 -11.3202    119.1530     28.9698   6.7921637373e+01   5.1514930056e+01    0.3222933    0.2112007 -30.37 0.0009192952    1.657    0.397
        51 -14.5833     17.3571    197.1609   1.3784855142e+02   3.1079678074e+01     1.061923    0.9214057  66.00  0.003957124    1.096    0.088
        52 -10.8746    152.8393     18.5118   5.8919923163e+01   4.3870002193e+01    0.2521154    0.2148893 -44.34 0.0003122214    1.210    0.174
        53 -10.9378    191.8242    192.9683   9.5132127542e+01   7.7095607665e+00    0.6695514    0.3773998 -61.60  0.002262916    6.313    0.842
        54 -11.7592    249.3321    175.0694   8.2400600084e+01   2.4098286493e+00    0.3866009    0.2398621 -35.53  0.002505163    1.515    0.340
        55 -13.4041    168.9341     65.5907   7.0661259472e+01   3.3645148190e+01    0.8548806    0.5254636 -42.96  0.001006518    1.553    0.356
        56  -9.8346    202.4725    248.4645   1.0173068672e+02  -1.1476910729e+00    0.1114753   0.08049794   9.34 1.793355e-05    1.017    0.016
        57 -11.9676    237.6658    244.0371   9.5228874966e+01  -4.4084871926e+00    0.3625944    0.1593539 -19.36  0.002127494    2.276    0.561
        58 -13.6313     59.0766    164.6523   1.2344649482e+02   3.4188499663e+01     1.069377    0.8117574  52.13  0.002097496    1.223    0.182
        59 -11.3458      4.0011    158.2675   1.3957289816e+02   4.1285859992e+01    0.2680182    0.1515332  27.20  0.000967105    1.723    0.420
        60 -11.3806    211.6575    242.3389   9.9274782292e+01  -1.4580498784e+00    0.1477446    0.1277017  30.67  0.001129738    1.726    0.421
        61 -13.2396     12.9944    169.8261   1.3756830464e+02   3.7792923096e+01    0.8535057    0.3073348  81.86   0.00326124    3.141    0.682
        62 -10.4228    132.3101    138.6439   9.7663562058e+01   2.7996134418e+01    0.2619785    0.1412254 -47.63  0.001071371    1.931    0.482
