#   1 NUMBER                 Running object number                                     
#   2 MAG_AUTO               Kron-like elliptical aperture magnitude                    [mag]
#   3 X_IMAGE                Object position along x                                    [pixel]
#   4 Y_IMAGE                Object position along y                                    [pixel]
#   5 X_WORLD                Barycenter position along world x axis                     [deg]
#   6 Y_WORLD                Barycenter position along world y axis                     [deg]
#   7 A_WORLD                Profile RMS along major axis (world units)                 [deg]
#   8 B_WORLD                Profile RMS along minor axis (world units)                 [deg]
#   9 THETA_WORLD            Position angle (CCW/world-x)                               [deg]
#  10 FWHM_WORLD             FWHM assuming a gaussian core                              [deg]
#  11 ELONGATION             A_IMAGE/B_IMAGE                                           
#  12 ELLIPTICITY            1 - B_IMAGE/A_IMAGE                                       
         1 -13.7205     30.7388     59.7951   1.0520713066e+02   6.1119005868e+01     1.778708    0.9951675  37.30   0.00522586    2.210    0.548
         2 -13.6173    215.7718     15.6579   4.3677645740e+01   2.9002626690e+01     1.233585    0.8692559  38.43  0.003719748    1.804    0.446
         3 -12.9445    204.3218     22.2359   4.6700187347e+01   3.1120695508e+01    0.6353042    0.3634447 -69.72  0.002800404    2.045    0.511
         4 -12.2066     42.8709     20.5336   8.5889358742e+01   6.7211662435e+01    0.6088216     0.307874  29.14   0.00256967    2.117    0.528
         5 -10.8165    126.7505     15.9756   5.7012350433e+01   5.1695039250e+01    0.3338161    0.2017335  21.32  0.001507771    2.026    0.506
         6 -13.3086    189.9120      8.5461   4.4533603547e+01   3.6323114222e+01    0.9936046    0.5340697 -77.24  0.004178913    2.267    0.559
         7 -11.3476     65.5599     10.2374   7.1742700335e+01   6.5227598304e+01    0.3598411    0.2311488 -17.84  0.001322916    1.448    0.310
         8 -12.6345     43.7415      9.2499   8.0054054293e+01   6.8734409681e+01    0.3526973    0.3180223 -30.43  0.002504218    1.459    0.315
         9 -12.4752     57.0280      7.0541   7.3387398613e+01   6.7029125217e+01    0.6533046     0.543108 -57.86  0.003370843    1.997    0.499
        10 -10.4828    109.8762      8.8708   5.7968928748e+01   5.6398430311e+01    0.2050681    0.1617482 -66.04  0.001119173    1.706    0.414
        11 -10.5674    165.2512      7.9962   4.7506386660e+01   4.2761047677e+01     0.173131    0.1207219 -23.39 0.0004643069    1.569    0.363
        12 -11.2568      3.6095      4.8050   9.8342952795e+01   7.3516354148e+01    0.2788245     0.150502 -36.62 0.0006403103    1.359    0.264
        13 -12.0561    166.1762      1.8484   4.5426548386e+01   4.3090735609e+01    0.7159384    0.1762113  68.98  0.002300927    3.526    0.716
        14 -10.3553     96.1517    225.3485   1.1505651400e+02   1.6004958804e+01    0.2753897    0.1020037  56.85  0.001143356    2.953    0.661
        15 -10.7470    232.0488    223.5039   8.9476644656e+01  -6.0219741197e+00    0.1834497    0.1003903  37.66    0.0010283    1.580    0.367
        16  -9.6115     36.4798    222.5336   1.2567304199e+02   2.4447084460e+01     0.113916   0.07943331  70.73 0.0008089422    1.046    0.044
        17 -10.0457      2.5147    221.8393   1.3135018002e+02   2.8100793956e+01    0.1667413   0.09478785  69.39 0.0006793021    1.247    0.198
        18 -10.6801    226.1829    221.2067   9.0112163793e+01  -4.8176834417e+00    0.1545646    0.1408982  37.36  0.001077484    1.386    0.279
        19 -12.2625    239.5591    215.3230   8.6778766975e+01  -6.1856329489e+00    0.5485762    0.2550303 -26.16  0.002776326    2.314    0.568
        20 -11.8622    223.2638    213.7158   8.9348112531e+01  -3.3812591233e+00    0.4150437    0.1802203  31.02  0.001896895    2.281    0.562
        21  -9.8530    124.0121    206.0063   1.0729162942e+02   1.5126307913e+01    0.1837662    0.1546565  59.91  0.001141482    1.035    0.034
        22 -10.1964     56.9228    205.9848   1.2067051366e+02   2.5189100067e+01    0.2059457      0.11013  67.35   0.00113408    1.740    0.425
        23 -10.3256     49.2235    202.6061   1.2186404302e+02   2.6830390007e+01    0.2431322    0.1426276  71.41 0.0008711515    1.500    0.333
        24 -10.7654     41.6856    201.0253   1.2318384534e+02   2.8049095243e+01     0.252034    0.1670445 -71.55 0.0009454422    1.471    0.320
        25 -10.5852      3.5464    200.0623   1.3015616244e+02   3.2159146327e+01    0.2906518    0.1069379  46.58  0.001681778    2.221    0.550
        26 -12.7256    161.2645    192.1568   9.7507151061e+01   1.1025125540e+01    0.7692319    0.5119084  60.58  0.003434384    1.732    0.423
        27 -10.9300     60.8108    192.0404   1.1858495921e+02   2.7550300013e+01    0.2811677    0.2127542  72.02  0.001265897    1.089    0.082
        28  -9.8186    110.2410    186.9899   1.0749453672e+02   2.1208425901e+01    0.2573768    0.1225202  66.14 0.0008997587    3.598    0.722
        29  -9.8976     34.6684    187.3528   1.2345707954e+02   3.1675469080e+01    0.1307203   0.06781834  69.34 0.0007046291    1.780    0.438
        30  -9.9906    128.9766    177.7723   1.0194852414e+02   1.9826809781e+01    0.1939911    0.1087223  42.77 0.0008823317    1.671    0.401
        31 -10.2424    106.5020    175.9987   1.0667616443e+02   2.4160518855e+01    0.2933935    0.1447631  67.46  0.001035086    3.447    0.710
        32 -11.0131     36.8983    174.3501   1.2186431904e+02   3.4231454935e+01    0.3866886    0.1194775  44.82  0.001729742    2.839    0.648
        33 -11.3695     45.5717    172.1159   1.1977798617e+02   3.3747554634e+01    0.4460766    0.2305989  78.19  0.002210252    2.089    0.521
        34 -11.8551     55.6493    168.1757   1.1711338711e+02   3.3413204254e+01    0.5071443    0.2642237  88.19  0.002364694    2.165    0.538
        35 -10.4815     80.0188    164.4077   1.1102249205e+02   3.0942320225e+01    0.4164345    0.1936328  74.72   0.00125425    5.098    0.804
        36 -10.3554    121.9198    169.5416   1.0212940964e+02   2.2847786752e+01    0.3295121    0.1877977  67.89   0.00132417    2.514    0.602
        37 -11.7451    119.8203    157.6954   1.0049497159e+02   2.5817858325e+01    0.5613976    0.3915762  46.84  0.002794125    1.388    0.279
        38 -11.3683    107.4794    159.2281   1.0370229646e+02   2.7689955327e+01    0.5892577    0.2505377  54.81  0.002142043    2.863    0.651
        39 -11.1638     22.4713    159.6750   1.2365238869e+02   3.8945216615e+01    0.2883523    0.1898868  54.20  0.001040495    1.470    0.320
        40  -9.2683      1.1999    159.0416   1.2819070858e+02   4.0880104440e+01    0.1481559   0.06829319 -79.20 0.0003216137    1.654    0.396
        41 -10.7673    168.4367    157.7493   8.9422616993e+01   1.6150552864e+01    0.3877924    0.2324666  55.54  0.001369994    1.845    0.458
        42 -10.7288    218.5788    156.3839   7.9005870042e+01   6.1001781844e+00    0.3647717    0.1644186 -42.97  0.001467684    2.343    0.573
        43  -9.9666     83.5663    156.1667   1.0894073486e+02   3.2297841549e+01    0.3099029    0.1272146  61.14 0.0009577696    4.402    0.773
        44  -9.8192     68.0336    154.5163   1.1245364755e+02   3.4923358441e+01    0.1967225   0.09139343  58.07 0.0008099873    2.543    0.607
        45 -10.0053     23.8800    153.5088   1.2276437961e+02   4.0200628659e+01    0.1547494    0.1154603  40.21  0.001016198    1.542    0.352
        46 -12.3381    240.8255    151.2778   7.3926058083e+01   2.6236249083e+00    0.4991256    0.3347017  40.31  0.002620135    1.534    0.348
        47  -9.8365    190.3199    151.6297   8.3477895840e+01   1.2738585920e+01    0.1502708    0.1192486 -81.57 0.0007034864    1.796    0.443
        48 -10.7768    108.1309    146.3181   1.0118034647e+02   3.0513245510e+01    0.4643157    0.2552122  68.61  0.001701331    2.953    0.661
        49 -10.4741     56.2204    146.4708   1.1421059349e+02   3.8341893114e+01    0.3305268    0.1626855  76.01  0.001292717    3.118    0.679
        50 -10.0102    148.8172    145.3988   9.1172517555e+01   2.2782294798e+01    0.4341955     0.256741  82.98  0.001247298    4.821    0.793
        51 -10.4425     88.7280    145.0186   1.0580700174e+02   3.4091045422e+01    0.2997131    0.1533687  61.86  0.001168841    2.651    0.623
        52  -9.9608    182.5322    142.5222   8.3039965508e+01   1.6140663970e+01    0.2718101    0.1439046  57.69 0.0008546492    2.337    0.572
        53 -10.0832     22.9906    138.4715   1.2143796636e+02   4.3721858425e+01    0.3418137    0.1242184  64.10  0.001212789    4.508    0.778
        54 -10.8162     83.4114    132.0763   1.0481389087e+02   3.7984907400e+01    0.4824487    0.2732601  81.38  0.001794123    3.119    0.679
        55 -11.9823    100.5875    129.3615   9.9699672321e+01   3.5794993118e+01    0.8289754    0.4141723  60.19  0.002984458    2.967    0.663
        56 -11.1337     44.9476    124.5815   1.1392246878e+02   4.4840457318e+01    0.6706784    0.3198702  67.86   0.00261604    3.399    0.706
        57 -10.4484     59.8061    125.5244   1.1000966871e+02   4.2871331340e+01    0.3922168    0.2077461  75.94   0.00151235    3.176    0.685
        58 -10.9810     26.4057    120.1853   1.1833940913e+02   4.7688364581e+01    0.3468431    0.1695456  85.80  0.001560287    2.536    0.606
        59 -12.0622    193.3494    118.2364   7.4928034022e+01   1.8390507508e+01    0.6572435     0.514019 -69.44  0.002244057    1.608    0.378
        60 -10.9933     93.1663    121.7511   1.0007020378e+02   3.8862994290e+01    0.4740283    0.1882469  46.98  0.001731686    2.754    0.637
        61  -9.5999    132.9861    132.6598   9.2116636840e+01   2.8847053042e+01    0.2579175    0.1172325  61.72 0.0007051419    4.402    0.773
        62 -10.8279     15.4722    121.1526   1.2139538634e+02   4.8348734020e+01    0.3021775    0.1858037  23.69  0.001473431    2.110    0.526
        63 -10.4167      2.2239    116.1027   1.2433534783e+02   5.0414347785e+01    0.2335188    0.1283231  87.39  0.001339752    1.650    0.394
        64 -11.5375     16.2917    111.8132   1.2001562101e+02   5.0455700571e+01    0.6404219     0.342002  78.58  0.003267862    2.189    0.543
        65 -10.8895     80.0457    113.8378   1.0202953216e+02   4.2846083940e+01    0.4995641     0.292608  81.41  0.001841506    3.249    0.692
        66 -12.5669    161.0331    112.2628   8.0331172398e+01   2.7098143253e+01      1.29738    0.7991537  79.71  0.004357802    3.214    0.689
        67 -10.0521     91.6265    110.6281   9.7983352502e+01   4.1743118208e+01     0.370979    0.1363161 -57.83  0.001251783    2.850    0.649
        68 -12.4669    158.3787    107.1129   7.9572921899e+01   2.8778267721e+01    0.9616281    0.5045279  68.20  0.002986487    3.507    0.715
        69 -12.8845    142.7830    104.2597   8.2544992184e+01   3.2963656168e+01    0.7000541    0.6512225 -20.79  0.003620896    1.128    0.113
        70 -11.2743    174.6449    110.8644   7.6923013261e+01   2.4194852836e+01    0.4298846    0.3569489 -52.97  0.001170842    1.245    0.196
        71 -11.8559     45.3405    102.0521   1.0990290129e+02   5.0152965904e+01    0.6600815    0.3899293  81.82  0.003011093    2.477    0.596
        72 -10.2942    109.1207    114.4320   9.4010632822e+01   3.7724461584e+01    0.2908918    0.1966764 -89.00  0.001189561    2.259    0.557
        73 -12.3217    127.0630    100.5381   8.5553480104e+01   3.7227763290e+01    0.8146457    0.5618356  54.88  0.003657819    1.568    0.362
        74 -11.7119    116.2374    102.4493   8.8993257615e+01   3.9057309599e+01     0.646983    0.2951484  42.19  0.002420204    2.301    0.565
        75 -11.7726    109.2182    100.3417   9.0377202483e+01   4.0918461992e+01    0.8324473    0.5316001  78.02  0.003102722    2.880    0.653
        76 -10.9757     82.4984    100.8293   9.8293981712e+01   4.5525965638e+01    0.2589759    0.2469849  17.59 0.0006141951    1.175    0.149
        77 -10.5681     93.9697     97.5485   9.4035690555e+01   4.4368747022e+01    0.3590635    0.2079176  49.34  0.001452005    1.944    0.485
        78 -10.5973     63.3113     96.1852   1.0307048123e+02   4.9393703009e+01    0.4207089    0.2220311 -86.77   0.00124785    5.346    0.813
        79  -9.6178     19.7628     96.9892   1.1685944969e+02   5.3642050882e+01     0.167811   0.08340856 -67.74 0.0004124033    1.578    0.366
        80 -13.1225    170.6441     91.1292   7.2381079490e+01   2.9018561326e+01    0.5385499     0.508745 -82.14 0.0007665498    1.108    0.098
        81 -12.0505     42.3980     87.8764   1.0791742552e+02   5.3770814156e+01    0.6976329    0.4038512  -1.05  0.002363502    2.940    0.660
        82 -10.1591     45.4445     81.9821   1.0554978837e+02   5.4801522973e+01     0.249725    0.1827098 -80.23 0.0007416047    1.553    0.356
        83 -11.0158     88.2783     87.6734   9.3069591297e+01   4.7577600623e+01    0.5645108    0.2495835  49.22   0.00211655    2.792    0.642
        84 -10.7554    105.4516     83.8634   8.6782621699e+01   4.5269456212e+01    0.3670304    0.2871774 -63.59  0.001503404    1.434    0.302
        85 -10.7500     24.3593     80.8742   1.1248625199e+02   5.6994173084e+01    0.3879764    0.1943569 -89.35  0.001583008    3.413    0.707
        86 -10.3093      2.0934     77.7850   1.1944651785e+02   5.9100184294e+01    0.2691529    0.1209648 -49.32  0.001474756    1.836    0.455
        87 -10.8250     82.6815     73.5820   9.0694091306e+01   5.1581822882e+01    0.5087382    0.3329809  82.75   0.00190686    3.532    0.717
        88 -10.7444     63.1513     74.9039   9.7631383969e+01   5.4242245410e+01    0.2125209    0.1830841 -67.26  0.001247402    1.243    0.195
        89 -11.8007    223.3106     70.8092   5.7268255782e+01   1.9579125418e+01    0.3142942    0.2915665 -62.34 0.0006757084    1.046    0.044
        90 -10.5798     52.0338     71.2711   1.0048854426e+02   5.6447930567e+01    0.2528565     0.179865 -59.20 0.0007115745    1.323    0.244
        91 -10.4524     62.4179     70.7458   9.6677587704e+01   5.5243725800e+01    0.2032987    0.1107284 -42.83 0.0008888796    1.643    0.391
        92 -10.3861    196.7757     67.8485   6.0663761491e+01   2.6598920058e+01    0.3977103    0.2081137  52.31  0.001604688    1.930    0.482
        93 -12.6340    240.7215     64.3679   5.3248465650e+01   1.6498720236e+01    0.6431468    0.4571978  80.02  0.003305299    1.604    0.377
        94 -11.9573    232.2937     59.9815   5.3227905401e+01   1.9104800457e+01    0.4890166    0.3628299 -65.66   0.00241523    1.409    0.290
        95 -11.4343    221.0973    249.2601   9.5417394202e+01  -7.3549835212e+00    0.4123379    0.1445226  38.15  0.002023661    2.250    0.556
        96 -10.8649     39.4907     52.9145   9.9749625547e+01   6.1716437754e+01    0.4041348    0.2189489 -36.51 0.0008917564    1.697    0.411
        97  -9.1043     65.2799     65.3607   9.4028694678e+01   5.5989045848e+01    0.1432435   0.09516613 -25.41 0.0007013425    1.670    0.401
        98 -10.0689    101.1455     61.4815   8.0864600459e+01   5.0641933305e+01    0.3327288    0.2159392 -89.47   0.00109882    4.269    0.766
        99 -11.4767     19.4784     59.6275   1.0952100942e+02   6.2048466169e+01    0.3422866    0.2616928  -3.50  0.001959705    1.545    0.353
       100 -11.3364     46.6473     57.8513   9.8515481209e+01   5.9926504267e+01    0.3143119    0.1823535  20.55  0.001388953    2.086    0.521
       101 -10.3594    120.1572     56.9858   7.3820464389e+01   4.7431532181e+01    0.3320423    0.1752807  69.65   0.00106073    3.776    0.735
       102 -10.6941    162.1239     53.2790   6.2703023519e+01   3.7831385908e+01     0.384458    0.2174035  71.00  0.001502424    2.146    0.534
       103 -12.0119    149.0874     52.2063   6.5094735435e+01   4.1311525156e+01    0.3677998    0.3016322  49.82 0.0004019863    1.196    0.164
       104 -10.2012    193.4991     46.4996   5.5067120903e+01   3.0724890273e+01    0.1472512    0.1419077 -82.07 0.0008106045    1.021    0.021
       105 -10.9598    156.9571     44.9443   6.1035209135e+01   4.0424657758e+01    0.3269045    0.2125616  55.78 0.0004883429    1.480    0.324
       106 -11.8999     72.1192     42.6071   8.3553045793e+01   5.9334042749e+01    0.6240159    0.3258426  49.00  0.002817581    2.425    0.588
       107 -11.6975      7.9534     43.3197   1.0999648322e+02   6.6182984170e+01    0.4754822    0.2492632  35.03  0.002748272    2.521    0.603
       108  -9.1799     90.6981     41.6852   7.6857261271e+01   5.6184738559e+01    0.1434093    0.1030473   4.33 0.0002937148    1.615    0.381
       109 -12.3952     40.8731     38.3947   9.4176883364e+01   6.4395243289e+01    0.5654268    0.3840025   9.44  0.002200443    1.653    0.395
       110 -11.4203    139.9175     37.8115   6.2177696600e+01   4.5756802626e+01    0.3383439    0.2666833  54.47  0.001682772    1.224    0.183
       111 -10.4840     81.7504     38.0106   7.8353807362e+01   5.8452307225e+01    0.2946224    0.1927974  51.76  0.001482647    1.827    0.453
       112 -12.0831    120.5181     34.5875   6.5563772331e+01   5.0883253240e+01    0.3772453    0.3202131 -58.26  0.000914251    1.402    0.287
       113 -10.5894     50.0411     34.4440   8.8813104777e+01   6.3994934765e+01    0.3246795    0.1838472  31.20   0.00173292    1.921    0.479
       114 -10.7505    102.4692     30.4954   6.8811312176e+01   5.5485344708e+01    0.6331605    0.3954651  67.34  0.002860261    2.237    0.553
       115 -11.2340    106.5969     29.2885   6.7166829248e+01   5.4757819663e+01    0.3903939    0.3161881 -66.41  0.001624733    1.684    0.406
       116 -10.2940     19.6665    249.6877   1.2987969491e+02   2.1473392257e+01   0.08193201   0.07376128 -82.97  0.000704473    1.680    0.405
       117 -10.0480     14.6797    249.6671   1.3063444294e+02   2.1999667036e+01   0.08240344   0.07141592 -77.75  0.000704927    1.698    0.411
       118 -10.0852    187.8118    248.2901   1.0103670095e+02  -2.1464307578e+00    0.2404631    0.1271756  29.73  0.001327384    1.768    0.434
       119 -11.3732    239.8061     20.6997   4.2631647590e+01   2.2621619942e+01    0.3153678    0.2411931  83.64 0.0007714074    1.270    0.213
       120 -10.0078     89.6536     18.4452   6.7517342800e+01   5.9722818762e+01    0.2402977    0.1301315  56.35  0.001118083    2.061    0.515
       121 -10.2692     46.6791     16.6642   8.2420117232e+01   6.7294261449e+01    0.2377166    0.1469193 -11.25 0.0008182909    1.671    0.402
       122 -12.3588     22.5786    239.8313   1.2896409778e+02   2.2851677511e+01    0.6266201    0.2007716  65.84  0.003137273    2.908    0.656
       123 -11.0307     32.8504    242.2569   1.2744854403e+02   2.1298641077e+01    0.1799608   0.08805787  58.99  0.001175686    1.503    0.335
       124 -10.1989      8.1939    240.6003   1.3124344010e+02   2.4202582935e+01    0.1184011   0.08460313  43.64 0.0004630542    1.618    0.382
       125  -9.4699     49.5281     11.5385   7.8704741858e+01   6.7610523323e+01    0.1227021   0.09976454  -6.20 1.185068e-05    1.035    0.034
       126  -9.7839      2.5151    240.4822   1.3210374683e+02   2.4778321056e+01    0.1025097   0.06559294  70.49 0.0001593128    1.023    0.022
       127  -9.9407     72.2954    230.3574   1.1990991849e+02   1.8509779441e+01   0.09695745   0.09087308 -39.84 0.0007032708    1.698    0.411
       128 -10.5694     12.7814    227.5314   1.2994225316e+02   2.6063819748e+01    0.2032235    0.1128511  72.88 0.0005432676    1.323    0.244
       129  -9.8643      6.2511    226.6979   1.3095876607e+02   2.6857833228e+01    0.1686131    0.0941503  51.69 0.0007490274    1.460    0.315
       130 -10.7986    104.3824    225.2294   1.1349385299e+02   1.4776100768e+01    0.2063119     0.145107 -84.42  0.001276724    1.554    0.357
