#   1 NUMBER                 Running object number                                     
#   2 MAG_AUTO               Kron-like elliptical aperture magnitude                    [mag]
#   3 X_IMAGE                Object position along x                                    [pixel]
#   4 Y_IMAGE                Object position along y                                    [pixel]
#   5 X_WORLD                Barycenter position along world x axis                     [deg]
#   6 Y_WORLD                Barycenter position along world y axis                     [deg]
#   7 A_WORLD                Profile RMS along major axis (world units)                 [deg]
#   8 B_WORLD                Profile RMS along minor axis (world units)                 [deg]
#   9 THETA_WORLD            Position angle (CCW/world-x)                               [deg]
#  10 FWHM_WORLD             FWHM assuming a gaussian core                              [deg]
#  11 ELONGATION             A_IMAGE/B_IMAGE                                           
#  12 ELLIPTICITY            1 - B_IMAGE/A_IMAGE                                       
         1 -15.1004      4.9570    130.2895   1.3946415238e+02   4.7936662684e+01     8.252688     1.453317 -72.69   0.02287439    6.184    0.838
         2 -13.2824    200.7774     30.0844   6.4565523954e+01   3.1790347496e+01     1.237159     1.089074 -81.36  0.005983396    1.062    0.059
         3 -13.3951    217.2587     11.4982   5.8578343547e+01   3.0143406853e+01    0.9742659    0.8131455  51.61  0.004719391    1.508    0.337
         4 -12.4515      9.7896    207.0348   1.4572054458e+02   3.0136737672e+01    0.6682327    0.4359574  35.87  0.002909848    1.842    0.457
         5 -11.7371    249.3725    246.8857   1.0337849008e+02  -1.4098313429e+01    0.5963648    0.2278232 -34.36  0.002907705    2.611    0.617
         6 -11.7905    181.1111    246.6254   1.1607643568e+02  -3.5799312640e+00    0.4540146    0.2762675 -44.58   0.00247129    1.902    0.474
         7 -11.6555    157.9404    249.6686   1.2107274080e+02  -1.7470673699e-01    0.4878656    0.1810381  43.90   0.00206748    2.295    0.564
         8 -11.6725     29.5624    249.2458   1.4513595256e+02   1.9300007024e+01    0.4161752     0.278033  84.48  0.002652318    1.184    0.155
         9 -12.4760     35.4366    245.3037   1.4385413476e+02   1.9364068947e+01     0.571768    0.4471511 -82.29  0.004141308    1.302    0.232
        10 -13.7783      9.1599    240.8648   1.4802893162e+02   2.3216403633e+01      1.81578     1.424981 -86.00   0.01405479    1.303    0.232
        11 -12.7865     43.2453    212.5791   1.3968362712e+02   2.5231491283e+01      1.04269    0.7039136 -78.68  0.004509904    1.289    0.224
        12 -12.8006     27.6081    230.2137   1.4413840024e+02   2.3337074685e+01    0.3062829    0.2490194 -73.03 0.0007658713    1.410    0.291
        13 -13.9546     32.8106    223.8203   1.4268792690e+02   2.4067118760e+01    0.8274966    0.5710781  71.89   0.00252351    1.160    0.138
        14  -9.0873     88.3333    249.3121   1.3456880000e+02   1.1293559319e+01    0.1086249    0.0997671   2.17 0.0007044527    1.679    0.405
        15 -10.5988     64.2194    247.5044   1.3888686640e+02   1.5166612547e+01    0.3362793     0.191479  80.95  0.001018827    1.771    0.435
        16 -10.7954     96.9140    245.3345   1.3249973723e+02   1.0729819744e+01    0.2127768    0.1578896  83.47  0.000539619    1.329    0.247
        17 -11.5066     45.9871    247.3579   1.4215743353e+02   1.7639363403e+01    0.5006521     0.219748 -78.76  0.002613378    2.236    0.553
        18 -12.3023    217.7103    248.9714   1.0945998549e+02  -9.8050197297e+00    0.5963259    0.2450818  38.29   0.00283613    2.152    0.535
        19 -10.8105    185.7505    239.8394   1.1409582362e+02  -3.2657720238e+00    0.2507769    0.1616624  59.62   0.00124914    2.114    0.527
        20 -11.7149    174.2526    250.2419   1.1796392637e+02  -3.0121374720e+00    0.8566538   0.08636485  41.44  0.001953034    8.074    0.876
        21  -9.2133     53.7327    238.9794   1.4006671166e+02   1.8295042309e+01    0.1465378   0.09204081 -77.80 0.0005406058    1.482    0.325
        22 -12.4101    238.6981    247.9775   1.0545751518e+02  -1.2758541538e+01     0.465261    0.3863234  -7.19  0.003276495    1.137    0.121
        23 -11.6638     88.0386    226.1184   1.3205685874e+02   1.5995930578e+01    0.9423438    0.1219614  45.58  0.002550663    5.749    0.826
        24 -12.3847    109.4514    230.7819   1.2824933381e+02   1.1575524297e+01     1.132393    0.1242241  44.72  0.002769915    6.640    0.849
        25  -9.0259    228.6928    228.3506   1.0388372390e+02  -8.4888917988e+00    0.1132698    0.1035812  88.32 0.0007042966    1.710    0.415
        26 -12.9797     56.5853    211.5722   1.3687672118e+02   2.3733264913e+01     3.583103     1.073006  61.12  0.006279927   16.094    0.938
        27 -11.5489    199.2245    247.1999   1.1266296914e+02  -6.6458958630e+00    0.3118779    0.2593946  65.24  0.001935842    1.660    0.397
        28 -10.2686     53.9847    203.8020   1.3658154613e+02   2.5820320050e+01    0.3627587    0.1979378  74.95  0.001490606    2.004    0.501
        29  -8.8088     34.5513    202.5085   1.4048357975e+02   2.8508135900e+01    0.1257278   0.09839825  85.99 4.031989e-05    1.010    0.010
        30 -11.5561     56.0051    197.1129   1.3539403653e+02   2.7081348877e+01    0.2830137    0.2281991 -68.13 0.0005079005    1.249    0.199
        31  -9.3678    191.9855    193.1428   1.0447630644e+02   3.9625516734e+00    0.3885708    0.1991231 -65.50  0.001098028    5.491    0.818
        32 -11.8562     62.8255    188.7705   1.3285712052e+02   2.8102118327e+01    0.2769561    0.2420621 -76.06 0.0004594768    1.144    0.126
        33 -11.0606      3.9077    183.7428   1.4508877491e+02   3.5799187345e+01    0.3704259    0.1865685  70.18  0.001431843    1.938    0.484
        34 -10.7144     73.8723    176.1405   1.2850831880e+02   2.9535074423e+01    0.2495868    0.2060075 -70.67 0.0003253579    1.120    0.108
        35 -13.1110     60.2267    173.9937   1.3146939382e+02   3.1973234888e+01    0.5496126     0.280475 -46.89  0.001851266    2.315    0.568
        36  -9.5079     92.6999    170.0391   1.2291657432e+02   2.8055197637e+01    0.2622499     0.184311  68.66 0.0005491457    1.571    0.363
        37 -11.7068     81.5407    167.2523   1.2521425234e+02   3.0526031069e+01    0.6559787    0.4726525 -47.95  0.003351553    1.481    0.325
        38 -12.0402     10.9696    120.9574   1.3658464481e+02   4.9661741060e+01    0.4833528    0.3288787  48.96 0.0006123916    1.765    0.433
        39 -11.0955      6.8831    215.3746   1.4683798861e+02   2.8641251023e+01    0.2066615    0.1818289  64.22 0.0008815114    1.375    0.273
        40 -10.2094     95.2102    151.8238   1.1890294916e+02   3.2061464275e+01    0.3649554    0.3184497 -42.55 0.0007711078    1.233    0.189
        41  -9.0915     98.5248    147.5035   1.1716190240e+02   3.2539252483e+01    0.1961067    0.1836983 -70.05 0.0001083345    1.025    0.025
        42 -11.7413     83.6982    150.5931   1.2169126176e+02   3.4256439283e+01    0.3199018    0.2491185 -48.13 0.0005715908    1.300    0.231
        43 -12.0038     67.3258    143.3795   1.2472363301e+02   3.8455788599e+01    0.6905531    0.4457374  64.01  0.003280012    1.896    0.473
        44  -9.6956    108.0006    136.8533   1.1234546414e+02   3.3391361464e+01    0.4317153    0.2786902 -19.91  0.001586164    2.693    0.629
        45 -10.4748     94.8543    134.1906   1.1531912953e+02   3.6393260866e+01    0.2525896    0.2200325 -43.13  0.000279514    1.163    0.140
        46  -9.0828    105.8295    123.6411   1.0985148292e+02   3.6914930985e+01    0.1956396    0.1819019  53.14 0.0003823022    1.118    0.105
        47  -8.4851    167.4657    112.4683   9.1521276888e+01   2.6108059550e+01    0.1598176    0.1472453 -79.87 6.096192e-05    1.101    0.092
        48 -10.1026     61.0556     78.4974   1.1160803177e+02   5.4037699184e+01    0.4123062    0.2027174  45.30   0.00160887    2.589    0.614
        49  -9.5523    159.5110     77.4962   8.3883005044e+01   3.4748800903e+01    0.1492466    0.1434638  76.76 8.154479e-05    1.006    0.006
        50  -8.5443     51.9198     72.4330   1.1299508533e+02   5.6410633405e+01    0.1565506    0.1080574  56.64 0.0006699118    2.259    0.557
        51  -8.8542     43.0057     67.4661   1.1472073695e+02   5.8408194594e+01    0.1675893    0.1195163  26.79 0.0006693442    1.538    0.350
        52 -12.2554      3.2895     48.9919   1.2474722220e+02   6.5160833843e+01    0.4542407    0.2840881 -54.90  0.003026111    1.421    0.296
        53 -11.2338    138.9984    249.2789   1.2474500088e+02   3.0949194568e+00    0.3260415    0.2181213 -49.22  0.001849843    1.775    0.437
        54 -11.3104    124.7424    250.1036   1.2764648316e+02   5.3314106991e+00    0.4310476    0.1592565  41.19  0.001840527    2.310    0.567
        55  -8.6688    152.5213    213.0506   1.1650701325e+02   7.5309321239e+00    0.1885124    0.1408705 -52.30 0.0003089568    1.451    0.311
