#   1 NUMBER                 Running object number                                     
#   2 MAG_AUTO               Kron-like elliptical aperture magnitude                    [mag]
#   3 X_IMAGE                Object position along x                                    [pixel]
#   4 Y_IMAGE                Object position along y                                    [pixel]
#   5 X_WORLD                Barycenter position along world x axis                     [deg]
#   6 Y_WORLD                Barycenter position along world y axis                     [deg]
#   7 A_WORLD                Profile RMS along major axis (world units)                 [deg]
#   8 B_WORLD                Profile RMS along minor axis (world units)                 [deg]
#   9 THETA_WORLD            Position angle (CCW/world-x)                               [deg]
#  10 FWHM_WORLD             FWHM assuming a gaussian core                              [deg]
#  11 ELONGATION             A_IMAGE/B_IMAGE                                           
#  12 ELLIPTICITY            1 - B_IMAGE/A_IMAGE                                       
         1 -12.7700     54.5721     40.0791   3.9687092306e+01   6.3463601858e+01     1.085355    0.6680018 -20.93  0.005011971    2.253    0.556
         2 -11.4396     23.4165      2.5119   3.5754692101e+01   7.4646567888e+01     1.030239    0.4679346  36.95  0.004991977    1.994    0.499
         3 -11.5642      7.4792     29.4534   6.2670226211e+01   7.2859516856e+01     1.019639    0.3637455 -62.27  0.003625499    4.426    0.774
         4 -11.9476     14.7223     17.7429   5.1212499912e+01   7.4023197853e+01    0.4952049    0.3116007  27.56  0.001524077    1.376    0.273
         5 -12.5280      3.3890     12.8745   5.7736461264e+01   7.6287554772e+01    0.5880104    0.3419142 -41.38  0.003232333    1.785    0.440
         6 -12.1895     10.2397     10.5089   5.0427555358e+01   7.5783328493e+01    0.6175728    0.4883562  -6.31  0.004005031    1.214    0.176
         7 -12.1406    249.3485     20.5376   4.1445151353e+00   2.5730672808e+01    0.3838167    0.1381783 -42.21 0.0001754852    1.889    0.471
         8 -12.2247    249.4619      7.6245   1.9678078032e+00   2.7005870103e+01     0.673034    0.2369198 -30.94  0.003772877    3.012    0.668
         9 -12.9181    239.5849     15.7221   3.7571120763e+00   2.7722940456e+01    0.5668786    0.3313132 -27.70  0.003935637    2.062    0.515
        10 -10.9448     82.0383     21.3074   2.2561687110e+01   5.9900876363e+01    0.4657874    0.1774777 -36.47  0.001975722    2.827    0.646
        11 -12.7366    243.4686      5.1862   1.7791286450e+00   2.8157093766e+01    0.6517209    0.3842278 -65.66  0.005172303    1.276    0.216
        12 -12.2226    233.7755      9.3927   2.8975748414e+00   2.9280812960e+01    0.3732971    0.2977959  -4.56  0.002892057    2.236    0.553
        13 -12.6459     28.8833     19.9637   4.2970354900e+01   7.1409523947e+01    0.4586735    0.2582954  28.88 0.0004602337    1.757    0.431
        14 -10.3333     68.5675     20.1522   2.5836227389e+01   6.3156864319e+01    0.4016798    0.1742157 -41.46  0.001765383    2.673    0.626
        15 -10.5648    122.0536     19.4876   1.4231636190e+01   5.0633651666e+01    0.3294015    0.2443338 -82.24  0.001068505    1.251    0.201
        16 -11.8818     82.2022      6.9324   1.6715061420e+01   6.1284626386e+01    0.2169573    0.1861765  64.23 0.0002664455    1.066    0.062
        17 -12.4441     75.6052     11.3191   2.0056922745e+01   6.2445049241e+01    0.7035542     0.430384  35.08  0.002303596    1.909    0.476
        18 -13.3548     65.5790     11.5803   2.2886949066e+01   6.4754652855e+01    0.5864631    0.3301683  50.32  0.001258668    1.516    0.340
        19 -10.5945    217.2961     16.0299   4.9143775714e+00   3.1367977140e+01    0.3176973    0.1386134  64.49  0.001900723    2.597    0.615
        20 -11.0158    137.5931     15.5941   1.1080831698e+01   4.7451019241e+01    0.2877219    0.1684768 -55.55 0.0006538666    1.633    0.388
        21 -10.5401     54.6659     15.1218   2.8179835623e+01   6.6844697567e+01    0.4431891     0.295855 -86.39  0.002159952    2.404    0.584
        22 -11.0753    168.8460     14.1784   7.7121308793e+00   4.0789041611e+01    0.2897149    0.1806575 -53.07  0.001831916    1.377    0.274
        23 -10.0140    125.1101     13.4807   1.1974307120e+01   5.0524119921e+01    0.3371181    0.1556546 -64.02  0.001512846    2.563    0.610
        24 -10.5698    145.6429     11.5290   9.1071562918e+00   4.6042384738e+01    0.2732653    0.1764968 -39.05  0.001200295    1.570    0.363
        25 -10.3750    146.2684      6.9349   7.8176497856e+00   4.6334724681e+01    0.2443614    0.1574261  79.55  0.001416542    1.342    0.255
        26 -10.5258     28.8424     10.3470   3.7492111863e+01   7.2710298670e+01    0.5242605    0.2892365  31.45  0.002674668    1.786    0.440
        27 -10.7389     35.6547      6.1822   3.1391598991e+01   7.1852969302e+01    0.3631124    0.1724172  40.22  0.001282003    1.883    0.469
        28 -10.2883    139.6769     10.9463   9.5520500376e+00   4.7432674682e+01    0.2239092    0.1506643  89.23  0.000385841    1.283    0.221
        29 -10.4720    160.0577      8.9856   7.1612837605e+00   4.3147139204e+01    0.1780872    0.1440648 -76.27 0.0003727018    1.026    0.025
        30 -10.9977    154.5925      8.5400   7.5038767764e+00   4.4363481115e+01    0.2849456    0.1959508 -90.00 0.0009838311    1.234    0.190
        31  -9.3698    100.3636     10.1404   1.4515447847e+01   5.6671827810e+01    0.1616798    0.1078587 -46.59 0.0003954135    1.610    0.379
        32  -9.6197     90.5628      9.3374   1.5983024922e+01   5.9081164181e+01    0.2147359    0.1166711 -34.81 0.0009897521    2.043    0.510
        33 -10.6461    177.8493     12.1393   6.5536302157e+00   3.9150299971e+01    0.1886387    0.1497206 -81.68 0.0002585835    1.094    0.086
        34  -9.8820     25.0069      7.6837   3.8129791953e+01   7.3748811134e+01    0.2588271    0.1497853   1.87   0.00118714    2.822    0.646
        35  -9.7333    223.0703      5.3489   2.6275673229e+00   3.1442290810e+01    0.1526844    0.1115673 -45.77   0.00122158    1.270    0.213
        36  -9.3396    102.1884      6.4398   1.2908723704e+01   5.6565252030e+01    0.1863367    0.1039347  86.75  0.000945866    1.743    0.426
        37 -11.0160     97.1243      3.8741   1.2788324173e+01   5.7986642758e+01    0.3674432    0.2608789  18.31  0.001814845    1.972    0.493
        38 -10.5308     67.8402      5.1373   1.9301880692e+01   6.4826556152e+01    0.3550963    0.2177285  80.53  0.001381275    1.705    0.414
        39 -10.5058     58.9985      5.4897   2.1965893254e+01   6.6838759206e+01    0.2672447    0.1776486  69.14 0.0005953268    1.379    0.275
        40 -10.1697    164.3309      4.5847   5.7571027385e+00   4.2653945403e+01    0.1895347    0.1413537 -59.13 0.0002349093    1.155    0.134
        41 -11.0364    179.7242      3.5406   4.4925324655e+00   3.9598750234e+01    0.3016506    0.1545217  68.00 0.0008196376    1.945    0.486
        42 -10.6198    159.6890      3.7432   5.8922469436e+00   4.3711478529e+01    0.2025627    0.1456805 -71.82 0.0002702216    1.130    0.115
        43  -9.9419    126.1251      2.6232   8.5796217272e+00   5.1268727586e+01    0.1830176    0.1441482 -61.87  0.000427161    1.211    0.174
        44 -10.3199     91.0234      2.2472   1.3189904939e+01   5.9572532348e+01    0.1843519    0.1755838  80.38 0.0005526366    1.174    0.148
        45 -10.1081      4.5702      2.6139   5.0080689624e+01   7.7727231396e+01    0.2814205    0.1572198 -23.56  0.001507415    2.099    0.524
        46 -10.8853    230.1595      1.5248   1.6438681828e+00   3.0626582342e+01    0.1753499    0.1017659  79.95 0.0007994102    1.772    0.436
        47 -10.3058     73.4744      1.5404   1.6328440975e+01   6.3799934138e+01    0.2416459     0.120879  65.58 0.0008359601    1.609    0.378
        48  -9.9659     33.3723      1.9748   2.9950578311e+01   7.2750742567e+01    0.2664635    0.1470273  45.80  0.001442299    1.463    0.316
        49  -9.0979    121.0264      1.4809   8.7870189234e+00   5.2543555749e+01    0.1896891    0.1005559  74.83  0.001022904    1.571    0.363
        50  -9.6957     63.0403    212.4788   7.5380900964e+01   2.1182945175e+01    0.2126611    0.1236569  24.52 0.0004122903    1.521    0.342
        51 -12.0168    247.8897    247.9133   4.1408401807e+01  -3.7682356959e+00    0.5429959    0.2672439 -19.50  0.003793504    1.588    0.370
        52 -12.0611    225.7884    246.4668   4.4534834346e+01  -1.9665010868e+00    0.5958821    0.2141598 -27.25  0.003156235    2.548    0.608
        53 -10.8181    180.9810    249.7686   5.2723415173e+01   1.3557861726e+00      0.26823    0.1555893   6.95  0.001672705    1.500    0.333
        54 -11.0029    182.7911    246.6091   5.1951271873e+01   1.6547762321e+00    0.2094392    0.1387349   8.63  0.001355534    1.266    0.210
        55  -9.4847    110.0562    250.0257   6.7686885751e+01   8.3610635943e+00    0.1572447    0.1223722  11.75 0.0005839506    1.039    0.038
        56  -9.8226     72.2021    250.1100   7.6698436584e+01   1.2252035866e+01    0.1877183     0.151591 -10.82 0.0007434614    1.284    0.221
        57 -11.4847     21.7905    248.7649   8.8929784596e+01   1.7206483673e+01    0.5832105    0.1859641  33.25  0.002592183    2.227    0.551
        58  -9.6813      6.9548    249.2854   9.2509136058e+01   1.8283840871e+01    0.2172055    0.1392312  30.91  0.000518409    1.258    0.205
        59  -9.8920     20.2851    211.9442   8.7241629150e+01   2.5469638480e+01    0.2687911    0.1457074  44.78  0.001300365    1.663    0.399
        60  -9.7023    106.7611    211.0108   6.3552125602e+01   1.6337223055e+01    0.1738567    0.1155266 -53.30 0.0008874429    1.633    0.388
        61  -9.3132    193.5301    210.5091   4.4640560326e+01   6.1455931357e+00      0.12074   0.09243928 -15.87 0.0008097364    1.023    0.023
        62 -10.5409    217.0943    208.7465   4.0374297188e+01   4.0212235197e+00    0.2887667    0.1213976 -35.07  0.001296916    1.919    0.479
        63  -9.3908    132.3138    209.3348   5.7075209990e+01   1.3493644139e+01    0.1425144   0.09182116 -15.69 0.0007046149    1.687    0.407
        64 -10.1125     72.5727    208.3439   7.2282923704e+01   2.1055926007e+01    0.2978631    0.1591834  -2.19  0.001163892    2.629    0.620
        65  -9.4019    247.7966    206.8475   3.5538698097e+01   1.4902287566e+00    0.1287951    0.1019608 -28.67  0.000551158    1.306    0.235
        66  -9.8271    201.6368    207.2246   4.2698433444e+01   5.8099217158e+00    0.1700348   0.08579449 -33.16 0.0007261998    1.661    0.398
        67 -10.7329     18.5904    205.0107   8.7270963538e+01   2.7275685757e+01    0.4552947     0.127677 -59.66  0.001628266    3.417    0.707
        68 -11.5892     21.7811    198.7570   8.5920630592e+01   2.8547196790e+01    0.4598269    0.2921423  -1.75  0.001773764    1.811    0.448
        69  -9.5886     68.4657    203.4616   7.2848658268e+01   2.2664795221e+01    0.3090374    0.1300087  23.22  0.001211279    2.181    0.541
        70  -9.5494    174.3493    201.9919   4.6867971448e+01   9.7108838204e+00    0.1766124     0.136125 -23.06 0.0004953051    1.099    0.090
        71  -9.1209    238.2528    200.9512   3.5973167447e+01   3.1412651823e+00    0.1349922   0.07039687 -37.33 0.0004377644    1.487    0.327
        72  -9.7083    120.2152    200.1595   5.8570632985e+01   1.6897262048e+01    0.2091533    0.1681197 -17.26 0.0005950436    1.200    0.167
        73  -9.9866    177.5353    198.2938   4.5641782020e+01   9.9726825161e+00    0.2192984    0.1128426 -47.85  0.001044561    1.986    0.496
        74 -10.1483    134.8945    196.5289   5.4450737342e+01   1.5705775566e+01    0.2332519    0.1859929 -45.88 0.0005677214    1.319    0.242
        75  -9.4786     50.7377    197.5694   7.7291414920e+01   2.6062292528e+01    0.2101735    0.1172603  33.80 0.0009475923    1.601    0.375
        76 -10.0548     40.3089    196.9807   8.0309481841e+01   2.7284913477e+01    0.1914019      0.18076 -87.69 0.0002709639    1.127    0.113
        77 -10.5248     28.0093    205.3067   8.4603770456e+01   2.6398728886e+01    0.1947099    0.1639449  30.67  0.000449759    1.079    0.073
        78 -12.1942     15.3746    192.2345   8.7357075100e+01   3.0704329719e+01    0.4983597    0.3866103 -24.94  0.001699756    1.473    0.321
        79 -12.1495     15.5709    182.1296   8.6577000988e+01   3.3280477143e+01    0.5794472    0.3324808  53.03  0.002243718    1.737    0.424
        80  -9.4294    186.5008    193.4979   4.3156172650e+01   9.7260343256e+00    0.1243475    0.1005239 -18.36 0.0008106952    1.001    0.001
        81  -9.6735     61.6785    192.7653   7.3518438791e+01   2.6019864833e+01     0.289925    0.1089942 -55.97  0.001080813    2.609    0.617
        82  -9.1748      2.3286    193.2974   9.1279776193e+01   3.1387310791e+01    0.1356645   0.09614358 -36.17 0.0003752051    1.636    0.389
        83  -9.5498    223.5827    191.1974   3.6584638166e+01   5.9773871709e+00     0.169741   0.08088315 -32.35   0.00095977    1.712    0.416
        84 -10.5286    244.6299    188.9022   3.3218070356e+01   4.2305827294e+00    0.1850859     0.169208 -77.84  0.001257606    2.011    0.503
        85  -9.1874    145.4017    189.8059   5.0912395223e+01   1.5638420628e+01    0.1815972    0.1142243 -34.89 0.0003733581    1.522    0.343
        86 -10.2788    187.5041    189.5176   4.2302561861e+01   1.0280176220e+01    0.1251125    0.1004941 -19.02 5.522909e-05    1.020    0.020
        87  -9.3597    232.2169    188.0058   3.4800411375e+01   5.5685009609e+00    0.1434328   0.06952633 -38.36 0.0002518571    1.601    0.375
        88  -9.5383      2.2929    187.3427   9.0978363911e+01   3.2894174785e+01    0.1397438   0.09493455 -42.39 0.0007028619    1.657    0.397
        89 -10.2978     62.1557    184.6639   7.2355866733e+01   2.7970332099e+01    0.2788845    0.2323622 -33.87 0.0008724066    1.267    0.211
        90 -11.0209     23.3133    180.4518   8.4007394763e+01   3.3082753629e+01    0.3816748    0.2133674  49.61  0.001710282    1.784    0.440
        91 -10.0680      1.4843    180.4712   9.0848209187e+01   3.4711904008e+01    0.1920414    0.1298211  -2.12 0.0009656588    1.657    0.396
        92 -11.0113     17.6423    172.5343   8.5155535377e+01   3.5638891530e+01    0.4133736    0.2213089  73.91  0.001703535    2.170    0.539
        93 -11.7699      7.9601    172.8833   8.8328459326e+01   3.6268013885e+01    0.3490735    0.2058475 -72.76  0.001451275    1.665    0.399
        94  -9.2390    216.6777    173.3366   3.4671402509e+01   9.4606904622e+00    0.1061497   0.08646785 -59.86 0.0007050579    1.712    0.416
        95  -9.2517    117.2878    169.9757   5.4224723435e+01   2.3855778292e+01    0.2664361    0.1486884  -8.60 0.0009015209    3.458    0.711
        96  -9.7837    176.8169    168.2070   4.0531718512e+01   1.5405141983e+01    0.2183351    0.1330631 -13.88   0.00105397    2.150    0.535
        97  -9.5111    242.3015    173.6647   3.1102938814e+01   6.6137469877e+00   0.09936272   0.07465456 -51.98 0.0004220051    1.660    0.397
        98  -9.6563    185.7608    165.9980   3.8478813743e+01   1.4568852555e+01    0.1733594   0.09280011 -41.89 0.0008865856    1.628    0.386
        99  -9.7321     67.8311    165.7468   6.7888658866e+01   3.2058279585e+01    0.2803158    0.1902222  71.54 0.0009647766    1.973    0.493
       100 -10.3063      1.4911    163.3075   8.9809988572e+01   3.9239105816e+01    0.3032071    0.1324327 -89.68  0.001189578    2.411    0.585
       101  -9.2006    133.8496    162.6529   4.8688691164e+01   2.2893424869e+01    0.1859648    0.1262875  43.24            0    1.605    0.377
       102  -9.2734     56.3439    162.6759   7.1154365703e+01   3.4327873896e+01    0.1638636     0.108225  56.36 0.0007050567    1.736    0.424
       103  -9.0673    117.0545    161.7586   5.2751842746e+01   2.5734865585e+01    0.1834487    0.1201361  32.71 0.0003232127    1.508    0.337
       104 -10.3416      1.9985    157.4964   8.9245329999e+01   4.0773780600e+01    0.2092783    0.1384487  12.01 0.0008033037    1.569    0.362
       105  -9.9632    216.1518    154.8664   3.1539679951e+01   1.2426996466e+01    0.1682704    0.1372805 -43.82 0.0003152038    1.216    0.177
       106  -9.9215    158.7007    153.8112   4.1384836475e+01   2.0784803222e+01    0.2298227    0.1815404  14.61  0.001237637    1.375    0.273
       107 -10.4323     11.1937    152.7267   8.5637502605e+01   4.1473287688e+01    0.4368351    0.2207034  25.89  0.001875378    1.887    0.470
       108 -12.2138     13.7855    147.9246   8.4247753592e+01   4.2602827199e+01    0.3049956    0.2615994 -89.94 0.0003456124    1.166    0.142
       109  -9.6285    234.7930    151.4122   2.8380737356e+01   1.0682975592e+01    0.1343213     0.100172  13.52 0.0009377716    1.677    0.404
       110  -9.3607    222.8221    151.6100   3.0015894400e+01   1.2099545067e+01    0.1336051    0.1105429  57.10 0.0009434776    1.729    0.422
       111 -10.6139     35.0424    150.6339   7.6822431200e+01   3.9980771475e+01    0.2615233    0.2038875 -56.09 0.0002751269    1.279    0.218
       112  -9.8225     26.5369    151.5210   7.9998340408e+01   4.0562403874e+01    0.1441823    0.1435441  58.64 6.718167e-05    1.006    0.006
       113  -9.4853     54.9831    149.7735   6.9620558651e+01   3.7913717546e+01    0.2108326    0.1920599  21.20            0    1.071    0.066
       114  -9.4864    143.5580    148.9493   4.3696823965e+01   2.4194153084e+01    0.2186145    0.1299982 -44.35  0.001022867    1.590    0.371
       115  -9.3023    233.7725    146.9555   2.7746609029e+01   1.1465245050e+01    0.1522862    0.0722449 -39.29 0.0005279754    1.614    0.381
       116  -9.7664    133.5067    147.0187   4.5651946504e+01   2.6275614678e+01    0.2133748    0.1137625 -28.61 0.0008099927    2.566    0.610
       117  -9.2361     91.3542    146.3288   5.7029209483e+01   3.3487017017e+01    0.1639716    0.1159795 -16.65 0.0007046147    1.776    0.437
       118  -9.8433     23.3005    146.5900   8.0599895222e+01   4.2204096002e+01    0.2883476    0.1290738  25.10  0.001123734    2.103    0.524
       119 -11.2923      6.4766    145.3533   8.6696778060e+01   4.3811486351e+01    0.3850302    0.2099157  19.17    0.0010626    1.829    0.453
       120 -10.9869    217.6725    144.9306   2.9546068092e+01   1.3794807729e+01     0.270769    0.1522726  28.65   0.00151574    2.452    0.592
       121 -11.0776     17.3289    143.2797   8.2447728243e+01   4.3611556920e+01    0.3763478    0.2142936  58.24  0.001593415    1.979    0.495
       122 -11.4265     13.8569    140.1716   8.3424097813e+01   4.4733884247e+01    0.3886173    0.2230904 -31.07  0.001629899    1.972    0.493
       123  -8.9359    155.6976    144.3588   4.0111562369e+01   2.3111846525e+01    0.1349556    0.1085267 -79.98 0.0007038062    1.718    0.418
       124 -10.6353    239.6933    140.2427   2.5857210880e+01   1.1739990454e+01    0.2114645    0.1435572 -33.24 0.0005118608    1.167    0.143
       125  -9.3648    188.9684    140.0394   3.3019047912e+01   1.8641897103e+01    0.1856406    0.1465419 -68.81 0.0005857861    1.633    0.388
       126  -9.8106    235.2984    137.9813   2.6000282658e+01   1.2606587686e+01    0.1620917    0.1115635 -38.69 0.0003816875    1.107    0.096
       127 -10.6783     44.0158    136.9635   7.1484945852e+01   4.2709386353e+01    0.2356067     0.232951  -8.31 0.0007590522    1.009    0.009
       128 -10.4543     47.0332    133.8319   6.9814709015e+01   4.3188032694e+01    0.2640626    0.2357017 -25.23  0.000813762    1.148    0.129
       129 -12.9726     37.4687    135.0279   7.3659886717e+01   4.3984628348e+01    0.4704117    0.3219186 -83.13  0.001301534    1.648    0.393
       130  -9.1324    143.6998    136.7141   4.1107343580e+01   2.6670288005e+01    0.1389009    0.1074748  -9.48 0.0002066017    1.554    0.357
       131  -9.3963      9.4529    136.4800   8.4731786759e+01   4.6062849590e+01    0.1429984    0.1374911  75.68  4.19239e-05    1.042    0.041
       132 -10.8577    241.4171    134.4175   2.4652592435e+01   1.2374490128e+01    0.2027957    0.1480376 -43.33 0.0005812091    1.129    0.114
       133 -11.7539     16.3753    131.3753   8.1432984255e+01   4.6973888761e+01    0.4968204    0.3063209  15.47  0.002265492    1.651    0.394
       134 -10.2015     68.3184    132.5309   6.1792137383e+01   4.0582896243e+01    0.2856956    0.1909677 -74.53 0.0008265492    1.817    0.450
       135 -10.0602     64.3063    131.0318   6.2912237326e+01   4.1571717164e+01    0.2758999    0.2147857   8.26 0.0006004801    1.390    0.280
       136 -10.4221     67.4912    127.5041   6.1044107101e+01   4.2000904150e+01     0.372852    0.1225354 -50.65  0.001184453    2.923    0.658
       137 -10.9222     53.4027    132.4334   6.7172853070e+01   4.2740631436e+01    0.3666961    0.2537063 -48.39 0.0009673003    1.449    0.310
       138 -10.7107     58.9675    131.4963   6.4939362700e+01   4.2223103090e+01    0.2791738     0.217553 -88.03 0.0006559145    1.530    0.346
       139 -11.5741      4.8893    129.8890   8.5866486346e+01   4.8169991893e+01    0.3264787    0.2422274 -48.98 0.0003883341    1.311    0.237
       140 -11.1190     73.4361    128.8409   5.9238457496e+01   4.0729030204e+01    0.3296331    0.2940748 -70.00 0.0005466331    1.201    0.168
       141 -10.7243     25.7833    129.6220   7.7430498758e+01   4.6654583717e+01    0.3316881    0.2417022  47.06 0.0009513043    1.434    0.303
       142 -10.2447    216.9797    128.9134   2.6713424590e+01   1.6390101239e+01    0.2127599     0.138859 -39.25 0.0006184698    1.229    0.186
       143  -9.1308     94.2742    127.6790   5.2157737826e+01   3.7499480418e+01    0.1502469    0.1210821  78.03 0.0003726636    1.573    0.364
       144 -11.8623     47.0127    124.3225   6.8082034814e+01   4.5739304529e+01    0.3310005    0.2784807 -11.45 0.0004173976    1.259    0.206
       145  -9.7997     38.4788    126.4865   7.1850843021e+01   4.6194220494e+01    0.1499442    0.1471329 -10.38 0.0001888307    1.002    0.002
       146 -10.1762    229.4930    124.8950   2.4391195369e+01   1.5289581975e+01    0.1763918   0.08838534 -40.40 0.0006155991    1.545    0.353
       147 -10.6135     60.8749    121.7408   6.2237686058e+01   4.4487507979e+01    0.3239044    0.2200673 -33.98  0.001310094    1.645    0.392
       148 -11.5261      9.4893    121.3961   8.3045076803e+01   5.0222904699e+01    0.5424263    0.2826662  60.21  0.001179442    2.341    0.573
       149 -10.7503     68.3724    121.5738   5.9444204101e+01   4.3374149430e+01     0.327583    0.2629981  42.23  0.001600411    1.249    0.199
       150  -9.9964     56.4582    121.7124   6.3901440968e+01   4.5142084107e+01    0.3180749     0.192886   8.88 0.0009582841    2.057    0.514
       151  -9.6496     35.2602    121.7616   7.2325612288e+01   4.7836212284e+01    0.2049439    0.1664886 -24.66 0.0003894653    1.287    0.223
       152  -9.9599     19.1939    121.8457   7.9018155283e+01   4.9373740392e+01    0.2218148    0.1924736  63.82 0.0007660085    1.229    0.187
       153 -10.4929     82.8106    124.4843   5.5099595571e+01   4.0263828116e+01    0.2986869    0.2582208 -60.58 0.0007602692    1.211    0.174
       154 -10.1294     85.6545    117.1206   5.2439574841e+01   4.1545212035e+01    0.4151079    0.2098205 -39.26  0.001135813    2.290    0.563
       155 -10.1774     24.6818    118.8055   7.6242541341e+01   4.9721461796e+01    0.3290635    0.2754366 -25.55   0.00161187    1.215    0.177
       156  -9.6676    247.9929    118.6679   2.1221207966e+01   1.3794170313e+01    0.1451319   0.07996877  24.36 0.0007051765    4.414    0.773
       157  -9.8573    119.6807    117.6588   4.2581119333e+01   3.5054279920e+01    0.2312803    0.1782281  -3.98 0.0009860564    1.720    0.419
       158 -10.6163      2.5608    116.9149   8.5483857547e+01   5.1870819391e+01    0.4771498    0.1899335 -35.94  0.001729365    2.763    0.638
       159  -9.5466    153.4825    115.9702   3.4450063482e+01   2.8978841665e+01    0.2035515    0.1123803 -62.83 0.0008102636    2.651    0.623
       160 -10.6485     20.4149    108.4479   7.6409491502e+01   5.2918656113e+01    0.4550376    0.2469938   4.18  0.001716332    2.072    0.517
       161 -10.4379     16.1653    115.4966   7.9399396898e+01   5.1358327007e+01    0.2980776    0.2300124 -86.07 0.0005200497    1.375    0.273
       162 -11.6094     12.7135    109.9103   8.0113480266e+01   5.3141961811e+01    0.6046728    0.3178268  31.28  0.001412739    1.888    0.470
       163 -10.0521    182.1673    114.9284   2.9057201037e+01   2.4058393153e+01    0.1932558    0.1538676 -59.77 0.0004662806    1.278    0.217
       164 -10.7142     70.7875    114.5050   5.6949125346e+01   4.4751107435e+01    0.3491009    0.2661862  58.78   0.00117338    1.514    0.339
       165 -11.4705     55.2235    109.7744   6.1757786413e+01   4.8399588576e+01     0.336194    0.2845386 -47.05 0.0006559304    1.189    0.159
       166 -11.9383     30.9082    107.5206   7.1543889347e+01   5.2136132009e+01    0.5531287    0.3747971  74.31  0.001801971    1.930    0.482
       167 -11.2911     62.6265    107.7966   5.8385282752e+01   4.7749465614e+01     0.399003    0.3492232 -78.54  0.001978164    1.284    0.221
       168  -9.6390     44.7363    108.5931   6.5788392584e+01   5.0182887682e+01    0.2123045     0.136015  36.22 0.0004246796    1.534    0.348
       169 -10.5122      4.1286    105.7130   8.3452761386e+01   5.4836203040e+01    0.4672529    0.3224684  21.99  0.002341274    1.479    0.324
       170  -9.2907    109.4143    105.8337   4.2402306169e+01   3.9578526477e+01        0.197     0.139559 -35.32 0.0004175587    1.533    0.348
       171 -11.8334     74.9226    104.1428   5.2888450294e+01   4.6546541410e+01    0.3665641    0.2911981  63.76 0.0002705897    1.473    0.321
       172 -10.4650     76.5279     98.4921   5.0818133672e+01   4.7572971541e+01    0.5212434    0.3514859   2.83  0.001667098    2.262    0.558
       173  -9.9298     51.2620    104.0030   6.2012494551e+01   5.0448050344e+01    0.2070087    0.2025915   3.21 0.0005050099    1.023    0.023
       174  -9.0877     42.4189    103.7820   6.5707487313e+01   5.1734025335e+01    0.2023131    0.1362624 -47.35 0.0004454676    1.474    0.322
       175  -9.0730    105.9804    103.2377   4.2692839320e+01   4.0814878334e+01      0.19109    0.1234591  43.86 0.0003195211    1.533    0.348
       176 -10.7943     92.1912    101.4611   4.6354656660e+01   4.3926879296e+01    0.3583566    0.2771364  48.56  0.001340216    1.294    0.227
       177 -11.1372     61.8606     99.0160   5.6469323945e+01   5.0023255869e+01    0.4071296    0.2847678 -36.57  0.001656236    1.549    0.355
       178  -9.4749     80.5046    103.5059   5.0758746274e+01   4.5683127506e+01    0.1522102    0.1468259  51.52 0.0008100955    1.052    0.050
       179 -10.3539    249.0259     98.7466   1.7684691989e+01   1.6386837103e+01    0.1989821    0.1168098 -42.23  0.000927988    1.250    0.200
       180  -9.2128     10.3498     99.1963   7.9577663506e+01   5.6196571791e+01    0.1821736    0.1335632 -85.89  0.000143312    1.488    0.328
       181 -10.2921     51.8671     97.4314   6.0138887850e+01   5.1998220897e+01    0.3143988    0.2178706 -33.95 0.0007472311    1.581    0.367
       182  -9.5940     33.9550     98.0293   6.8186846833e+01   5.4276480650e+01    0.2538556    0.1637369 -31.85  0.000982622    1.693    0.409
       183 -10.6252     15.2400     96.8798   7.6821376986e+01   5.6445031799e+01    0.3719372     0.224995 -39.44  0.001322899    1.631    0.387
       184 -10.8715     14.3640     92.1559   7.6388684835e+01   5.7757454118e+01    0.3727443    0.2320001 -37.61  0.001008943    1.584    0.369
       185  -9.5870    226.7134     93.5696   1.8954683463e+01   2.0233863036e+01    0.1335832    0.1016714 -87.59 0.0008792165    1.599    0.375
       186 -11.8648     57.4549     90.6781   5.6005616653e+01   5.2741299316e+01    0.4552362     0.344393 -20.93 0.0008153009    1.540    0.351
       187 -10.1281     31.4398     92.3404   6.8066806178e+01   5.6029027698e+01     0.269034    0.1848549  58.05  0.001222544    1.813    0.448
       188 -10.4724     35.1749     90.7514   6.5917643675e+01   5.5979047055e+01    0.4363672    0.2533664  37.02  0.001489509    1.713    0.416
       189  -9.1275    159.5306     92.5763   2.7895730931e+01   3.2033358202e+01    0.1338918    0.1184859 -67.12 1.867123e-05    1.084    0.078
       190  -9.3086      7.6549     92.3495   7.9791058059e+01   5.8193476070e+01    0.1539171    0.1001687  53.66 0.0007041852    1.810    0.447
       191  -9.7792    231.5133     91.4661   1.8072830748e+01   1.9817963902e+01    0.1113017   0.08591859 -46.90 0.0001313937    1.016    0.016
       192 -10.3181     23.0421     89.5055   7.1515013569e+01   5.7662923029e+01    0.4776179    0.2102444  45.78  0.001740952    2.785    0.641
       193 -10.6437     48.7200     89.8541   5.9506839634e+01   5.4322858045e+01    0.2914952    0.2211898  46.43 0.0009035761    1.390    0.281
       194  -9.7679     95.9067     88.8354   4.1715710781e+01   4.5876442167e+01    0.4505815    0.1562512  52.50  0.001363251    3.590    0.721
       195  -9.9389     74.0163     89.1108   4.9101841315e+01   5.0159515758e+01    0.2399468    0.2104004 -46.84 -0.0009232552    1.184    0.155
       196 -11.1972    184.7790     85.2623   2.2305364482e+01   2.8425252626e+01    0.2144051    0.1769861 -57.10 0.0002686022    1.062    0.058
       197 -10.4107    239.3878     84.7171   1.6094837412e+01   1.9592810091e+01     0.188522    0.1133168 -35.76 0.0009064144    1.452    0.311
       198  -9.8303      8.3704     85.0331   7.8141213538e+01   6.0053016913e+01    0.1979333    0.1811961 -65.75 0.0008931934    1.129    0.114
       199  -9.1366     34.4542     84.5086   6.4685680498e+01   5.7617659030e+01    0.1464824     0.138685  -3.11 0.0001198894    1.012    0.012
       200 -11.1518    119.2098     80.4034   3.3021839578e+01   4.2555589598e+01    0.5815034    0.3787248  29.22  0.002596369    2.147    0.534
       201  -9.7984     42.7669     83.4292   6.0435240906e+01   5.6745168495e+01    0.2141135    0.1396217  13.32 0.0009048043    1.694    0.410
       202  -9.6954     76.7402     82.1551   4.6055811177e+01   5.1140003954e+01    0.3136693    0.1607277  52.17  0.001214124    2.185    0.542
       203 -10.4547     64.3476     80.5298   5.0237099585e+01   5.3845165376e+01    0.3464125    0.2236427 -40.19   0.00143141    1.663    0.399
       204  -9.9498      1.7865     80.6365   8.0893089888e+01   6.1588209168e+01    0.3361473    0.1386833 -51.35  0.001380837    2.089    0.521
       205  -9.6621    249.6936     80.6795   1.4492268241e+01   1.8672646582e+01   0.09399799   0.07391676 -20.57 0.0003760269    1.637    0.389
       206 -10.8172    107.9734     85.2777   3.7249474583e+01   4.4055692721e+01    0.3881727    0.2343001  63.91 0.0008196227    2.031    0.508
       207 -12.4742     88.4819     77.1963   4.0569888241e+01   4.9760125156e+01    0.3965412    0.3104522  36.95 0.0004210229    1.281    0.219
       208  -9.3818     41.7041     79.3148   5.9764686772e+01   5.7870978500e+01    0.1458743    0.1139357  63.05 0.0002269633    1.603    0.376
       209 -10.2106     49.9908     77.9573   5.5529036966e+01   5.6904193787e+01    0.2173236    0.2054448  -1.80 0.0003213339    1.036    0.035
       210 -10.4334    168.5770     75.1587   2.2324902745e+01   3.3071239409e+01    0.4002582    0.1737279 -48.87  0.001725759    2.171    0.539
       211  -9.5619    167.9125     69.6296   2.1116171920e+01   3.4041266736e+01    0.1704601    0.1501224 -88.88 0.0004988097    1.109    0.098
       212 -10.7549     99.9256     76.6374   3.6955880674e+01   4.7429273641e+01    0.2732573    0.2126814 -54.45 0.0003400859    1.358    0.264
       213 -11.1468     22.9089     76.4813   6.8487888403e+01   6.0933493986e+01    0.4427251    0.2690262  34.25  0.002036657    1.645    0.392
       214  -9.2127    212.3852     76.4817   1.7164868257e+01   2.4888285218e+01    0.1166691   0.08917802 -52.91 1.412802e-05    1.051    0.048
       215  -9.7055     37.1231     76.3712   6.1129682692e+01   5.9211450133e+01    0.2265297    0.1720217   3.57 0.0005801452    1.388    0.280
       216  -9.7798     76.1346     74.7388   4.3964374930e+01   5.2790673250e+01    0.2271863    0.1919274  59.79  0.001189529    1.238    0.193
       217 -10.1444     55.6767     74.8758   5.2065707427e+01   5.6628601961e+01    0.2776535    0.1900804  26.55  0.001306902    1.472    0.321
       218  -9.9285     44.6737     74.5256   5.6924133063e+01   5.8524428455e+01    0.2498061    0.1348322  36.12  0.001064591    1.753    0.430
       219 -10.5830     45.0200     70.8710   5.5609072825e+01   5.9284852629e+01    0.2566434     0.203019 -43.63 0.0003664779    1.306    0.234
       220 -13.6927     16.3927     67.4355   6.9728743742e+01   6.3771483308e+01     0.530544    0.3955725 -41.85 0.0007158951    1.279    0.218
       221  -9.0914    207.4236     73.5015   1.7089694661e+01   2.6136955941e+01    0.1174416    0.0927304 -54.37 0.0001105295    1.023    0.022
       222 -11.7864    102.9414     69.8520   3.4059238819e+01   4.8011151874e+01    0.3823374     0.272249 -49.19   0.00184346    1.469    0.319
       223  -9.7399    159.9689     71.8332   2.2836362418e+01   3.5318533400e+01    0.1757968    0.1747574  20.96  0.000361842    1.220    0.180
       224 -11.6099      4.7013     61.3224   7.5207841162e+01   6.6192303736e+01    0.7735062    0.3574294  -3.49  0.002994307    2.450    0.592
       225 -11.3694      6.3645     67.8345   7.5730428089e+01   6.4509686652e+01    0.2651719    0.2229202  -1.14 0.0002866933    1.130    0.115
       226  -9.1872    175.5304     70.4479   2.0247382898e+01   3.2411794409e+01    0.1247734    0.1084976 -63.08 0.0001289281    1.010    0.010
       227 -11.3865     92.1944     68.0306   3.6541122570e+01   5.0696321505e+01    0.3751168    0.2673914  28.90 0.0004573565    1.685    0.407
       228  -9.4098     78.8270     69.3627   4.1276602411e+01   5.3297531782e+01    0.2179046    0.1294499  37.25 0.0009516208    1.710    0.415
       229 -11.5806     50.5777     68.0466   5.2096844137e+01   5.8976294680e+01    0.3730364    0.2793798  11.75 0.0006870626    1.483    0.326
       230  -9.7768     74.1343     68.1245   4.2524233828e+01   5.4502449752e+01    0.2259819     0.189753  12.69 0.0005624078    1.356    0.263
       231  -9.9984    148.7350     66.4429   2.3299930446e+01   3.8497532521e+01    0.2137651    0.1688422 -10.71 0.0009875342    1.787    0.440
       232 -11.0248    129.4384     66.1722   2.6777195704e+01   4.2741727225e+01    0.3158897    0.2572287  36.86 0.0006945856    1.455    0.313
       233  -9.8441     60.4403     66.7255   4.7359326655e+01   5.7472206142e+01    0.2692873    0.1456342 -52.03  0.001138566    2.076    0.518
       234 -12.7167     30.0786     63.1507   6.0721614069e+01   6.3182626949e+01    0.5419154    0.4490707  22.87  0.001237311    1.137    0.120
       235  -9.8709    155.2654     63.4470   2.1485776810e+01   3.7564031455e+01    0.2281519     0.183991 -75.38   0.00119869    1.189    0.159
       236 -10.5258    159.7830     64.3813   2.1034160852e+01   3.6480869314e+01    0.2574193    0.2066297  45.93 0.0003078687    1.489    0.329
       237 -10.4055    161.7329     61.6971   2.0088316530e+01   3.6468358309e+01     0.202336    0.1601578 -58.08 0.0001673252    1.141    0.124
       238 -10.2940    109.0730     64.3101   3.0778218082e+01   4.7599510502e+01    0.2284779    0.2030229 -47.56 0.0006277819    1.177    0.150
       239 -10.4931     81.4637     64.5733   3.8791335190e+01   5.3640347458e+01    0.4156416    0.2522955  36.72  0.001870959    1.732    0.423
       240 -11.3908    210.0296     63.1259   1.4733409588e+01   2.7097416702e+01    0.1936125    0.1541005 -48.07  0.000288019    1.115    0.103
       241 -11.2088    122.8985     62.8081   2.7169401003e+01   4.4736569552e+01    0.3569941    0.2145441 -39.32  0.001097322    1.723    0.420
       242  -9.6697     45.2941     64.3085   5.3298517569e+01   6.0654371336e+01    0.2271863    0.1397779  31.07 0.0004533975    1.540    0.351
       243 -11.5605     46.5899     60.5281   5.1353750154e+01   6.1219476859e+01    0.3756273    0.2810355  -1.78 0.0008146248    1.596    0.373
       244  -9.9734      6.9804     73.3306   7.6582438136e+01   6.3114230771e+01    0.3569885    0.1865902  -7.84  0.001167807    2.115    0.527
       245 -10.7901    189.2777     60.0801   1.6235913157e+01   3.1240748297e+01    0.1943698    0.1662561 -78.17 0.0002749327    1.108    0.098
       246  -9.9939     90.1791     60.9922   3.4845849818e+01   5.2382618488e+01    0.2506307    0.1899125  56.23 0.0002527809    1.247    0.198
       247  -9.8215    167.8408     59.7537   1.8771445484e+01   3.5490516526e+01     0.260902    0.1314943 -58.72  0.001230856    2.150    0.535
       248  -9.7347    150.4691     60.5109   2.1485758782e+01   3.9016405814e+01    0.2059095    0.1624719  83.15 0.0008595728    1.243    0.195
       249 -10.2190    153.8835     58.8541   2.0532673833e+01   3.8528009192e+01    0.2123637    0.1878262 -76.79 0.0006539692    1.011    0.011
       250 -10.5466    135.7072     58.6689   2.3488286089e+01   4.2512623603e+01    0.3740385    0.2296645  88.63  0.001613165    2.108    0.526
       251 -10.7043    115.8399     60.1169   2.7911241044e+01   4.6754921050e+01    0.4414846     0.186831  60.43  0.001299849    2.401    0.583
       252  -9.9912     64.0043     60.3196   4.3667877543e+01   5.8033756658e+01    0.2108469    0.1801019  41.83 0.0007163465    1.086    0.080
       253  -9.6119     57.8186     59.5512   4.5936635497e+01   5.9382416854e+01    0.2202609    0.1270128  51.32  0.000956688    1.852    0.460
       254 -13.2123    149.5487     51.2874   1.9226695027e+01   4.0527359113e+01    0.4315486    0.3840015  -5.92 0.0005397887    1.504    0.335
       255 -10.3320    154.2961     52.3128   1.8800511458e+01   3.9361573154e+01    0.2278205    0.1918783   8.36 0.0002765495    1.738    0.425
       256 -10.2316      1.8881     69.7840   7.8811474379e+01   6.4316518564e+01    0.5967516   0.09517813 -62.65  0.001830832    4.023    0.751
       257  -9.6108    177.2403     56.7874   1.6884701492e+01   3.4013413822e+01    0.1895558    0.1421981 -68.77 0.0006488204    1.220    0.181
       258 -11.3952     89.4107     53.8872   3.2666067358e+01   5.3740524759e+01    0.5498028    0.3584819 -42.57  0.002724778    1.652    0.395
       259  -9.9080     80.7283     55.6968   3.5975554671e+01   5.5364378570e+01    0.3957676    0.2118514  28.41  0.001452285    3.068    0.674
       260  -9.1275     68.4299     56.5262   4.0583191730e+01   5.7835896381e+01    0.1421093    0.1319457  48.11 0.0002408419    1.043    0.041
       261 -11.0389     16.8310     42.4936   6.1349297901e+01   6.9240324921e+01    0.4944949    0.3305654 -57.91  0.002615163    1.725    0.420
       262 -11.9307      3.8562     52.8645   7.3553990626e+01   6.8224421544e+01    0.7371466    0.3964223 -63.64  0.003538281    1.909    0.476
       263 -10.5208      7.7764     51.5966   7.0561964812e+01   6.8206904725e+01    0.3436995    0.2474694  59.59 0.0009464037    1.910    0.476
       264 -11.5562     13.1107     53.0855   6.7530316358e+01   6.7389265109e+01    0.4871673     0.269778 -15.20  0.001801956    2.147    0.534
       265 -13.1973     12.5915     48.0035   6.6190923107e+01   6.8552348778e+01     0.761691    0.3634998  37.47 0.0005068165    2.214    0.548
       266 -11.4230     10.4988     43.5694   6.6059107813e+01   6.9706546302e+01    0.4346106    0.2785315  46.95  0.001719782    1.978    0.494
       267  -9.8970    110.3206     56.8811   2.8183556129e+01   4.8518447472e+01    0.2353392    0.1807077  73.60 0.0005093584    1.304    0.233
       268 -10.6431    137.4640     52.7662   2.1545772602e+01   4.2982568863e+01    0.5311303    0.2036981  65.92  0.002099674    2.746    0.636
       269 -10.2695    127.7461     52.1031   2.3091139624e+01   4.5264251498e+01     0.467377     0.234265 -63.83  0.001840347    2.953    0.661
       270 -11.6027    105.2413     52.4333   2.7977929498e+01   5.0367025882e+01    0.3095961    0.2609016  44.86 0.0002511758    1.233    0.189
       271 -10.2428    105.9890     47.9425   2.6344202139e+01   5.0863628432e+01     0.337218    0.2263005 -84.39  0.001170922    1.921    0.480
       272 -11.7796     63.3115     39.2055   3.5798511310e+01   6.1786510124e+01    0.7469146    0.4802147 -14.11  0.003319838    2.314    0.568
       273 -10.5777     38.9134     50.7712   5.1544625198e+01   6.4446840132e+01    0.5773585    0.3228348 -33.05  0.002575828    2.118    0.528
       274 -11.7498     54.9762     49.3654   4.3309518556e+01   6.1813314887e+01    0.6695982    0.3613109  53.54  0.002890676    2.060    0.514
       275 -12.5600     44.5118     43.8569   4.5905785666e+01   6.4759629787e+01    0.5225736    0.4039575 -58.94 0.0003202156    1.646    0.393
       276  -9.2869    159.5316    249.5014   5.6870622340e+01   3.4160435764e+00    0.1209041   0.09137563  -3.38  0.000131999    1.018    0.018
       277 -10.3793    201.9279     49.0026   1.2603142301e+01   3.0348239296e+01    0.1681369     0.136849 -59.77 0.0003185665    1.043    0.041
       278 -10.8320    180.3005     47.1559   1.4329456095e+01   3.4679629798e+01    0.2226668     0.156804 -69.90 0.0001857771    1.299    0.230
       279  -9.3211    163.7304     48.3399   1.6535967533e+01   3.7898507526e+01    0.1308231   0.08087135 -63.78 0.0004114403    1.603    0.376
       280 -10.0966    247.8906     46.6881   8.7113954044e+00   2.3088054522e+01    0.2725728     0.165987 -29.46  0.001289978    1.851    0.460
       281 -12.1406    246.4990     37.1482   7.1382864863e+00   2.4377140989e+01    0.5420484    0.3055691 -36.14  0.002561627    1.599    0.374
       282 -10.3120    240.4968     34.4915   7.0152114536e+00   2.5586810370e+01    0.1894224    0.1118086 -51.78  0.001270053    1.216    0.178
       283 -10.8485    121.3655     46.8821   2.2756521242e+01   4.7462610239e+01    0.2951596    0.2175673  69.88 0.0009782071    1.264    0.209
       284 -10.5448    121.5917     42.7761   2.1468436850e+01   4.7971817217e+01    0.2797103    0.2141601 -83.47 0.0009975849    1.323    0.244
       285 -10.6470    118.6620     40.3032   2.1257625437e+01   4.8978597998e+01    0.2933724    0.2038822  74.57  0.001282295    1.361    0.265
       286  -9.7465    222.1828     45.8492   1.0309541231e+01   2.7216900498e+01    0.1294173    0.1152876 -49.72 0.0002818178    1.285    0.222
       287  -9.9696    237.2159     44.2788   8.9665531671e+00   2.4984080385e+01    0.1778856    0.1292667 -55.38 0.0008236665    1.002    0.002
       288 -11.2979    142.8587     43.2370   1.8068046165e+01   4.3078974606e+01    0.4518303    0.2956196  34.07  0.002271202    2.343    0.573
       289 -11.8213    108.7491     42.0623   2.3811438772e+01   5.1051211131e+01     0.381737    0.3112374  15.18  0.001574998    1.662    0.398
       290  -9.6012     92.0000     45.0218   2.8849304364e+01   5.4519281760e+01    0.3330473    0.1604901 -36.10 0.0006809199    2.294    0.564
       291 -10.1252     89.2382     41.4124   2.8309096331e+01   5.5675699436e+01    0.2660561    0.2136598  79.56 0.0007333207    1.291    0.226
       292 -10.9708     72.3039     43.5452   3.4294079331e+01   5.9176993704e+01    0.4652926    0.2435819  40.33  0.001060172    1.935    0.483
       293 -10.4683     68.4622     41.3697   3.4782295355e+01   6.0348574584e+01     0.281343    0.1701209  48.07  0.001368715    1.473    0.321
       294  -9.9292    126.9651     43.3264   2.0661097178e+01   4.6661423484e+01    0.2356295    0.1644247 -68.25 0.0005573442    1.514    0.339
       295  -9.8008    131.1003     42.3006   1.9652818291e+01   4.5851756003e+01    0.2156638    0.1754795 -31.76  0.001046582    1.409    0.290
       296 -10.5301     97.7449     41.1670   2.6030084927e+01   5.3739335939e+01    0.3683615    0.2686338  66.16  0.001311359    1.265    0.209
       297  -9.8146    102.9136     40.5651   2.4605968841e+01   5.2616688487e+01    0.2031384      0.17045  50.46 0.0003760299    1.194    0.163
       298 -11.2736    149.2872     40.3584   1.6385763240e+01   4.2027644067e+01    0.3019406    0.2005166 -58.70  0.001719136    1.430    0.301
       299 -10.4553    233.6356     39.5634   8.3432182803e+00   2.6090873570e+01    0.2233539    0.1202408 -80.95 0.0008998122    2.008    0.502
       300 -11.8539     84.1291     36.9815   2.8089038469e+01   5.7470189795e+01    0.6124882    0.4276395  21.91   0.00259187    1.983    0.496
       301  -9.2193    159.5085     38.4772   1.4602356724e+01   4.0049360869e+01    0.1207366    0.1081285 -82.51 -4.073406e-05    1.102    0.093
       302  -9.6828     19.5185     37.5108   5.7526982432e+01   6.9887286864e+01      0.25023    0.1423744 -24.47 0.0008713813    2.157    0.536
       303 -11.7614     27.7419     37.5601   5.2335407036e+01   6.8707413707e+01    0.2553226    0.2214112  12.03  0.000221282    1.019    0.019
       304 -11.0997     24.2027     34.7933   5.3287286344e+01   6.9740861163e+01    0.3270906    0.2617207 -18.13 0.0006496542    1.268    0.211
       305  -9.3732    136.4829     36.0324   1.7011243782e+01   4.5425539712e+01    0.1785346    0.1207435 -40.59 0.0005057105    1.506    0.336
       306  -9.0751    129.4670     35.5767   1.7956655336e+01   4.7083053429e+01    0.1288526    0.1134056  82.66 7.090248e-05    1.050    0.047
       307 -10.6352    110.7089     34.1737   2.0834028013e+01   5.1621550399e+01    0.2778365    0.1772195  56.25 0.0008247222    1.453    0.312
       308  -9.5598    122.9229     33.6598   1.8453633442e+01   4.8830215840e+01    0.1822697    0.1459324  79.18 0.0005138817    1.114    0.102
       309 -10.0352    100.9724     33.2425   2.2538187692e+01   5.4028415598e+01    0.3849834    0.2142549 -68.26  0.001412423    2.643    0.622
       310  -9.7754     92.5473     33.7046   2.4658133186e+01   5.5948883540e+01     0.278952    0.2107823   4.91 0.0009965738    1.883    0.469
       311  -9.7879     95.6877     31.3093   2.3045924669e+01   5.5513470138e+01    0.2227568    0.1254034  65.27  0.001076681    1.611    0.379
       312 -10.2210     34.2780     33.1787   4.6531505118e+01   6.8407052334e+01    0.2225762    0.1948654   7.56 0.0008732163    1.098    0.089
       313  -9.8940    118.6575     32.1617   1.8721125828e+01   5.0005603488e+01    0.3685202    0.1918698  36.28  0.001518347    3.152    0.683
       314 -10.5207     75.8577     33.1123   2.9020746696e+01   5.9887062737e+01    0.3420446    0.1837283  59.86  0.001424268    1.721    0.419
       315  -9.5943     83.7502    248.3839   7.3734603687e+01   1.1406028874e+01    0.1746042    0.1051708  13.45 0.0004514323    1.484    0.326
       316  -9.9795     12.0420     29.0328   5.9004492897e+01   7.2425248736e+01    0.2555614    0.1690555  12.62 0.0006230742    1.405    0.288
       317 -10.7044      1.7658     22.9992   6.4419871074e+01   7.4655202607e+01    0.3669424    0.1882158 -43.74  0.001587629    1.883    0.469
       318 -11.0170     72.8938    244.8892   7.6050090571e+01   1.3203356531e+01     0.317275    0.2436262  -4.77 0.0009829793    1.319    0.242
       319 -10.9275     12.9005     23.8258   5.5835561412e+01   7.3255577355e+01    0.5605772    0.2440974  15.68  0.001844604    3.194    0.687
       320 -12.4581     74.6775    240.0866   7.5147897076e+01   1.3978027943e+01    0.6403916    0.4952424 -45.96  0.003301447    1.453    0.312
       321  -9.6116    102.4719    243.9746   6.8774103733e+01   1.0269811556e+01    0.1706506     0.128243 -54.46  0.001025864    1.581    0.368
       322 -10.1640     45.2304    244.3892   8.2890594662e+01   1.6028321959e+01     0.230877    0.1364054  19.97 0.0005685764    1.461    0.315
       323  -9.9579     15.7445     32.0072   5.7684077546e+01   7.1414823949e+01    0.2427061    0.1705421  12.08 0.0008365628    1.321    0.243
       324 -10.2481     19.1614     30.8640   5.4785889260e+01   7.1169884519e+01    0.2323631    0.2010596 -18.45 0.0008252435    1.155    0.134
       325 -12.8668    231.7542     27.1425   6.1917178642e+00   2.7775228938e+01    0.3949943    0.2977999  85.01  0.002089114    1.427    0.299
       326  -9.5967      4.4702    243.9747   9.2905430955e+01   1.9566327555e+01    0.1604763    0.1158859  87.94 0.0004674468    1.501    0.334
       327 -10.9707     59.4308    241.5604   7.9108726975e+01   1.5235689815e+01    0.3959858    0.2244689 -20.18  0.001852942    2.398    0.583
       328 -10.0981    196.5114     31.5045   9.3925399984e+00   3.3443037229e+01    0.1494373    0.0969447  65.75 0.0009712872    1.695    0.410
       329 -11.0420    198.2972     28.2583   8.5727542218e+00   3.3474947439e+01    0.2664597    0.1675167 -84.73    0.0017508    1.494    0.331
       330 -10.3600    162.8866     29.1607   1.1900212124e+01   4.0435431162e+01    0.2551829     0.160216 -31.62  0.001081143    1.745    0.427
       331 -11.2350    115.6993     55.1980   2.6449770781e+01   4.7550614162e+01      0.27766    0.2275218  85.06 0.0007122076    1.221    0.181
       332 -10.0962     48.6872     29.0690   3.7358837821e+01   6.6330848639e+01    0.3396507    0.2110061  14.94  0.001365883    2.432    0.589
       333  -9.4521      2.7526     29.3920   6.6400185700e+01   7.3331288164e+01    0.2217531    0.1207884 -35.62 0.0007495319    1.777    0.437
       334 -10.6873     88.7192    241.2459   7.1790851162e+01   1.2262796322e+01    0.2441831    0.1875042 -26.52  0.001423409    1.381    0.276
       335 -11.4119    213.3275     27.1504   7.3040539088e+00   3.0878986872e+01    0.3137159    0.1644131 -34.19  0.001948618    1.843    0.458
       336  -9.3902    167.8616     29.1408   1.1389248886e+01   3.9391665896e+01    0.1476129    0.1381378  64.94 0.0004340348    1.337    0.252
       337  -8.7458    125.6961     29.3122   1.6685119462e+01   4.8704373708e+01    0.1340704   0.08744831 -70.67 0.0005078161    1.614    0.380
       338 -10.2277     80.0778     27.8010   2.5669193769e+01   5.9599221380e+01    0.3347374    0.2073692 -13.02  0.001600289    2.370    0.578
       339 -10.4025     11.4297    248.6476   9.1418578184e+01   1.8067968769e+01    0.4149394    0.1307777  41.82  0.001664137    2.370    0.578
       340  -9.7636    132.0184    241.4904   6.1661094985e+01   7.5529579666e+00    0.1771498   0.09214175  -1.93 0.0005128097    2.338    0.572
       341 -11.4491    111.9232     27.1775   1.8317130137e+01   5.2172891719e+01    0.3553112    0.2746364  54.55  0.002111491    1.289    0.224
       342 -10.9181     71.0034     26.6397   2.7869439069e+01   6.1827951009e+01    0.4017135    0.2788917 -76.68  0.002020168    2.040    0.510
       343  -9.4643    115.6631    240.8020   6.5297012681e+01   9.4368523420e+00    0.1569958    0.1232728 -64.29 0.0009086995    1.709    0.415
       344  -8.9752    187.7645     27.3662   9.1980874634e+00   3.5580068148e+01    0.1206062   0.06450814 -57.51 0.0005335458    1.598    0.374
       345 -10.6916    176.5909     26.4869   9.9442785432e+00   3.7895612473e+01    0.2595526    0.1532019 -55.74 0.0001230874    1.452    0.311
       346 -10.2691    119.4617     27.2423   1.7044754591e+01   5.0394705718e+01    0.2302011    0.1556426  69.85  0.000620858    1.310    0.236
       347  -9.8014     60.9445     26.8405   3.1366015324e+01   6.4048855460e+01    0.2108769    0.1664212  32.01  0.001213056    1.281    0.219
       348 -10.3465    219.0464     25.4671   6.6195271356e+00   3.0071730955e+01    0.1420667   0.09124196  87.44 0.0004060498    1.534    0.348
       349  -9.7861     90.5213     24.9735   2.1921261006e+01   5.7488178495e+01    0.2485374    0.1560245  56.94  0.001310443    1.387    0.279
       350 -10.1549    160.2357     21.5566   1.0276663843e+01   4.1839922033e+01    0.2573453    0.2089967  16.32  0.001530255    1.926    0.481
       351  -9.4637    156.5022     21.5482   1.0644889559e+01   4.2643464791e+01    0.1700016    0.1390399 -82.86 0.0008178428    1.038    0.036
       352  -9.2916    116.7676     23.4035   1.6270963887e+01   5.1454852034e+01    0.1708838    0.1051152  60.62 0.0002014641    1.472    0.321
       353 -11.8398     34.1007     22.7036   4.1444704659e+01   7.0072497391e+01    0.2472256    0.1898799  28.71 0.0002302402    1.154    0.133
       354 -10.2482    149.9735    240.0326   5.7573356548e+01   5.9085785325e+00    0.1504108    0.1174819   0.86 0.0003997296    1.024    0.023
       355 -10.3599    100.0428     21.4585   1.8600696446e+01   5.5622458912e+01    0.3695734    0.2039797  56.59   0.00187821    1.602    0.376
       356 -10.3607    196.0950    238.3453   4.8361804841e+01   1.6485239507e+00    0.2024777    0.1432509 -33.17 0.0009929365    1.356    0.262
       357  -8.7810     48.3283     22.2862   3.4258507326e+01   6.7336143709e+01    0.1360505   0.09125486  27.64 0.0007010121    1.612    0.379
       358  -9.1979     44.7274     19.6444   3.4533439483e+01   6.8419929432e+01    0.4897515    0.1995007  55.53  0.002013593    2.473    0.596
       359 -10.9136    229.8334     20.1391   5.0186762042e+00   2.8832159306e+01    0.2300004    0.1225554  65.68 0.0009367022    2.222    0.550
       360 -10.5103    193.0715     20.9477   7.4075966336e+00   3.5257278795e+01    0.1649897    0.1290627 -66.38 0.0003149368    1.020    0.020
       361 -10.2655      3.8361    238.3539   9.2850651882e+01   2.0799142851e+01    0.2116441    0.1695632 -81.46 0.0006688761    1.390    0.281
       362  -9.8920     59.3199     20.9378   2.9265314993e+01   6.5145947382e+01    0.1843405    0.1579075  39.58  0.001132875    1.100    0.091
       363 -10.2272    132.6384     20.5762   1.3110042118e+01   4.8069807715e+01    0.2364867    0.1011356  65.87 0.0008281814    2.037    0.509
       364  -9.3883     88.6732     19.9415   2.0439308216e+01   5.8484430837e+01    0.2403968     0.125462 -77.12 0.0009128639    3.435    0.709
       365 -11.3614     39.6087    236.7611   8.3767831328e+01   1.8151197509e+01    0.5078778    0.1946829  43.66  0.001842559    2.337    0.572
       366 -10.9874     34.7572    237.5946   8.5062718074e+01   1.8416774534e+01    0.3221136    0.1901546  33.75  0.001093267    1.396    0.284
       367 -11.1170     30.7673    234.0915   8.5856348993e+01   1.9527780178e+01    0.4325222    0.3118094  80.40  0.002060382    1.558    0.358
       368  -9.4838    210.7917     19.3605   5.9298945047e+00   3.2162421662e+01    0.1327573   0.08730277  72.41 0.0004210435    1.647    0.393
       369  -9.8112     66.7953    236.9295   7.6832812403e+01   1.5442505130e+01    0.3219542    0.1639874  17.91  0.001398928    1.775    0.436
       370 -10.2215     91.9011    235.8224   7.0413171832e+01   1.2986364918e+01     0.203695    0.1573797  -4.83 0.0004671005    1.257    0.205
       371 -10.0583    109.3180     16.8974   1.5359757439e+01   5.3895664021e+01    0.2418488    0.1541444  65.98 0.0007403482    1.352    0.260
       372  -8.9629     94.3708     17.2735   1.8216076483e+01   5.7410580596e+01    0.1356834   0.08484867  45.14 0.0007002346    1.679    0.404
       373 -11.1538    182.8194    234.3155   5.0208856290e+01   3.5042154151e+00    0.2524349    0.1758247  13.31 0.0008792291    1.294    0.227
       374  -9.6780    193.2535     16.3556   6.4180934496e+00   3.5703507715e+01    0.1827586     0.111709 -82.77  0.000901756    1.461    0.316
       375 -10.7175    160.9742    234.4618   5.4513444193e+01   5.6870513863e+00    0.2807423    0.1341599 -38.37  0.001471075    1.960    0.490
       376  -9.0516     99.2923     15.2964   1.6547173077e+01   5.6437447751e+01    0.1263236    0.0882892  44.02  0.000697926    1.559    0.359
       377 -10.1414     55.0049    231.9372   7.9413944233e+01   1.7698670564e+01    0.2713848    0.2079607  58.38  0.001574179    1.416    0.294
       378  -9.8490    248.4073    229.2396   3.8730718964e+01  -1.4868559398e+00    0.1346675   0.07624581 -39.87 0.0009472158    1.666    0.400
       379 -10.0682     59.0860    229.3456   7.8117619812e+01   1.7842443467e+01    0.1925912    0.1514789  26.90 0.0005785938    1.093    0.085
       380  -9.7714     39.5130    229.4738   8.3265318636e+01   1.9741027937e+01     0.243877   0.08855898  32.71  0.001019957    2.147    0.534
       381  -9.8236    192.5593    227.3264   4.7388667466e+01   3.6238236708e+00    0.2051473     0.116754  -1.81  0.001068443    1.790    0.441
       382  -9.9571      6.5018    225.5246   9.1658337573e+01   2.3413174226e+01    0.2100395    0.1762466  49.73 0.0006096262    1.060    0.056
       383  -9.9544      3.6758    225.6907   9.2393567750e+01   2.3584161724e+01    0.2398919    0.1514015 -53.51  0.001064894    1.848    0.459
       384  -9.9867    226.4766    224.5880   4.1296223783e+01   9.0350475678e-01    0.1804915    0.1495098 -57.24  0.001242054    2.237    0.553
       385 -10.3702     79.1289    223.4108   7.2261712983e+01   1.6965486138e+01     0.309151    0.2036174 -11.61   0.00113415    1.753    0.430
       386 -10.2820     16.0114    222.1908   8.9004775680e+01   2.3432202995e+01     0.206469    0.1851105  80.72 0.0004131375    1.176    0.150
       387  -8.9211    188.3201    221.2881   4.7254023267e+01   4.9823657318e+00    0.1222775    0.0734502 -12.58 0.0003696468    1.598    0.374
       388  -9.7958    126.1834    220.3298   6.0128651647e+01   1.2100850776e+01    0.2179969    0.1748535  75.02  0.001205101    2.029    0.507
       389 -10.8744     38.4967    217.2439   8.2596112983e+01   2.2599765906e+01    0.2639709     0.178154  34.96 0.0005633687    1.295    0.228
       390 -11.6240     48.2412    218.7187   8.0054703589e+01   2.1308572890e+01    0.7271172    0.2322759  21.85  0.002658408    2.771    0.639
       391  -9.3323    250.4560    219.4948   3.7041909483e+01  -3.9454807669e-01    0.1033315   0.07042099 -21.98 0.0008089558    1.017    0.017
       392  -9.6873    212.3468    219.1454   4.2740947202e+01   2.9476202129e+00    0.1669895    0.1206544  16.99  0.001193233    1.436    0.304
       393  -9.2735    198.4614    219.4675   4.5153420024e+01   4.2423517112e+00    0.1160949   0.08947058 -14.97 0.0001249419    1.034    0.033
       394 -10.6034     12.9982    216.9534   8.9527052168e+01   2.4879486138e+01    0.2706017    0.1805336  -0.04  0.001095925    1.682    0.405
       395 -11.9100     11.2922    208.9681   8.9560067519e+01   2.6897959184e+01    0.3913686    0.3149492  32.71  0.001398234    1.118    0.106
       396 -11.6243      4.9218    210.0337   9.1371279049e+01   2.7115981024e+01    0.3992032    0.2706506  66.76  0.001319339    1.438    0.304
       397 -11.3838      4.7596    204.6509   9.1155256042e+01   2.8420343637e+01    0.4441839    0.3020945 -31.11  0.002349781    1.778    0.438
       398  -9.3815    135.6616    216.6952   5.7406625226e+01   1.1666576863e+01    0.1393894   0.08904891 -12.29 0.0007040155    1.674    0.403
       399 -10.1454     23.9539    215.9879   8.6492398184e+01   2.4206876060e+01    0.1986218    0.1722732  41.56            0    1.033    0.032
       400  -9.5111     66.2859    214.6252   7.4721321432e+01   2.0335513326e+01    0.1445835   0.09626132  55.59 0.0007017289    1.717    0.418
       401 -10.1208     30.5601    214.2031   8.4549819036e+01   2.4044365360e+01    0.1784279    0.1217581 -57.52 0.0005394095    1.601    0.375
       402  -9.5007    169.6817    213.6506   4.9651651284e+01   8.2415916569e+00    0.1342576   0.08022519 -15.39   0.00070481    1.735    0.424
