#   1 NUMBER                 Running object number                                     
#   2 MAG_AUTO               Kron-like elliptical aperture magnitude                    [mag]
#   3 X_IMAGE                Object position along x                                    [pixel]
#   4 Y_IMAGE                Object position along y                                    [pixel]
#   5 X_WORLD                Barycenter position along world x axis                     [deg]
#   6 Y_WORLD                Barycenter position along world y axis                     [deg]
#   7 A_WORLD                Profile RMS along major axis (world units)                 [deg]
#   8 B_WORLD                Profile RMS along minor axis (world units)                 [deg]
#   9 THETA_WORLD            Position angle (CCW/world-x)                               [deg]
#  10 FWHM_WORLD             FWHM assuming a gaussian core                              [deg]
#  11 ELONGATION             A_IMAGE/B_IMAGE                                           
#  12 ELLIPTICITY            1 - B_IMAGE/A_IMAGE                                       
         1 -12.8383    189.9656     18.9557   6.6771485532e+01   3.5551212144e+01     0.333207    0.2868049  21.20  0.001146232    1.482    0.325
         2 -12.9631    239.2812      4.0877   5.8239049756e+01   2.5622440103e+01    0.3408876     0.137099 -64.29  0.001463438    2.807    0.644
         3 -15.0808    180.9885    180.7488   1.0886120614e+02   8.7720876350e+00     2.594736     1.610656 -88.19  0.008147531    4.619    0.784
         4 -14.7076     82.1793    247.4737   1.3877886566e+02   1.3287374234e+01     1.339011    0.5671986  48.71    0.0069127    1.920    0.479
         5 -13.4839    116.2114    245.4245   1.3238219377e+02   8.3673684570e+00     0.857587    0.4647606  71.63  0.004049459    2.520    0.603
         6 -14.5897    126.8613    239.3367   1.2963371102e+02   7.6881128035e+00      1.21348    0.9299582  45.83  0.006243151    1.170    0.145
         7 -13.3919    101.3012    249.6943   1.3558615235e+02   9.9861513884e+00    0.9361563    0.2501421  48.16    0.0037268    3.035    0.671
         8 -14.7842    102.6595    232.4622   1.3341504060e+02   1.2959711566e+01     1.418526    0.9299475 -86.73  0.006742138    1.685    0.407
         9 -14.6162     80.5149    237.3557   1.3808913269e+02   1.5430422511e+01     1.113345     0.404774  54.65   0.00492538    2.575    0.612
        10 -12.0776     63.9566    250.4077   1.4219721620e+02   1.5334548613e+01    0.3160506     0.103848  38.54  0.001391033    3.238    0.691
        11 -19.3134     21.3364    135.8879   1.3895419826e+02   4.4875248235e+01     19.01153     1.293439 -67.97   0.03405789   14.263    0.930
        12 -14.3659    156.5407    179.9123   1.1396809605e+02   1.3904604276e+01     1.533313     1.160167 -77.07  0.007432172    1.638    0.390
        13 -15.1539    147.9136    169.4594   1.1383015547e+02   1.7894769219e+01     1.823712     1.056244  52.42  0.007769959    1.776    0.437
        14 -15.1309    179.9053    213.9022   1.1529990835e+02   2.7519801354e+00      2.22466     1.579022  84.48   0.01050258    2.391    0.582
        15 -14.8840    179.9662    196.2457   1.1209479584e+02   5.9742520596e+00     2.225824     1.403786  72.48  0.008913917    2.854    0.650
        16 -13.2210    194.4427    231.2088   1.1538148552e+02  -2.7544656640e+00     1.345537    0.7079155 -39.35  0.006707228    2.156    0.536
        17 -12.3499    175.6789    232.4740   1.1920673904e+02   3.4739515225e-01    0.5846306    0.3467704  47.91  0.003041534    1.539    0.350
        18 -12.3116    235.8472    229.1232   1.0730324582e+02  -9.3698885994e+00    0.4071117    0.2786192  56.21  0.002231449    2.172    0.540
        19 -11.8225     61.3180    228.4903   1.4073690367e+02   1.9886846827e+01    0.2439897    0.1966027 -33.43  0.001516795    2.230    0.552
        20 -12.8113    133.3935    224.7798   1.2639785270e+02   9.2457148012e+00    0.6064028    0.3199047 -63.67  0.002839337    2.317    0.568
        21 -11.5709    127.0985    203.5172   1.2452146128e+02   1.4588126849e+01    0.3104882    0.2564754  30.55  0.001407036    1.385    0.278
        22 -12.6720    132.9640    216.8232   1.2532854112e+02   1.0851900484e+01    0.5234168    0.2953308  36.26  0.001976529    1.834    0.455
        23 -12.7136    127.0016    216.5000   1.2649927039e+02   1.1973762112e+01    0.4433975    0.3858936 -82.28  0.001948791    1.183    0.155
        24 -12.8922    128.6247    210.3776   1.2525690397e+02   1.2909150775e+01    0.5968731    0.4684912 -79.65  0.002651176    1.374    0.272
        25 -14.8864     90.0472    240.5841   1.3667589196e+02   1.3389405941e+01     1.377479     0.407396  48.07  0.005742445    2.779    0.640
        26 -13.0675    247.1263    220.2727   1.0369454595e+02  -9.9105561381e+00    0.5802011    0.5391648 -20.36  0.004025494    1.325    0.245
        27 -12.3605      5.3733    217.6598   1.4970322337e+02   2.8554032007e+01    0.1792766     0.123342  46.51 0.0005844436    1.590    0.371
        28 -12.8405     64.1347    212.5600   1.3862905662e+02   2.2766656648e+01     0.348529    0.2990677 -70.90  0.001277139    1.323    0.244
        29 -12.0789     53.2768    209.0412   1.4037392724e+02   2.4957969886e+01    0.1769335    0.1325604 -88.46 0.0005272594    1.114    0.103
        30 -11.6571    243.5165    203.7098   1.0122853050e+02  -6.9250190068e+00    0.3430331    0.2077255 -53.15  0.001639972    2.515    0.602
        31 -11.9852     48.8321    204.8586   1.4082050403e+02   2.6414573697e+01     0.178121    0.1180448  74.31 0.0005074044    1.320    0.242
        32 -13.8922    155.1379    212.0895   1.2003347776e+02   7.7109310291e+00     1.081069      0.80556  79.35  0.004989584    1.708    0.415
        33 -15.8658    150.4036    153.0696   1.0981039521e+02   2.0995845587e+01     2.181142     1.571412  65.99  0.009890932    1.619    0.382
        34 -15.4818    122.4500    166.4263   1.1913691994e+02   2.3581690625e+01     2.596305     1.700554 -89.47    0.0104923    2.195    0.544
        35 -13.5809    201.1404    182.1162   1.0498847738e+02   4.4572037605e+00     0.579118    0.5095106  63.48  0.002328951    1.302    0.232
        36 -13.1770    195.4964    178.4829   1.0538707992e+02   6.2717940000e+00    0.8520998    0.4839127 -33.87  0.003386401    1.933    0.483
        37 -10.9555     63.2119    185.6373   1.3572284116e+02   2.8779104586e+01    0.1677008    0.1245518  29.10 0.0009523925    1.755    0.430
        38 -12.8025    102.7795    179.8950   1.2609163327e+02   2.4036699893e+01    0.7592463    0.5430338  30.65  0.002840281    1.689    0.408
        39 -13.7062    108.9264    172.8288   1.2348146096e+02   2.4585916127e+01       1.2014    0.7023169  75.79  0.004709734    2.671    0.626
        40 -13.2504     99.7903    161.4082   1.2361425823e+02   2.8823649280e+01    0.7145852    0.4398794  81.59  0.002954303    2.395    0.582
        41 -13.5064    213.9089    173.1040   1.0058906596e+02   3.5925134723e+00    0.5272124    0.3788241 -65.38   0.00248417    1.974    0.493
        42 -13.7330    227.4474    170.2743   9.7413067164e+01   1.4589375005e+00    0.5628048    0.3560221 -45.75  0.002712029    1.641    0.391
        43 -10.3478     93.5183    167.4391   1.2617217275e+02   2.8458357758e+01    0.1420525    0.1273015  89.60 0.0001095735    1.009    0.008
        44 -12.3655     82.3296    162.7328   1.2805081797e+02   3.1332226089e+01    0.3841351    0.2252977 -43.09  0.001038532    2.059    0.514
        45 -14.0590    219.8287    159.3536   9.6493270341e+01   4.9462662190e+00    0.8366209     0.477675 -61.63  0.003150319    2.956    0.662
        46 -11.3834      5.9603    160.9819   1.4528599368e+02   4.0481464738e+01    0.1744269     0.132745 -86.14 0.0004184811    1.033    0.032
        47 -13.3719    189.7962    154.2577   1.0135287216e+02   1.2250799117e+01    0.7260059    0.5632245  70.47  0.003460617    1.573    0.364
        48 -14.0173    181.4525    146.0713   1.0125944642e+02   1.5759037398e+01     1.207226    0.8767863 -40.28  0.005645941    1.381    0.276
        49 -14.0302     92.4570    148.3306   1.2298922187e+02   3.3135298056e+01     0.697532    0.4494233  14.16  0.002922297    2.690    0.628
        50 -12.0299     97.6045    143.7841   1.2078798778e+02   3.3351418937e+01    0.2529922    0.2330454  -1.66 0.0006107322    1.326    0.246
        51 -13.0803     74.3596    153.8313   1.2850329788e+02   3.4618611600e+01    0.4860641    0.3775932  60.82  0.002213805    1.329    0.247
        52 -13.9594     83.5820    152.6509   1.2601326068e+02   3.3522821742e+01    0.7440187    0.4401813  51.25  0.003515847    1.799    0.444
        53 -12.5090    228.9108    152.4126   9.3277163910e+01   4.3911357741e+00    0.3504572    0.2880089  77.34  0.001831158    1.595    0.373
        54 -14.9164    128.1965    186.9070   1.2154750562e+02   1.7921120319e+01     1.637352     1.078374  62.78  0.006558595    1.656    0.396
        55 -12.7833    244.2417    137.2404   8.7238275308e+01   4.0620774705e+00    0.5039835    0.2417959 -43.11  0.002139998    1.928    0.481
        56 -13.5156    140.3909    187.5959   1.1896830803e+02   1.5459814565e+01     1.002399    0.5927387 -64.92  0.004380206    2.034    0.508
        57 -13.0777     68.8045    143.1114   1.2805025187e+02   3.7942482427e+01    0.4914349    0.2953244  78.90  0.002148992    2.401    0.584
        58 -12.3751    248.7019    125.5382   8.3912870996e+01   5.2405138510e+00    0.6107466    0.2486036 -45.15   0.00238712    2.310    0.567
        59 -13.5434    246.7974     99.8654   7.8432780831e+01   1.0107688691e+01    0.9116024    0.6186545 -49.32  0.004664598    1.350    0.259
        60 -13.4358    248.9862     73.2435   7.2145148403e+01   1.4057504271e+01    0.8467138    0.2670694 -39.20  0.003126086    2.768    0.639
        61 -12.8625    249.6122     24.5073   6.1553934907e+01   2.0927235897e+01    0.3436356    0.1110294 -34.81  0.001402419    3.037    0.671
        62 -14.8443    198.6769    201.9669   1.0937936636e+02   1.3387129367e+00      2.93401      1.28139 -57.13  0.009264041    4.807    0.792
