#   1 NUMBER                 Running object number                                     
#   2 MAG_AUTO               Kron-like elliptical aperture magnitude                    [mag]
#   3 X_IMAGE                Object position along x                                    [pixel]
#   4 Y_IMAGE                Object position along y                                    [pixel]
#   5 X_WORLD                Barycenter position along world x axis                     [deg]
#   6 Y_WORLD                Barycenter position along world y axis                     [deg]
#   7 A_WORLD                Profile RMS along major axis (world units)                 [deg]
#   8 B_WORLD                Profile RMS along minor axis (world units)                 [deg]
#   9 THETA_WORLD            Position angle (CCW/world-x)                               [deg]
#  10 FWHM_WORLD             FWHM assuming a gaussian core                              [deg]
#  11 ELONGATION             A_IMAGE/B_IMAGE                                           
#  12 ELLIPTICITY            1 - B_IMAGE/A_IMAGE                                       
         1 -10.9653     39.4968      8.0648   5.5040332772e+01   7.2061697306e+01    0.5343442     0.235784 -38.04  0.002404048    2.172    0.540
         2 -13.2341     44.6786     23.3943   6.0660006129e+01   6.8748338644e+01     1.088318    0.7919694 -56.69  0.005976903    1.739    0.425
         3 -12.2261    178.5015     23.9216   2.3383462849e+01   3.6830033094e+01      0.53537    0.4372283  58.01  0.002889553    1.230    0.187
         4 -11.8058     77.9987     13.8343   4.0859162768e+01   6.3976749936e+01     0.492641    0.2781598 -13.73  0.002209338    2.100    0.524
         5 -11.0235     75.8779     24.8896   4.7208618891e+01   6.2893008902e+01     0.345054     0.211615 -22.82  0.001622912    1.758    0.431
         6 -10.3407    116.0543     16.3984   3.1275922663e+01   5.4441690278e+01    0.4029754    0.1313653 -41.06  0.001319941    3.439    0.709
         7 -12.4703    156.2745     11.8161   2.2380911257e+01   4.4110998333e+01      0.63918    0.5021673  89.87  0.003376162    1.239    0.193
         8 -13.2813    164.5259     11.8523   2.1302885782e+01   4.1871119734e+01     1.259302    0.4778413  65.15  0.004818288    2.298    0.565
         9 -12.5785    158.6287      3.5788   1.9257111978e+01   4.4247470789e+01     1.070606    0.3852657  63.77  0.004092379    2.341    0.573
        10 -13.4197    169.6625      2.5321   1.7671098973e+01   4.1366688955e+01     2.126951    0.8739476 -89.35  0.007602952    2.973    0.664
        11 -10.0923     20.6892     14.6894   7.0661862383e+01   7.3317915129e+01    0.2575169    0.1521594 -22.50  0.001392387    1.763    0.433
        12 -11.8610    144.1024      3.9135   2.1261353524e+01   4.8163530273e+01    0.6794606    0.4337021 -84.90  0.003190354    1.687    0.407
        13 -10.5334     71.3220      5.7482   3.8888509745e+01   6.6399602083e+01    0.4527833    0.2112538  56.57  0.001984046    2.139    0.532
        14 -11.2691    208.4919      4.4798   1.4757823426e+01   3.1161073771e+01    0.4961364    0.2190922  88.74  0.002092035    2.422    0.587
        15 -11.2214    131.2405      3.7666   2.3148680501e+01   5.1660907046e+01    0.7449638     0.212221  55.94  0.002572137    2.785    0.641
        16 -10.9629    121.3022      4.3594   2.5109071649e+01   5.4270070851e+01    0.4623372    0.3944151  86.38  0.002582041    1.191    0.160
        17 -10.4008    106.4912      5.0022   2.8399132571e+01   5.8083644586e+01    0.3129255    0.1793447 -89.54  0.001279772    2.480    0.597
        18 -11.3861     85.7816      3.8011   3.3104233790e+01   6.3319758964e+01    0.4968961    0.3478966  56.37  0.001563279    1.328    0.247
        19 -11.0187     79.1777      3.1782   3.4784278388e+01   6.4921302837e+01    0.3192322    0.2613025  67.59  0.001512454    1.345    0.256
        20 -10.3134     61.8618      2.0990   4.0407631958e+01   6.8800695147e+01    0.4143838    0.1560755  38.71  0.001632662    2.718    0.632
        21  -9.7360    217.9572      2.0000   1.3429042335e+01   2.9104736808e+01    0.2042766   0.06904441  77.25 0.0007936995    2.882    0.653
        22 -10.2137     26.4980    180.5160   9.8596869330e+01   3.4509959814e+01    0.1211002   0.09403333  66.06 0.0001282573    1.014    0.014
        23 -10.5107    101.0234    175.9415   8.0128502834e+01   2.5766578846e+01    0.1916894    0.1667427  51.40  0.001150751    1.007    0.006
        24 -10.2065    220.3296    172.3253   5.4031587660e+01   5.4148915666e+00    0.1353777   0.08674482   8.17 0.0007050412    1.702    0.413
        25 -10.3358    172.1115    163.3790   6.1590601390e+01   1.5428337211e+01    0.2973534    0.1875838  48.03  0.001356714    1.589    0.370
        26 -11.3336    172.9955    159.0103   6.0542290567e+01   1.6014937063e+01    0.3253772    0.2212279  -2.34  0.001518997    2.008    0.502
        27 -10.3229     14.6932    160.1566   1.0018797358e+02   4.0025443618e+01    0.2011266    0.1203415  73.81  0.001181623    1.434    0.303
        28 -11.4157    219.2474    155.8170   5.0965474244e+01   7.9180106943e+00    0.4461052    0.3103505  50.39  0.002450708    1.691    0.409
        29 -10.0529     20.6585    155.7689   9.8383569464e+01   4.0494417886e+01    0.1638258    0.1430442  67.68 0.0009490952    1.111    0.100
        30 -11.0548    163.2614    151.1260   6.1045376833e+01   1.9323163616e+01    0.4659621    0.3228681 -26.18  0.002273669    1.668    0.401
        31 -10.1669     53.5141    143.5302   8.8237044487e+01   3.9884372774e+01    0.2457134    0.2131595  79.18  0.001110989    1.027    0.026
        32  -9.7965    173.4996    144.5228   5.7428339915e+01   1.8468990042e+01    0.1446845    0.1332712  21.98 0.0002560224    1.005    0.005
        33 -12.6534     10.0963    140.7631   1.0016458917e+02   4.4802167345e+01    0.4941161    0.4250124  23.41  0.003432427    1.415    0.293
        34 -10.0129     39.6752    140.8381   9.1866706664e+01   4.2114028620e+01    0.2741727   0.09124745 -63.90  0.001106242    2.655    0.623
        35 -10.1520    221.0037    137.0043   4.6701106827e+01   1.0347259715e+01    0.2162261     0.188736  -0.11  0.001311631    1.020    0.020
        36 -10.0259    165.1667    135.0270   5.7144788177e+01   2.1923782894e+01    0.2708543    0.2134681 -64.10  0.001313426    1.610    0.379
        37 -13.5271    241.1355    124.9186   4.0861742778e+01   8.3696074055e+00     1.227193    0.9971687  55.27  0.007486335    1.512    0.339
        38 -13.6885    245.0222    110.0304   3.7012992121e+01   9.7091914547e+00     1.400968     1.002705 -48.07  0.007925037    1.558    0.358
        39 -10.7505      4.7442    124.8718   1.0061086984e+02   4.8891853132e+01    0.2520093    0.1117629  52.30    0.0012571    2.136    0.532
        40  -9.6975    208.5643    123.3159   4.5784095297e+01   1.4875452078e+01    0.2424167     0.159298  26.82 0.0007873815    1.713    0.416
        41 -11.7451    189.0726    116.2647   4.7722617849e+01   2.0155436934e+01    0.7888041    0.4500938  -9.76  0.002830236    3.122    0.680
        42 -10.1974    154.9445    120.3205   5.6021177765e+01   2.6944379690e+01    0.2248333    0.1993862  38.59  0.001170593    1.087    0.080
        43  -9.8853      2.6425    116.3068   1.0064107716e+02   5.1050038720e+01    0.1312583   0.07258831  60.55 0.0004128118    1.726    0.421
        44 -11.1450    212.6283    112.9708   4.2654257093e+01   1.5661413736e+01    0.5121409    0.3035568 -32.63  0.002433197    1.598    0.374
        45  -9.8558    224.6243    112.1747   4.0513124127e+01   1.3335042390e+01     0.344216    0.1246943 -34.14  0.001323699    2.513    0.602
        46 -11.4704    222.8375    107.0779   3.9597444620e+01   1.4454216744e+01     0.491838    0.3104306  41.30  0.001915784    1.678    0.404
        47 -10.3678    148.6337    110.9764   5.5182235707e+01   3.0201102471e+01    0.3670732    0.1835184 -47.37  0.001287094    2.132    0.531
        48 -11.0213     17.5294    104.0379   9.4635809990e+01   5.3050017549e+01    0.3451398    0.2383357  56.37  0.002007068    1.473    0.321
        49 -10.8370     18.0392    127.6925   9.6882702379e+01   4.7272956080e+01    0.1746327    0.1530006  70.30 0.0009818989    1.093    0.085
        50 -10.1974    155.9971    108.5054   5.2798853720e+01   2.9015053632e+01    0.2411163    0.1493757  48.56  0.001029353    1.580    0.367
        51 -10.2992     30.4658    102.1832   8.9875408304e+01   5.2454205356e+01     0.264331     0.189175 -40.04  0.001466959    1.567    0.362
        52 -12.2396     11.1411    123.5630   9.8602266293e+01   4.8775453418e+01     0.448248    0.2296659  84.12  0.002290455    1.821    0.451
        53  -9.5675    208.8466     94.1772   3.8678596455e+01   1.9401041532e+01    0.1988143    0.1656888   6.80 0.0006058761    1.318    0.241
        54 -10.1864    178.7361     92.5758   4.3658541442e+01   2.6612973420e+01    0.3090542    0.2493561 -54.11  0.001534814    1.339    0.253
        55 -10.6616     12.8066     90.0702   9.4639072541e+01   5.6786478009e+01    0.2009636    0.1540269  77.17   0.00103061    1.275    0.215
        56 -12.6783      5.1382     76.5042   9.5903966603e+01   6.0503840755e+01    0.7296352     0.439909  71.29  0.003880982    1.802    0.445
        57 -13.2115     15.0346     73.4747   9.1334897541e+01   6.0684324062e+01    0.9236774    0.5966254  39.13  0.005248085    1.733    0.423
        58 -11.0027      2.3367     88.4038   9.8356981942e+01   5.7767766396e+01    0.4006329    0.2138877  90.00  0.002116833    1.705    0.413
        59 -10.5606      2.5060     83.0702   9.7730053338e+01   5.9045823937e+01     0.298954    0.1773938 -73.53  0.001096314    1.374    0.272
        60 -10.6307    192.5352     86.9174   3.9557853005e+01   2.4288558308e+01    0.5306037     0.273852  59.31  0.002159651    2.095    0.523
        61 -12.8328     42.9743     80.5038   8.1141149049e+01   5.6534707622e+01     1.059311     0.768293 -23.32  0.005407973    1.665    0.399
        62  -9.9017    100.5039     83.9330   6.1044400597e+01   4.6485719708e+01    0.2391175    0.1503768 -47.25 0.0009758322    1.592    0.372
        63  -9.6698    145.4826     80.9949   4.7574537314e+01   3.6797328003e+01    0.2964611    0.1609619  44.82  0.001157767    1.852    0.460
        64 -10.1449    215.0272     79.5756   3.4009003124e+01   2.0227836434e+01    0.2936797    0.1788723 -46.84  0.001373406    1.659    0.397
        65 -10.0822    220.9730     77.9247   3.2739701192e+01   1.9141190791e+01    0.3253035    0.1956253 -70.16  0.001352765    2.641    0.621
        66 -10.3347    169.5980     76.5528   4.0962287637e+01   3.1595548245e+01    0.2981932    0.2766509 -74.55  0.001356494    1.132    0.116
        67 -10.5468     75.1576     69.1647   6.5279408464e+01   5.4584118370e+01    0.4337946    0.3219868  -0.98  0.002048971    1.803    0.445
        68 -11.9794    214.6664     67.1674   3.0853014865e+01   2.2102787118e+01    0.4215313    0.2948879 -25.12  0.002138391    1.422    0.297
        69  -9.7126     83.4856     69.0704   6.2167019372e+01   5.3089617356e+01    0.2340435    0.1437012 -46.83   0.00103539    1.599    0.374
        70 -11.1960     25.4847     65.2689   8.5146014560e+01   6.1900018891e+01    0.4307874    0.2326664 -64.23  0.001867856    1.606    0.377
        71  -9.8231    178.9706     66.4818   3.6242968136e+01   3.0881855990e+01    0.2345548    0.1486619  60.77  0.001033655    1.596    0.374
        72 -11.4141    232.9513     64.1402   2.7759494825e+01   1.8424488223e+01    0.3065833    0.2597698  31.83  0.001809306    1.369    0.270
        73  -9.9515    200.2054     63.8003   3.2017934089e+01   2.6013846668e+01    0.1976096     0.172106  16.22 0.0008654125    1.314    0.239
        74 -11.3694    209.8267     60.3758   2.9719408080e+01   2.4191277523e+01    0.5106593    0.2056193 -39.82   0.00199478    2.250    0.556
        75  -9.4679    132.4686     63.5010   4.5213508254e+01   4.3238096246e+01    0.1547854    0.1516403  60.84 0.0001122381    1.012    0.012
        76 -10.5025    218.8263     61.8809   2.8927060211e+01   2.1881722288e+01    0.2139011    0.1910568   3.38  0.001234299    1.255    0.203
        77 -10.8296    226.2083     58.1823   2.7069128502e+01   2.0704100510e+01    0.3287706    0.1086465  50.56  0.001184505    3.346    0.701
        78  -9.3171     76.3278     59.3261   6.1501570526e+01   5.6498250571e+01    0.1513584    0.1133303  -7.92 0.0007050154    1.700    0.412
        79 -12.0554    215.2180     51.0952   2.6556897493e+01   2.4174739351e+01    0.4343449    0.3399706   1.80  0.002080365    1.582    0.368
        80  -9.6233    138.1769     56.0198   4.1275567054e+01   4.3082529616e+01    0.2396593      0.16554  36.46 0.0009129894    1.595    0.373
        81 -10.1431    164.7448     53.6317   3.4917003381e+01   3.6532800360e+01    0.2796911    0.1981186 -13.90  0.001257426    1.697    0.411
        82 -10.2184     34.7571     52.5695   7.7427632793e+01   6.3999261247e+01    0.2343438    0.1321273  17.06  0.001132149    2.084    0.520
        83 -11.0090     85.0505     47.8555   5.3885531317e+01   5.7081981787e+01    0.4873146    0.3563199  51.41   0.00240698    1.443    0.307
        84 -11.5937     81.5474     39.6172   5.1777223861e+01   5.9299939464e+01     0.736701    0.3849102 -43.00  0.003146142    1.967    0.492
        85 -11.3067    198.1809     53.1006   2.9337698726e+01   2.8032408675e+01    0.5923927    0.3641481  -7.93  0.002500945    2.278    0.561
        86 -10.8341    197.0055     43.7315   2.6849693646e+01   2.9591115039e+01    0.2066811    0.1871374  80.09 0.0009402128    1.101    0.091
        87  -9.7421    242.2407     43.0275   2.1637797932e+01   1.9099468513e+01    0.1774477   0.09864968 -29.90 0.0008851617    1.618    0.382
        88 -11.6518      3.2349     41.0599   9.0809449430e+01   6.8922734593e+01     0.461893    0.3608269  83.56     0.002707    1.445    0.308
        89 -11.8187    183.0000     40.3581   2.7798130612e+01   3.3623002586e+01    0.5603343    0.4296391  84.41  0.002842413    1.345    0.256
        90 -10.2261    223.5067     40.5128   2.2860087171e+01   2.3583432764e+01    0.1360578    0.1216101 -53.37 0.0008105179    1.003    0.003
        91 -11.8410    191.0849     37.3303   2.5784486961e+01   3.1922565295e+01    0.4878569    0.2358385 -46.93   0.00200041    2.070    0.517
        92 -10.7468      5.9823     35.2088   8.7820407085e+01   7.0112685983e+01    0.2771625    0.1749743  35.70  0.001625597    1.919    0.479
        93 -10.9439    198.1140     34.6601   2.4128765056e+01   3.0465255891e+01    0.2666376    0.1822035 -44.15  0.001335677    1.382    0.277
        94 -10.1832     90.0574     27.9849   4.3613997610e+01   5.9335539178e+01    0.3328526    0.2472193  17.93  0.001658388    1.506    0.336
        95 -11.0990    159.3391    231.9001   7.5120900879e+01   6.9074569860e+00    0.2174432    0.1313155  41.40 0.0008408912    1.360    0.265
        96 -11.9826     40.2141     29.4665   6.5947518397e+01   6.8245201312e+01    0.5590743     0.300935 -46.85  0.002764933    1.726    0.421
        97 -11.0386      3.4408    230.4263   1.0544780389e+02   2.7053970995e+01    0.2264488    0.1087377  56.81  0.001532247    1.438    0.305
        98  -9.8952     67.3589     28.8121   5.2537411745e+01   6.3965273163e+01    0.1998947     0.124153 -26.50 0.0009476257    1.685    0.407
        99 -10.3164    144.7575     27.5028   2.9782993924e+01   4.5489651953e+01    0.3973676    0.2340424 -66.59  0.001585608    2.290    0.563
       100 -11.6869    240.7744    229.3400   6.0325259776e+01  -4.3099716667e+00    0.3835475    0.1495345  35.07  0.002116708    2.116    0.527
       101 -11.5156    173.4528     20.7688   2.3046158431e+01   3.8529359893e+01    0.4646119    0.2567897  61.31  0.001722121    1.692    0.409
       102 -10.3771    168.5162     26.5238   2.5569142860e+01   3.9192190567e+01    0.1467337    0.1371875 -89.66 5.902918e-05    1.003    0.003
       103  -9.1257    102.6877     26.3007   3.8973646204e+01   5.6591425513e+01    0.1441251    0.1146498 -71.61 0.0006694419    1.608    0.378
       104 -11.4786    248.7040    224.7544   5.8358629344e+01  -4.8621712988e+00    0.4192126    0.2554702 -21.81  0.002911928    1.607    0.378
       105 -10.2619     31.9341    227.4572   9.9996540829e+01   2.4800829589e+01    0.1639948   0.08502655  37.96 0.0007125285    1.576    0.366
       106  -9.7311    224.3906     23.1558   1.8331970852e+01   2.5408448955e+01    0.2000251    0.1004644 -40.33 0.0009454454    1.720    0.419
       107 -10.4139    187.2750     19.2620   2.0913735135e+01   3.5042003149e+01     0.278732    0.2291992 -88.34  0.001400852    1.153    0.133
       108 -10.5812    128.5367     18.3901   2.9442644849e+01   5.0925899539e+01    0.3052434    0.2705567  80.81  0.001052349    1.128    0.114
       109 -12.6932    209.6405    216.0418   6.3521220667e+01   1.4347689357e+00    0.6273798    0.5273753  21.41  0.004527022    1.209    0.173
       110  -9.9025     94.2199     17.0705   3.7224006574e+01   5.9838835349e+01    0.2696415    0.1886745 -86.81  0.001227293    2.137    0.532
       111 -10.1789    228.3933     15.6555   1.6119261023e+01   2.5291391145e+01     0.218291    0.1247266 -56.25  0.001112029    1.619    0.382
       112 -11.3357    158.5090    225.4137   7.4437637960e+01   7.9354917128e+00    0.1972162      0.18232 -11.86 0.0009788531    1.303    0.233
       113 -13.6923    184.0141    217.1204   6.8375449366e+01   5.1589741358e+00    0.7559906    0.4952302  13.58  0.004487701    1.572    0.364
       114 -10.6808     77.3549    220.1098   9.0372307844e+01   2.0698878251e+01    0.3036347    0.1532508  28.99  0.001575902    2.069    0.517
       115 -11.2584     50.5129    217.9693   9.5761585711e+01   2.4447562633e+01    0.2941974    0.2389717  33.48  0.002110165    1.372    0.271
       116 -10.0070    129.6641     12.6661   2.6952622699e+01   5.1239840745e+01    0.2414223    0.1528154  36.06  0.001032523    1.724    0.420
       117 -10.3697     67.0146    217.0154   9.2273086660e+01   2.2602738738e+01    0.2074483    0.1081614  59.17  0.001147828    1.751    0.429
       118 -10.2271    141.2174    206.5138   7.5363951856e+01   1.3542126310e+01    0.2147659    0.1872279 -46.34  0.001411422    1.403    0.287
       119  -9.7734    123.9669    205.9700   7.8950512839e+01   1.6394489756e+01    0.1778802    0.1469469  41.47  0.001132169    1.013    0.013
       120 -11.7388    243.9326    201.5587   5.5339385172e+01  -1.7929405569e+00    0.4811889    0.3590035 -23.92  0.003374523    1.438    0.305
       121 -10.1620     80.3437    199.6864   8.7828915756e+01   2.4095160527e+01    0.1363776   0.07767526  59.60 0.0007047129    1.708    0.415
       122 -10.1660    202.7051    197.0154   6.1672489452e+01   4.9286773920e+00    0.2112011    0.1708178 -23.83  0.001378157    1.345    0.256
       123 -11.3131    204.2854    192.5898   6.0620942973e+01   5.2752394646e+00    0.4063402    0.2154175  27.24  0.002071863    1.791    0.442
       124 -11.8404    195.8739    185.4191   6.0934486080e+01   7.6742656090e+00    0.4077989    0.3182347 -55.58  0.002372349    1.899    0.473
       125 -11.1287    191.6563    185.6838   6.1790471829e+01   8.3501918119e+00    0.2781408    0.1898833  23.55  0.001564003    1.343    0.255
       126 -10.0004     37.4871    185.5032   9.6384391645e+01   3.2320534909e+01    0.1897949     0.115914  17.90  0.001028255    2.215    0.549
