#   1 NUMBER                 Running object number                                     
#   2 MAG_AUTO               Kron-like elliptical aperture magnitude                    [mag]
#   3 X_IMAGE                Object position along x                                    [pixel]
#   4 Y_IMAGE                Object position along y                                    [pixel]
#   5 X_WORLD                Barycenter position along world x axis                     [deg]
#   6 Y_WORLD                Barycenter position along world y axis                     [deg]
#   7 A_WORLD                Profile RMS along major axis (world units)                 [deg]
#   8 B_WORLD                Profile RMS along minor axis (world units)                 [deg]
#   9 THETA_WORLD            Position angle (CCW/world-x)                               [deg]
#  10 FWHM_WORLD             FWHM assuming a gaussian core                              [deg]
#  11 ELONGATION             A_IMAGE/B_IMAGE                                           
#  12 ELLIPTICITY            1 - B_IMAGE/A_IMAGE                                       
         1 -15.2009    141.4873     66.2310   9.6441942021e+01   4.0935360137e+01     1.495867     1.209829 -34.17  0.004180907    1.213    0.176
         2 -14.9995    150.0251     51.5487   8.9625042181e+01   4.1312929706e+01     1.248347     1.106951 -17.93  0.003625191    1.132    0.117
         3 -15.1916    158.0463     22.9186   7.8199692696e+01   4.3159997646e+01     1.067658     1.010478  53.67  0.003422243    1.023    0.022
         4 -13.4434    186.8028     11.9988   7.0286091665e+01   3.6818207853e+01    0.9749527     0.425734 -62.53  0.003192121    3.788    0.736
         5 -11.5739    155.2008    236.0090   1.2913572775e+02   7.0360987499e+00    0.1847419    0.1339667  44.04 0.0004318155    1.094    0.086
         6 -15.5979    247.9903    243.6499   1.1483493212e+02  -8.4494882297e+00     3.170876     1.057841 -34.85   0.01596306    3.668    0.727
         7 -13.9256    249.1576    222.6913   1.1132943004e+02  -6.5676218129e+00     1.165925    0.3509069 -35.43  0.005190246    3.845    0.740
         8 -10.9432    156.3219    247.7737   1.3034769168e+02   5.2750741123e+00    0.2887992   0.09862436 -42.37  0.001331159    4.320    0.769
         9 -20.7808     93.3352    187.0266   1.3452278841e+02   2.5173355197e+01     12.69446     6.248393 -63.35   0.06500895    2.081    0.519
        10 -13.0495    188.8432    158.7677   1.1017974616e+02   1.2998268327e+01     0.811284    0.5628387   3.98  0.002999344    2.018    0.504
        11 -12.5372    196.3884    174.9526   1.1196900024e+02   8.8299309713e+00    0.3751694       0.3056  46.87  0.001430473    1.198    0.166
        12 -13.9696    193.1409    165.6365   1.1074902095e+02   1.0974811404e+01     1.006093    0.4319766 -44.81  0.001431937    2.635    0.620
        13 -11.5361      6.0443    224.5375   1.5295474112e+02   2.8705485679e+01    0.2104639    0.1062791  57.22  0.001015467    1.461    0.316
        14 -13.8646    230.0526    168.0143   1.0444588915e+02   3.3839124687e+00    0.5559366    0.3498738 -28.02  0.002917868    1.604    0.377
        15 -12.0507      6.1676    220.6153   1.5276519792e+02   2.9364941508e+01    0.2145605    0.1376806 -84.67 0.0006246607    1.360    0.265
        16  -9.9833    207.6217    220.2082   1.1783797272e+02   4.0646274463e-01    0.1411309    0.1081736 -10.27  0.000384766    1.469    0.319
        17 -10.4567    176.3954    154.2174   1.1172392907e+02   1.6362144774e+01    0.1976204    0.1726868  82.74 0.0007146681    1.365    0.267
        18 -13.4487    174.0643    149.1035   1.1111833042e+02   1.7777632605e+01     0.499865    0.3762409 -50.79  0.001487373    1.453    0.312
        19 -10.3961    174.7163    217.9954   1.2328464522e+02   6.3148010504e+00    0.1564966     0.149805  49.02   0.00107438    1.185    0.156
        20 -12.6589     28.1674    144.9770   1.4346968358e+02   4.2071528804e+01    0.4141456     0.218482 -73.23  0.001930033    1.532    0.347
        21 -12.8044    175.5819    142.3909   1.0933589968e+02   1.8693290335e+01    0.2855962    0.2530612  75.56 0.0007530428    1.282    0.220
        22 -12.1602     21.0171    215.4140   1.5016527601e+02   2.8834471531e+01    0.1787796    0.1324588  80.31  0.000318943    1.124    0.110
        23 -14.4729    160.7568    127.6319   1.0911227514e+02   2.4716200446e+01    0.8044285    0.5966907 -68.47  0.003601253    1.705    0.414
        24 -11.2002     25.5034    213.5114   1.4932546689e+02   2.8714666052e+01    0.2039563    0.1233491  69.85 0.0006169585    1.233    0.189
        25 -12.7487    153.4665    125.8779   1.1032067275e+02   2.6642740896e+01    0.2978029    0.2182207  38.62 0.0009452684    1.406    0.289
        26 -11.8477      9.6047    213.5510   1.5190080854e+02   3.0276372080e+01    0.1777255    0.1270633  80.44  0.000320962    1.103    0.093
        27 -13.9042     12.1151    206.3709   1.5113204973e+02   3.1325974729e+01    0.5708703    0.4185331  42.93  0.003362895    1.613    0.380
        28 -12.4759    188.3398    210.8733   1.1975740039e+02   4.9537008276e+00    0.3240622    0.2289705 -37.09  0.001169781    1.674    0.403
        29 -10.1714    165.4974    231.5612   1.2679123474e+02   5.9697948828e+00    0.1193917   0.09370729  45.21 0.0001012284    1.024    0.023
        30 -12.1364    162.3569    116.8394   1.0611851619e+02   2.6478870762e+01    0.2623315    0.2129707  62.64  0.000859724    1.328    0.247
        31 -11.2938     11.4839    197.0207   1.5073076739e+02   3.3105945676e+01    0.1926801    0.1235711 -66.47  0.001295335    1.709    0.415
        32  -9.4367    212.6625    235.7236   1.1934488894e+02  -2.2538679185e+00    0.1181363   0.07256304  22.30 0.0003089922    1.611    0.379
        33 -10.8157     17.9466    190.2483   1.4920077320e+02   3.3780410104e+01    0.1650058    0.1123111  88.78 0.0002964551    1.133    0.117
        34 -12.0045    207.1846    182.3135   1.1136774014e+02   5.6373861677e+00    0.4824638    0.2837916 -63.26  0.001828664    4.202    0.762
        35 -12.3449    199.8785    166.9850   1.0973238343e+02   9.4098787725e+00    0.5751211     0.416377  20.37  0.002446089    1.496    0.332
        36 -11.1307    205.4675    110.1638   9.5622124461e+01   1.7755210933e+01    0.3253868    0.2127828  41.80 0.0009621657    1.563    0.360
        37 -13.0598    203.7812    174.0276   1.1040035413e+02   7.5371836536e+00    0.5162639    0.4289145 -74.43  0.001803309    1.755    0.430
        38 -12.7560     50.1040     98.6409   1.3111514783e+02   5.0192957039e+01    0.3476606      0.23638  12.22  0.001719744    2.117    0.528
        39 -12.1976    207.9331    172.0875   1.0924673831e+02   7.0286753614e+00    0.6067138    0.2645556 -50.75  0.001647909    3.795    0.736
        40 -12.6257    138.9274     83.4599   1.0243041209e+02   3.8333964719e+01    0.4769756    0.3078457 -20.95  0.001362294    1.961    0.490
        41 -12.0664    114.5404     84.0234   1.0890180331e+02   4.3413468778e+01    0.2664601    0.2200688  43.66 0.0001768684    1.273    0.215
        42 -11.9025     20.3944    180.2498   1.4808429802e+02   3.5493980434e+01    0.3346437    0.1624528 -66.06  0.002049719    1.911    0.477
        43 -10.8138    211.8536    246.6612   1.2104208073e+02  -3.3244634185e+00    0.1524439    0.1076189  37.22 0.0003322623    1.108    0.098
        44 -14.0016    153.2838     42.3923   8.5825077732e+01   4.1865852167e+01    0.6301306    0.5345831  -9.08 0.0007827407    1.229    0.186
        45 -11.6196    150.9594    238.6044   1.3017613981e+02   7.3572017422e+00    0.1717486    0.1649285  77.55 0.0004533166    1.265    0.209
        46 -12.2654     73.7939     60.6041   1.1383433290e+02   5.5320554548e+01    0.2893734    0.2425813  14.40  0.001124268    1.320    0.243
        47 -11.6930     13.2387     59.8176   1.3484969359e+02   6.1900707527e+01    0.1955471    0.1533207 -61.66 0.0004985473    1.074    0.069
        48 -11.4762    198.1146    237.8661   1.2207977570e+02  -1.6924944332e-01    0.1610385    0.1468304  24.72 0.0005389378    1.209    0.173
        49 -12.6789     18.1776     21.1922   1.2134375275e+02   6.9119729000e+01    0.2911826    0.1934445  -1.83 0.0009166771    1.671    0.402
