#   1 NUMBER                 Running object number                                     
#   2 MAG_AUTO               Kron-like elliptical aperture magnitude                    [mag]
#   3 X_IMAGE                Object position along x                                    [pixel]
#   4 Y_IMAGE                Object position along y                                    [pixel]
#   5 X_WORLD                Barycenter position along world x axis                     [deg]
#   6 Y_WORLD                Barycenter position along world y axis                     [deg]
#   7 A_WORLD                Profile RMS along major axis (world units)                 [deg]
#   8 B_WORLD                Profile RMS along minor axis (world units)                 [deg]
#   9 THETA_WORLD            Position angle (CCW/world-x)                               [deg]
#  10 FWHM_WORLD             FWHM assuming a gaussian core                              [deg]
#  11 ELONGATION             A_IMAGE/B_IMAGE                                           
#  12 ELLIPTICITY            1 - B_IMAGE/A_IMAGE                                       
         1 -13.9159    210.1542     28.7610   3.5462085575e+02   3.0485158341e+01    0.9345349    0.7908367 -44.62  0.003941259    1.150    0.131
         2 -11.9131     60.8063      2.3953   8.6001884567e+00   6.8841192910e+01    0.8907064    0.2367512  39.95  0.002439775    5.839    0.829
         3 -19.1219     29.8701    136.3846   6.6795281580e+01   4.3729335468e+01     18.90974     4.602523 -76.28   0.05300091    4.475    0.777
         4 -13.8060    246.8148    241.1046   3.1361586086e+01  -4.1906440652e+00     1.395712     0.639667 -28.82  0.009337871    1.787    0.440
         5 -11.0085    161.5733    200.9416   4.0269167382e+01   1.0823885297e+01    0.2976743    0.2314205  22.68 0.0009429219    1.183    0.155
         6 -10.9159    249.9767    200.1712   2.4694072482e+01   3.4286215988e-01    0.1986649    0.1191687 -27.80 0.0007911213    1.301    0.232
         7 -15.1206    121.8205    235.0168   5.3486145683e+01   1.0079232758e+01     5.423654     3.940532 -52.84   0.03458233    1.659    0.397
         8 -10.0822    193.4893    195.6489   3.3148811091e+01   7.4690148355e+00    0.3674807    0.2018672 -59.65  0.001430375    4.746    0.789
         9  -9.5392     69.9235    197.2887   6.1560763935e+01   2.3942308662e+01     0.379297    0.1913494  77.87  0.001451351    3.343    0.701
        10 -10.7654    159.9186    194.4499   3.9563549660e+01   1.2184203151e+01     0.231164    0.1794226 -37.75 0.0004938247    1.314    0.239
        11  -9.5957     56.9838    194.0921   6.4639554601e+01   2.6203018913e+01    0.1827892     0.165506  48.81 0.0002990563    1.023    0.022
        12 -10.1165     48.6417    194.0123   6.6849237242e+01   2.7156395174e+01    0.1662533    0.1505227  89.03 0.0001414536    1.145    0.127
        13 -11.2640    154.5493    191.5522   4.0228521170e+01   1.3462511349e+01    0.2284727    0.2026682  -1.65 0.0006135851    1.027    0.026
        14 -10.4317     11.1206    189.7809   7.6526322442e+01   3.1708336644e+01      0.15504    0.1194049 -76.01 0.0006714652    1.343    0.256
        15  -9.5244     71.1099    187.2899   6.0130553943e+01   2.6070258403e+01    0.2020033    0.1514911  47.64 0.0003590013    1.245    0.197
        16 -10.6874     90.7573    184.1656   5.4471183430e+01   2.4179862199e+01    0.4043695    0.2376912  80.66  0.001013431    2.924    0.658
        17 -10.1738     10.6048    185.6388   7.6466918143e+01   3.2729414278e+01    0.1342599    0.0871851 -39.75 0.0006933555    2.025    0.506
        18 -11.1304     74.9016    182.9315   5.8575473076e+01   2.6598387246e+01      0.34216    0.3213462  -9.10   0.00109168    1.173    0.148
        19  -9.4412     83.3526    182.7780   5.6261927138e+01   2.5511287415e+01    0.1868369    0.1242079 -51.05 0.0004695026    1.610    0.379
        20 -12.0173    179.3517    169.3811   3.1164861240e+01   1.3800959287e+01    0.6235311    0.5072293 -34.84  0.002781009    1.187    0.157
        21 -11.0926    160.5922    177.6711   3.6535113888e+01   1.5130745393e+01    0.2676551    0.2315938 -56.52 0.0007979292    1.413    0.292
        22 -12.1833    173.3216    176.0782   3.3605401048e+01   1.3516712245e+01    0.6578262    0.4301778 -46.41   0.00199927    1.606    0.377
        23 -11.6041     67.7765    213.7615   6.3739580485e+01   2.0634063686e+01     0.184398     0.167155  47.15 0.0003413449    1.062    0.058
        24 -11.1479    238.4818    169.0454   2.1074327905e+01   5.7640937550e+00    0.1810059    0.0914065 -33.83 0.0007404271    1.588    0.370
        25 -11.6104    230.1838    166.9822   2.1931344240e+01   7.0914341268e+00    0.1989516    0.1642558   8.87   0.00141417    1.247    0.198
        26 -12.1863     54.5755    229.2211   6.8157609849e+01   1.8951597698e+01    0.1895904    0.1692884 -74.74  0.001134722    1.306    0.235
        27 -10.9639      2.4167    164.5779   7.7757366081e+01   3.8493323459e+01    0.1999049     0.177867 -81.13 0.0003803138    1.157    0.136
        28 -11.5278      3.2900    176.6210   7.8042839665e+01   3.5450308457e+01    0.1593339    0.1473356  23.42 0.0005699396    1.238    0.192
        29 -10.5014    126.1583    159.8624   4.1234529057e+01   2.4210912559e+01    0.2223434    0.1980649  65.30 0.0007773771    1.299    0.230
        30 -11.3491    103.4153    153.0542   4.6001892477e+01   2.9514709307e+01    0.3474028    0.2748917  58.59  0.001025126    1.398    0.285
        31 -12.7076     98.2573    151.2976   4.7136671264e+01   3.0770820177e+01    0.7165318    0.4705707 -38.33  0.003249801    1.706    0.414
        32 -12.0162     93.1245    148.3988   4.8091090060e+01   3.2299641133e+01    0.5207633    0.3202674 -55.38  0.000421972    1.635    0.388
        33 -13.0677     97.0121    144.9472   4.6301371738e+01   3.2513735257e+01    0.8853641    0.5909483 -20.69  0.002222868    2.135    0.532
        34 -12.1740    133.8683    146.1175   3.6572595164e+01   2.5885591077e+01     1.301089    0.3351676 -54.41  0.003192025    5.866    0.830
        35 -11.3897    111.9422    150.5459   4.3172099852e+01   2.8689445588e+01     0.422841    0.3004339  65.25 0.0007930446    1.841    0.457
        36 -10.8083    107.4480    140.3111   4.2370824672e+01   3.1864211736e+01    0.2875562    0.2436291   1.26 0.0002633971    1.342    0.255
        37 -11.9629     97.4807    134.5603   4.4079431535e+01   3.4977775742e+01    0.4079712     0.327115  22.23  0.001142684    1.339    0.253
        38 -12.0062     97.8411    130.7491   4.3162458712e+01   3.5850523653e+01    0.3694332    0.3140861   3.38 0.0003249762    1.354    0.261
        39 -11.7419    109.3677    132.1388   4.0084862691e+01   3.3464567261e+01    0.4945953    0.3381226 -27.10  0.002155586    1.841    0.457
        40 -11.4614    133.6637    128.4002   3.2732706737e+01   2.9781943843e+01    0.5146811    0.3924477  68.72  0.001767568    1.696    0.410
        41  -9.3747    209.7420    210.7314   3.2724339757e+01   3.2771446014e+00    0.1374614    0.1182131 -16.90 0.0004574208    1.301    0.231
        42 -10.8792    115.6944    125.6938   3.6846905159e+01   3.3807010834e+01    0.3129123    0.2438158  -9.67 0.0009337563    1.637    0.389
        43  -9.5177    183.1453    125.2399   2.1342346417e+01   2.1113164039e+01    0.1855517    0.1541541 -56.68  0.001049206    1.319    0.242
        44 -10.5155    134.8699    119.6084   3.0348406623e+01   3.1453404308e+01    0.3380652    0.1905978 -50.40  0.001289753    1.779    0.438
        45 -10.5892    103.6205    120.5651   3.9125001780e+01   3.7281512154e+01    0.2913274    0.2529741  -7.01 0.0007456339    1.326    0.246
        46  -9.5923    110.8749    115.8587   3.5856360927e+01   3.7016362619e+01    0.2232052    0.2061238 -13.46 0.0003398166    1.165    0.142
        47 -10.0398    134.6748    112.0644   2.8526411060e+01   3.3109254739e+01    0.4910644    0.1300298 -45.31  0.001414123    3.650    0.726
        48 -10.7035    134.5410    105.2979   2.6816001850e+01   3.4568541741e+01    0.4709794    0.1435983 -45.98  0.001448047    3.193    0.687
        49  -9.8123     88.8614    114.2247   4.2233015116e+01   4.1528062580e+01    0.2283692    0.2034226  68.32 0.0004912307    1.193    0.161
        50 -12.8428    118.2797    107.3812   3.1606267576e+01   3.7480332343e+01    0.9050239    0.6509634 -47.02   0.00359809    1.361    0.265
        51 -11.9715    112.8871    100.1324   3.1178681316e+01   4.0210471595e+01    0.5797811    0.4205068  77.46  0.001685313    1.905    0.475
        52  -9.7208    106.8094     95.7663   3.1740121057e+01   4.2448869411e+01    0.2479449    0.2087279  75.36 0.0006530919    1.355    0.262
        53  -8.9133    172.4723    110.4509   1.9903689932e+01   2.5817036148e+01    0.1414914    0.1292162 -42.35 5.337606e-05    1.029    0.028
        54  -9.9277    166.1594    107.6056   2.0431611902e+01   2.7597507656e+01    0.2339752    0.1802754 -49.75  0.000460091    1.253    0.202
        55  -9.6801     88.9338    107.1804   4.0473218803e+01   4.3257972488e+01    0.2269625    0.2038977  70.80 0.0002618769    1.186    0.157
        56 -11.6821     81.6420    105.0927   4.2421137765e+01   4.5090263405e+01    0.6460805    0.3174858  54.25  0.002233513    2.734    0.634
        57 -11.0033     58.2196    228.3911   6.7248650346e+01   1.8725357392e+01     0.161868    0.1489884 -18.25 0.0005298685    1.321    0.243
        58 -10.4870     47.7183    229.9296   6.9795383099e+01   1.9528719704e+01    0.1076745   0.09297612  34.85            0    1.104    0.094
        59 -10.9301     71.0739    231.2778   6.4498076007e+01   1.6743988865e+01    0.1762034    0.1544102 -85.24 0.0005853265    1.324    0.245
        60 -10.9450     99.4656     89.0868   3.2062662079e+01   4.5472156113e+01    0.3843946    0.2916219  70.65  0.001180786    1.614    0.380
        61 -10.3364     94.2498     86.3895   3.2935497161e+01   4.7152727788e+01    0.3200702    0.2474261  66.36 0.0003095096    1.506    0.336
        62  -9.0972     79.2775    221.3662   6.1683133424e+01   1.7733145593e+01     0.123437    0.0928324 -21.90 0.0007009418    1.677    0.404
        63 -13.4266    170.0500     67.8616   9.3617437320e+00   3.3738201161e+01     1.226203    0.9307821  27.28 0.0008608895    1.799    0.444
        64 -13.6144    186.0741     54.8688   3.5913325358e+00   3.2180349603e+01    0.9631479    0.8735033  -7.68  0.003674384    1.352    0.260
        65 -12.0228    192.2388     49.0680   1.3494243730e+00   3.1662469215e+01    0.3438768    0.3304405 -34.43 0.0009418977    1.215    0.177
        66  -9.8226      5.9682     71.8978   6.8211427566e+01   6.2977735758e+01    0.2557241    0.1768504   7.36  0.001355093    1.591    0.371
        67  -9.9279     53.6329     66.6154   4.2425323864e+01   5.9247563440e+01    0.2691582    0.1725087  37.82 0.0006365867    1.580    0.367
        68 -11.4370    193.7397     64.4906   5.0775845989e+00   2.9159373595e+01     0.239973    0.2021895 -46.90 0.0002541345    1.040    0.038
        69  -9.6334     51.1790     62.8736   4.2297368938e+01   6.0507021447e+01    0.2061841    0.1965398  72.50 0.0004025581    1.158    0.137
        70 -10.9551     61.0211    220.2497   6.5945756421e+01   2.0058192276e+01    0.1736296    0.1522192  58.48 0.0004159604    1.116    0.104
        71 -10.9942     59.4491    248.6985   6.8403347783e+01   1.4767915248e+01    0.1205361   0.07597737 -14.41 0.0006306494    2.530    0.605
        72 -10.1971     60.6618     21.4041   1.9473267259e+01   6.6615863163e+01    0.2458187    0.1988439  53.55 0.0009229706    1.216    0.177
        73  -9.0723    189.6490     15.2942   3.5287613392e+02   3.6327231656e+01    0.1369778   0.07431672 -61.35 0.0006231292    1.680    0.405
