#   1 NUMBER                 Running object number                                     
#   2 MAG_AUTO               Kron-like elliptical aperture magnitude                    [mag]
#   3 X_IMAGE                Object position along x                                    [pixel]
#   4 Y_IMAGE                Object position along y                                    [pixel]
#   5 X_WORLD                Barycenter position along world x axis                     [deg]
#   6 Y_WORLD                Barycenter position along world y axis                     [deg]
#   7 A_WORLD                Profile RMS along major axis (world units)                 [deg]
#   8 B_WORLD                Profile RMS along minor axis (world units)                 [deg]
#   9 THETA_WORLD            Position angle (CCW/world-x)                               [deg]
#  10 FWHM_WORLD             FWHM assuming a gaussian core                              [deg]
#  11 ELONGATION             A_IMAGE/B_IMAGE                                           
#  12 ELLIPTICITY            1 - B_IMAGE/A_IMAGE                                       
         1  -9.1098     10.5219     18.9504   8.1853127303e+01   7.2549758682e+01    0.4446604    0.2062844   4.58   0.00202579    2.797    0.643
         2  -9.4765     78.0542     12.8573   4.7406498884e+01   6.2079582046e+01     0.688232    0.2113443  55.58  0.002696843    2.694    0.629
         3  -8.5941     64.4730     13.7002   5.2137254019e+01   6.4849995644e+01    0.3457963    0.1397316  40.55 0.0007985071    2.234    0.552
         4  -8.2802    156.1086     11.6141   3.2266683269e+01   4.3857796188e+01    0.1862889    0.1450794 -22.35 0.0006217779    1.538    0.350
         5  -8.1507     96.9944     11.4466   4.1947038042e+01   5.7951205994e+01    0.2094951    0.1570659  38.93 0.0007692698    1.264    0.209
         6  -8.9151     31.5433     10.9449   6.5071055144e+01   7.1077374674e+01     0.218874    0.1499667  26.39 0.0003192219    1.253    0.202
         7  -8.4582    142.9310      9.3380   3.3256781202e+01   4.7206206976e+01    0.1917777    0.1823451  33.32 0.0003292015    1.243    0.195
         8  -8.5529    125.1941     10.0442   3.6056967884e+01   5.1399206556e+01     0.214816    0.1601257  64.42 0.0004053532    1.154    0.133
         9  -9.4467     20.5338      8.2742   6.9854824424e+01   7.2994714715e+01    0.2154143    0.1625109   7.75 0.0002322288    1.063    0.059
        10  -8.3101      4.1145      6.4683   7.9803177873e+01   7.5126040776e+01    0.3617133    0.1630345 -12.15  0.001573362    3.301    0.697
        11  -9.8981     84.9568      5.1226   4.2227454969e+01   6.1242202560e+01    0.2292529    0.1982946  49.17 0.0003576307    1.034    0.033
        12  -8.4249     76.5538      6.2887   4.4940010056e+01   6.3006759155e+01    0.2404607    0.1497617  56.28 0.0007732529    1.385    0.278
        13  -8.1803     32.1963      6.0262   6.1981913520e+01   7.1565695661e+01    0.1763136    0.1303902   6.65 0.0003271887    1.180    0.153
        14  -9.9655     13.7872      4.2586   7.1796654797e+01   7.4385849943e+01    0.2443843    0.1636932   2.19 0.0001915889    1.300    0.231
        15  -7.6290     41.3490      5.2647   5.7088517531e+01   7.0113433371e+01    0.1461402    0.1069941 -26.53 0.0003822625    1.515    0.340
        16  -7.6661    132.3813      4.0444   3.3056523530e+01   5.0186708832e+01    0.3022144    0.1044658  42.73  0.001093394    3.841    0.740
        17  -9.0778     57.7806      3.2841   4.9420482036e+01   6.7201798067e+01    0.2213502    0.1621296  34.11 0.0003015324    1.137    0.120
        18  -7.6965    153.5362      3.0198   3.0161901745e+01   4.5240045388e+01    0.1579155    0.1222389 -31.50 -4.605949e-07    1.469    0.319
        19  -7.9627    125.5285      3.2155   3.3764791036e+01   5.1892951595e+01    0.1960253    0.1420532  53.32 0.0004284209    1.279    0.218
        20  -8.2215    110.7402      2.5065   3.5876500967e+01   5.5470705612e+01    0.2667561    0.1334056 -41.04  0.001313259    2.286    0.563
        21  -7.3791    105.4902      1.5062   3.6443055037e+01   5.6785751951e+01    0.1290976     0.106165  57.05 0.0008101236    1.048    0.045
        22  -8.3208     67.9873    127.8258   8.9226671217e+01   4.1735687382e+01    0.2557495    0.1744909 -14.45   0.00109431    1.985    0.496
        23  -9.2144    214.6191    249.9198   7.5381424366e+01  -5.9880705290e+00    0.2149614    0.1336681  36.95  0.001313053    1.936    0.484
        24 -10.1148    207.7312    249.6146   7.6601407481e+01  -5.1532368062e+00    0.3481626    0.1507983  29.15  0.001836499    2.046    0.511
        25  -8.7711    183.3074    250.3941   8.1393454437e+01  -2.3031602259e+00    0.2336322   0.09883045  26.64  0.001131357    2.088    0.521
        26 -10.2503    176.7543    247.9951   8.2344598767e+01  -1.1118332644e+00    0.3456111    0.3066529  86.83  0.002249154    2.014    0.504
        27  -7.9259    134.2320    123.7481   6.8342387254e+01   3.0665015853e+01    0.2564539    0.1284847  31.67 0.0009028485    2.488    0.598
        28  -8.0701     12.5163    120.4899   1.0721473193e+02   4.9591691735e+01    0.2653985    0.0846715 -59.22  0.001024687    2.403    0.584
        29  -7.1702    119.3149    118.6735   7.1077673057e+01   3.4858595865e+01    0.1584336    0.1264542  86.52 0.0007043622    1.670    0.401
        30  -7.7979    174.4268    114.7462   5.6877104720e+01   2.4110641748e+01    0.2124763    0.1357774 -30.16  0.000946302    1.674    0.403
        31  -8.2685    246.6460    112.3243   4.4767821816e+01   1.0997443527e+01    0.1272021   0.08534835 -62.24 0.0002067545    1.763    0.433
        32  -7.6692    142.7720    111.4054   6.3046526986e+01   3.1525593249e+01    0.2196065    0.1442345  33.44 0.0006680312    1.715    0.417
        33  -7.4127     38.3980    110.2882   9.6104706180e+01   4.9999307421e+01    0.1550604   0.09863178 -28.81 0.0001125452    1.784    0.439
        34  -8.3115    133.2521    107.0035   6.4265522685e+01   3.4502648937e+01    0.3451298    0.2073807 -32.33  0.001405807    1.877    0.467
        35  -8.0409    123.9762    107.0125   6.6720917484e+01   3.6484911220e+01    0.4122385    0.2005033  25.01  0.001149451    4.373    0.771
        36  -8.6551      4.4746    107.4944   1.0838655869e+02   5.3411754993e+01    0.1346904     0.112145 -60.18 0.0008099242    1.031    0.030
        37  -9.2654     13.7127    104.3897   1.0443831296e+02   5.3641477591e+01    0.3614272    0.2902562 -27.89  0.002117995    1.284    0.221
        38  -8.0962    109.9736    106.0000   7.0416284691e+01   3.9620666889e+01    0.2566258   0.08856399  41.80 0.0007625417    2.916    0.657
        39  -8.2314     60.4910    105.5398   8.6816543375e+01   4.8451932996e+01    0.1492109    0.1391382 -33.24 6.213692e-05    1.017    0.017
        40  -7.8310     69.7546    103.9932   8.3064465182e+01   4.7441058724e+01    0.1977026    0.1240965 -52.73 0.0004547377    1.538    0.350
        41  -8.2619     92.5444    103.0127   7.4999824740e+01   4.3720852406e+01    0.4750074    0.2011925  33.87  0.001641092    2.590    0.614
        42  -8.9508     79.5791    102.8049   7.9291690261e+01   4.6107106752e+01    0.2769353    0.2629139  17.14 0.0004758156    1.062    0.058
        43  -8.6604    246.5091     99.9806   4.2295593452e+01   1.2931260634e+01    0.1866762   0.08041023 -53.16 0.0008098094    2.565    0.610
        44  -7.8721    129.9792     97.0232   6.2375138418e+01   3.7290711968e+01    0.2492947    0.1901126   8.11 0.0006837322    1.745    0.427
        45 -10.2467     13.3936     92.6448   1.0256130168e+02   5.6612636545e+01    0.6308745    0.4226531 -10.37  0.001539752    1.673    0.402
        46  -8.0583     56.5639     91.4621   8.4687836960e+01   5.2419978798e+01    0.3654684    0.1181199 -49.46 0.0009166708    2.776    0.640
        47  -9.2303     43.1562     90.5702   8.9807977441e+01   5.4379940633e+01    0.5332484    0.3697954 -10.58  0.002608864    1.676    0.403
        48  -8.4105     96.4836     89.9411   6.9979743432e+01   4.5868520022e+01    0.4542187     0.273822  18.14  0.001712852    2.517    0.603
        49  -8.0705    125.9923     83.8728   5.9618457078e+01   4.0786054624e+01    0.3810807    0.1885463  30.59  0.001241146    3.295    0.697
        50  -8.1345     65.9561     83.5924   7.8797138412e+01   5.2808394891e+01    0.2519969    0.1881621 -33.70 0.0005934839    1.322    0.244
        51 -10.7609     36.3743     80.5515   9.0055500823e+01   5.7533038461e+01     0.974464      0.48906   4.39  0.003817325    2.887    0.654
        52 -10.0582      7.3066     76.5373   1.0209259766e+02   6.0900739545e+01    0.5553411    0.3469051 -14.89  0.002986747    1.711    0.415
        53  -7.9086    184.4970     77.9007   4.5888118971e+01   2.8537212685e+01    0.2077163    0.1299775 -39.28 0.0005467063    1.512    0.339
        54  -8.8764     89.4811     77.7217   6.8488634359e+01   4.9811984646e+01    0.4570601     0.265664  32.30  0.001936143    1.848    0.459
        55  -9.3440     20.2249     84.1400   9.7960900106e+01   5.8201587904e+01    0.3528368    0.1937542   7.63  0.001668007    2.094    0.523
        56  -8.8366     74.0779     74.3405   7.2820530634e+01   5.3415253314e+01    0.3730411    0.2225776  22.84  0.001199142    1.994    0.498
        57  -8.7040     23.6604     73.6668   9.3923220726e+01   6.0393154007e+01    0.3575068    0.1612508 -38.71  0.001544122    2.117    0.528
        58  -9.7022     24.0994     69.4645   9.2601934215e+01   6.1316177144e+01    0.5856171    0.3246108  16.80  0.002875196    1.920    0.479
        59  -7.9393     80.3340     71.1612   6.9492366258e+01   5.2903317644e+01    0.2065469    0.1342951 -51.72 0.0004649109    1.720    0.419
        60  -8.9330     83.6037     64.0601   6.5914024331e+01   5.3630416718e+01    0.6467333     0.385132   8.45  0.002335658    3.205    0.688
        61  -9.3563     47.4384     71.0060   8.2467105152e+01   5.8332951596e+01    0.2544867    0.2358709  -4.66  0.001135107    1.070    0.065
        62  -7.4813    129.3360     69.2867   5.4377689178e+01   4.2676929987e+01    0.1498321    0.1138771  22.02 0.0007016545    1.629    0.386
        63  -8.2911    104.5041     67.4497   6.0399540099e+01   4.8633161945e+01    0.2710789    0.1428449 -26.92  0.001037561    2.450    0.592
        64  -6.9066    116.3233     67.7091   5.7176328918e+01   4.5946037588e+01    0.1466637    0.1172955 -85.56 0.0007013342    1.610    0.379
        65  -9.3328     12.2132     60.4275   9.5945020028e+01   6.4298024507e+01       0.2997    0.2092784 -59.44  0.001723189    1.367    0.268
        66  -8.5478     15.8293     63.6777   9.5015900573e+01   6.3309358926e+01     0.316952     0.178235 -29.54  0.001132322    1.727    0.421
        67  -7.6608     19.5390     60.5010   9.2280995279e+01   6.3712657529e+01    0.1336583    0.1109233 -31.03 4.829541e-05    1.016    0.016
        68 -10.4111     62.5782     60.1469   7.2405082862e+01   5.8248715360e+01    0.6692325    0.4051991 -14.28  0.002831848    2.363    0.577
        69  -7.1627    121.9912     61.3309   5.3671872196e+01   4.5721636096e+01     0.250447   0.09564777  37.31 0.0007049564    4.315    0.768
        70 -10.2713     31.6793     57.5894   8.5357492713e+01   6.3137894847e+01     0.372551    0.2355567  12.22   0.00193017    1.653    0.395
        71  -9.0099     49.5810     57.6327   7.7013033600e+01   6.0799881046e+01    0.3735588    0.2654539 -55.09  0.001941573    1.649    0.394
        72  -7.6904    145.8416     56.9124   4.7041639325e+01   4.0778392175e+01    0.2088002    0.1792886  41.11 0.0003715968    1.241    0.194
        73  -7.2176    111.6315     57.7127   5.5148222676e+01   4.8701062590e+01    0.1524609    0.1082986  24.20 0.0007021528    1.705    0.414
        74  -9.4882     99.4781     54.6681   5.7512943988e+01   5.1925724000e+01    0.4096479     0.284855 -27.63 0.0005775961    1.561    0.359
        75  -8.0087    118.5276     50.9376   5.1121985444e+01   4.8158303936e+01    0.2136248    0.1817843  53.91 0.0005257576    1.105    0.095
        76  -8.3088    106.4078     48.7218   5.3463775716e+01   5.1296649615e+01     0.437916    0.2574624  11.30  0.001590326    3.398    0.706
        77  -8.2481     87.7455     37.5903   5.4716020490e+01   5.7060688306e+01    0.2425878    0.2118156  20.49 0.0008007239    1.111    0.100
        78  -7.9429     81.4567     43.5390   5.9064220835e+01   5.7532459873e+01    0.2627814    0.2087131  38.56 0.0005668826    1.159    0.137
        79 -10.3504     83.0153     39.6970   5.7041840260e+01   5.7775188104e+01    0.2661594         0.23  29.73  0.000240078    1.053    0.051
        80  -9.2689     44.9917     48.5093   7.5686450048e+01   6.3212742006e+01    0.3190586    0.2108192 -13.68 0.0009527904    1.690    0.408
        81  -9.1077     54.6623     44.1762   6.9608185640e+01   6.2472021081e+01    0.5134579    0.2356012 -23.57  0.001836095    3.532    0.717
        82  -7.8879     58.3165     40.3119   6.6458499496e+01   6.2484900835e+01    0.2189682    0.1570911  25.84  0.000573581    1.312    0.238
        83  -8.3540     10.4339     46.7971   9.2884272605e+01   6.7347317024e+01    0.2483394    0.1948793 -29.54 0.0006582392    1.043    0.041
        84  -8.8862     13.5492     45.4589   9.0717685031e+01   6.7382200992e+01    0.2310215    0.2114301  -7.44 0.0007005108    1.192    0.161
        85  -7.7588    231.6345     45.7790   3.2692410604e+01   2.3389993317e+01    0.1762927   0.08600136 -46.62  0.000519836    1.675    0.403
        86  -8.2484      2.6775     44.2320   9.6454168978e+01   6.8385118581e+01     0.248975    0.1491427  -9.61   0.00128061    1.653    0.395
        87  -8.1712     99.6931     41.4394   5.2683784293e+01   5.3877889871e+01    0.3758282    0.1338022  56.36  0.001343238    2.796    0.642
        88  -8.3448     94.5081     41.5020   5.4183910696e+01   5.5029567511e+01    0.3622653    0.1420103  42.03  0.001356061    2.573    0.611
        89  -8.0433    250.0371     41.5362   3.0318557138e+01   2.0503827920e+01    0.1558494    0.1042005  81.10  0.001027328    1.583    0.368
        90 -10.6779     75.2434     49.7083   6.3626464260e+01   5.7803158199e+01    0.3393791    0.2724391  -3.56  0.000249092    1.313    0.238
        91  -8.3346      3.5831     39.3246   9.4384872094e+01   6.9335863021e+01    0.2139825    0.1119863 -62.24  0.001057137    2.000    0.500
        92  -7.7702    124.0385     39.4384   4.6037802174e+01   4.8462778561e+01     0.200599   0.09820736  40.42 0.0003133135    2.359    0.576
        93  -8.5342     17.6816     38.6830   8.5959041270e+01   6.8354807178e+01    0.2325659    0.1499173 -35.53 0.0007602083    1.339    0.253
        94  -9.3809     20.3335     35.2526   8.3093921989e+01   6.8732418784e+01    0.5256362    0.3366227  40.96  0.002887159    2.039    0.510
        95  -8.6563     22.0320     31.9359   8.0735304280e+01   6.9145866912e+01    0.2275871    0.1588132   7.29            0    1.332    0.249
        96  -9.0188     53.1109     38.1265   6.7763813623e+01   6.3731673379e+01    0.2082636    0.1822312  11.11 0.0004680827    1.039    0.038
        97  -8.9828     55.6198     34.3630   6.5054924167e+01   6.3886030736e+01    0.2738139     0.212813 -42.55 0.0008340973    1.512    0.339
        98  -9.3097     35.3730     37.2500   7.5803577284e+01   6.6577732976e+01    0.4150655    0.2005292 -45.73  0.001601934    2.137    0.532
        99  -9.3131     38.6440     34.7241   7.3061677880e+01   6.6550006462e+01    0.3438941    0.2153345  -3.50  0.001312772    1.890    0.471
       100  -8.2442    104.9591     36.7794   4.9577675119e+01   5.3304760738e+01     0.306727    0.1614199  44.26  0.001231796    1.809    0.447
       101  -9.1499     67.0164     36.1291   6.1226435902e+01   6.1523954581e+01    0.3887234    0.2551878 -31.05  0.001911869    1.589    0.371
       102  -8.6356     70.7922     35.3844   5.9507588319e+01   6.0894783400e+01     0.349687    0.1743555  30.43  0.001469342    2.336    0.572
       103  -7.4132     92.4581     36.5199   5.2891124126e+01   5.6172863078e+01    0.1390565    0.1238131  34.33 -3.780524e-06    1.029    0.028
       104  -7.6284     45.9888     35.2192   6.9729709736e+01   6.5360475059e+01    0.1777473   0.09879878  35.35 0.0008794464    1.705    0.413
       105  -9.3214      4.3624     33.0694   9.1744498284e+01   7.0518776398e+01    0.3580372    0.2877043  55.98  0.001347786    1.945    0.486
       106  -8.3851      1.4537     28.4637   9.1860365123e+01   7.1590945441e+01    0.1905756    0.1013796 -51.65  3.24571e-05    1.685    0.406
       107  -9.0194     96.3329     32.7526   5.0356971197e+01   5.5795820107e+01    0.2464591    0.2035867  34.64 0.0002544489    1.149    0.129
       108 -10.9926     80.8259     22.9059   5.0886982058e+01   6.0415276614e+01    0.5457079    0.2237256  43.28 0.0009632816    2.215    0.549
       109  -9.1283     70.8906     30.1521   5.7256110650e+01   6.1596853761e+01    0.3071003    0.2155578  37.96  0.001082455    1.274    0.215
       110  -9.6742     71.1818     25.7753   5.5261349209e+01   6.2101232337e+01    0.4828744    0.2551104  44.46  0.002020104    1.667    0.400
       111  -8.5706     42.4354     27.7008   6.8015776554e+01   6.7085384977e+01    0.2600006    0.1829235   8.25 0.0001442526    1.401    0.286
       112  -9.0601     61.6025     26.5115   5.9119283817e+01   6.3899776961e+01    0.2291282    0.1859998  29.69 0.0005642856    1.077    0.072
       113  -8.2760     26.3474     23.3240   7.4340144358e+01   7.0061728070e+01    0.1952301     0.092786 -21.98 0.0008469569    2.702    0.630
       114  -8.9530    129.0341     21.9191   3.9302298758e+01   4.9325302070e+01     0.214858    0.1850942  52.07 0.0003391522    1.130    0.115
       115  -8.4111     46.3550     20.8705   6.2902971828e+01   6.7402715138e+01    0.3102598    0.1400064 -31.18  0.001457341    2.314    0.568
       116  -8.7849     92.4655     20.4775   4.6609538874e+01   5.8101736253e+01    0.2683147    0.1909587  35.35 0.0005914248    1.361    0.265
       117 -10.1220    191.6066    247.8625   7.9396212257e+01  -2.9666398305e+00    0.3192168    0.2342096 -15.91  0.001851356    1.248    0.199
       118  -7.4618    146.7865     18.9587   3.5586636923e+01   4.5355459912e+01    0.1489635    0.1066469 -28.57 0.0002406148    1.573    0.364
       119  -7.8185    111.7154     18.9756   4.1583180569e+01   5.3777506548e+01    0.1713318    0.1598419  54.47 0.0001621882    1.064    0.060
       120  -8.1894    127.1916     16.2038   3.7753211598e+01   5.0347189927e+01    0.1915837    0.1652414  56.48  0.001187817    1.098    0.089
       121  -7.5885    160.8027     19.1404   3.3783037894e+01   4.1996687743e+01    0.1611837    0.1398858  51.36 0.0003809341    1.277    0.217
       122  -7.8213    146.5516     13.9957   3.4155459532e+01   4.5905184311e+01    0.2006585    0.1472509  74.21 0.0004866315    1.194    0.163
       123 -10.7203    164.8411    241.8494   8.3874682336e+01   1.4207914998e+00    0.4102403    0.3797261 -32.57 0.0004233784    1.348    0.258
       124 -10.6510    198.1843    242.6005   7.7326359962e+01  -3.0134570137e+00    0.2829256    0.2228801  28.15 0.0007078697    1.386    0.279
       125  -8.3070    196.3740    237.8078   7.6927144231e+01  -2.0784958725e+00    0.2553937    0.1649411 -10.95   0.00115249    1.505    0.335
       126  -8.1751    250.2399    127.6070   4.7349361100e+01   8.0334801102e+00     0.144151     0.116431  27.24 0.0007919062    1.539    0.350
       127  -7.6298     88.0574     12.5096   4.4525306071e+01   5.9896232494e+01    0.2021814    0.1108559  56.56 0.0005198063    1.553    0.356
       128  -8.0782    244.6569    245.6791   6.9487402620e+01  -8.6770430612e+00    0.1190047   0.06506024  -5.72 0.0001428422    1.725    0.420
       129  -9.4540    187.7223    233.3544   7.7920191821e+01  -2.7815490987e-01     0.229252    0.2195138 -29.25  0.001590386    1.460    0.315
       130  -8.6543    167.3866    232.9839   8.2014189140e+01   2.5329768994e+00    0.2403691    0.1660833  25.14 0.0005031342    1.262    0.208
       131  -7.2610    143.4946    208.5168   8.3369725352e+01   1.0506676816e+01    0.1385474    0.1253216  17.96 0.0008100636    1.042    0.041
       132  -8.3891     18.1830    202.0860   1.1334713504e+02   2.8617233781e+01    0.1747717    0.1576671 -65.05 0.0004128787    1.256    0.204
       133  -7.9490     68.5993    196.8431   1.0019401581e+02   2.4203213187e+01    0.2656403    0.1619824 -89.66  0.001209303    2.043    0.510
       134  -7.8339     85.3060    195.0722   9.5625221832e+01   2.2317279658e+01    0.1885913    0.1762191 -79.31 0.0003134294    1.110    0.099
       135 -10.7100    101.0004    175.9982   8.8480642289e+01   2.4459889809e+01    0.2075617    0.2018759  33.54            0    1.001    0.001
       136  -9.3263    166.7488    159.4763   6.8758918157e+01   1.6593285502e+01     0.275976    0.2280748 -34.88 0.0003856908    1.153    0.133
       137  -7.7921    133.5168    147.4712   7.4117473242e+01   2.5452400450e+01     0.300188    0.1345635 -37.97  0.001033113    2.554    0.608
       138  -8.9540     66.6777    144.0282   9.2821845313e+01   3.7733732609e+01    0.4768836    0.2777229  58.01  0.001929959    2.202    0.546
       139  -7.3876     41.3185    138.6832   1.0008496947e+02   4.2292132889e+01    0.1495942    0.1038677  65.61 0.0007039995    1.656    0.396
       140  -7.4864     69.6024    133.5991   8.9881590116e+01   4.0013963042e+01      0.28429     0.146697  11.44 0.0009517555    3.222    0.690
       141  -7.2615      5.3016    133.6784   1.1116994019e+02   4.6650847786e+01    0.1366087   0.08922189  65.57 0.0007027144    1.629    0.386
       142  -7.6865     40.4858    129.0253   9.8795599790e+01   4.4916272816e+01    0.2173749    0.0921073 -45.07 0.0008089925    2.436    0.589
