#   1 NUMBER                 Running object number                                     
#   2 MAG_AUTO               Kron-like elliptical aperture magnitude                    [mag]
#   3 X_IMAGE                Object position along x                                    [pixel]
#   4 Y_IMAGE                Object position along y                                    [pixel]
#   5 X_WORLD                Barycenter position along world x axis                     [deg]
#   6 Y_WORLD                Barycenter position along world y axis                     [deg]
#   7 A_WORLD                Profile RMS along major axis (world units)                 [deg]
#   8 B_WORLD                Profile RMS along minor axis (world units)                 [deg]
#   9 THETA_WORLD            Position angle (CCW/world-x)                               [deg]
#  10 FWHM_WORLD             FWHM assuming a gaussian core                              [deg]
#  11 ELONGATION             A_IMAGE/B_IMAGE                                           
#  12 ELLIPTICITY            1 - B_IMAGE/A_IMAGE                                       
         1 -14.5342    147.2972     59.8297   9.2019182645e+01   4.0642047110e+01     1.411389     1.093667   8.20  0.004093518    1.456    0.313
         2 -14.7448    157.6206     44.4191   8.4642723583e+01   4.0426435695e+01     1.371831     1.017406 -22.23  0.003825846    1.319    0.242
         3 -14.5437    168.9469     12.5108   7.1739132571e+01   4.1238956699e+01     1.209898    0.9910384  41.92  0.004598785    1.237    0.192
         4 -12.7613    188.7202     13.6504   6.9791779901e+01   3.6118203614e+01    0.8939797    0.3160865 -54.36  0.002745621    4.337    0.769
         5 -10.4881     27.8960    172.6721   1.4650827049e+02   3.5924250029e+01    0.1785628    0.1353176 -55.10 0.0008064164    1.587    0.370
         6 -19.8899     95.1293    231.2113   1.3728388416e+02   1.8444784278e+01     7.374074     5.093656  46.54   0.05158617    1.160    0.138
         7 -12.3892    230.4009    167.4646   1.0307151704e+02   7.8330092641e+00     0.346087    0.1790578 -41.58  0.001735344    2.622    0.619
         8 -11.9927    166.9984    173.5456   1.1575862916e+02   1.7159998374e+01    0.2116377    0.1834704 -55.46 0.0007732506    1.529    0.346
         9 -11.9521    201.2076    164.7988   1.0760192090e+02   1.2817118665e+01    0.3956253    0.2759092 -41.47  0.001459271    1.756    0.430
        10 -10.5123     18.3060    220.4809   1.5075867018e+02   2.8071422097e+01   0.09225938   0.07229769  67.41 0.0007749744    1.116    0.104
        11 -11.1965    222.2838    161.5169   1.0327222456e+02   9.8289802493e+00    0.2530276    0.1950662 -46.40  0.001168667    1.923    0.480
        12 -10.2156     23.9409    216.8817   1.4959206474e+02   2.8179959198e+01    0.1251316    0.1068139  62.37 0.0003464751    1.177    0.150
        13 -12.8606    164.1081    157.9863   1.1351999615e+02   2.0106281181e+01    0.3867392    0.1871878  43.69  0.001771489    1.994    0.499
        14 -11.3150     29.5544    156.7812   1.4502118248e+02   3.9034433532e+01     0.217229    0.1796819 -85.88 0.0006039832    1.134    0.118
        15 -14.0223    135.8949    127.9168   1.1368229284e+02   3.0515255251e+01     1.762628    0.3290159 -49.44  0.003938545    7.818    0.872
        16 -12.7184    134.6683    109.5929   1.0969320589e+02   3.4318370131e+01     1.179556    0.1656161 -43.82  0.002588952    7.133    0.860
        17 -14.7492    133.6720    145.6257   1.1784710481e+02   2.7530556294e+01      1.47318    0.5550602 -56.75  0.004895166    4.225    0.763
        18 -12.5613    140.2587    149.3024   1.1703805582e+02   2.5717983820e+01    0.4491132    0.2860898  62.35  0.001220364    2.337    0.572
        19 -14.5352    143.5201    143.9001   1.1524437857e+02   2.6135613615e+01    0.9732568    0.5078888 -56.68  0.004099153    2.650    0.623
        20 -12.9391     12.0937    205.8251   1.5136921057e+02   3.1070066463e+01    0.4939673    0.2433793  20.42  0.003026712    2.553    0.608
        21 -10.3098     17.8259    154.1239   1.4766153855e+02   4.0573555933e+01    0.1641441    0.1213604 -50.03 0.0004508029    1.643    0.391
        22 -10.7741     31.3233    205.4345   1.4766417692e+02   2.9475744857e+01    0.1481811    0.1159395 -41.64  0.001105455    1.878    0.468
        23 -10.7904    192.4056    153.2251   1.0696309814e+02   1.5942017612e+01     0.170304    0.1201212 -40.01 0.0004786619    1.608    0.378
        24 -12.8455    174.1654    148.6819   1.0961964187e+02   1.9850629563e+01    0.3652521    0.2922781 -37.21  0.001163172    1.353    0.261
        25 -13.5869    137.8228    198.9162   1.2553174624e+02   1.7720834556e+01    0.6178136    0.3902365  47.59  0.003407144    1.547    0.354
        26 -13.9963    152.5385    145.1219   1.1347343076e+02   2.4315423046e+01    0.5429812    0.4528912  78.39  0.003007617    1.696    0.410
        27 -11.8890     27.6990    144.8590   1.4454186936e+02   4.1752419311e+01    0.3662389    0.2668357  60.23  0.002405207    1.241    0.194
        28 -11.9892    175.3242    142.0333   1.0800204101e+02   2.0712105468e+01    0.1902651    0.1694704  -7.98 0.0004930907    1.079    0.073
        29 -10.3163     27.0734    138.5849   1.4417397678e+02   4.3186445696e+01    0.2007012    0.1491355  -3.20  0.001239786    1.890    0.471
        30 -10.0345      3.2281    134.7975   1.5014527702e+02   4.5766480668e+01    0.1475363     0.117281 -62.41 0.0007101675    1.350    0.259
        31 -13.4737    160.4353    128.3263   1.0813816959e+02   2.5815466590e+01    0.4678746    0.4325925   4.09  0.002316595    1.021    0.021
        32 -10.6099    144.3015    129.3143   1.1200120391e+02   2.8691437981e+01    0.1431724    0.1075133   0.35 0.0002246112    1.613    0.380
        33 -12.8083     36.4146    124.4884   1.4017962286e+02   4.5552288965e+01    0.5276597    0.2643221  18.18  0.002554241    2.547    0.607
        34 -11.7317    141.5086    121.0215   1.1077930919e+02   3.0784150426e+01    0.2793178    0.1998368  58.07  0.001013031    1.688    0.408
        35 -11.5716     12.8879    242.2211   1.5239310128e+02   2.5115501890e+01     0.128981    0.1118363  55.79  0.001237677    1.299    0.230
        36 -11.5348    150.8112    239.9360   1.2808130469e+02   1.0316017033e+01    0.1830831    0.1746036  11.74  0.000505602    1.320    0.242
        37 -12.6048    161.3930    239.3360   1.2616725034e+02   9.0271868387e+00    0.3162191    0.1530861  31.89  0.001445779    1.593    0.372
        38 -10.8640    205.3345    110.2313   9.4963387406e+01   1.9875020648e+01    0.2855288     0.183414  38.30 0.0008563939    1.564    0.361
        39 -10.3154     19.5049    197.0633   1.4958222214e+02   3.2012396986e+01    0.1321945   0.08850605 -77.36 0.0009233984    1.525    0.344
        40 -12.0187     30.4741    104.7006   1.3952704513e+02   5.0720702596e+01    0.3757118    0.2225165   2.20  0.001182766    2.467    0.595
        41 -11.9082     26.7063    194.5252   1.4801772144e+02   3.1849790914e+01    0.1852983    0.1446623  68.69 0.0006348341    1.060    0.056
        42 -13.0050    146.8079    189.2442   1.2235963535e+02   1.7893001826e+01    0.4059832    0.2419868  14.60  0.002055119    2.218    0.549
        43 -11.2720     41.8795     92.1444   1.3374793088e+02   5.2674766215e+01    0.2337673     0.171778 -69.16 0.0006688142    1.215    0.177
        44 -12.0805     51.8601     91.6098   1.3018870958e+02   5.1729576151e+01    0.2960792     0.255422  -2.99 0.0008262651    1.372    0.271
        45 -13.9255    195.2227    169.9615   1.0967210519e+02   1.3085433357e+01    0.6752613     0.406676 -44.10  0.002580746    2.100    0.524
        46 -12.2835     21.7477    237.0327   1.5074681336e+02   2.5147655297e+01    0.1737303    0.1204139  82.48  0.001474197    1.390    0.281
        47 -10.8140    142.1928     80.8084   9.9894548930e+01   3.8215359815e+01    0.2200622    0.2081906 -46.86 0.0005629017    1.139    0.122
        48 -10.9311     28.4654    238.7994   1.4966657140e+02   2.4283847819e+01    0.1191643   0.08104198  84.02 0.0008573915    1.453    0.312
        49 -19.1840     78.1800     95.6221   1.2230335992e+02   4.7298308376e+01      18.6955     0.837669 -55.20    0.0256772   18.940    0.947
        50 -13.0229    161.3665     35.7086   8.0949760220e+01   4.0633675903e+01    0.4395163    0.3995162   2.31  0.000878852    1.088    0.081
        51  -9.8994     21.9289     60.0226   1.3515618960e+02   6.2136018763e+01    0.1491318    0.1315856 -57.71 0.0004007752    1.059    0.056
        52 -11.0766     13.4140     59.8794   1.3885602530e+02   6.2734078230e+01    0.1831505    0.1677416  64.84 0.0004388117    1.252    0.202
        53 -10.3151     15.5876    246.8064   1.5208225130e+02   2.4209855264e+01    0.1544975   0.06905933  80.65  0.001079289    2.198    0.545
