#   1 NUMBER                 Running object number                                     
#   2 MAG_AUTO               Kron-like elliptical aperture magnitude                    [mag]
#   3 X_IMAGE                Object position along x                                    [pixel]
#   4 Y_IMAGE                Object position along y                                    [pixel]
#   5 X_WORLD                Barycenter position along world x axis                     [deg]
#   6 Y_WORLD                Barycenter position along world y axis                     [deg]
#   7 A_WORLD                Profile RMS along major axis (world units)                 [deg]
#   8 B_WORLD                Profile RMS along minor axis (world units)                 [deg]
#   9 THETA_WORLD            Position angle (CCW/world-x)                               [deg]
#  10 FWHM_WORLD             FWHM assuming a gaussian core                              [deg]
#  11 ELONGATION             A_IMAGE/B_IMAGE                                           
#  12 ELLIPTICITY            1 - B_IMAGE/A_IMAGE                                       
         1 -13.0469    166.1634     39.8502   3.4451534031e+01   3.8775010267e+01     2.306785     1.740998  -1.66  0.007326719    1.577    0.366
         2 -13.8021    214.0780     54.4220   3.0585849197e+01   2.4043795423e+01     3.791771     3.240291  69.75   0.01997173    1.165    0.141
         3 -13.7928    182.1362     57.7042   3.6978905105e+01   3.1930693012e+01     2.779882     1.854655 -31.59   0.01245977    1.538    0.350
         4 -12.8674    200.7458     36.0965   2.7404273536e+01   3.0088579555e+01     2.066451     1.504583 -78.72  0.009124372    1.562    0.360
         5 -10.8490     44.0189     20.0372   6.2623236748e+01   6.6277656983e+01       0.5339    0.3391917   1.81  0.001964866    1.778    0.438
         6 -10.9221     66.7896     13.6126   5.0853265489e+01   6.4059349170e+01    0.3010902    0.2314692 -41.59 0.0005398917    1.581    0.368
         7 -10.7549     62.8529     19.7344   5.5028671417e+01   6.3811514240e+01    0.3558829    0.1857773 -22.67  0.001761633    1.972    0.493
         8 -10.2689    102.2439     13.2333   3.9369347511e+01   5.7516564519e+01    0.4854099    0.2696577  11.65  0.002105541    2.412    0.585
         9  -8.9155     37.1340     11.1001   6.1664045237e+01   6.8439801825e+01    0.2757001    0.1407552 -43.10  0.001256938    1.883    0.469
        10  -9.0786    124.8641     11.3392   3.2958338322e+01   5.2646773028e+01    0.2087251    0.1849554 -27.56 0.0003516262    1.235    0.190
        11 -10.6031    117.4439     10.7713   3.4454706496e+01   5.4436265843e+01    0.3626619    0.2318543  51.31  0.001263505    1.427    0.299
        12 -10.6185    112.9883     11.1822   3.5706559469e+01   5.5403777157e+01    0.3397453    0.1888076 -22.62 0.0004340361    1.844    0.458
        13  -8.6029     93.1660     12.1339   4.1491731842e+01   5.9503695325e+01     0.171779    0.1539737 -37.25 0.0005434035    1.353    0.261
        14  -9.0860     80.2869     11.3852   4.5171821603e+01   6.2043116816e+01    0.2956407    0.2203036 -73.17  0.001474106    2.825    0.646
        15  -9.1762     75.3386     10.9651   4.6634403953e+01   6.2973351852e+01    0.1752449    0.1408501  -8.44 0.0003993807    1.097    0.088
        16  -9.6820     99.9697      8.1097   3.7819489548e+01   5.8557399480e+01    0.2448211    0.1802028 -12.48 0.0009724485    1.334    0.250
        17 -10.3496     69.3219      7.4194   4.7084921514e+01   6.4430206989e+01    0.3620338    0.1833404 -44.87  0.001661994    2.874    0.652
        18  -9.6526     91.2542      4.5936   3.8733933373e+01   6.0710070494e+01    0.4510283    0.2151561 -20.51  0.002123422    2.111    0.526
        19  -8.8375    144.5582      6.0166   2.6967154699e+01   4.8332390440e+01     0.259462    0.1926528  86.39 0.0008297659    1.554    0.357
        20  -9.5359    248.6729      4.9863   1.3803110549e+01   2.1556979993e+01     0.244059    0.1634064  57.05  0.001029709    1.608    0.378
        21  -9.9228     73.3994      4.2192   4.4164327252e+01   6.4103208912e+01    0.2967345    0.1920106   9.20  0.001668557    1.549    0.354
        22  -9.9451    236.4934      1.7633   1.4056538573e+01   2.4845455394e+01    0.4953046    0.1705759  71.70  0.001952167    2.657    0.624
        23  -9.6671     73.8225     17.7558   5.0189995705e+01   6.2352637312e+01    0.5500853    0.3216097 -54.03  0.002421022    3.226    0.690
        24  -8.4835     99.9074      1.4516   3.4956588385e+01   5.9234645458e+01    0.1814406    0.1189509  52.30 0.0003733443    1.448    0.309
        25  -8.2278     78.4002      1.2666   4.1121120649e+01   6.3521732131e+01    0.1366636    0.0789744  23.79 0.0006974952    1.733    0.423
        26  -8.4977      3.2291    124.4085   9.9090346864e+01   4.8339210947e+01    0.1340701   0.08847844  53.91 0.0003693394    1.609    0.378
        27 -10.8074     37.6686    249.4027   1.0139434678e+02   2.1228519776e+01    0.4632964     0.184977  45.11  0.002961464    2.023    0.506
        28  -8.9533    215.8716    122.8792   4.8280516091e+01   1.2493612521e+01    0.2304102    0.1959647  15.24  0.000517614    1.221    0.181
        29  -9.5169    221.5571    121.8021   4.6972316329e+01   1.1376759289e+01    0.4296325    0.2038589  56.80  0.001636872    2.378    0.579
        30  -8.4529    108.0029    119.9571   7.1871225116e+01   3.6798091751e+01    0.1647315    0.1549678 -79.45 0.0009392126    1.004    0.004
        31  -9.9755    248.5775    117.9424   4.1422469293e+01   6.0332883176e+00    0.2616528    0.2127339  57.14 0.0007925039    1.381    0.276
        32 -10.8275    203.3091    116.1788   4.9028325023e+01   1.6578592443e+01    0.6606109    0.3600368  66.69   0.00227279    2.683    0.627
        33 -11.4093    227.9873    108.9913   4.2691109124e+01   1.2008995377e+01    0.3531897    0.2662396  72.59  0.001700748    1.652    0.395
        34 -12.5860    240.6177    104.5008   3.9474484723e+01   9.8454876545e+00    0.7088532    0.5053775 -42.86  0.003507061    1.413    0.292
        35 -11.1905    247.2784    103.6448   3.8211718553e+01   8.4949348594e+00    0.5509183     0.390369 -85.48  0.002519114    2.224    0.550
        36 -10.9748    246.2365     97.9283   3.6981184067e+01   9.6010126055e+00    0.4273368    0.2148311 -31.18  0.001806877    1.889    0.471
        37 -11.7701    232.1718    114.6271   4.3353663900e+01   1.0144137570e+01    0.4537976    0.3708106 -74.71  0.001742014    1.614    0.380
        38  -8.9585    196.7796    114.0292   4.9777491612e+01   1.8514892731e+01    0.3545926    0.2136804 -39.19 0.0009531984    1.682    0.406
        39 -10.2153    197.0726    108.7478   4.8370745284e+01   1.9392432267e+01     0.454039    0.4209909  -0.62  0.001449859    1.111    0.100
        40 -10.1005      2.5585    114.2873   9.8274428903e+01   5.0532568919e+01    0.2097375    0.1566853 -86.19 0.0007487218    1.075    0.069
        41  -9.8148     12.2699    113.4645   9.5784799860e+01   5.0066952859e+01    0.2216817    0.1263406 -73.66   0.00136703    1.344    0.256
        42  -8.5270    210.9970    112.4576   4.6623071090e+01   1.5405915319e+01    0.2384156    0.1474827  51.12 0.0009865491    1.606    0.377
        43  -8.7022     27.0194    113.6994   9.2054474587e+01   4.8874101691e+01    0.1557417    0.1333234 -78.38 0.0003031625    1.092    0.084
        44  -8.6891     38.0172    110.2881   8.8661774774e+01   4.8637624858e+01    0.1656058    0.1424205 -82.89  0.000444045    1.080    0.074
        45  -8.4979     42.0074    109.2836   8.7426618892e+01   4.8470450448e+01    0.1612619    0.1404999 -73.50 0.0002749952    1.064    0.060
        46 -11.8128    209.7154    105.2794   4.5040090123e+01   1.6945849639e+01    0.6064675     0.473352  59.51  0.001951413    1.345    0.256
        47  -9.0656      4.3082    104.3367   9.6768756825e+01   5.2551100854e+01    0.1141703   0.06418837 -52.11 0.0007042607    1.678    0.404
        48 -10.9794     80.8474    100.0074   7.4733875571e+01   4.5730782448e+01    0.2410307    0.2225292 -53.51 0.0002732993    1.053    0.051
        49  -8.7061     33.8704     98.8730   8.7965221557e+01   5.1553104699e+01    0.1593932    0.1224345 -87.37 -0.0006383859    1.270    0.212
        50  -8.3598    136.8081     97.3231   5.8872989195e+01   3.5867973196e+01    0.3500656    0.1854442 -23.07  0.001105989    3.549    0.718
        51  -9.2866     47.1038     97.4083   8.3909262661e+01   5.0594616369e+01    0.3342768    0.1420122 -58.70  0.001155882    1.913    0.477
        52 -10.6432     10.9597     96.8426   9.4066737346e+01   5.3748543716e+01    0.2400354    0.1927656 -72.53 0.0007195995    1.056    0.053
        53 -13.1853    204.7948     86.0228   4.0862730577e+01   2.1442553631e+01     1.274644    0.8436307 -49.66  0.003468069    1.636    0.389
        54 -10.8562    244.0520    249.1070   6.7654087409e+01  -9.8077018013e+00    0.3112239    0.1764692  42.88  0.001985555    1.546    0.353
        55 -13.0193    240.4089     76.6324   3.2543459509e+01   1.4186363840e+01     2.237637    0.9328086 -43.58  0.001981471    2.382    0.580
        56 -13.3923    175.8293     69.1504   4.1665402010e+01   3.1718601031e+01     1.941109      1.08878 -60.30  0.006887342    2.707    0.631
        57  -9.2946     84.3681    248.8347   9.4178595228e+01   1.5392971423e+01    0.1286626   0.09277136 -65.41  0.000951777    1.756    0.430
        58  -8.5056     23.8042     88.8362   8.9193162031e+01   5.4585866687e+01    0.1576607    0.1240502  84.35 0.0007272493    1.345    0.257
        59 -10.9201    237.8519     87.5170   3.5684347784e+01   1.3126376215e+01    0.4314635    0.2719548  55.28   0.00148815    1.643    0.391
        60  -8.4314     48.6814     86.5165   8.1237975490e+01   5.2832304948e+01    0.2201658   0.09990911 -59.64 0.0005973212    1.859    0.462
        61  -8.6585    106.8932     85.7079   6.3640703681e+01   4.4422212260e+01    0.1873318    0.1799996  57.61 0.0002433198    1.100    0.091
        62 -10.6620     60.2298    246.1077   9.7786736873e+01   1.9031096874e+01    0.3352072    0.2265923 -57.67  0.002434896    2.190    0.543
        63  -8.2001     73.1260     89.6142   7.4536305614e+01   4.9141524885e+01    0.1609513    0.1294158  12.68 0.0004687346    1.539    0.350
        64  -9.7225    162.2839     84.3424   4.9080640045e+01   3.2445359569e+01    0.4930336     0.256873  61.86  0.001795586    2.299    0.565
        65  -8.0874     98.1939     85.0500   6.5946198623e+01   4.6151205648e+01    0.1820355    0.1056302 -46.66 0.0003017633    1.619    0.382
        66  -8.7855     13.6688     85.3379   9.1624481274e+01   5.6053479674e+01    0.1147714   0.07628278  77.58 0.0007051975    1.738    0.425
        67  -8.8769     68.8431     83.3205   7.4285608112e+01   5.1099265739e+01    0.2166194    0.1652988 -63.64 0.0004587783    1.280    0.219
        68  -8.7041     42.9456     85.0000   8.2679499902e+01   5.3753376784e+01    0.1753733    0.0723411  28.53 0.0007998592    2.925    0.658
        69  -8.4032     29.7711     84.2058   8.6572530224e+01   5.5119922497e+01    0.2075811   0.06002909 -54.99 0.0008848755    2.506    0.601
        70  -8.3844     62.3228     83.3064   7.6296721184e+01   5.1951161732e+01    0.1326786   0.09295494 -29.33 0.0004471491    1.642    0.391
        71  -8.2389      5.6712     82.3327   9.3538302802e+01   5.7174551875e+01    0.1111948   0.07333945  77.30 0.0007051837    1.719    0.418
        72 -11.3144    171.4848     77.0351   4.4915553565e+01   3.1469764987e+01    0.6289502    0.3539415 -39.91  0.002305136    1.791    0.442
        73 -11.4211    165.9988     74.7986   4.5439397553e+01   3.3252172100e+01    0.8216838    0.4909469 -34.28  0.003419555    1.711    0.416
        74  -8.0531     82.3967     79.2395   6.9045240068e+01   5.0004302856e+01    0.1351404    0.1037059  -5.88 0.0006922387    1.667    0.400
        75  -8.8607     50.5110     79.4691   7.9089583627e+01   5.4167605396e+01    0.1275691    0.1077037 -53.54 7.780215e-05    1.004    0.004
        76  -9.6590     25.1219     78.3665   8.6909068487e+01   5.6749606116e+01    0.2592694    0.1132926  24.72  0.001338052    2.842    0.648
        77 -11.2624     56.9086    242.6017   9.8074851327e+01   2.0012630153e+01     0.313816    0.1776879  60.59  0.001884605    1.278    0.218
        78  -9.0740     30.1359     75.1757   8.4672022412e+01   5.7036680166e+01    0.1554288    0.1297487 -88.16  0.000739992    1.318    0.241
        79  -8.7095    151.2729     73.1317   4.8285178114e+01   3.7202368114e+01    0.2110023     0.190457 -37.17 0.0003799544    1.121    0.108
        80 -10.9102    141.1700     71.6789   5.0281937094e+01   3.9884529725e+01     1.074959    0.4924062  38.45  0.003622661    2.581    0.612
        81 -10.7166     10.3381     68.0221   8.9719795451e+01   5.9932784895e+01    0.3897903    0.2538683 -40.17  0.002521639    1.482    0.325
        82  -9.8114     23.6167     68.4225   8.5396500854e+01   5.8977563987e+01    0.2308073    0.1634034  71.74 0.0008601405    1.912    0.477
        83 -12.0458    153.2638     64.7743   4.5221748258e+01   3.8190513929e+01     1.034397    0.7118618 -44.44  0.003008641    1.517    0.341
        84  -8.9617    139.4150     66.1874   4.8987691313e+01   4.1292771490e+01    0.2132622    0.1410956 -47.32 0.0005036163    1.615    0.381
        85  -9.2343     17.9163     65.8785   8.6779167105e+01   5.9910719785e+01    0.1785356    0.1269079 -47.11 0.0004562669    1.200    0.166
        86  -9.4338     72.2038     75.7556   7.1257712456e+01   5.2250532924e+01     0.243579    0.2033578 -24.04  0.001049713    1.255    0.203
        87 -10.2922     28.6649     61.7604   8.2171891358e+01   5.9980634147e+01    0.5238599    0.2600451 -42.55  0.002853073    1.778    0.438
        88 -10.3692    118.2616     62.2870   5.3275925566e+01   4.6744671355e+01    0.5416816     0.339654  30.33  0.002045464    1.865    0.464
        89  -9.3074     39.5057     63.5099   7.8836349192e+01   5.8668619546e+01    0.4345954    0.2178314 -67.27  0.002087425    2.266    0.559
        90  -8.9676     42.4935     61.4458   7.7258351699e+01   5.8803378550e+01    0.2227594    0.1675307 -34.94 0.0008158788    1.234    0.190
        91  -8.6227     37.1934     73.0111   8.1903496185e+01   5.6887008156e+01    0.2188005    0.1039614 -41.09  0.001078909    2.078    0.519
        92 -10.0737    140.5244     58.5268   4.6231385719e+01   4.2363807951e+01    0.2499382    0.1955991  83.84 0.0006209336    1.663    0.399
        93 -10.0469    139.4035     54.7574   4.5255860209e+01   4.3263024208e+01     0.408992    0.2538507 -31.54  0.001690407    1.644    0.392
        94  -9.7777     15.9606     58.1727   8.5810604587e+01   6.1634287887e+01    0.3006024    0.0875767 -45.10   0.00133227    2.832    0.647
        95  -7.7180     78.3156     58.2963   6.4072877681e+01   5.4878391267e+01    0.1363008   0.09922159 -12.32 0.0002814872    1.605    0.377
        96 -10.3296     22.6800     57.6141   8.3294859243e+01   6.1290891778e+01    0.2794596    0.1721338  65.45  0.001228348    2.798    0.643
        97  -9.9696      3.9626     50.9047   8.8544559304e+01   6.3787507217e+01    0.2371004    0.1813439 -36.42  0.001696085    1.272    0.214
        98  -9.8727     81.9815     54.8680   6.1738224138e+01   5.4947744922e+01    0.2588663    0.2058343 -56.76 0.0003642354    1.437    0.304
        99  -8.8500     58.9236     54.6717   6.9513521551e+01   5.8312475738e+01    0.1694012     0.156649  -9.64 0.0005073801    1.136    0.119
       100  -9.8438      3.8553     56.0469   8.9635950463e+01   6.2752364807e+01    0.2671452    0.2086291 -86.27  0.001163527    1.406    0.289
       101  -9.2168    237.7889     48.6313   2.5733566797e+01   1.8866557831e+01    0.2620695    0.2222762 -46.58 0.0006040274    1.117    0.105
       102 -11.6145    151.1557     46.1361   3.9635136714e+01   4.1731587047e+01      1.07178    0.5859122   2.55  0.003319326    4.020    0.751
       103 -10.0369    148.6349     38.7387   3.7683314803e+01   4.3446266526e+01    0.6619754    0.2800325 -40.25    0.0020341    2.500    0.600
       104  -8.2655     68.9499     48.9914   6.4136583500e+01   5.8041425536e+01      0.15212    0.1371062  -6.68            0    1.097    0.088
       105  -9.7593     86.6878     46.7597   5.7381545510e+01   5.5629306608e+01     0.338295    0.2301382 -43.40  0.000963964    1.455    0.313
       106  -9.3348     83.7902     40.6829   5.6098843232e+01   5.7170719139e+01    0.3550597    0.3015667  62.11  0.002066804    1.577    0.366
       107  -8.2689     81.4021     48.4443   5.9715093064e+01   5.6222001704e+01    0.1343044    0.1186511 -22.78 7.778136e-05    1.020    0.019
       108  -9.5503    100.5045     45.6998   5.2670383290e+01   5.3269183553e+01    0.2855271    0.2720091  69.49  0.001143842    1.277    0.217
       109  -8.2819     52.5926     46.1766   6.9049109730e+01   6.0719053225e+01    0.1837609    0.0970208 -38.44 0.0004845589    1.662    0.398
       110  -9.5208     24.7555     45.3922   7.9356602922e+01   6.3585231091e+01    0.2613857     0.206778  76.85  0.001037584    1.889    0.471
       111  -7.9361     43.3496     45.7286   7.2352645635e+01   6.1837020137e+01    0.1083542   0.09518509  83.02 0.0006996437    1.627    0.385
       112  -9.4742    184.4899     97.5378   4.7965218829e+01   2.4506093226e+01    0.1553537    0.1529526  51.03 4.286744e-05    1.018    0.018
       113  -9.9198    126.6546     43.9157   4.4713867415e+01   4.7992310506e+01    0.2662632    0.1966562  38.10   0.00095525    1.330    0.248
       114  -9.0236     16.0158     43.6219   8.2256763291e+01   6.4550740610e+01    0.1869933    0.1201945 -45.89 0.0007207515    1.190    0.159
       115 -10.8059      2.9798     39.4917   8.6320685665e+01   6.6092658319e+01    0.4104993    0.2504106 -71.12  0.001998705    1.611    0.379
       116 -10.9087      8.8546     38.8512   8.3819261666e+01   6.5911094934e+01    0.5968622    0.1110908 -55.72   0.00212806    3.079    0.675
       117  -8.7672    121.7637     41.9861   4.5297303443e+01   4.9400857732e+01    0.1951531    0.1198613 -30.61  0.000883801    1.633    0.388
       118  -8.3867    117.3242     42.6323   4.6722261501e+01   5.0284969309e+01    0.1468835    0.1144156 -68.16 0.0007036376    1.801    0.445
       119 -10.2127    133.6517     38.1915   4.0928026028e+01   4.7208126525e+01    0.4957539    0.3750165  -8.90  0.001696669    1.446    0.308
       120  -9.5193     30.6575     37.8000   7.4740607997e+01   6.4555309800e+01    0.2464617    0.1744724 -54.80  0.000865481    1.349    0.258
       121 -10.3263     10.4683     31.8800   8.1212012213e+01   6.7145327886e+01    0.2152437    0.1946159 -37.78 0.0009541845    1.233    0.189
       122  -8.7939    122.9465     37.3316   4.3292303425e+01   4.9832005850e+01    0.2409799    0.1971107 -38.09 0.0005167899    1.293    0.227
       123 -10.3251     65.0314     31.8644   5.9238340149e+01   6.1607900251e+01    0.2828842    0.2589276  73.39  0.001342752    1.632    0.387
       124  -9.5176     60.5202     37.4849   6.3053407453e+01   6.1290291832e+01    0.1956986    0.1576391   3.75 0.0007998939    1.250    0.200
       125 -10.3157     61.7388     33.5916   6.1127001940e+01   6.1790006527e+01    0.3317811    0.2098139 -57.36  0.001650865    2.287    0.563
       126  -8.8022     51.1342     37.1798   6.6476074071e+01   6.2544130391e+01    0.1556506    0.1413654 -49.06 0.0005461512    1.314    0.239
       127  -9.9955    138.8293     34.1751   3.8279210887e+01   4.6519278035e+01    0.4019499    0.2691681 -10.49  0.001150443    1.737    0.424
       128  -9.9442    137.0502     27.9656   3.6453165220e+01   4.7777768951e+01    0.3162902    0.2670775 -83.29 0.0007307578    1.465    0.317
       129  -9.1720     91.7740     34.0367   5.0970602610e+01   5.6810255434e+01    0.3139143    0.1699405 -25.99  0.001190135    1.892    0.471
       130  -9.6954     49.3737     31.7571   6.5147651204e+01   6.3705573771e+01    0.4463791    0.2884749 -15.87  0.002555952    1.645    0.392
       131  -9.0797    111.9322     32.8215   4.4545055345e+01   5.2927167447e+01     0.274039    0.2256821  54.32   0.00104602    1.309    0.236
       132 -10.2328    154.7145     30.5316   3.3606873604e+01   4.3002037782e+01     0.277222    0.2554123  60.96 0.0003598178    1.067    0.063
       133 -10.6863      2.5156     28.9943   8.3754356879e+01   6.8116693808e+01    0.3583048    0.2038479 -69.32  0.001656738    1.869    0.465
       134 -10.8008    211.3967     28.1878   2.3667390661e+01   2.8279524096e+01    0.8404066    0.3557779  72.41  0.003123745    2.508    0.601
       135  -8.6092    120.4760     30.1194   4.1242579866e+01   5.1411946372e+01    0.2083781     0.138346 -24.49  0.001010252    1.531    0.347
       136  -9.3646    122.2014     26.7642   3.9532661113e+01   5.1463485765e+01    0.2650378    0.1415663  33.71  0.001108634    2.071    0.517
       137  -9.0599    131.9661     28.7624   3.7912587443e+01   4.8907397785e+01    0.2128399    0.1949059  87.52 0.0008235181    1.278    0.217
       138  -8.4670     42.4571     28.2498   6.6573310601e+01   6.5103538978e+01    0.1657518    0.1032281 -51.13 0.0009476281    1.699    0.412
       139 -10.2596     28.9280     26.7870   7.1669621559e+01   6.6706796763e+01    0.2164701    0.1712757 -33.90 0.0004308224    1.055    0.052
       140  -8.4849     70.8097     26.8407   5.5119318713e+01   6.1528379049e+01    0.1591126    0.1477947 -33.14 0.0003209577    1.300    0.231
       141 -14.0371    217.8072     87.7745   3.9020916873e+01   1.7910241700e+01     2.501375     2.017292  39.76   0.01255864    1.284    0.221
       142  -9.8921     59.2952     26.5430   5.9245507333e+01   6.3284487800e+01    0.2151935    0.1188851  40.85 0.0009409301    2.075    0.518
       143 -10.3685    155.0059     23.9873   3.1313825907e+01   4.3737952525e+01    0.3392893    0.2122965  31.81  0.001509113    1.797    0.444
       144  -9.1765    102.5824     24.4859   4.3906003269e+01   5.6054274107e+01    0.2337518    0.2129249 -39.97 0.0004661859    1.285    0.222
       145  -8.7909    105.0388     22.2153   4.2292859698e+01   5.5838721133e+01    0.2105269    0.1881058  14.37 0.0004656005    1.012    0.012
       146  -7.7676     13.3170     25.6771   7.8049544678e+01   6.8110127348e+01   0.09695709   0.08354325 -82.97 0.0007043173    1.667    0.400
       147  -8.8064     98.9897     20.8053   4.3445810089e+01   5.7272348045e+01    0.3289053    0.2179285 -62.36  0.001188875    2.791    0.642
       148 -11.6180    187.1464     86.5193   4.4389353501e+01   2.5819740039e+01    0.5747564    0.3626356 -62.36   0.00224593    2.205    0.546
       149  -9.0388    249.1977    123.1878   4.2550770729e+01   5.1093688859e+00    0.1855923    0.1690351 -63.98 0.0005763902    1.343    0.256
       150  -9.2530     48.0585     17.3008   5.9780078239e+01   6.6209014433e+01     0.217143     0.205735  -9.53 0.0008805735    1.373    0.272
       151  -9.6900    114.4837     21.0031   3.9264576844e+01   5.3941221256e+01    0.4174251    0.2155131   7.59   0.00147116    3.505    0.715
       152  -9.3675     85.7883     22.0130   4.8003936007e+01   5.9668630314e+01    0.2577513    0.2166519  68.63 0.0009909107    1.702    0.412
       153  -9.4128    182.2304     20.6227   2.5559252174e+01   3.6937670248e+01    0.3348803    0.2238844 -63.94  0.001540313    1.766    0.434
       154 -10.4596    125.6265     20.6501   3.6368834830e+01   5.1427287404e+01    0.2660893    0.2241968   1.50  0.001484579    1.192    0.161
       155  -9.6084      2.8920    242.8986   1.0609515249e+02   2.5920294881e+01    0.1369748   0.09811853  75.59  0.001041916    1.202    0.168
       156  -8.8430     76.6860     14.7103   4.7859801767e+01   6.2267081256e+01    0.2039557    0.1193537 -23.13 0.0004444704    1.614    0.380
       157  -9.1904    191.0054    249.7571   7.6516946437e+01  -1.4679858955e+00     0.163397   0.07471861  43.28 0.0008894605    1.621    0.383
       158  -9.0760    174.4926     20.0265   2.6581031537e+01   3.9070477934e+01    0.2145586    0.1468625 -24.65   0.00102823    1.576    0.365
       159  -9.1906    132.9812     18.4370   3.3854067785e+01   4.9924223990e+01    0.2251931    0.1328958  59.09  0.001033258    1.622    0.384
       160 -10.6825     85.7039    240.3366   9.3282072758e+01   1.6543633708e+01    0.3752558    0.1377933  52.04  0.001989302    2.072    0.517
       161 -11.2380    198.2671     95.4204   4.4631350337e+01   2.1462306580e+01    0.5311656    0.2695774  66.55  0.001842276    2.703    0.630
       162 -11.2990     52.0595    233.3723   9.8234953009e+01   2.2137528124e+01    0.6225958    0.3206615  43.76  0.004063127    1.777    0.437
       163  -8.4578      3.5853     13.4817   7.8317022275e+01   7.0850687859e+01    0.1098918   0.07544845 -38.06 1.956236e-05    1.044    0.042
       164  -8.8008     40.8044    229.6975   9.9796120916e+01   2.4103631165e+01    0.1561278    0.1122428 -87.70 0.0005285802    1.300    0.231
       165 -11.4588     33.4127    213.7219   9.9999980164e+01   2.7743614422e+01    0.5507602    0.2751302 -70.57  0.002383565    1.917    0.478
       166  -9.7477     26.6984    215.3860   1.0120631339e+02   2.8171792360e+01    0.2806245    0.1160954  74.05  0.001586852    2.259    0.557
       167  -8.7110     12.7461    214.3037   1.0338870643e+02   2.9783550611e+01    0.2670244   0.07132369  65.29  0.001160356    4.037    0.752
       168  -9.0533     25.8483    207.1535   1.0085253173e+02   2.9750380488e+01    0.1728932    0.1270863  53.51  0.001127745    1.363    0.266
       169  -8.9042    107.1634    202.3564   8.5626885499e+01   1.9846137471e+01    0.1831631    0.1631618 -77.68 0.0004667287    1.267    0.211
       170 -10.4036    249.5629    166.1723   5.1968909699e+01  -1.1713221420e+00    0.3233787     0.124912 -28.87  0.001310363    2.695    0.629
       171 -10.3425    245.3074    162.1382   5.1855638275e+01   1.8879981597e-01    0.2190569    0.1583776  -5.69   0.00119148    1.410    0.291
       172 -11.4611    243.8585    154.0360   5.0380732942e+01   1.6227201423e+00    0.3999266    0.3074761  -9.32  0.001438603    1.274    0.215
       173 -11.4126    246.3845    146.2302   4.8246536038e+01   2.2572451194e+00    0.3826038    0.3254707 -27.46  0.002237478    1.195    0.163
       174 -11.8234    243.8434    136.8163   4.6572921566e+01   4.1676858289e+00    0.5034621    0.3157025 -20.79  0.001581677    1.650    0.394
       175  -8.2260     24.8212    134.3159   9.5091558317e+01   4.4556993258e+01      0.12374    0.1089732  26.10 0.0004495799    1.537    0.350
       176  -8.2697      9.4839    131.5288   9.8321014218e+01   4.6391542699e+01    0.1136285   0.08325417  89.58 0.0006130394    1.081    0.075
       177  -8.1176     22.2955    130.2943   9.5241040263e+01   4.5645403547e+01    0.1093555   0.07486161 -52.83 0.0002561741    1.561    0.360
       178  -8.4285    231.5326    129.4571   4.7006080203e+01   7.9139754017e+00    0.1439117     0.134768   4.47 0.0002677907    1.018    0.018
