#   1 NUMBER                 Running object number                                     
#   2 MAG_AUTO               Kron-like elliptical aperture magnitude                    [mag]
#   3 X_IMAGE                Object position along x                                    [pixel]
#   4 Y_IMAGE                Object position along y                                    [pixel]
#   5 X_WORLD                Barycenter position along world x axis                     [deg]
#   6 Y_WORLD                Barycenter position along world y axis                     [deg]
#   7 A_WORLD                Profile RMS along major axis (world units)                 [deg]
#   8 B_WORLD                Profile RMS along minor axis (world units)                 [deg]
#   9 THETA_WORLD            Position angle (CCW/world-x)                               [deg]
#  10 FWHM_WORLD             FWHM assuming a gaussian core                              [deg]
#  11 ELONGATION             A_IMAGE/B_IMAGE                                           
#  12 ELLIPTICITY            1 - B_IMAGE/A_IMAGE                                       
         1 -14.5564     68.5157    144.3005   9.8580881695e+01   3.7392578263e+01     5.033366     2.555867  68.94  0.005654751    4.563    0.781
         2 -13.2552    201.3143     42.5190   3.9828166748e+01   3.0026455521e+01     1.135918    0.9957252 -27.87  0.003818751    1.341    0.254
         3 -13.5407    212.1299     32.4809   3.6256699208e+01   2.8896842211e+01    0.9284576     0.819495   9.52  0.001947108    1.621    0.383
         4 -11.7957    241.1588      8.6258   2.8829317209e+01   2.5584627311e+01    0.4319719    0.4186062 -10.84  0.003001041    1.546    0.353
         5 -12.0434    234.3935      7.3389   2.9034282584e+01   2.7077747673e+01    0.6201012    0.3129747 -45.61    0.0031633    1.689    0.408
         6 -11.5423    239.6850      2.6403   2.7778162907e+01   2.6512520808e+01    0.5298628      0.23304  84.55  0.002876811    2.147    0.534
         7 -12.8096    191.2802     49.9644   4.2985619091e+01   3.1315993387e+01    0.9221891     0.789293  44.81   0.00142328    1.352    0.260
         8  -9.4660    139.9267    249.8089   9.7115367681e+01   2.6168517549e+00    0.2170032    0.1264951  51.49  0.001091979    1.953    0.488
         9 -10.0817    102.0000    249.0270   1.0503622251e+02   8.3159076094e+00    0.2713516    0.1858663 -71.31  0.001304145    1.751    0.429
        10 -11.2794    101.1145    242.8830   1.0453514340e+02   9.6078759870e+00     0.519729    0.2760728 -55.90  0.001372486    2.131    0.531
        11 -15.4109     41.6143    195.5334   1.1293028026e+02   2.7834313935e+01      8.18646     2.745264  61.80    0.0225122    6.184    0.838
        12 -13.3556     52.9158    186.0992   1.0913315551e+02   2.8793515567e+01     1.501373     1.091634  71.34  0.008172393    1.370    0.270
        13 -10.9823    192.4048    193.5947   7.6497706359e+01   4.5000322821e+00     0.566377    0.3108868 -60.47  0.002085423    3.545    0.718
        14  -9.8305    111.0098    203.4664   9.7039811129e+01   1.6317097176e+01    0.2419031    0.1966457  86.07 0.0003813482    1.431    0.301
        15  -9.7615    107.1869    203.3372   9.7948639803e+01   1.6958443856e+01    0.2737577    0.1831444  82.23  0.001228427    2.128    0.530
        16 -10.2043    122.3948    199.0235   9.3563337498e+01   1.5435618798e+01    0.3340605    0.2598774 -81.40  0.001091396    1.599    0.374
        17 -15.4994      5.0438    176.6563   1.2000265029e+02   3.5818018251e+01     13.12114    0.9503402 -75.12   0.02711738    9.018    0.889
        18  -8.9376     82.8666    194.8306   1.0271897613e+02   2.2657756533e+01     0.207161    0.1958827 -15.60 0.0007505871    1.233    0.189
        19 -10.2933    148.2971    189.1648   8.5552810037e+01   1.3104239702e+01     0.846858    0.4951794 -79.31  0.002449508    5.358    0.813
        20 -10.5251    184.8717    205.8727   8.0422597242e+01   3.4642111119e+00    0.4510314    0.1716184  26.45  0.001494052    3.608    0.723
        21  -9.4534     85.0025    185.7511   1.0086465657e+02   2.4523436452e+01    0.3583018    0.2684168 -54.99  0.001580908    1.352    0.261
        22 -10.1073     81.3302    181.9684   1.0125138308e+02   2.5992676509e+01     0.470995      0.25988  39.05  0.001227348    1.757    0.431
        23  -9.5843     99.3434    180.9007   9.6362364280e+01   2.3468334065e+01    0.2673185    0.2148502  28.38 0.0006656306    1.291    0.225
        24 -10.7426    240.0145    177.1174   6.4083553207e+01  -1.8986700632e-01    0.3155687    0.1729674  51.40  0.001454577    2.803    0.643
        25 -10.4330    186.6395    174.8336   7.3943513483e+01   9.1396514612e+00    0.3861581      0.36073 -40.51  0.001231091    1.177    0.151
        26 -12.8118     68.7235    153.8370   1.0021289730e+02   3.4904191892e+01    0.7412907    0.4498827 -56.17  0.001158754    1.532    0.347
        27 -14.9667      9.6346    207.3445   1.2106775559e+02   2.8314076931e+01     1.343089     1.091507 -29.98  0.007013883    1.807    0.447
        28  -8.4538    110.8210    167.7882   9.0965187214e+01   2.4730994585e+01    0.2129064    0.1791254  81.90 0.0005721646    1.371    0.271
        29 -10.2019     33.2441    156.0782   1.1070394517e+02   3.8494050426e+01    0.3051009    0.2662546  63.53 0.0008370727    1.174    0.148
        30 -11.6357     87.9057    152.0911   9.4324025217e+01   3.2498328174e+01    0.7062166    0.4743198 -22.04  0.002982137    2.093    0.522
        31 -10.6195    133.7514    145.1184   8.0026306056e+01   2.5909385481e+01     1.319082    0.3043425 -53.78  0.002709036    6.919    0.855
        32 -10.6076     54.4326    148.0013   1.0343727390e+02   3.8262968615e+01     0.665463    0.2980231 -60.00  0.002732008    1.963    0.491
        33  -8.5942    112.2201    150.4352   8.7065707140e+01   2.8743429041e+01    0.2133574    0.1465894  47.99 0.0003849082    1.537    0.349
        34  -9.1647    175.0252    149.3142   7.0922926758e+01   1.6627468559e+01    0.2154269    0.1995909  31.16 0.0004920639    1.115    0.103
        35  -9.9305     28.5628    143.8730   1.1047712854e+02   4.2049598503e+01    0.2636406    0.1977673  39.68  0.001489416    1.466    0.318
        36 -10.5953    101.8248    138.3333   8.7385491863e+01   3.3622154627e+01    0.6073068    0.3797208 -16.43  0.002204797    2.717    0.632
        37 -10.1922    105.9274    130.9873   8.4482877391e+01   3.4693765692e+01    0.4553339    0.3448446 -62.31  0.002102831    1.409    0.290
        38  -9.7773    111.2778    129.3187   8.2516085283e+01   3.4094640366e+01    0.3403649     0.257049   3.31 0.0008484705    1.708    0.415
        39 -11.5598     89.1840    137.7852   9.1027183262e+01   3.5927817262e+01    0.3054836    0.2692184 -38.63 0.0004037935    1.131    0.116
        40  -9.9044     26.4965    137.7981   1.1027615915e+02   4.3783647612e+01    0.3450787    0.1757631  34.07  0.001088198    2.127    0.530
        41 -10.8102    135.0535    128.0730   7.5584809895e+01   2.9622888421e+01    0.6964531    0.2969263 -45.79   0.00241097    2.299    0.565
        42 -11.3128     71.9747    167.0452   1.0146463103e+02   3.1071764373e+01    0.3323179     0.253423 -38.08  0.001354681    1.482    0.325
        43 -10.2047     98.3280    125.0061   8.5326987352e+01   3.7546897600e+01    0.3343282    0.2565512 -15.73 0.0007837607    1.580    0.367
        44 -11.6857     67.6976    171.7485   1.0335523129e+02   3.0470699357e+01    0.6671847    0.4090542 -28.53  0.002810795    2.468    0.595
        45 -10.6118    118.0459    122.9394   7.8979115422e+01   3.4298334653e+01    0.5708128    0.3513643   0.63  0.001823527    3.500    0.714
        46  -8.4206    163.3243    120.6985   6.6693528597e+01   2.5177797972e+01    0.1565808    0.1256083 -84.53 0.0003692686    1.635    0.388
        47 -10.0590     67.6390    127.1720   9.5483671875e+01   4.1915293333e+01    0.5706307    0.2427732 -58.95  0.002139967    2.204    0.546
        48  -8.9724     84.9936    119.0201   8.8047669135e+01   4.1319801195e+01    0.2450742    0.1886782  75.08  0.001087083    1.740    0.425
        49  -9.2092     34.9411    171.9063   1.1211137509e+02   3.4326075268e+01     0.203519    0.1743832 -80.82 0.0004548746    1.039    0.038
        50  -9.1425    107.6212    118.2199   8.0821514120e+01   3.7460120969e+01    0.2358304    0.2076439  45.07 0.0003934015    1.186    0.157
        51  -9.8581    231.3042    113.7291   5.2150863770e+01   1.2369519287e+01    0.2630071    0.2293655 -52.70 0.0008469527    1.103    0.094
        52 -10.4132    246.5862    111.6902   4.9498074776e+01   9.9138052728e+00    0.2649738    0.1125762 -35.63 0.0007935331    2.116    0.528
        53 -10.5322     33.6076    108.8889   1.0325308086e+02   5.0487018149e+01    0.3327728    0.2273643 -82.50  0.001684708    1.657    0.397
        54  -9.1777    205.5192    110.1982   5.5557030328e+01   1.8143006229e+01    0.2411693    0.2070042  53.06 0.0006123498    1.272    0.214
        55 -10.9536    119.2140    105.0619   7.3885716107e+01   3.8158433757e+01    0.4887832    0.2081092 -35.32  0.001570484    2.880    0.653
        56 -10.9644     34.8882    100.6868   1.0113779594e+02   5.2391874420e+01    0.5124326    0.2385811  41.49  0.001898465    2.628    0.619
        57  -8.8390    134.5863    105.7841   6.9847981688e+01   3.4702778518e+01    0.2288846    0.1487931 -53.04 0.0007868769    1.659    0.397
        58  -9.4788     41.8375     98.8223   9.8171177864e+01   5.2155247327e+01    0.1874001    0.1657305  65.77  0.001035857    1.377    0.274
        59 -12.1972     80.5022    158.7939   9.7689893339e+01   3.1935329113e+01     1.028832    0.6217141  59.48 0.0007034323    2.067    0.516
        60 -13.8361     19.0407    219.3588   1.1987407362e+02   2.4776765746e+01    0.7793176    0.5993115 -34.41  0.004947948    1.960    0.490
        61 -10.4862    240.4977    169.0231   6.2379711767e+01   1.1044418517e+00    0.1978438    0.1706713  11.31   0.00077328    1.214    0.176
        62  -8.9290     75.2996     85.1069   8.2185183907e+01   5.0852803702e+01    0.2051836    0.1844869 -36.57 0.0006875348    1.087    0.080
        63  -8.8883    150.9736     82.9827   5.9357742522e+01   3.5534188663e+01    0.2419381    0.1849876 -79.18 0.0007698022    1.693    0.409
        64  -7.9999     69.4269     81.4601   8.3216431163e+01   5.2581577408e+01    0.1424164    0.1337724 -26.27 0.0001004054    1.088    0.081
        65  -8.8939    110.0058     79.8188   6.9116738901e+01   4.5389051139e+01    0.2256069    0.2052956  69.55 0.0007797923    1.272    0.214
        66  -8.7671     53.9980     65.3353   8.4084569452e+01   5.8206337392e+01    0.1869249    0.1619312   5.27 0.0003510774    1.116    0.104
        67 -10.8751     13.1960     59.8452   1.0028434100e+02   6.3458970497e+01    0.2626205     0.219295 -32.46 0.0005307216    1.069    0.065
        68  -9.2005     88.8062    210.2110   1.0333815735e+02   1.8230770733e+01    0.2255041    0.1769406 -84.48 0.0005143755    1.360    0.265
        69 -10.1502    119.9123    245.1203   1.0076742981e+02   6.4297302504e+00    0.1977627      0.15738  54.23 0.0006253569    1.260    0.206
        70 -17.1421     13.6654    242.3314   1.2226255563e+02   2.0522432101e+01     5.407413     2.161433  24.69   0.02564845    3.369    0.703
        71  -8.9748    142.5122    208.4609   9.0351586278e+01   1.0034203394e+01    0.1423747    0.1303938  22.86 7.603842e-05    1.003    0.003
        72  -8.8794    198.2023     23.4417   3.5629238869e+01   3.3097396018e+01    0.1965542    0.1358062 -45.63 0.0005765474    1.401    0.286
        73  -8.8170    189.5192     14.9869   3.4522236351e+01   3.6014328701e+01    0.1750884    0.1196094 -36.32 0.0006286661    1.555    0.357
        74 -10.1089    190.7319    208.4970   7.9668189376e+01   2.0401881319e+00    0.2783051    0.1717287 -54.39  0.001304869    2.203    0.546
        75 -10.8671    119.9009    213.5231   9.6444064711e+01   1.2696196729e+01    0.3933686    0.2906855 -72.23  0.001567757    1.632    0.387
        76 -10.3431    184.1094    211.8960   8.1682312433e+01   2.4883913031e+00     0.201742    0.1911613  25.98 0.0009025947    1.242    0.195
