#   1 NUMBER                 Running object number                                     
#   2 MAG_AUTO               Kron-like elliptical aperture magnitude                    [mag]
#   3 X_IMAGE                Object position along x                                    [pixel]
#   4 Y_IMAGE                Object position along y                                    [pixel]
#   5 X_WORLD                Barycenter position along world x axis                     [deg]
#   6 Y_WORLD                Barycenter position along world y axis                     [deg]
#   7 A_WORLD                Profile RMS along major axis (world units)                 [deg]
#   8 B_WORLD                Profile RMS along minor axis (world units)                 [deg]
#   9 THETA_WORLD            Position angle (CCW/world-x)                               [deg]
#  10 FWHM_WORLD             FWHM assuming a gaussian core                              [deg]
#  11 ELONGATION             A_IMAGE/B_IMAGE                                           
#  12 ELLIPTICITY            1 - B_IMAGE/A_IMAGE                                       
         1 -12.1500     26.7289     49.5495   9.2377625564e+01   6.3580368215e+01     0.889205    0.5113784 -54.46  0.004774912    1.759    0.431
         2 -13.2160     38.7860     51.9590   8.7923916390e+01   6.1879553599e+01     2.023741    0.4865048 -43.51  0.007133385    3.446    0.710
         3 -12.0833     76.0872     34.5331   6.6649937087e+01   5.9215062448e+01     1.069224    0.5727399   7.25  0.003696963    3.387    0.705
         4 -12.4490      8.1281      9.0065   8.5681375376e+01   7.2166920545e+01    0.4130501    0.2055176  30.58  0.001167481    2.277    0.561
         5 -11.3641     33.3180      1.5995   6.8672065143e+01   7.0232155229e+01    0.2790989    0.1596628  37.34  0.000443137    1.694    0.410
         6 -12.0584     21.1738     17.0898   8.2383215136e+01   6.9721488364e+01    0.7808236    0.5468926  21.74  0.005210173    1.450    0.310
         7 -11.8822     12.0973      2.1390   7.9963249988e+01   7.2750185974e+01    0.3706304    0.2762373  10.89  0.001991856    1.254    0.203
         8 -11.0733     26.3569      2.5323   7.2536502546e+01   7.1062727970e+01    0.2819698    0.1788267  29.19 0.0009018712    1.482    0.325
         9 -12.2933      4.4017     17.6558   9.1666620266e+01   7.1113283870e+01    0.5515558    0.3751079 -46.86  0.003031524    1.515    0.340
        10 -11.8253      9.9738     15.4662   8.7628784262e+01   7.1029097659e+01    0.2514027    0.1594619 -17.39 0.0003965361    1.281    0.219
        11 -10.8947     23.9999      8.0109   7.6559222836e+01   7.0674825195e+01    0.2456113     0.173044   5.52 0.0003643263    1.157    0.136
        12 -11.7419     20.9896      4.1150   7.6129202921e+01   7.1526724346e+01    0.4504149    0.2223259 -29.47  0.001796049    1.805    0.446
        13 -11.3805    104.1714     20.0702   5.2716944264e+01   5.5290965725e+01    0.4674908    0.3529917  88.46  0.001884532    1.880    0.468
        14 -10.2774     33.3437     16.4328   7.6045305401e+01   6.8399126385e+01    0.4377665    0.1994333  12.34  0.001780106    3.572    0.720
        15 -11.1771     49.7253     15.4158   6.8307895475e+01   6.6198962037e+01    0.5358478     0.279131  40.89  0.002866749    1.875    0.467
        16 -10.1080     39.9430     11.0331   7.0415136903e+01   6.8201368612e+01    0.2373176    0.1773373 -16.76 0.0006131433    1.231    0.188
        17 -11.1851     40.0081     15.2865   7.2427437924e+01   6.7657827450e+01    0.3602878    0.2020781  25.09  0.001324519    1.661    0.398
        18 -11.7000    233.8860     13.4730   3.2412889453e+01   2.6426441975e+01    0.4143961    0.1561466 -31.61  0.001959343    2.661    0.624
        19 -11.0806     73.7888     15.7398   5.9610104725e+01   6.1982365909e+01    0.4290606    0.3152701  62.96  0.001516462    1.804    0.446
        20 -11.8322     77.7032     10.7733   5.6243087205e+01   6.1736954054e+01     0.568621    0.2217434  49.89 0.0007196871    2.214    0.548
        21 -10.5226    118.1196     11.2536   4.6400469541e+01   5.3027370503e+01    0.3829796    0.1870396 -33.12  0.001842297    2.238    0.553
        22  -9.7456     62.0511     14.6801   6.3189348363e+01   6.4241220130e+01     0.183097    0.1416985  25.06  0.001158539    1.099    0.090
        23 -10.6875     16.9783      8.1781   8.0346041345e+01   7.1436647414e+01    0.3508175    0.1916866 -32.23 0.0008019412    1.589    0.371
        24  -9.4609     43.5036      8.4609   6.7596908651e+01   6.7977816818e+01    0.3873888    0.2355262 -28.74  0.002000667    1.656    0.396
        25 -10.3652     31.0205     12.6916   7.5373953682e+01   6.9199500686e+01    0.1872635    0.1293551 -11.55 0.0005403974    1.207    0.172
        26 -10.6098    156.3066      7.2939   3.8840774777e+01   4.4449626480e+01    0.2935384    0.1583482 -35.99  0.001510932    1.966    0.491
        27  -9.8988    100.2333     11.9616   5.0607299117e+01   5.6952958007e+01    0.1705792    0.1481175  27.08 0.0002345481    1.064    0.060
        28 -11.9216    128.7988     11.4964   4.4445571374e+01   5.0542548402e+01    0.3955949    0.2849887  86.99  0.002198241    1.598    0.374
        29 -10.6204    246.3486      8.8159   3.0570123672e+01   2.4431594746e+01    0.1443668    0.1009185 -29.10 0.0004014053    1.654    0.396
        30 -12.4178    213.9265      6.1015   3.2439073123e+01   3.1404542123e+01    0.6121935    0.3908084 -73.21  0.003679861    1.459    0.315
        31 -10.1633    164.5568      5.5098   3.7278835074e+01   4.2667187036e+01     0.208065    0.1845127 -88.31 0.0005960166    1.064    0.061
        32 -12.0286    146.3492      6.1972   3.9912186010e+01   4.6893139439e+01    0.3958337    0.3090107   1.26  0.001115066    1.558    0.358
        33 -10.4327    150.3808      5.7359   3.9199579629e+01   4.5983025826e+01    0.1671394    0.1292253 -29.65 0.0004999656    1.451    0.311
        34 -10.9298    191.5471      7.0298   3.4688452241e+01   3.6278781896e+01    0.3797165      0.24368 -22.56  0.001604175    1.859    0.462
        35 -11.0171    194.4036      1.9765   3.3198992536e+01   3.6110121697e+01    0.3235969    0.1762985  88.31  0.001209135    1.791    0.442
        36  -9.7796     86.0090      7.8170   5.2608014034e+01   6.0341193547e+01     0.167932    0.1381105  34.03            0    1.016    0.016
        37 -11.9620     98.0609      4.3656   4.8190749433e+01   5.8086150342e+01     0.355415    0.2333623  20.73  0.002008489    1.595    0.373
        38 -10.5075     91.0365      7.2352   5.1041708999e+01   5.9345569560e+01    0.3138225    0.1375365  52.19  0.001492259    1.898    0.473
        39 -10.3694     93.4693      4.4788   4.9328658122e+01   5.9063633260e+01    0.2070209    0.1667535  18.15 4.529783e-05    1.195    0.163
        40 -11.8398    230.8514      6.3666   3.1173640743e+01   2.7805166125e+01    0.2699457    0.1811934 -78.55 0.0004445699    1.316    0.240
        41 -12.3946    179.0300      4.4246   3.5330452364e+01   3.9392410365e+01    0.3292121    0.2439019  84.58 0.0003033183    1.208    0.172
        42  -8.9451     56.2965      5.7262   6.1151963678e+01   6.6190421003e+01   0.09864856   0.09799411  50.71  0.000193439    1.526    0.345
        43 -10.3988    164.2221      9.0319   3.8293508206e+01   4.2426482748e+01     0.204616    0.1919507  21.05 0.0003578596    1.244    0.196
        44 -10.8370    203.5747      3.0946   3.2640815429e+01   3.3960917040e+01    0.2986856    0.2080958  27.55  0.001721093    2.188    0.543
        45 -10.1029     74.5664      2.8458   5.3740236095e+01   6.3075332944e+01    0.2908142    0.1850888 -49.29  0.001471352    2.501    0.600
        46 -11.1854     67.3588      3.8072   5.6410737111e+01   6.4375778689e+01    0.2869487    0.1752438  47.51 0.0008585497    1.475    0.322
        47 -10.6755    243.1655      2.8388   2.9614645775e+01   2.5685345366e+01    0.1747209    0.1206245 -64.37 0.0004785743    1.177    0.150
        48 -10.7190    237.8437      2.8605   2.9970835380e+01   2.6742967327e+01     0.161739    0.1475382 -79.41 0.0007136354    1.227    0.185
        49  -9.2608     34.5001      7.4948   7.1150263404e+01   6.9393825276e+01      0.12085   0.09131893   3.41 -0.0002715176    1.014    0.014
        50 -10.0377    108.0211      1.6112   4.4985121220e+01   5.6111036499e+01    0.1765761    0.1403769  51.21 0.0005052537    1.064    0.060
        51 -10.2834    126.6196      2.4920   4.1839630100e+01   5.1809723287e+01    0.2079175    0.1560104  -4.35 0.0006466997    1.557    0.358
        52 -10.2903     81.4230      5.2533   5.2801784043e+01   6.1502874096e+01    0.2107268    0.1967158 -37.39  0.001442608    1.376    0.273
        53 -10.8616     46.4661    177.7485   1.1114131330e+02   3.1494229201e+01    0.2943075    0.2260654  86.22   0.00119335    1.225    0.183
        54 -12.2187    232.5211    245.3107   8.0792785263e+01  -8.7884151186e+00    0.6056105    0.2026885 -33.20  0.002775256    2.968    0.663
        55 -11.2529    237.9918    246.4892   8.0012227791e+01  -9.6186881344e+00    0.2071026    0.1565867  42.94  0.001345426    2.017    0.504
        56 -12.4521    227.7379    244.1334   8.1462148363e+01  -8.0269677612e+00    0.4139214    0.1986386  24.16  0.002208589    1.913    0.477
        57 -11.2273     88.8919    249.6014   1.0954216482e+02   1.0782123801e+01    0.2822051    0.2014277  32.38 0.0008715107    1.357    0.263
        58 -10.0477     72.6284    250.0755   1.1276078031e+02   1.2828897693e+01    0.1872414    0.1595974   1.62  0.001269773    1.661    0.398
        59 -12.8452     19.3837    238.0932   1.2191538202e+02   2.1209482075e+01    0.7111433    0.3459236  50.69  0.004298417    1.675    0.403
        60 -12.0716     28.9604    248.1953   1.2077718895e+02   1.8293140453e+01    0.4884031    0.2766523  77.02  0.003090862    1.617    0.381
        61 -11.6871      4.9889    235.8547   1.2438092004e+02   2.3019954289e+01    0.4578119    0.3061334  46.42   0.00214757    1.372    0.271
        62 -13.3336      5.8857    245.1400   1.2466713196e+02   2.1164228045e+01    0.8953194    0.5210159  40.33  0.004428472    1.603    0.376
        63 -12.1626     22.2523    249.1170   1.2202309348e+02   1.8818918841e+01    0.4095576    0.2277667  41.45  0.001537408    1.580    0.367
        64 -11.0409     17.4868    247.4818   1.2277183332e+02   1.9606001440e+01    0.1893634    0.1633124 -86.88 0.0006265049    1.305    0.234
        65  -9.7219     69.7487    178.1963   1.0542953583e+02   2.8531516390e+01    0.1807067    0.1519355 -40.52  0.000466337    1.345    0.257
        66  -9.4012    200.6882    176.3186   7.4194679587e+01   6.8205404482e+00    0.1307489    0.1158038 -80.83 0.0004005978    1.645    0.392
        67 -11.3626     34.2607    174.1442   1.1371581159e+02   3.3653460667e+01    0.2716478    0.1905472 -66.71 0.0004747406    1.283    0.220
        68 -11.0562     17.9486    173.0686   1.1752068315e+02   3.5430236466e+01    0.3870018    0.1955537  64.88  0.001906907    2.142    0.533
        69 -12.3502     49.2109    161.8328   1.0844434481e+02   3.5042801805e+01    0.7355802    0.4811157  36.38  0.001621058    1.620    0.383
        70 -10.2816     36.9421    157.9552   1.1116264231e+02   3.7307165707e+01    0.2685683     0.190032  86.99 0.0004505551    1.401    0.286
        71 -12.0892     36.1444    165.5012   1.1228134561e+02   3.5544887759e+01    0.6527181    0.3918762  83.05  0.003277273    1.810    0.448
        72 -11.4257     40.0298    162.8096   1.1096301890e+02   3.5802026519e+01    0.3560598    0.2510372 -86.62  0.001110232    1.352    0.260
        73 -10.0063     99.1574    164.9251   9.5740076390e+01   2.7396848056e+01    0.2166306    0.1916894  83.09 0.0003591338    1.207    0.171
        74 -10.2076      9.6021    162.6352   1.1857955778e+02   3.8574659150e+01    0.3446396    0.1341537  39.75  0.001642058    2.578    0.612
        75  -8.9787    200.3241    162.6648   7.1397444873e+01   9.4343221800e+00    0.1384388    0.1170673 -77.23 0.0007051009    1.713    0.416
        76 -12.5406     22.3710    156.8171   1.1481690687e+02   3.8941340567e+01    0.5906646    0.5346172  -7.29  0.003928717    1.406    0.289
        77  -9.5789    157.4814    155.0367   7.9050306280e+01   1.9117592376e+01    0.2291998    0.1262655 -24.80 0.0008100401    2.665    0.625
        78 -10.1616     11.2715    153.6248   1.1732255013e+02   4.0602855525e+01    0.2269432    0.1635361   8.71  0.001369077    1.852    0.460
        79  -9.9905    177.5526    150.9334   7.3578689625e+01   1.6054346387e+01    0.2974908    0.2047586  59.34  0.001323532    1.918    0.479
        80 -10.0240     33.0540    148.0539   1.1093532198e+02   4.0126847228e+01    0.1991375    0.1673783 -70.22 0.0004016702    1.036    0.035
        81 -10.3610     17.7795    146.9449   1.1492563274e+02   4.1723270130e+01    0.2757249    0.1883851 -23.89 0.0008749482    1.957    0.489
        82 -10.3323    207.0752    146.3324   6.6489492077e+01   1.1260725665e+01    0.1949818    0.1838034  11.48 0.0007051232    1.116    0.104
        83  -9.1225     41.2726    146.3061   1.0842653717e+02   3.9746565922e+01    0.1351959   0.09215524 -43.41 0.0001634209    1.542    0.351
        84  -9.4174    220.4727    143.9818   6.3486856618e+01   9.2103254360e+00    0.2152157    0.1257642 -37.99 0.0007040948    1.527    0.345
        85  -9.3676    216.3782    155.1875   6.6681340523e+01   7.9226897367e+00     0.192903    0.1218032 -45.30 0.0003847757    1.589    0.371
        86  -9.8293     82.3983    139.7944   9.5554401874e+01   3.6155356223e+01    0.2141896     0.126774 -47.47 0.0009394567    1.617    0.381
        87  -9.8558     55.8126    138.9913   1.0312495546e+02   3.9953280670e+01    0.3568503    0.1528603  41.41   0.00144356    2.521    0.603
        88 -10.9322      2.7623    137.2547   1.1791186595e+02   4.5125650436e+01    0.3012297    0.1364733 -76.20 0.0009851435    1.807    0.446
        89 -10.1095      9.3180    136.8923   1.1608997822e+02   4.4791040285e+01    0.1842171    0.1294377 -71.18 0.0003993198    1.147    0.128
        90  -9.9610     20.7057    135.4696   1.1273728695e+02   4.4306017606e+01    0.2326109   0.09830991 -68.77 0.0007829695    1.942    0.485
        91  -9.6674    123.1363    135.1871   8.3143947209e+01   3.0256831053e+01    0.2125587     0.187698  85.06 0.0005661959    1.343    0.256
        92 -10.0534    249.3168    134.0044   5.6575363216e+01   5.8802458928e+00    0.1956133    0.1473513 -33.53 0.0006911394    1.105    0.095
        93 -10.3020    127.9227    132.8517   8.1316837828e+01   2.9872993100e+01    0.2329229    0.2044122 -18.33  0.000445188    1.191    0.161
        94 -10.4177     55.3240    133.0200   1.0221921358e+02   4.1503880554e+01    0.3146517    0.1795897  40.03  0.001068841    1.905    0.475
        95 -10.5772    111.7613    131.6773   8.5427143650e+01   3.3208892961e+01    0.2832754    0.2263751 -53.01  0.001384497    1.233    0.189
        96 -11.3527     73.9722    129.5506   9.5946600655e+01   3.9925892706e+01    0.3403319    0.3058326 -88.37  0.001100834    1.200    0.167
        97 -11.3516     37.1349    130.1927   1.0718217128e+02   4.4172918839e+01    0.5313878    0.3486312   5.62  0.002718606    2.013    0.503
        98 -10.2268     38.3061    126.6282   1.0624811118e+02   4.4944914334e+01    0.2717941    0.1838156  57.29  0.001402613    1.772    0.436
        99  -9.1154      9.3145    129.2819   1.1521387822e+02   4.6641421269e+01     0.127584   0.07933157 -46.16 0.0003536527    1.575    0.365
       100 -10.2940     24.1561    125.9967   1.1042933377e+02   4.6364578063e+01    0.1978632    0.1668548 -67.77   0.00046448    1.014    0.014
       101 -11.7473     12.9913    124.6473   1.1356678048e+02   4.7525619821e+01    0.6573789    0.3212291  42.60   0.00257699    2.378    0.579
       102 -11.3770     21.7638    121.2813   1.1045832258e+02   4.7713544343e+01    0.2795255    0.2075854 -20.70  0.001625611    1.605    0.377
       103 -10.7982      2.8979    122.9903   1.1631977102e+02   4.8557200758e+01    0.2344545    0.1988344  -7.31  0.001303292    1.477    0.323
       104 -10.0034      1.3964    119.0246   1.1629288444e+02   4.9595207493e+01    0.1890541   0.09867074 -73.38 0.0003181786    1.542    0.351
       105  -9.4520     32.2622    121.6309   1.0727774511e+02   4.6750600030e+01    0.1610826      0.12654  -6.44 0.0002473501    1.542    0.352
       106 -10.4390     72.4814    117.0665   9.3696896225e+01   4.3202177415e+01    0.4141988    0.1360505 -55.95  0.001386235    2.825    0.646
       107  -9.6766    220.4362    124.4876   5.9120914815e+01   1.2721657003e+01    0.1428438    0.1254913 -31.35 8.463401e-05    1.009    0.009
       108  -9.3048    220.2993    116.6837   5.7356231352e+01   1.4136049602e+01    0.1404293    0.1057777 -64.09 0.0002615179    1.613    0.380
       109  -9.9417    213.9767    115.6634   5.8191181293e+01   1.5571473967e+01    0.1892767     0.179378  33.66  0.000482426    1.159    0.137
       110  -9.8933     85.9933    116.5113   8.9361815925e+01   4.1280635599e+01    0.2125729    0.1498986  31.96 0.0004055878    1.511    0.338
       111 -10.7040     16.1768    115.8673   1.1138063992e+02   4.9447385055e+01    0.2110207    0.1837321 -19.73  0.000556307    1.324    0.245
       112 -10.9041    249.3433    112.2713   5.1938495833e+01   9.4557230401e+00    0.2428847    0.1950988 -48.90 0.0005439848    1.177    0.150
       113 -10.0755     94.9961    112.6849   8.5665995936e+01   4.0682606361e+01    0.2098795    0.2044105  14.01  0.001154013    1.076    0.071
       114  -9.9873     43.1254    111.2705   1.0192297571e+02   4.8248236865e+01     0.264735    0.1595041 -41.64 0.0009111282    1.584    0.369
       115 -11.4959     55.1666    110.2976   9.7759804121e+01   4.7134280119e+01    0.3403449    0.2466722 -42.03 0.0006413338    1.277    0.217
       116 -11.4694     36.5677    109.8007   1.0379489684e+02   4.9258220090e+01    0.3595724    0.2628112  71.92   0.00103741    1.758    0.431
       117 -10.4523      1.3241    108.8626   1.1504372698e+02   5.2033529966e+01    0.3500291    0.1750336 -76.41  0.001419788    1.734    0.423
       118 -10.6355      2.4764    105.4898   1.1422350433e+02   5.2778152684e+01    0.1835363    0.1505388  17.59 6.168536e-05    1.515    0.340
       119 -12.1744     14.3716    108.3526   1.1081402956e+02   5.1391501481e+01    0.4201604    0.3129348 -40.50  0.002566767    1.300    0.231
       120 -10.4254     25.2491    107.8307   1.0717017946e+02   5.0725026168e+01    0.2117171    0.1525659 -82.61  0.001177155    1.461    0.315
       121 -10.6495    243.9383    104.7132   5.1055337499e+01   1.1666459960e+01    0.1802371    0.1638371 -42.30 0.0005546351    1.071    0.067
       122  -9.1646    186.4759    104.4268   6.0492620659e+01   2.3413758605e+01    0.1478361    0.1405657 -43.02 6.835859e-05    1.028    0.028
       123 -10.8405    120.6468    100.3412   7.4858094737e+01   3.8587266709e+01    0.6377003    0.2676122 -29.81    0.0017915    4.124    0.757
       124  -9.7361     87.9949    104.0165   8.5584223214e+01   4.3887497202e+01    0.1823385    0.1669549 -34.36 0.0004632343    1.016    0.016
       125  -9.8582     51.3257    104.3641   9.7725705908e+01   4.9020594071e+01    0.2282468    0.1457978 -30.88  0.001096502    1.693    0.410
       126 -10.0074     31.5766    103.7128   1.0428941401e+02   5.1189914012e+01     0.269264    0.1587912 -78.87  0.001272691    1.978    0.494
       127 -10.6790     37.4512    102.2252   1.0198754398e+02   5.1006388475e+01    0.2857144    0.2199535   7.24 0.0008853954    1.499    0.333
       128 -10.6125     25.5322    101.7283   1.0596613698e+02   5.2174141449e+01    0.4181223     0.227259 -89.45  0.001762375    2.826    0.646
       129 -10.0603     76.6902    101.3065   8.8505589903e+01   4.6327593186e+01    0.1416178    0.1172575  81.27 0.0003521339    1.614    0.381
       130 -11.3052      2.5906     97.3086   1.1300158026e+02   5.4710103417e+01    0.4770276    0.2404263  73.66  0.002068604    3.228    0.690
       131 -11.3878    143.4494     98.3986   6.8337390082e+01   3.4130982356e+01    0.4893416    0.3956515  69.67  0.002357003    1.496    0.332
       132 -11.0135     61.9479     98.9283   9.2826603133e+01   4.8990065956e+01    0.3319626    0.2983204   1.00  0.001138287    1.168    0.144
       133 -10.3410     66.5912     98.2439   9.1076259890e+01   4.8517555091e+01    0.2395224    0.2106982 -11.96 0.0003067973    1.153    0.133
       134 -11.6989    161.6591     98.6377   6.4141145178e+01   3.0030400955e+01    0.3009782     0.278742 -68.17  0.001559165    1.164    0.141
       135 -10.4072     50.5166     99.2135   9.6821072386e+01   5.0341698526e+01    0.2151308    0.1908119   9.81 0.0002886693    1.231    0.188
       136 -11.3894     14.7131     97.4876   1.0890440632e+02   5.3969824241e+01    0.3931477    0.1610953 -63.43  0.001803503    1.923    0.480
       137 -10.8503     39.8161     96.2413   9.9876115067e+01   5.2199317794e+01    0.3537096    0.2135731  45.55  0.001174254    2.095    0.523
       138  -9.7775    250.0103     95.7497   4.8301102817e+01   1.1990469035e+01    0.1745709    0.1552111 -48.75 0.0004303161    1.072    0.067
       139  -9.7545     57.5059     96.5419   9.3756332980e+01   5.0123367008e+01    0.1423642     0.126167 -39.10 8.166359e-05    1.007    0.007
       140 -11.7072     26.4636     92.0386   1.0372087864e+02   5.4399130079e+01    0.6837574    0.2831469 -72.04  0.002626142    3.014    0.668
       141 -10.8511     21.9300     86.9358   1.0429822346e+02   5.5941943696e+01    0.2735825    0.2594395 -23.06  0.001608096    1.184    0.155
       142 -12.6194    166.2596     84.4375   5.9271032293e+01   3.1634061021e+01    0.9332222    0.7401786  40.22  0.004717889    1.320    0.243
       143 -12.7066    158.1905     89.9943   6.2542004468e+01   3.2461769646e+01    0.6586798     0.437283 -51.77  0.002432774    1.631    0.387
       144 -11.7070    157.4286     82.4956   6.0605858429e+01   3.4014927630e+01    0.9386179    0.4821887  33.26  0.003391673    2.745    0.636
       145 -10.7294     21.0022     92.9843   1.0586620340e+02   5.4598715389e+01    0.4301595   0.03667596 -57.09  0.001295395    4.240    0.764
       146 -10.3359    108.9947     91.9733   7.5790607258e+01   4.2704076166e+01    0.2943869    0.1979795 -42.05  0.001344933    1.443    0.307
       147  -9.4199     31.3592     93.1300   1.0219666424e+02   5.3728690818e+01    0.1828743    0.1149119 -70.12 0.0004193425    1.637    0.389
       148  -9.5089     46.7406     92.6113   9.6572581244e+01   5.2318836093e+01    0.1686752    0.1279329  37.29 0.0003099829    1.525    0.344
       149 -11.1713     11.2382     90.8101   1.0893176759e+02   5.5760088291e+01      0.30452    0.2259714  14.28  0.000580759    1.611    0.379
       150 -10.6596     96.3449     89.6433   7.8940409420e+01   4.5610210518e+01    0.3103979    0.2330781  15.35  0.001240704    1.508    0.337
       151  -9.4479     38.4287     89.8337   9.8901213539e+01   5.3837238440e+01    0.2048093    0.1017626 -47.54 0.0009452114    1.682    0.405
       152 -10.3547     82.9559     88.8673   8.3016077532e+01   4.8125096949e+01    0.2259304    0.1829643 -16.51 0.0005288723    1.268    0.211
       153 -10.9946     78.6430     88.0567   8.4218425765e+01   4.9007482934e+01    0.3457887    0.2171506 -49.20  0.001610746    1.534    0.348
       154 -10.1663     65.0197     87.4898   8.8743150955e+01   5.1186689400e+01    0.2441318    0.2061222  26.51  0.001363905    1.272    0.214
       155 -10.2032     68.0084     83.9738   8.6694717507e+01   5.1532999849e+01    0.3753769    0.1928984 -30.06  0.001494396    2.363    0.577
       156 -10.7302     46.3853     87.4915   9.5428701584e+01   5.3538284254e+01     0.413619     0.242798 -63.06  0.001965618    1.792    0.442
       157  -9.8181     43.0544     83.0068   9.5505422728e+01   5.4920427857e+01    0.2968139    0.1508158  42.01  0.001220281    2.498    0.600
       158 -11.4740      5.6553     83.8422   1.0968217625e+02   5.7688477784e+01    0.4956564     0.212937 -38.89  0.002401444    2.131    0.531
       159 -10.6174    115.4582     84.0378   7.1559546714e+01   4.3017059764e+01    0.3607373    0.2005778  41.20 0.0009959476    1.822    0.451
       160  -9.2708     56.4222     83.5763   9.0728010854e+01   5.3214469534e+01     0.139623    0.1219316 -32.23 7.576588e-05    1.005    0.005
       161 -11.3173     30.2263     81.8097   1.0003820835e+02   5.6443744850e+01    0.3158141    0.2556493  -7.84  0.001368013    1.305    0.234
       162 -10.0657     35.3832     78.9437   9.7358587100e+01   5.6614066564e+01    0.3119419    0.1560878 -37.82  0.001455319    1.861    0.463
       163 -10.0845     74.1044     82.3157   8.4081660031e+01   5.0967968224e+01    0.2360643    0.1787815   2.79  0.001200153    1.471    0.320
       164 -12.8331     44.7291     75.2995   9.2782375302e+01   5.6440812809e+01      0.57658    0.4209012 -76.55 0.0005616062    1.941    0.485
       165 -11.4895     46.5290     54.5110   8.5559312078e+01   6.0474560820e+01    0.7976427    0.4630462 -65.39  0.003261641    3.348    0.701
       166 -13.1327     11.1664     75.6607   1.0597544835e+02   5.9238063051e+01     1.116277    0.6306764   5.42   0.00609999    2.100    0.524
       167 -11.4886     42.6268     37.5302   8.0927812811e+01   6.4002286234e+01      0.74216    0.3989786  30.27  0.002833233    1.881    0.468
       168 -12.0098     50.2342     68.5282   8.8651287469e+01   5.7226217263e+01    0.6712798    0.4475061 -75.88  0.002822446    2.737    0.635
       169 -10.8988     51.9292     62.5986   8.6103761522e+01   5.8214568354e+01    0.3063286    0.2175954 -30.27 0.0007651911    1.256    0.204
       170 -11.7996     20.0350     61.3130   9.8858707507e+01   6.1762661200e+01    0.5208651     0.438252 -65.63  0.002149194    1.377    0.274
       171 -11.6990     26.7467     56.4180   9.4555729791e+01   6.2217233713e+01    0.6535912    0.2742381 -59.58  0.002265063    2.693    0.629
       172 -10.7240    249.4805    247.5812   7.8190014347e+01  -1.1129816278e+01    0.3485646    0.1746264  -5.40  0.001815597    2.359    0.576
       173 -13.6501     16.3236     67.7404   1.0208779350e+02   6.0657038680e+01    0.4382123     0.362473 -66.72 0.0007424603    1.316    0.240
       174 -12.7916      4.3330     64.8395   1.0633992188e+02   6.2004572037e+01    0.6066859    0.4098585 -87.79  0.003481109    1.995    0.499
       175 -12.1587      5.2035     58.9056   1.0457896026e+02   6.3230862915e+01    0.3873533    0.2811517  53.59 0.0003233517    2.054    0.513
       176 -12.1028     36.9775    243.8915   1.1904195645e+02   1.8243304048e+01    0.6253665    0.3033702 -88.75  0.003146441    2.168    0.539
       177 -12.4318     33.1355     49.5190   8.9531560762e+01   6.2956666183e+01    0.7169345    0.2862932 -44.48  0.002036583    2.095    0.523
       178 -10.3163     86.4483     80.4160   7.9335749403e+01   4.9321213373e+01    0.2516956    0.2301182 -10.76 0.0001335572    1.019    0.018
       179 -11.5494     21.5465     79.7213   1.0286070969e+02   5.7622959254e+01    0.5099989    0.3266039 -26.94  0.002622316    1.566    0.362
       180 -11.2859     22.1167     66.8644   9.9484475919e+01   6.0420902029e+01    0.2463326     0.205589  39.76 0.0003699797    1.546    0.353
       181 -11.1874     61.0147     78.5635   8.7619345808e+01   5.3697559742e+01    0.3330188    0.2347616 -52.22 0.0002795328    1.410    0.291
       182 -12.0067     62.3894     71.6332   8.5006257539e+01   5.4962188125e+01    0.4280901    0.2797486 -12.95 0.0002699964    1.832    0.454
       183 -10.7878     74.3110     75.3237   8.1873563355e+01   5.2400502721e+01    0.5181069    0.2302061 -49.40  0.002062868    2.275    0.560
       184 -10.8734     76.8968     69.7559   7.9188274627e+01   5.3097980831e+01    0.3326298    0.2708841  46.28  0.001541108    1.439    0.305
       185 -10.8238     77.0586     64.3234   7.7324736953e+01   5.4117513106e+01    0.3778406    0.3118207 -43.79   0.00210454    1.288    0.224
       186  -9.8166     90.6438     75.3166   7.6366726747e+01   4.9601320396e+01    0.1427265    0.1197039  86.37 3.722268e-05    1.748    0.428
       187 -10.9334    207.6251     73.4293   4.9059316204e+01   2.4106919627e+01    0.2290725    0.2190424 -40.99 0.0003057084    1.087    0.080
       188  -9.8066    145.7267     74.0179   6.0765423612e+01   3.8214969847e+01    0.2141261    0.1923029 -31.20 0.0007049803    1.115    0.103
       189  -9.9238    137.4585     74.0165   6.2715315284e+01   4.0104962524e+01    0.2202639    0.1460562 -35.06 0.0003791678    1.517    0.341
       190 -10.8820    100.9483     72.4429   7.2201148908e+01   4.8200008655e+01    0.3760393    0.2728814  73.44   0.00103062    2.247    0.555
       191 -10.1579    128.9963     71.5506   6.4063219903e+01   4.2444551754e+01    0.2151939    0.1992339 -19.71 0.0003413016    1.072    0.067
       192 -10.5285    135.2412     93.7532   6.9088752507e+01   3.6862542139e+01    0.3263974    0.2450237 -84.32  0.001416648    2.019    0.505
       193  -9.3369    194.6662     69.7184   5.0134491996e+01   2.7585238045e+01    0.1380343    0.1093642  23.66 0.0004666736    1.614    0.380
       194  -9.9741    110.2814     69.0151   6.8324668378e+01   4.6941633117e+01    0.2002856    0.1811552 -16.41 0.0002409549    1.073    0.068
       195  -9.0256    189.3109     68.6586   5.0731464889e+01   2.8973712616e+01    0.1499773    0.1043971 -66.89 0.0003869503    1.696    0.410
       196 -11.0075     93.8241     66.3670   7.2422803657e+01   5.0715379604e+01    0.3773824    0.2681302   8.92  0.001142988    1.679    0.404
       197 -10.4133     99.6531     64.9972   7.0148410136e+01   4.9828372387e+01     0.324129    0.2267412 -18.26  0.001147481    1.578    0.366
       198  -9.4927    222.7227     62.9526   4.4473354602e+01   2.2443878642e+01    0.1817903    0.1443008 -46.12  0.001062398    1.134    0.118
       199 -10.6614    201.7289     62.0992   4.7124627350e+01   2.7159097366e+01    0.2397381    0.2036516 -75.01 0.0005070934    1.179    0.152
       200 -10.1517    109.0022     62.4216   6.6521518847e+01   4.8369889765e+01    0.2423322    0.1869009 -32.11  0.001246796    1.295    0.228
       201 -10.6597     84.4450     61.5701   7.3853806617e+01   5.3334435217e+01    0.2689334    0.2028012  10.87  0.001396023    1.404    0.288
       202  -9.8562    119.3214     61.1906   6.3272805156e+01   4.6361845344e+01    0.2491051     0.186882  35.47 0.0006970255    1.319    0.242
       203  -8.9765    183.6657     60.3123   4.9458523250e+01   3.1564449448e+01    0.1477625     0.104242 -70.33  0.000704498    1.682    0.406
       204 -10.8628    154.6624     59.9367   5.4653933160e+01   3.8448339145e+01    0.3149759    0.2127335  69.02 0.0007458228    1.659    0.397
       205  -9.2899     98.4233     60.4406   6.8982355081e+01   5.0875061835e+01    0.1430436    0.1310948   2.80 2.318149e-05    1.006    0.006
       206 -11.4942     59.3504     58.6063   8.1870000918e+01   5.7973317060e+01    0.3059011    0.2723612   1.51   0.00186388    1.103    0.093
       207 -10.5119    146.9967     56.9904   5.5360422613e+01   4.0706401333e+01    0.2079687      0.20693  66.84  0.000315287    1.030    0.029
       208 -11.5303     75.2786     56.1334   7.5106724758e+01   5.5918371538e+01    0.2341436    0.2079245 -14.69 0.0002925973    1.062    0.058
       209  -9.9402     68.4834     56.4542   7.7674851893e+01   5.6983407157e+01    0.1375262    0.1218394  -8.69 -3.746559e-05    1.039    0.037
       210 -10.0705    132.0036     54.6659   5.7982635448e+01   4.4548958826e+01     0.388822    0.1919662  40.90  0.001574214    2.127    0.530
       211 -11.5685      6.1235     51.3258   1.0221561073e+02   6.4757953550e+01    0.3789015    0.3227815 -44.86  0.002204391    1.167    0.143
       212 -11.2592     12.9390     51.7560   9.9260823938e+01   6.4246616602e+01    0.5750006     0.209998 -48.92  0.002733276    2.019    0.505
       213 -10.5032     11.4833     45.1144   9.7938237050e+01   6.5668307528e+01    0.3886651    0.2610082 -49.55  0.001660872    1.292    0.226
       214 -10.9172    120.2438     52.1471   6.0037867492e+01   4.7596165213e+01    0.2688296    0.2155212  20.97  0.000437394    1.306    0.234
       215 -11.7330    105.0018     52.6603   6.4340934163e+01   5.0817504517e+01    0.2785601    0.2379965  39.98 0.0001657733    1.144    0.126
       216 -11.4014     87.9944     51.4494   6.9105209536e+01   5.4418890352e+01    0.3606611    0.2445562  30.90  0.001399889    1.448    0.309
       217 -10.1162     62.3418     52.5449   7.8577845033e+01   5.8645434006e+01    0.2659034    0.1534133 -34.09   0.00130778    1.623    0.384
       218 -10.6915    128.2135     50.6113   5.7565867939e+01   4.6026457208e+01    0.3671027    0.2627115  39.15  0.001137392    1.373    0.271
       219 -11.0416    129.5161     47.4773   5.6234208619e+01   4.6183164614e+01    0.4946898    0.2933282  24.94  0.002083899    2.312    0.567
       220  -9.9194     99.1698     55.9987   6.7221977343e+01   5.1477210799e+01    0.2722751    0.1687147  31.39  0.001262083    1.684    0.406
       221 -10.4006     53.5020     49.9465   8.1099442913e+01   6.0399153675e+01    0.3836408    0.2215235  15.59  0.001855094    1.999    0.500
       222 -10.1212     57.0252     46.3131   7.8343253515e+01   6.0533056517e+01    0.1841697    0.1532862   7.42 0.0002271539    1.105    0.095
       223  -9.6505    198.0645     49.2592   4.4421375777e+01   2.9835832843e+01    0.1836319    0.1610871  76.64 0.0003472553    1.121    0.108
       224  -9.2364    181.7232     49.7140   4.6933095495e+01   3.3554951255e+01    0.1306698    0.1057112  27.04 0.0006924755    1.512    0.339
       225 -10.3216    120.2605     47.1486   5.8352623823e+01   4.8333976153e+01    0.3252419    0.2145559  19.74  0.001325986    1.904    0.475
       226 -10.1892    152.6776     47.2235   5.1256818830e+01   4.0786123774e+01    0.2891854    0.1572838  37.97 0.0008542677    2.180    0.541
       227 -10.2310    111.8087     46.6083   6.0348129909e+01   5.0282237842e+01    0.2931485    0.1749983  56.00  0.001355215    1.752    0.429
       228 -10.5535     77.8306     45.9686   7.0485746118e+01   5.7183273862e+01    0.3352642    0.2159212 -54.90  0.001118417    2.348    0.574
       229 -10.2850    142.8521     45.5193   5.2690349765e+01   4.3348368780e+01    0.2845513    0.2152726 -71.84  0.001438219    1.673    0.402
       230 -10.8602     91.7683     43.5541   6.5013137570e+01   5.4916060077e+01    0.4270281    0.2871285 -57.84  0.001994431    2.333    0.571
       231 -10.6242     96.0034     42.9177   6.3489672797e+01   5.4157518623e+01    0.3079568    0.2024015   9.58  0.000781104    1.897    0.473
       232 -11.1438    102.0059     28.8476   5.6559309320e+01   5.4770591773e+01    0.3675978    0.3073739  78.92 0.0006386187    1.540    0.351
       233 -10.5560     95.4164     35.2924   6.0821363680e+01   5.5341405905e+01    0.3360523    0.2084524 -47.20  0.001619651    2.078    0.519
       234 -10.3939     97.2665     31.0712   5.8694845676e+01   5.5502723867e+01    0.3011522    0.2114485  38.99  0.001639819    1.289    0.224
       235 -10.1763     50.8683     44.9052   8.0297000029e+01   6.1653119829e+01    0.1987889    0.1515162 -14.86 0.0004818749    1.158    0.137
       236 -12.9789     75.2860    238.1658   1.1114203634e+02   1.4734610528e+01     0.693736     0.538038 -71.22  0.004557962    1.378    0.274
       237 -10.8236     71.1449     41.3424   7.1076786766e+01   5.9086576894e+01    0.2741465    0.1615828 -16.50  0.001296414    1.955    0.489
       238 -11.2065     69.1817     38.0379   7.0490206627e+01   5.9928951777e+01    0.5636222     0.308836  -8.00  0.002346435    2.774    0.639
       239 -10.5643     23.8477     41.8497   9.1060779340e+01   6.5305807208e+01    0.2867831    0.2359575 -86.01  0.001498414    2.153    0.536
       240  -9.9913     18.5052     42.3321   9.3731092123e+01   6.5678542492e+01    0.4285335    0.1221155 -42.19  0.001628706    2.722    0.633
       241 -11.1056     29.9619     33.1372   8.4913183790e+01   6.6237677922e+01    0.4447046    0.1925474  19.95  0.001489825    2.589    0.614
       242 -11.8930     28.2804     37.9615   8.7573380076e+01   6.5581118695e+01     0.373868    0.2364463  17.98  0.001237074    1.599    0.375
       243 -11.7532     24.2910     35.1071   8.8374300229e+01   6.6480457852e+01    0.4498346    0.2342731  -3.42 0.0009565084    2.413    0.586
       244 -11.0868      6.7587     41.4066   9.9030275294e+01   6.6695704420e+01    0.2747786     0.145184 -40.65 0.0006292256    1.438    0.305
       245 -10.2930    124.8803     42.5690   5.5691082495e+01   4.7931374804e+01    0.3159459    0.1392159  64.78  0.001130502    3.032    0.670
       246  -8.9683    106.9477     43.0000   6.0390422822e+01   5.1853655561e+01    0.2228837   0.07531533  51.36 0.0003934777    2.826    0.646
       247 -10.7786     78.9862     39.2282   6.7510666656e+01   5.8006469056e+01    0.2742123    0.2106805 -17.90 0.0009862991    1.254    0.203
       248 -10.9744     81.3936     35.0185   6.5061180885e+01   5.8157881769e+01     0.406452    0.2194854 -19.70  0.001161427    2.112    0.526
       249 -11.5526     52.7452     39.4913   7.7431825080e+01   6.2299487403e+01    0.4980639    0.3598752  11.97  0.001758123    1.316    0.240
       250 -11.1528     56.0163     32.3277   7.3198470818e+01   6.2928546788e+01     0.381957    0.2375332 -50.60   0.00132469    2.380    0.580
       251  -9.9561    232.3463     39.9388   3.8189416311e+01   2.3596091263e+01     0.171026    0.1373065 -50.30  0.000339781    1.115    0.103
       252 -11.3974    152.6191     39.1957   4.8853555802e+01   4.1872930360e+01    0.2601198     0.236614 -55.80 0.0004820869    1.155    0.134
       253 -11.0264    100.3187     37.0865   6.0085256825e+01   5.4080328168e+01    0.5301574     0.325214  21.82  0.002476474    1.949    0.487
       254  -9.4934     61.9803     40.7633   7.4267431611e+01   6.0694812735e+01    0.1668712    0.1035246  33.50 0.0004027596    1.577    0.366
       255 -10.2796    224.9875     38.2402   3.8565721927e+01   2.5357746403e+01    0.2048464    0.1621983 -53.54 0.0004919556    1.120    0.107
       256  -8.7278    220.9936     38.0000   3.8932892145e+01   2.6241613463e+01    0.2835736   0.06884562  66.51 0.0009644974    4.179    0.761
       257  -9.5463    167.5688     39.0249   4.6234628282e+01   3.8331946810e+01    0.1915423    0.1328918 -32.53  0.000372589    1.506    0.336
       258  -9.1825     85.7088     38.7371   6.5105071877e+01   5.6806805183e+01    0.1351184   0.09495372  15.23 0.0001629786    1.499    0.333
       259 -10.0255      1.7616     37.1789   1.0015213022e+02   6.7798689310e+01    0.2226573    0.1144289 -38.70  0.001296661    1.468    0.319
       260  -9.9850    134.8448     35.3033   5.1092703103e+01   4.6570359788e+01    0.2137411    0.1855677 -42.38 0.0003019936    1.248    0.199
       261  -9.8476     63.7321     35.4170   7.1463574898e+01   6.1237175841e+01    0.2200641    0.1407236 -10.52  0.000710988    1.691    0.408
       262 -11.1383     22.7129     26.2580   8.5612181770e+01   6.8133187923e+01    0.3283778    0.2820781   2.88  0.001950579    1.273    0.215
       263 -11.0033      8.8693     34.8905   9.5857304439e+01   6.7791909868e+01    0.4488453    0.3585859 -59.83  0.002179174    1.555    0.357
       264 -11.6386     17.1267     31.0990   9.0341854343e+01   6.7835863949e+01    0.5851442    0.2856506  10.88  0.003066055    2.254    0.556
       265  -9.9528    183.6736     33.3031   4.2282860454e+01   3.5240989493e+01    0.1390401   0.09365634 -69.20 0.0007032526    1.643    0.391
       266  -9.6380    205.5378     32.5120   3.9357865521e+01   3.0322688266e+01    0.1275944    0.1142394 -76.17 4.947132e-05    1.017    0.017
       267  -9.6746    166.4863     32.4792   4.4554151608e+01   3.9400645738e+01    0.1335747    0.1241327  73.36 0.0008101071    1.017    0.017
       268 -10.3396     89.1892     31.8719   6.1365214957e+01   5.7057553826e+01     0.226399    0.1679265  41.45  0.000667428    1.252    0.201
       269 -10.1229     48.6033     31.5849   7.5935958060e+01   6.4142012708e+01    0.2779908     0.180116  28.53 0.0005415842    1.488    0.328
       270 -10.3716     50.0238     28.0016   7.3819622019e+01   6.4469259475e+01    0.2521074    0.1773425   9.65 0.0009557173    1.318    0.241
       271  -9.3966    139.3740     30.5055   4.8646995815e+01   4.6084213937e+01    0.1313542    0.1248867  49.34   0.00079672    1.033    0.032
       272 -10.1304    145.5004     28.4890   4.6875054623e+01   4.4866869818e+01    0.3068577    0.1892731 -51.97  0.001494133    1.911    0.477
       273  -9.1409    174.6771     28.7131   4.2298656206e+01   3.7902702587e+01    0.1324859   0.09580776  38.47  0.000700635    1.602    0.376
       274 -11.2734    129.3559     26.8296   4.9438443196e+01   4.8855929037e+01     0.530666    0.2537349  62.13  0.001448485    2.013    0.503
       275 -10.5273     55.0114     23.5325   6.9836739957e+01   6.4327882052e+01    0.3317721    0.1497992  48.54  0.001467276    2.836    0.647
       276 -11.1111     62.3479     23.7936   6.7111117963e+01   6.3087832560e+01    0.2924899    0.1620418 -24.53  0.001310148    1.792    0.442
       277 -11.1981     59.0564     21.7388   6.7462430598e+01   6.3904636077e+01    0.2861976    0.1942969 -13.38  0.001218511    1.407    0.289
       278 -10.4197    112.0026     26.6127   5.3210817906e+01   5.2842974095e+01    0.4356537    0.1769475 -19.35  0.001659128    3.226    0.690
       279 -11.1939     69.4254     26.4951   6.5681942787e+01   6.1505858516e+01    0.3704444    0.1962472  28.90  0.001305844    1.924    0.480
       280  -9.8084    249.6733     26.3225   3.3789751502e+01   2.1798864355e+01    0.1275145   0.07022099 -62.75 0.0007048312    1.688    0.408
       281 -10.7094    193.7939     26.0601   3.9141710809e+01   3.3753201892e+01    0.2104309    0.1572562 -65.34  0.001227238    1.305    0.234
       282  -9.5060    184.8894     26.0000   4.0214777927e+01   3.5818699534e+01    0.1969492    0.1693185  53.13 0.0005152637    1.232    0.189
       283  -9.7372    186.3819     23.1342   3.9289899432e+01   3.5794943246e+01    0.2176787    0.1581433 -68.02 0.0006651581    1.391    0.281
       284  -9.2702    169.2874     26.2806   4.2396809265e+01   3.9456969845e+01    0.1284129   0.09579009  37.89            0    1.522    0.343
       285 -11.2022    107.1845     34.8921   5.7412767923e+01   5.2899512807e+01      0.40192    0.1918696  46.10 0.0007050156    1.900    0.474
       286  -9.9450      1.4693     25.1853   9.6229945408e+01   7.0022820187e+01    0.2921496   0.08849514 -52.13  0.001316465    2.676    0.626
       287 -10.1011    195.3548    238.7515   8.6680284887e+01  -2.8607955228e+00    0.2253577    0.1577126  20.02  0.001362544    1.225    0.184
       288 -10.6860    243.8773    237.3455   7.7458069938e+01  -9.1677735698e+00    0.1960188    0.1433515 -28.21  0.001111637    1.424    0.298
       289 -10.9944      9.5485     24.5795   9.1691241375e+01   6.9574651436e+01    0.6865615    0.2736974   5.32  0.002533375    3.491    0.714
       290 -10.6632     29.5359    232.9888   1.1971142887e+02   2.1174516546e+01    0.2466384    0.1586542  67.66  0.001599561    1.320    0.242
       291  -9.9696    159.7488    235.9984   9.3391368257e+01   2.8585336684e+00    0.1502143    0.1097407 -42.47 0.0005142115    1.539    0.350
       292 -10.3297     88.8565    241.2784   1.0870783897e+02   1.2326593012e+01    0.2164937    0.1502825 -33.84  0.001222603    2.112    0.526
       293 -10.0823    177.4811    235.0218   8.9630249840e+01   3.4047080526e-01    0.1756886    0.0996673 -18.06  0.000809326    2.459    0.593
       294 -10.1071     62.9999    242.4740   1.1397401953e+02   1.5468788132e+01    0.1759952   0.09927865  40.33 0.0004040928    1.540    0.351
       295 -10.0980     38.2188    232.7906   1.1803255483e+02   2.0278191888e+01    0.1705259    0.1269347  67.84  0.000604266    1.109    0.099
       296 -10.1469     24.0999    232.4692   1.2070478015e+02   2.1841025886e+01    0.1896799    0.1603457 -64.04 0.0007317237    1.447    0.309
       297 -12.2168    165.0826     22.9461   4.2070651685e+01   4.0824076708e+01     0.318378    0.2316414  57.55 0.0003124863    1.281    0.219
       298 -10.3168     94.5958     22.2280   5.6040312447e+01   5.7109378405e+01    0.2921147    0.2140167  21.95  0.001660041    1.331    0.249
       299 -10.3169    109.4498    242.7659   1.0467483073e+02   9.1671783043e+00    0.2358613    0.1579362  55.84 0.0007153849    1.502    0.334
       300 -10.8195    108.3695     17.6851   5.0823640276e+01   5.4611730446e+01     0.262233    0.1857455  40.02  0.001115968    1.264    0.209
       301 -10.4648     97.9539     24.0000   5.5810942357e+01   5.6201682067e+01    0.4027528    0.1505148  52.94  0.001315154    2.412    0.585
       302 -10.3966     98.9432     20.6840   5.4278112198e+01   5.6356871417e+01    0.2179823    0.1869257  24.97 0.0004009238    1.054    0.051
       303  -9.7299     68.5747     22.0396   6.4090408937e+01   6.2220096569e+01    0.1981896    0.1494504  33.79 0.0005134848    1.209    0.173
       304 -10.2994     89.5801     20.7784   5.6876504281e+01   5.8310934451e+01    0.2494769    0.1293729  41.79 0.0006463518    1.708    0.415
       305 -10.9715    238.0339     18.5269   3.3130591503e+01   2.5019246936e+01    0.2245219    0.1538203 -37.96 0.0004080921    1.428    0.300
       306 -10.3746    172.6427     20.0228   4.0213843487e+01   3.9349101429e+01    0.1725501    0.1592374 -56.94 0.0004209233    1.126    0.112
       307  -9.8974    140.0103     19.8157   4.5137453355e+01   4.7108494275e+01    0.2260764    0.1193085  43.36  0.000790448    1.901    0.474
       308 -11.8204    129.4197     19.1785   4.6880396392e+01   4.9659593821e+01    0.2614803    0.2430276  24.36 0.0004664053    1.110    0.099
       309  -9.5914    169.7272    229.3275   9.0311484408e+01   2.4548961147e+00    0.1177105    0.1017299  64.97 0.0003242824    1.584    0.369
       310  -9.6946    190.5046    226.4793   8.5627165923e+01  -2.4531032014e-01    0.2101426     0.111877 -28.99   0.00074528    2.074    0.518
       311 -11.0620    120.3505    226.4527   1.0033571146e+02   1.0611645725e+01    0.2298949    0.1702162 -62.68 0.0009075049    1.546    0.353
       312 -11.2708     41.6920     19.1883   7.3493676177e+01   6.6904455098e+01    0.5121568    0.2480977  36.73  0.002672107    2.037    0.509
       313 -10.0348     66.0552    226.3171   1.1188812639e+02   1.8286517848e+01    0.1903292    0.1617453 -67.17 0.0006798843    1.283    0.220
       314  -9.3730     54.4699     19.1873   6.8116798103e+01   6.4978357189e+01     0.152011    0.1115177 -33.85 0.0009174476    1.540    0.351
       315  -9.6958     17.5118    227.5041   1.2163874047e+02   2.3493707826e+01    0.1146217   0.08773117  72.31 0.0001901985    1.018    0.018
       316 -10.6239      4.2321    226.0055   1.2402288645e+02   2.5033128566e+01    0.2140486    0.1253773  51.30 0.0009278723    1.449    0.310
       317 -11.4091     21.1153    222.4311   1.2063207963e+02   2.4175709701e+01    0.2480907    0.1722811  81.89 0.0009916853    1.207    0.172
       318  -9.4670    203.6408     15.1721   3.5437552835e+01   3.2728167251e+01      0.15569     0.117892 -16.24 0.0006226862    1.685    0.406
       319  -9.6877    126.5471    221.5432   9.8309387080e+01   1.0607654797e+01    0.2046467    0.1116218  45.55 2.525939e-05    1.752    0.429
       320  -9.9322    142.2674    220.7744   9.4779463091e+01   8.2850166036e+00     0.216145    0.1016594  26.77 0.0008851519    2.394    0.582
       321 -10.0243     96.7657     14.0993   5.2295469568e+01   5.7496849929e+01    0.1823936    0.1759045  -0.55  0.001216497    1.189    0.159
       322 -11.7498      9.8573    217.2674   1.2248511917e+02   2.6312616791e+01    0.3080276    0.1875788  61.29  0.001855836    1.385    0.278
       323  -9.7959     37.9889    217.5313   1.1691041401e+02   2.3445318550e+01    0.1711102    0.1093116  36.78 0.0008883136    1.564    0.361
       324 -11.3793     30.0025    215.8497   1.1840857055e+02   2.4652532570e+01    0.3198252    0.2618312  15.00  0.002152736    1.670    0.401
       325 -11.9954    237.8333    213.0138   7.4257456969e+01  -5.0168053476e+00    0.6185753    0.3620363   0.98     0.002826    1.937    0.484
       326  -9.3417    194.6714    215.2935   8.2866968712e+01   9.4585799025e-01     0.119329    0.1054324  59.82 0.0002541495    1.627    0.385
       327 -10.0374     67.1482    215.2896   1.1054108280e+02   2.0453171968e+01     0.185293    0.1637435   5.47 0.0007664355    1.469    0.319
       328  -9.2003    107.5210     10.5273   4.8377165631e+01   5.5482220005e+01    0.1313257    0.1098766  40.26 0.0002626559    1.037    0.036
       329 -10.3955     21.6472    212.7422   1.1987266082e+02   2.6154979906e+01    0.2817376    0.1449629  50.09  0.001603138    1.721    0.419
       330 -10.0719    208.9337    212.0018   7.9459174564e+01  -6.9888153596e-01    0.2035568    0.1630971  -2.19 0.0005186644    1.078    0.072
       331  -9.5293     76.3367    212.3033   1.0819768486e+02   1.9882836853e+01     0.122896    0.1009293 -21.49  0.000437531    1.667    0.400
       332 -10.7128     10.9179    208.4888   1.2174023429e+02   2.8068078426e+01    0.2196833    0.1728646 -72.41 0.0004037734    1.295    0.228
       333 -12.2647      4.6517    207.8914   1.2294504735e+02   2.8743359573e+01    0.5836916    0.2687465  86.27  0.003141068    1.980    0.495
       334 -10.1575    108.3292    209.6850   1.0067181871e+02   1.5820650902e+01    0.1405687   0.09820887  65.34 0.0007015252    1.677    0.404
       335  -9.5274    184.8217    208.3736   8.3641749289e+01   3.6867916137e+00    0.1934355    0.1157439  23.75 0.0004276339    1.693    0.409
       336  -9.2622    188.2496    205.3451   8.2384990468e+01   3.6650941767e+00    0.1373464   0.09576786  -9.44  0.000365714    1.578    0.366
       337 -11.0755     19.7056    202.4036   1.1952787415e+02   2.8579331576e+01    0.4378413    0.1588113 -74.44  0.002040726    2.414    0.586
       338 -10.3429    175.4539    202.7937   8.4599656162e+01   6.2280735117e+00    0.2395186    0.1793792  31.63 0.0004980935    1.259    0.206
       339 -10.3854     24.0620    216.3164   1.1963874957e+02   2.5158519324e+01     0.160358    0.1504001  10.22 0.0008490891    1.481    0.325
       340  -9.4852      9.5004    202.5105   1.2164130728e+02   2.9482425562e+01    0.1178876    0.0921269  80.14 8.633934e-05    1.011    0.011
       341  -9.6357    215.6511    194.6894   7.4918987386e+01   1.1125710511e+00     0.142267    0.0933599  -1.44 0.0007045187    1.714    0.417
       342 -11.0446     16.7055    193.2488   1.1947802823e+02   3.0890886390e+01    0.2696398    0.2419037  15.37  0.001290764    1.483    0.326
       343  -8.9256    101.6898    192.3158   9.9665843637e+01   2.0620712788e+01    0.1438037    0.1037743  69.16 0.0004579992    1.635    0.388
       344  -9.4812    211.5916    188.7966   7.4551740838e+01   2.7618818300e+00    0.1900548    0.1224818 -44.83 0.0009577826    1.682    0.405
       345  -9.7855      1.9889    187.9929   1.2225106345e+02   3.3306068759e+01    0.1451673    0.1123165  86.85 0.0006904278    1.015    0.015
       346 -11.2922     16.5236    184.5362   1.1883196371e+02   3.2886262290e+01     0.416088    0.1837941 -76.56  0.002064957    1.946    0.486
       347 -10.0983     14.7069    180.6613   1.1892425448e+02   3.3936206250e+01    0.1925016    0.1522006 -63.41 0.0006286016    1.285    0.222
       348 -10.0019    168.1778    183.8276   8.2600823749e+01   1.1126477196e+01    0.3032993    0.1678357  56.12  0.001165865    2.783    0.641
       349  -9.7692     58.8105    182.1594   1.0865829506e+02   2.8990828947e+01    0.1817025    0.1530127 -45.60  0.001070037    1.338    0.252
       350  -9.4631      1.5469    180.5148   1.2184159441e+02   3.5025777064e+01    0.1194713   0.09361342  88.69  0.000219712    1.005    0.005
       351  -9.9071    244.1742    178.5043   6.6567694680e+01  -6.1227618544e-01    0.2492608    0.1274388 -20.15  0.001114415    2.255    0.556
