#   1 NUMBER                 Running object number                                     
#   2 MAG_AUTO               Kron-like elliptical aperture magnitude                    [mag]
#   3 X_IMAGE                Object position along x                                    [pixel]
#   4 Y_IMAGE                Object position along y                                    [pixel]
#   5 X_WORLD                Barycenter position along world x axis                     [deg]
#   6 Y_WORLD                Barycenter position along world y axis                     [deg]
#   7 A_WORLD                Profile RMS along major axis (world units)                 [deg]
#   8 B_WORLD                Profile RMS along minor axis (world units)                 [deg]
#   9 THETA_WORLD            Position angle (CCW/world-x)                               [deg]
#  10 FWHM_WORLD             FWHM assuming a gaussian core                              [deg]
#  11 ELONGATION             A_IMAGE/B_IMAGE                                           
#  12 ELLIPTICITY            1 - B_IMAGE/A_IMAGE                                       
         1 -11.4287     36.4536      5.3708   4.5950663986e+01   7.2407177701e+01    0.4807911    0.3680415  -1.77  0.002133418    1.227    0.185
         2 -11.5998     33.3139     22.3585   5.7482552013e+01   7.0459380562e+01    0.7125413    0.2795435 -43.51  0.001907856    2.577    0.612
         3 -11.4623     40.1728     19.8299   5.2346127572e+01   6.9807202801e+01    0.5171169    0.3872041  60.27  0.002800414    2.007    0.502
         4 -11.0094     35.3053     12.0344   5.0632939113e+01   7.1725635618e+01    0.2660979    0.1886944 -35.66 0.0004300473    1.504    0.335
         5 -11.1346    130.6753     21.8004   2.4572483835e+01   4.9297860804e+01    0.4147659    0.2607327  29.99  0.001820753    2.074    0.518
         6 -10.5054     11.5120     11.5306   6.5915173834e+01   7.4951175474e+01    0.2154568    0.2066366 -68.98  0.001265904    1.547    0.353
         7 -10.3234     16.4502     21.4424   6.7578977863e+01   7.2709093113e+01    0.3956506    0.2503974 -24.30  0.002268335    1.501    0.334
         8 -11.0439     14.3119     17.0697   6.6861024130e+01   7.3710119188e+01     0.356236    0.2358703 -43.29 0.0009502817    1.428    0.300
         9 -10.3191      7.8405      8.6040   6.7068473464e+01   7.5805258055e+01    0.1615391    0.1540564  36.75 0.0001559464    1.508    0.337
        10 -11.4585      2.8519      6.1381   6.9695502073e+01   7.6667541514e+01    0.4079868    0.2325927  23.83  0.001135155    1.765    0.433
        11 -12.1587     24.4154     17.8720   6.0498189527e+01   7.2409107309e+01    0.2509914     0.196411  -9.76  0.000352556    1.129    0.114
        12 -11.1584     25.9492     13.1974   5.6906548402e+01   7.2951516457e+01    0.2595925    0.2232011  11.08 0.0008802338    1.125    0.111
        13 -10.4734    124.7141     16.6114   2.3767823080e+01   5.1371222282e+01    0.3715267    0.2170037 -62.23  0.001463956    2.119    0.528
        14 -10.0276    226.1924     11.7795   1.1530461823e+01   2.7505854030e+01    0.2221349   0.07543291 -57.19 0.0009442737    2.789    0.641
        15 -10.8765    203.4483     11.5675   1.3060893424e+01   3.2476985080e+01    0.2161095    0.2064998  73.13 0.0005853752    1.281    0.219
        16  -9.5371    198.0261     12.0422   1.3600661093e+01   3.3664684145e+01    0.1508802    0.1254783 -60.56 0.0003250648    1.072    0.067
        17 -10.3975    185.1100     12.0350   1.4694106811e+01   3.6691828887e+01    0.1973324    0.1649805 -73.22 0.0004203935    1.022    0.022
        18 -11.3795    126.0268     10.9759   2.1505962908e+01   5.1588917161e+01    0.2647831    0.2228122 -58.27 0.0003024825    1.251    0.201
        19 -10.1393    123.4838      6.4598   2.0272381449e+01   5.2644888004e+01    0.2304544    0.1315439 -26.89 0.0006487066    1.926    0.481
        20 -10.5994    124.5667      3.4563   1.9013688343e+01   5.2623377619e+01    0.2074263    0.1871144  80.13 0.0005181239    1.041    0.039
        21 -11.0465     91.1161     10.2488   2.8244091376e+01   6.0368538685e+01    0.3510409    0.3199466  56.59  0.001336688    1.048    0.046
        22 -12.7758     54.9677      9.9527   3.9844079946e+01   6.8431183968e+01    0.5039383    0.2497876  36.44  0.001450391    1.947    0.486
        23  -9.6854     54.5186      4.9643   3.7210317631e+01   6.9064347539e+01    0.1786734    0.1219907 -16.95 0.0006058313    1.544    0.352
        24 -10.9039     43.8283     10.9687   4.5505290445e+01   7.0418942456e+01    0.3236749    0.2467787  30.95  0.001981727    1.166    0.143
        25  -9.6466    164.6118     10.7933   1.6358162821e+01   4.1816424526e+01    0.1821904    0.1081486 -43.87 0.0004177894    1.634    0.388
        26  -9.6512    101.0215     10.9668   2.6233446553e+01   5.7886904832e+01     0.171487     0.134699  61.79 0.0004367504    1.130    0.115
        27  -9.8434    133.1834     10.2281   2.0133888267e+01   4.9830773816e+01    0.1890194    0.1445941 -71.43 0.0004064274    1.341    0.254
        28 -10.3447    116.4403      9.4804   2.2580117828e+01   5.4165159263e+01    0.2293318    0.2088105  62.25 0.0005346069    1.049    0.046
        29 -10.2910     96.0063     10.3121   2.7092081906e+01   5.9178890349e+01     0.294967    0.2246139  55.24  0.001067273    1.149    0.130
        30 -12.0293     29.5972      6.0547   5.0302945086e+01   7.3439487964e+01    0.4100151     0.252238 -39.57  0.001417256    1.834    0.455
        31 -11.1692     29.8340      1.3501   4.7094742686e+01   7.3996527496e+01    0.2263681    0.1021464  42.91 0.0006434629    2.081    0.519
        32  -9.4105     22.6151      8.7115   5.6395197896e+01   7.4082259441e+01     0.129935   0.08186314   1.47 0.0007012518    1.749    0.428
        33  -9.6602    143.6693      7.2839   1.7712007033e+01   4.7425065137e+01    0.1400956   0.09071627 -69.02 0.0002363673    1.612    0.380
        34 -10.1712    247.1638      5.8955   9.1111326534e+00   2.3914596309e+01    0.1681415    0.1128467 -59.08 0.0002937864    1.142    0.125
        35 -10.9698    222.2923      6.3224   1.0564350352e+01   2.8887482552e+01    0.1760147    0.1560722 -69.34 0.0002819003    1.163    0.140
        36 -11.6414    224.1620      3.6250   9.8590779704e+00   2.8763402097e+01    0.4024664     0.129962  66.47 0.0002754867    3.012    0.668
        37 -10.0060    151.0152      6.0743   1.6441858794e+01   4.5671051005e+01    0.2085092    0.1649449  56.06  0.001141295    1.288    0.224
        38 -11.1122    148.5131      2.3134   1.5546646144e+01   4.6631510272e+01    0.2474581    0.2035732 -87.79 0.0004800847    1.070    0.066
        39  -9.3068    111.4937      6.4693   2.2303630576e+01   5.5681859560e+01    0.1372508    0.1174502  58.40 0.0008091897    1.058    0.054
        40 -10.3577     70.8313      5.1131   3.1456381843e+01   6.5565553091e+01    0.2118278    0.1652531  23.45 0.0002497559    1.257    0.204
        41 -11.2689    194.0085      4.7016   1.2077432363e+01   3.5323678627e+01     0.223952    0.1832128 -73.07 0.0002357678    1.009    0.009
        42  -9.9707    190.2528      3.9288   1.2164617584e+01   3.6272107772e+01    0.2421241     0.161966 -55.95 0.0007396669    1.321    0.243
        43 -10.5874    104.5338      4.3245   2.2745271234e+01   5.7606932331e+01    0.2275174    0.1909405  76.96 0.0002703897    1.129    0.114
        44 -10.8562     46.5015      4.2163   4.0225292919e+01   7.0721026631e+01    0.5584745    0.1726006  51.64  0.002187811    3.052    0.672
        45  -9.7307     49.6730      1.3286   3.7081764861e+01   7.0402876386e+01    0.1364482    0.1084628  26.80 0.0008491675    1.083    0.077
        46 -10.0326     84.5301      2.8056   2.6470048838e+01   6.2607295776e+01    0.2315065    0.1322783  -9.49   0.00113657    2.100    0.524
        47  -9.8496     13.2578      2.8930   5.9342439497e+01   7.6132353418e+01    0.2424922    0.1728071  43.23  0.001499605    1.896    0.473
        48  -9.7879    210.5204      2.0710   1.0320099398e+01   3.1846623097e+01    0.1664068    0.1066595 -37.09 -4.83665e-05    1.478    0.324
        49  -9.9742    138.0504      1.6889   1.6571302101e+01   4.9335996992e+01    0.1856414    0.1524859  76.83 0.0005026787    1.058    0.055
        50 -10.2047    245.1011      1.4191   8.3106795984e+00   2.4762405594e+01    0.1487362   0.09576806  88.89 0.0004741838    1.483    0.326
        51  -9.3033    204.6464      1.3063   1.0511831856e+01   3.3223312545e+01    0.1362216   0.07082608 -62.47 0.0007041887    1.715    0.417
        52 -12.1708     20.0892      2.3719   5.4034388993e+01   7.5329341766e+01     0.292543    0.1943615   3.66 0.0008301485    1.491    0.329
        53 -10.4479      7.8833      1.4062   6.2601483975e+01   7.6959870842e+01    0.1554443   0.09969454  19.43  0.000355934    1.455    0.313
        54  -9.5599      1.2641    104.1048   9.5698415582e+01   5.4729284856e+01    0.2247282   0.03198763 -57.63  0.000698581    4.072    0.754
        55 -12.5294     19.7215    248.4477   1.0018601429e+02   2.0178256452e+01     1.490109    0.3800853  23.69  0.004760282    6.749    0.852
        56 -11.9909      9.8880    245.4643   1.0198884729e+02   2.1677473581e+01     0.270009    0.2430524 -73.46  0.001330773    1.475    0.322
        57 -11.5962      4.6989    243.1118   1.0291558117e+02   2.2593586023e+01    0.3915201    0.1605168  41.17  0.001533499    1.744    0.426
        58 -12.0400      6.0961    239.9891   1.0253881720e+02   2.3050326145e+01    0.3694068    0.2269866  35.54  0.001796843    1.441    0.306
        59  -9.5374     67.8218    103.8680   7.0440038517e+01   4.7930799571e+01    0.1973886    0.1716619  75.12 0.0002813775    1.270    0.213
        60 -10.8264    247.6852    102.0640   2.9185591955e+01   1.1620763469e+01    0.1860656    0.1366958 -34.70  0.001152187    1.130    0.115
        61  -9.7807     24.2463     90.3754   8.4536628838e+01   5.6656061450e+01    0.1833627    0.1775589   8.41 0.0004406905    1.134    0.118
        62 -10.2654     17.6454     94.2973   8.7964684317e+01   5.6195494958e+01    0.4767912    0.2163744 -83.08  0.001926705    2.550    0.608
        63  -9.9579     20.7218     92.6398   8.6418683237e+01   5.6377422550e+01    0.2124611    0.1616122 -25.76 0.0006537616    1.434    0.303
        64 -11.0990     22.2019    101.1859   8.7266274278e+01   5.4088831140e+01    0.4493926    0.2223942  78.76  0.001723357    3.023    0.669
        65 -10.3403     18.6549     99.3165   8.8365149189e+01   5.4846302492e+01    0.2797818    0.1456349  48.70 0.0009158557    2.204    0.546
        66  -9.5303    217.8187     98.3873   3.2285155578e+01   1.7651828371e+01    0.1716238    0.1240059  41.66 0.0005036837    1.612    0.380
        67  -9.3740    139.7094     98.3093   4.7002147068e+01   3.4735852442e+01    0.1542807    0.1220952 -80.98 0.0001940656    1.581    0.368
        68 -10.2382     37.6658     97.0873   8.0381714212e+01   5.3658332927e+01     0.204845    0.1636542 -61.69 0.0004961397    1.157    0.135
        69 -12.4954     57.7391     92.0597   7.1264826693e+01   5.2358734015e+01      0.36833    0.3137044 -63.23  0.000386287    1.171    0.146
        70 -10.0579     43.7724     94.5812   7.7399647755e+01   5.3590208742e+01    0.1947576    0.1294504  40.02 0.0009430713    1.592    0.372
        71 -10.0528     10.6178     94.1837   9.0809372972e+01   5.6705733384e+01    0.1978486    0.1456768 -65.66 0.0004318258    1.174    0.149
        72 -10.2071      7.8233     91.1503   9.1513697919e+01   5.7637257109e+01    0.1853287    0.1626745 -85.38 0.0004514391    1.107    0.096
        73 -10.6066    125.2098     93.0081   4.9210565791e+01   3.9118114249e+01    0.2454102    0.2160263  46.16 0.0002834548    1.128    0.114
        74 -10.0057     92.0032     93.0116   5.9138057021e+01   4.6215607801e+01    0.1839406    0.1827717  19.65 0.0004328714    1.004    0.004
        75 -10.5537    105.9411     91.7256   5.4338582520e+01   4.3637600759e+01    0.2208265    0.2033355  48.11 0.0004190588    1.079    0.074
        76 -11.8176    159.6974     89.3707   4.0026644363e+01   3.1826455352e+01     0.344274    0.2669998  27.95  0.000104482    1.553    0.356
        77 -11.4079     66.6948     91.6800   6.7731060615e+01   5.1078072829e+01    0.2599446    0.2450124 -30.44 0.0002810056    1.056    0.053
        78  -9.8230     46.5847     90.2712   7.5257283337e+01   5.4314306326e+01     0.208375     0.121052 -49.24 0.0009419941    1.611    0.379
        79  -9.4900      1.5432     89.5028   9.3881776921e+01   5.8380335175e+01    0.1299202    0.1096941 -66.06 5.586214e-05    1.018    0.017
        80 -13.8286     65.4246     81.8742   6.5442104204e+01   5.3592152623e+01    0.5109445    0.4677743  69.73 0.0008608981    1.227    0.185
        81 -12.1631      5.7919     73.1435   8.9530233827e+01   6.2199481092e+01    0.3968961    0.3389959  52.11  0.001773945    1.352    0.260
        82 -10.8049     10.1898     69.6874   8.6781247921e+01   6.2783174886e+01    0.2653672    0.1961989  -5.46 0.0009863299    1.485    0.326
        83  -9.6909     85.1989     79.1936   5.7276622926e+01   5.0621243811e+01    0.2637982    0.1695985  -6.20  0.000959044    2.891    0.654
        84  -9.4833     24.2898     79.6636   8.2329224844e+01   5.9311382697e+01    0.2079764    0.1580822 -87.99 0.0005281943    1.475    0.322
        85  -9.9678     22.2460     76.4095   8.2538075701e+01   6.0280603072e+01    0.2181134    0.1572437  84.13 0.0005517341    1.690    0.408
        86 -11.1602     75.0455     76.8404   6.0205694840e+01   5.3060679748e+01    0.2534262    0.2214966 -55.18 0.0002834369    1.186    0.157
        87 -11.2445    179.6515     76.3921   3.2767245307e+01   2.9414000264e+01    0.4663646    0.2414564  52.08  0.001320284    1.995    0.499
        88  -9.8898     52.6156     75.6562   6.8812786866e+01   5.7001604822e+01    0.3159785    0.1745925  38.42  0.001402247    1.877    0.467
        89  -9.5648     43.2818     76.3801   7.3050471249e+01   5.8088252455e+01    0.1523561   0.09742905 -31.56 0.0007009849    1.720    0.419
        90 -10.0744    117.1216     71.7967   4.4910466223e+01   4.5181516979e+01    0.4578555    0.2251111  27.42    0.0012314    4.959    0.798
        91 -10.5745     39.5758     70.4138   7.3021181376e+01   5.9942461187e+01    0.2798861    0.2271503  84.98  0.000790681    1.573    0.364
        92  -9.5947    142.0094     72.0000   3.8815547040e+01   3.9177125822e+01    0.2453298   0.08478661  54.93 0.0006814906    2.852    0.649
        93 -11.0274    131.3095     69.0912   4.0394018271e+01   4.2290376919e+01    0.3427408    0.2681732  12.86 0.0006569879    1.676    0.403
        94 -10.7191    128.5045     63.9932   3.9436746303e+01   4.3863723003e+01    0.3046144    0.2249503 -58.02  0.000640086    1.509    0.337
        95  -9.5626    105.7608     71.6738   4.8127396217e+01   4.7816015679e+01    0.2024076    0.1383813  56.05 0.0004582419    1.522    0.343
        96 -10.4873     75.5434     70.2597   5.7859909886e+01   5.4387389948e+01    0.3496853    0.2701986  23.75   0.00174586    1.382    0.277
        97  -9.2513    166.3288     70.3453   3.3435946694e+01   3.3554011378e+01    0.1498532    0.1154607  19.53 0.0007050394    1.752    0.429
        98 -11.7442     11.7649     76.5762   8.7388646541e+01   6.1013690214e+01    0.4427836    0.2231366 -16.11  0.001585736    2.569    0.611
        99 -10.8709    212.0018     67.2035   2.5739104719e+01   2.3594310963e+01    0.2153163    0.1705346 -42.93  0.000407225    1.132    0.116
       100 -12.4229     81.0934     66.9164   5.4660043345e+01   5.4009209101e+01    0.3127775    0.2832081 -20.92 0.0003949157    1.120    0.107
       101 -10.1031     44.9708     67.9552   6.9826696633e+01   5.9823573202e+01    0.2079736    0.1880171 -43.94 0.0003728704    1.065    0.061
       102 -10.0123      7.2170     83.8162   9.0668536539e+01   5.9501645896e+01    0.1934093    0.1303839 -46.69  0.001074932    1.359    0.264
       103 -13.3456     21.1084     58.3185   7.8549139898e+01   6.4649215001e+01    0.4301584    0.2597883 -46.44 0.0007819189    1.448    0.309
       104 -11.9590     16.8112     64.6756   8.2409981575e+01   6.3523527060e+01    0.3629608    0.3136638 -18.60 0.0003983194    1.161    0.138
       105 -11.3230      8.0018     62.7449   8.6408978397e+01   6.4567462447e+01    0.3172246    0.2269346  -1.77 0.0002293772    1.526    0.345
       106 -11.8589     11.6985     59.6939   8.3806782775e+01   6.5052673672e+01    0.2639479    0.2301632  -1.34 0.0003035669    1.218    0.179
       107  -9.7304     26.9452     65.8637   7.7710582603e+01   6.2373300420e+01    0.1663524    0.1460651  40.25 0.0003977141    1.292    0.226
       108 -10.2985     48.0358     79.3447   7.1818680260e+01   5.6771484384e+01    0.2417255    0.1920936 -53.53  0.000674002    1.197    0.164
       109  -9.0529    166.4731     64.4909   3.1751947536e+01   3.4459934647e+01    0.1436394    0.1383006 -78.60 6.130441e-05    1.036    0.035
       110 -10.3759     51.9411     63.8869   6.5380077712e+01   5.9745772405e+01    0.2317372    0.1895373 -45.99 0.0003222589    1.186    0.157
       111 -10.9342     49.8202     59.7377   6.4910900242e+01   6.0955344274e+01    0.2472252    0.2252706 -67.74 0.0003858717    1.267    0.211
       112  -9.6798    119.8074     62.4490   4.1107656982e+01   4.6238472813e+01    0.1874814    0.1391533  41.69 0.0003219277    1.370    0.270
       113 -10.1092     97.9645     60.7733   4.6772111036e+01   5.1627273515e+01    0.2218528    0.1975216  72.34 0.0007585649    1.234    0.190
       114  -9.9227     79.0505     61.2221   5.3382209205e+01   5.5550808481e+01    0.1962581    0.1827253  29.45            0    1.048    0.046
       115 -10.4876     42.3381     60.2397   6.8564483329e+01   6.1892529659e+01    0.3262404    0.2232048 -73.14  0.001572628    1.979    0.495
       116  -9.1186    202.0374     60.5137   2.5355545516e+01   2.6736051477e+01    0.1757011    0.1312109  72.62 0.0003409556    1.397    0.284
       117  -9.8373    145.7076     59.2977   3.4122056783e+01   4.0395918071e+01    0.1501077    0.1115795 -72.15 0.0001884589    1.562    0.360
       118 -11.2572     58.3744     58.9652   6.0834741019e+01   5.9780011596e+01     0.255767    0.1986838  30.80 0.0005180244    1.288    0.223
       119  -9.6570     37.9857     59.4785   7.0402574300e+01   6.2614704452e+01    0.1867084    0.1119923  -7.66 0.0003845168    2.339    0.573
       120  -9.9535     71.6412     57.3100   5.4753509828e+01   5.7755386364e+01    0.2569291      0.13451 -49.40  0.000824964    2.071    0.517
       121  -9.8215    229.1781     56.3438   2.1279317749e+01   2.1537872640e+01    0.1688665      0.14115 -66.57 0.0005230739    1.109    0.098
       122  -9.3330    130.7127     56.7405   3.6539632089e+01   4.4531526951e+01    0.1438242    0.1132511  28.59  0.000308256    1.487    0.327
       123 -10.4921     33.6769     55.4522   7.1205412963e+01   6.4013919831e+01    0.3512313    0.2001886  -1.08  0.001356895    2.469    0.595
       124 -12.8531    115.2933     53.1848   3.9095859312e+01   4.8890272426e+01    0.3253794    0.3059669  12.84 0.0007046129    1.136    0.120
       125  -9.5141    182.4511     54.4337   2.6421228377e+01   3.2128590516e+01    0.1387368    0.1276176 -71.47 0.0001354648    1.013    0.013
       126  -9.3013    148.7704     52.0128   3.1256693947e+01   4.0754911570e+01    0.1861093     0.120702 -34.98 0.0005060973    1.582    0.368
       127 -10.6425     66.8534     52.7085   5.4909738578e+01   5.9539446440e+01    0.4166471    0.1564975  38.38  0.001511063    2.708    0.631
       128 -12.5873     62.0886     49.7265   5.5719875943e+01   6.0972106320e+01    0.2982206    0.2586804 -40.71 0.0004293364    1.192    0.161
       129 -10.6370    138.4309     50.3702   3.2771219058e+01   4.3597325580e+01    0.2469126    0.2336991  73.26 0.0004792695    1.016    0.015
       130  -9.5298     98.0060     51.0115   4.3181426747e+01   5.3333003649e+01    0.1687594    0.1642851  -8.06            0    1.059    0.055
       131 -11.0693     78.2933     50.0548   4.9428278683e+01   5.7794338939e+01    0.2531801    0.2154649  38.83 0.0003105221    1.133    0.117
       132 -10.1551     74.7452     47.2597   4.9635237437e+01   5.9010807253e+01    0.1979327    0.1940591  62.12 0.0004209414    1.147    0.128
       133 -11.5038     14.0811     48.7325   7.9558678561e+01   6.7375253875e+01    0.2891453    0.1772184 -51.85 0.0002158522    1.400    0.286
       134  -9.5013     83.5748     50.5390   4.7722674058e+01   5.6605805140e+01    0.1427002    0.1371543  22.20 8.379663e-05    1.025    0.024
       135  -9.3244    159.2533     48.7035   2.8380416257e+01   3.8614337292e+01    0.1431579    0.1026789 -65.00 0.0001908337    1.493    0.330
       136  -9.1679    155.3820     47.3813   2.8638117095e+01   3.9770718723e+01    0.4004658    0.1396135  63.63  0.001392296    2.823    0.646
       137 -10.7996    103.1003     44.6354   3.9270819848e+01   5.3171787080e+01    0.6737818    0.2257219 -29.63  0.002123759    3.754    0.734
       138 -10.2083     66.3312     46.8250   5.2774674243e+01   6.0730581792e+01    0.2291018     0.198509  23.54 0.0006923513    1.105    0.095
       139  -9.7541    239.2780     46.0276   1.8055219142e+01   2.0870144705e+01    0.1696702    0.1316634 -46.94 0.0003009497    1.080    0.074
       140  -9.5985    129.7657     46.1551   3.3200325347e+01   4.6400221139e+01     0.196559    0.1628111  40.42    0.0010243    1.264    0.209
       141 -10.8935     79.3779     45.2597   4.7110412612e+01   5.8401455071e+01    0.2815037    0.2070694  25.04  0.001073476    1.466    0.318
       142 -10.0172      2.3817     45.8244   8.5477462985e+01   6.8758067767e+01     0.217389    0.1637958  -5.86  0.000587673    1.374    0.272
       143 -10.9464     85.7734     42.9031   4.3925636187e+01   5.7414175972e+01    0.2496446    0.2086962  30.59 0.0003371811    1.171    0.146
       144 -10.7916     26.8197     42.4777   7.0233743905e+01   6.7536889808e+01    0.3504328    0.1583732  31.29  0.001607233    2.263    0.558
       145 -12.0912    141.6241     41.0522   2.9105571884e+01   4.4126144859e+01    0.2939321    0.2208099  72.88 0.0002945383    1.292    0.226
       146 -10.2050    109.3093     41.6487   3.6457042605e+01   5.2129711190e+01    0.3268062    0.2335152  12.62  0.001160106    1.882    0.469
       147 -11.6246     91.3108     39.9995   4.0952460930e+01   5.6627203682e+01     0.331717     0.254461 -51.64 0.0003065702    1.504    0.335
       148 -11.2253     37.4260     41.5359   6.4085798817e+01   6.6429619318e+01    0.4528169    0.2334488  37.75  0.001682557    2.038    0.509
       149  -9.9869    116.6999     40.7774   3.4287594391e+01   5.0440653625e+01    0.2515055    0.1817353 -47.38 0.0009706515    1.491    0.329
       150 -10.5928     10.0126     46.9859   8.1363178422e+01   6.8052290372e+01    0.2235876    0.2098352  11.68 0.0006214365    1.213    0.176
       151 -10.6938     81.1989     38.8223   4.3797431837e+01   5.9058685230e+01    0.2247685    0.2115395  29.74 0.0002651266    1.027    0.026
       152 -11.0932    184.3229     40.4416   2.2385368553e+01   3.3593768191e+01    0.5211817    0.2676843  80.80   0.00227098    2.209    0.547
       153  -9.3511    191.7433     38.2720   2.0918905986e+01   3.2114491104e+01    0.1334764   0.08913703 -62.87 0.0001784121    1.457    0.314
       154 -11.9466    121.4551     36.8311   3.1758842912e+01   4.9801501120e+01    0.4703639    0.2747018 -35.36  0.001629643    1.789    0.441
       155 -10.5875     66.6005     36.4549   4.8237893981e+01   6.2456058500e+01     0.354035    0.2108343 -41.12  0.001697721    1.776    0.437
       156  -9.8499     21.4049     37.7728   7.1547387786e+01   6.9064846035e+01     0.178148    0.1037666 -42.69  0.000430235    1.519    0.342
       157 -10.3521     47.6621     36.3290   5.6624929333e+01   6.5882209691e+01    0.1274722    0.1098834  80.42 0.0002733588    1.733    0.423
       158  -9.4302     32.0059     36.4158   6.4875826045e+01   6.8129098357e+01    0.1809988    0.1040705   0.27 0.0004311676    2.442    0.590
       159  -9.5129    207.7218     34.9718   1.8392538642e+01   2.8867502026e+01    0.1783372    0.1447911 -49.65 0.0004928868    1.113    0.101
       160  -9.7170    112.7687     34.7738   3.3002673123e+01   5.2245068868e+01    0.1894607    0.1618064 -78.41 0.0003374486    1.301    0.231
       161 -10.1493    145.2614     32.7177   2.5752551989e+01   4.4288878238e+01    0.2425592    0.1557676  71.54 0.0006241497    1.488    0.328
       162  -9.6152     77.4606     26.5147   3.9683587763e+01   6.1660201944e+01    0.1893352    0.1299138  60.87 4.854378e-05    1.556    0.357
       163 -10.2713     81.7696     32.5891   4.0931328280e+01   5.9867290962e+01    0.2960084    0.2072579 -59.50 0.0006810907    1.971    0.493
       164 -10.5113     80.6423     27.4300   3.9027442641e+01   6.0833966140e+01    0.2963612    0.1882242 -24.14  0.001459103    1.725    0.420
       165 -10.0289     55.0474     32.9481   5.1589086252e+01   6.5199925825e+01    0.2008934    0.1741585   9.22 0.0002959043    1.065    0.061
       166  -9.3188    226.3511     32.2803   1.6096252892e+01   2.5172507697e+01    0.1124284   0.09376144  38.56  0.000686257    1.649    0.394
       167 -11.1743    212.9950     31.9589   1.7171000596e+01   2.8066686437e+01    0.1875306    0.1588162 -64.37  0.001204644    1.014    0.014
       168  -9.1619     96.6688     32.2775   3.6209224233e+01   5.6490254905e+01    0.1390885    0.1102834 -81.89 0.0003531255    1.601    0.375
       169 -10.3505     87.7782     31.6196   3.8570042106e+01   5.8652036840e+01    0.4024809    0.1481465  50.58   0.00151546    2.423    0.587
       170  -9.7174    111.9401     31.0125   3.1771336016e+01   5.2942904165e+01    0.2358517    0.1587162  30.99 0.0009149058    1.741    0.426
       171 -12.5478     10.3731     29.5606   7.5232881117e+01   7.1708529460e+01    0.4899675    0.2151421  34.61   0.00233328    2.622    0.619
       172  -9.7863    117.2393     30.0020   3.0185505851e+01   5.1747063068e+01    0.1897269     0.186146 -43.28 0.0003297967    1.103    0.094
       173 -10.0770     39.5432     29.8001   5.7741834669e+01   6.8289812881e+01    0.2400193    0.1464401  22.31  0.000730998    1.712    0.416
       174 -11.0285    135.6961     29.0970   2.6204993390e+01   4.7173514862e+01    0.2674459    0.1942813  74.04 0.0003009391    1.308    0.236
       175 -10.2423    132.0338     26.6712   2.6030144671e+01   4.8397183207e+01    0.2049522    0.1746488  55.60 0.0004449537    1.132    0.117
       176  -9.6583     25.5830     29.0921   6.5361014170e+01   7.0296065916e+01    0.1780897    0.1137038 -43.95 0.0002737734    1.483    0.326
       177  -9.2748    241.6725     28.3422   1.4076237624e+01   2.2538805975e+01    0.1323965   0.06751816 -58.39 0.0007051213    1.740    0.425
       178  -9.9101    144.0554     27.4751   2.4247222853e+01   4.5231090973e+01    0.1942478    0.1792596 -71.58 5.190422e-05    1.076    0.071
       179  -9.5642     69.5214     28.5887   4.3508718681e+01   6.3066600957e+01    0.1370814    0.1227975  27.38 -1.876229e-05    1.015    0.015
       180 -11.2593     90.9368     25.9435   3.5188718964e+01   5.8670467750e+01    0.3662339    0.2280612 -44.76  0.001088046    1.849    0.459
       181  -9.3336    221.2884     26.6491   1.5225106674e+01   2.6900309335e+01    0.1359517   0.07359483 -58.02 0.0007024767    1.666    0.400
       182  -9.7895    216.8946     25.6683   1.5353283693e+01   2.7956383138e+01    0.1691621    0.1542573 -69.84 0.0002969913    1.145    0.127
       183 -11.4469    212.8941     23.7615   1.5233943322e+01   2.9046464330e+01    0.2785708    0.1761263 -58.72 0.0001992021    1.389    0.280
       184 -11.9822      2.2374    233.4045   1.0308230174e+02   2.4653476308e+01    0.4255293    0.2729698 -85.61  0.002016071    1.539    0.350
       185  -9.6007    230.1640    247.3746   5.8512055352e+01  -5.9753646472e+00    0.1358005   0.08392888  29.38 0.0004587366    1.536    0.349
       186 -11.6731     47.1668     23.6430   5.0769619579e+01   6.8057768911e+01    0.4450041    0.2418107  30.80  0.001602748    1.866    0.464
       187 -10.0212    131.5126    247.1105   7.7038686443e+01   6.6684640152e+00    0.1495014    0.1219938 -46.93  0.000666654    1.528    0.346
       188 -10.3783     38.7594     13.9736   4.9858875571e+01   7.0891604600e+01    0.2491735    0.1715184  35.19            0    1.355    0.262
       189 -10.2268    116.1030    247.0255   8.0217774772e+01   8.7847048935e+00    0.1781512     0.149737  15.61  0.001013927    1.215    0.177
       190  -9.2346    183.3008     25.3610   1.8432554649e+01   3.5683638373e+01    0.1301144    0.1001209  34.05 0.0007036201    1.720    0.419
       191  -9.6679     25.7397     25.0498   6.3352041346e+01   7.1010998328e+01    0.1705781    0.1411564 -26.12 0.0002621855    1.107    0.096
       192  -9.8288    250.7488     23.5449   1.2483605257e+01   2.1340588411e+01    0.1884829   0.08066856 -34.87 0.0007428067    1.948    0.487
       193 -10.7200    102.7612     23.8400   3.1151540575e+01   5.6088593956e+01    0.5237404     0.308787 -65.53  0.001710486    2.649    0.623
       194  -9.5592    243.3129    244.3716   5.5919958838e+01  -7.0746707037e+00    0.1151763   0.06236879  -2.20 0.0007034094    1.780    0.438
       195 -10.9009    162.9729     20.6357   1.9442854627e+01   4.1210034703e+01     0.300535      0.23544  10.18 0.0009653353    1.734    0.423
       196  -9.7032     97.2279     21.9504   3.1766406564e+01   5.7655254140e+01    0.1809237    0.1701939  38.36            0    1.055    0.052
       197 -10.3918     21.5713     22.3128   6.4627503948e+01   7.1993636214e+01    0.2243899    0.1410532  16.76 0.0006051702    1.584    0.369
       198 -10.4893     52.7102    243.8531   9.3257940912e+01   1.7461970217e+01    0.1822737    0.1344295 -76.46  0.001099699    1.550    0.355
       199  -9.9315    147.4995    243.4908   7.3330035280e+01   5.0318708993e+00    0.1233285   0.09770851  24.04 0.0003415316    1.011    0.011
       200 -10.5094     38.2177    241.9504   9.6146163832e+01   1.9452149078e+01    0.3101984    0.0902626  54.58   0.00129803    3.161    0.684
       201 -11.1645      2.5560    247.9184   1.0347653134e+02   2.1903750513e+01    0.3438516    0.2619083  18.01   0.00230794    1.709    0.415
       202  -9.9700     49.9956    235.0000   9.3229261198e+01   1.9445348449e+01    0.1963621   0.05726148  30.96   0.00079745    2.908    0.656
       203  -9.7981    124.2709     21.0488   2.5460160192e+01   5.1014447117e+01    0.1863778    0.1736298  85.03 0.0004388586    1.053    0.050
       204 -10.2277    107.0000     21.2008   2.9082067244e+01   5.5347048279e+01    0.2079758      0.16373  44.91 0.0003272938    1.211    0.174
       205  -9.9452     84.7379     20.6749   3.4691198254e+01   6.0757499908e+01    0.2839641    0.1466378  13.56     0.000961    4.038    0.752
       206 -10.3043     78.3618     21.1495   3.6905622208e+01   6.2149606170e+01     0.243265    0.1631659  44.72  0.001125954    1.344    0.256
       207 -10.0352     64.0168     21.1628   4.2066494831e+01   6.5222890842e+01    0.2399508    0.1660549  48.76  0.001291898    1.377    0.274
       208  -8.8887     26.6017     21.7162   6.1150935268e+01   7.1483132945e+01     0.134595   0.08611171  -5.24 0.0006995195    1.772    0.436
       209  -9.8205      1.4904     20.4637   7.7769797604e+01   7.4137429896e+01    0.1212367   0.09609405 -29.10 0.0008094333    1.016    0.016
       210 -10.7885     70.6880     18.6127   3.8307773229e+01   6.4145437670e+01    0.2279318    0.2214461 -12.52 0.0006799871    1.161    0.139
       211 -10.5915     31.7411    233.1180   9.7000017526e+01   2.1838933199e+01    0.3235422    0.1171286  33.59  0.001542628    2.204    0.546
       212  -9.6733     55.1927    231.4056   9.1845176864e+01   1.9529116683e+01    0.1771422   0.08593433  42.85   0.00034851    1.609    0.378
       213 -10.6021    207.4498     18.0806   1.4322004058e+01   3.0885678952e+01    0.1943353    0.1579242  76.14 0.0004004926    1.263    0.208
       214  -9.9467     52.3137     23.4303   4.8210483473e+01   6.7175166333e+01    0.1747694    0.1223366  49.79 0.0009391553    1.548    0.354
       215  -9.8228     91.0351     18.0215   3.1713700610e+01   5.9585169572e+01    0.2237439    0.1452678  32.58 0.0005452329    1.642    0.391
       216  -9.9688    147.9406     16.5753   2.0145856402e+01   4.5440176690e+01    0.1909346     0.172748 -54.66 8.801387e-05    1.145    0.127
       217  -9.3947    246.1952    230.5973   5.3353089014e+01  -5.8319310177e+00    0.1436852   0.08199783  16.24 0.0006141316    1.533    0.348
       218  -9.4005    242.4930    230.5060   5.3930158159e+01  -5.4084099589e+00    0.1122884   0.08045177  -0.73  0.000810464    1.028    0.027
       219  -9.8677    139.3331    227.3191   7.2906717721e+01   8.7907141687e+00    0.1293041   0.09103701   1.75 0.0007048707    1.696    0.410
       220  -9.9616    223.3178    226.3161   5.6456451424e+01  -2.6380211337e+00    0.1202882   0.07209051  -0.07 0.0004034562    1.653    0.395
       221 -11.8622      2.8505    221.0484   1.0252874404e+02   2.7041143074e+01    0.4064425     0.176147  73.01  0.001828535    2.076    0.518
       222  -9.6552    210.1555    215.8674   5.7087114839e+01   4.4572590307e-01    0.1704161    0.1182449  -2.72  0.000587351    1.322    0.244
       223  -9.8057     85.7354    215.0211   8.3410886372e+01   1.8847116416e+01    0.1651732     0.152244  55.04            0    1.093    0.085
       224  -9.8452    111.3172    214.3267   7.7390147515e+01   1.5293498800e+01    0.1301994   0.09960897  -5.03 0.0007045347    1.676    0.403
       225  -9.7931     39.1160    207.4893   9.3704741632e+01   2.6308553787e+01    0.1817725    0.1095132  34.29 0.0005360348    1.506    0.336
       226 -10.0089      5.6917    207.3064   1.0137047090e+02   2.9647339230e+01     0.128034   0.06464549  57.97 0.0002533775    1.611    0.379
       227 -10.5786      7.6968    221.6181   1.0153097286e+02   2.6495797024e+01    0.2367686    0.1178366  86.56  0.001343879    1.887    0.470
       228 -10.1140    237.7985    186.5874   4.7290642458e+01   8.0520957957e-01    0.2031811    0.1325337 -19.19 0.0006347185    1.335    0.251
       229  -9.3836    229.5211    165.5490   4.4698915073e+01   5.0325380109e+00    0.1268552    0.1041731 -12.03 0.0002501012    1.030    0.029
       230 -10.5782     14.3907    164.3115   9.6788993200e+01   3.8731954211e+01    0.2487392    0.1502914  31.70  0.001349309    1.657    0.397
       231 -10.4593     22.1659    150.0979   9.3371651404e+01   4.1572742757e+01    0.2020621    0.1723193 -56.37 0.0005492919    1.259    0.206
       232 -11.0455      6.4232    145.5792   9.7673591810e+01   4.3960038226e+01    0.3404488    0.2031619  74.74 0.0009443103    1.576    0.365
       233  -9.7450     31.8551    140.8460   8.9399497527e+01   4.3006441153e+01    0.1880036    0.1433434  64.46 0.0003504455    1.283    0.221
       234  -9.1314     80.2831     10.2933   3.1176584920e+01   6.2918803592e+01    0.1363196   0.09002612  31.91  0.000183265    1.537    0.349
       235  -9.5563      1.9752    140.0411   9.8598934361e+01   4.5637268063e+01    0.1549259    0.1261135  89.60 0.0003685773    1.044    0.042
       236  -9.4520    235.4981    137.5363   3.8186909969e+01   8.3552199460e+00    0.1276146    0.1074375 -24.02 0.0001200128    1.003    0.003
       237 -10.8221     22.1346    136.3611   9.1977671958e+01   4.5058710466e+01    0.3830946    0.1586432  47.60  0.001593819    2.463    0.594
       238  -9.8113     96.0023    134.0199   6.8063645522e+01   3.5719401954e+01    0.1945173    0.1721029 -58.82  0.001000753    1.143    0.125
       239 -10.2672     53.8200    132.0565   8.1025249384e+01   4.2764690253e+01    0.3441675    0.2000802 -82.45   0.00133669    2.012    0.503
       240 -10.6362     28.0476    129.8417   8.9271549373e+01   4.6200628036e+01    0.2162566    0.1787797 -83.31 0.0003024769    1.104    0.094
       241  -9.5056     92.4154    129.4270   6.8159072323e+01   3.7476295635e+01    0.1502569    0.1456568  75.21 3.063696e-05    1.020    0.019
       242  -9.4313     20.6703    128.7988   9.1605496539e+01   4.7120615097e+01    0.1882394    0.1131337 -86.89 0.0002337326    1.610    0.379
       243  -9.6918    247.3328    126.6874   3.4308554356e+01   8.0780485272e+00    0.1206089   0.08878864 -57.82 0.0002445474    1.679    0.405
       244  -9.6493    208.5263    123.4591   3.9406454152e+01   1.5353855116e+01    0.1363651    0.1231492 -31.27 0.0001755555    1.023    0.022
       245 -11.5627     11.7319    120.7491   9.3731207162e+01   4.9867255696e+01    0.4590449    0.3034059 -23.01  0.001421637    1.909    0.476
       246  -9.5814     70.6057    130.1662   7.5192233184e+01   4.0891979253e+01     0.216366    0.1295742 -49.56 0.0009400082    1.688    0.408
       247  -9.8258     27.0184    116.8055   8.7853748545e+01   4.9659738336e+01    0.1784611    0.1696846  88.79 0.0003218121    1.060    0.056
       248 -11.7200     23.3259    113.4649   8.8707916156e+01   5.0845066879e+01    0.3076905    0.2270875 -73.25 0.0002200781    1.223    0.182
       249 -11.3005     69.3388    115.3308   7.2553406470e+01   4.4834282693e+01    0.3042199     0.253275  39.49 0.0001658213    1.217    0.179
       250 -11.5360      5.4400    114.1220   9.5227199482e+01   5.1962352003e+01    0.3540151    0.1662036 -56.93 0.0006470886    1.886    0.470
       251  -9.8272    115.4434    114.1706   5.7692026295e+01   3.6640376077e+01    0.2921853    0.1861684  18.20  0.001107228    2.385    0.581
       252 -10.1026     40.0000    113.9552   8.2703930045e+01   4.9091027734e+01    0.2425965   0.07585742 -66.22 0.0008077775    2.980    0.664
       253 -10.6926     13.6876    107.3020   9.1425862100e+01   5.3170605942e+01    0.3023814    0.1003331 -53.66  0.001179197    2.591    0.614
       254  -9.3570     69.9889    107.7801   7.0605262025e+01   4.6619252182e+01    0.1854129    0.1229238  33.40            0    1.547    0.354
       255  -9.6561     57.2852    107.3258   7.5067751098e+01   4.8628843139e+01    0.1507756    0.1082992 -31.58 0.0002925402    1.604    0.377
       256 -10.1354     88.6971    106.3297   6.3864162415e+01   4.3745385379e+01    0.1569675    0.1215012  79.85 0.0005562658    1.650    0.394
       257 -10.4503     17.9538    105.3373   8.9543520617e+01   5.3363187379e+01    0.1754339    0.1670233 -63.27 0.0004563909    1.080    0.074
