#   1 NUMBER                 Running object number                                     
#   2 MAG_AUTO               Kron-like elliptical aperture magnitude                    [mag]
#   3 X_IMAGE                Object position along x                                    [pixel]
#   4 Y_IMAGE                Object position along y                                    [pixel]
#   5 X_WORLD                Barycenter position along world x axis                     [deg]
#   6 Y_WORLD                Barycenter position along world y axis                     [deg]
#   7 A_WORLD                Profile RMS along major axis (world units)                 [deg]
#   8 B_WORLD                Profile RMS along minor axis (world units)                 [deg]
#   9 THETA_WORLD            Position angle (CCW/world-x)                               [deg]
#  10 FWHM_WORLD             FWHM assuming a gaussian core                              [deg]
#  11 ELONGATION             A_IMAGE/B_IMAGE                                           
#  12 ELLIPTICITY            1 - B_IMAGE/A_IMAGE                                       
         1  -9.1519    157.9090     15.6020   4.7298456754e+01   4.3726082857e+01    0.5393087    0.4300546  47.72   0.00302485    1.230    0.187
         2  -9.1353    152.0472     17.8133   4.8947213399e+01   4.4981896792e+01    0.4896754     0.226913 -19.67  0.001431794    2.543    0.607
         3 -10.6782      4.5130     35.2735   1.0557125861e+02   6.8355449477e+01    0.9979392    0.4531524 -38.48  0.005607923    1.748    0.428
         4  -9.2673    126.8594     14.1174   5.2241988992e+01   5.1608889429e+01    0.5892384    0.3247368 -31.18  0.001623434    1.921    0.479
         5  -8.8221    140.1180     18.6413   5.1308810952e+01   4.7889852211e+01    0.3429881    0.2706497 -57.42  0.001298048    1.446    0.309
         6 -10.0424    134.6900     10.0933   4.9296698282e+01   5.0083428166e+01    0.6890231    0.3784545  30.89  0.003107059    2.154    0.536
         7 -10.2413    142.3159     13.3039   4.9074401726e+01   4.7886151316e+01    0.5505485    0.2766635  68.36  0.001336941    1.909    0.476
         8  -9.9818    136.8781     15.2886   5.0734991352e+01   4.9040206097e+01    0.5921817    0.2903749  37.42  0.001766204    2.300    0.565
         9 -10.0487    188.7428     21.6395   4.4825073602e+01   3.5236805746e+01    0.6301798    0.2952615 -57.61  0.002511145    2.594    0.614
        10 -10.6241    183.3315     10.3366   4.2298465028e+01   3.7813268645e+01    0.7326971    0.3691171 -45.96  0.002588448    2.012    0.503
        11 -11.5455    186.1976      3.3848   4.0038982571e+01   3.7769471019e+01    0.4397853    0.3048258  61.75  0.002221544    1.353    0.261
        12 -10.5239    210.3257     19.3052   4.1727486359e+01   3.0154295778e+01    0.6460426    0.5467893 -82.67  0.003219793    1.060    0.057
        13 -10.3493    209.5071     11.4537   3.9811764661e+01   3.1221934556e+01    0.3217375    0.2325618 -76.41 0.0006720519    1.294    0.227
        14 -10.7911    204.9257      9.7495   3.9823082625e+01   3.2514691316e+01    0.4854209    0.3028577 -24.51 0.0007769231    1.803    0.445
        15 -10.4470     16.2066     18.4226   9.3366898922e+01   7.0585641642e+01    0.4802485    0.2336207 -44.85  0.001240038    1.732    0.423
        16 -10.4820     23.3969     17.1675   8.9095086281e+01   7.0120276526e+01    0.4917289    0.2685554  36.20   0.00212964    2.290    0.563
        17  -9.3023    197.1388     18.9201   4.3067721459e+01   3.3440846535e+01    0.3790211    0.2366957 -67.76   0.00186435    1.704    0.413
        18 -10.4548     88.6325     16.6200   6.2625217535e+01   5.9976709828e+01    0.5456467    0.3541161  52.03  0.001031443    1.523    0.343
        19 -10.1158     91.9612     12.5708   5.9905665584e+01   5.9718532126e+01    0.3542447    0.2119045  31.56  0.001810812    1.624    0.384
        20  -8.6975    248.4640      1.9543   3.4494564069e+01   2.3304319506e+01    0.1926659    0.1454161 -87.82 0.0001318915    1.198    0.165
        21  -9.3487    240.3882      8.0333   3.6380255037e+01   2.4415478757e+01    0.3481693    0.1620453  69.36  0.001083208    2.069    0.517
        22 -10.5363    244.1233      4.4967   3.5334215098e+01   2.3975132461e+01    0.4384532    0.2186166 -57.31  0.001874312    1.777    0.437
        23  -9.7402    234.3864     17.9807   3.9121580262e+01   2.4643510334e+01    0.6179199    0.3352949  45.25   0.00285874    2.572    0.611
        24  -9.3136    237.8121     12.3099   3.7537707112e+01   2.4516986580e+01    0.3952706     0.231677  83.17  0.002087746    1.648    0.393
        25  -9.7948    233.0551      6.2476   3.6532388819e+01   2.6253428120e+01    0.3353676    0.2588203 -77.10  0.001508054    1.113    0.102
        26  -9.9935    234.7712      1.5285   3.5339908527e+01   2.6361537894e+01    0.2243861    0.1528288 -76.12 0.0004171726    1.291    0.225
        27 -11.5531     65.1604      5.5124   6.5041538234e+01   6.5698256753e+01    0.9863059     0.314591  46.16  0.004184227    2.758    0.637
        28  -8.1074     77.8694      2.1505   5.9263852837e+01   6.3607896057e+01    0.1968014    0.1581479  50.32 0.0003755859    1.288    0.223
        29  -8.5270     60.6259     11.5553   6.9682267847e+01   6.5827068642e+01    0.3167482    0.2440197  86.28  0.001098586    2.936    0.659
        30  -9.5424     63.8714     17.0632   7.1101590417e+01   6.4602890982e+01    0.3894441    0.2793287   1.70  0.001482687    1.319    0.242
        31  -8.5925     66.8930     11.8511   6.7517362570e+01   6.4700826558e+01    0.2284735    0.1630237 -16.17 0.0004305482    1.318    0.241
        32  -8.9714     33.8595     12.6226   8.1722661000e+01   6.9629394018e+01    0.2811939    0.1572875  26.41 0.0008579511    1.788    0.441
        33  -8.4460     42.5043     10.4409   7.6608374924e+01   6.8781379704e+01    0.2209058    0.1269316 -25.30 0.0005167707    1.555    0.357
        34 -10.2187     40.1260     15.2383   8.0081594113e+01   6.8458992282e+01     0.387303    0.3403913 -44.49  0.001565085    1.632    0.387
        35 -10.3778     50.9047     18.4596   7.6914819644e+01   6.6493318304e+01    0.3528702    0.2732898 -10.83 0.0009307049    1.088    0.081
        36 -10.4791     46.5615     17.4867   7.8304705886e+01   6.7260174840e+01    0.3290932    0.2381274  13.65  0.002070584    1.275    0.216
        37  -8.3423    247.4548     17.2916   3.7890109729e+01   2.1815107498e+01    0.3293384    0.1509171 -50.36   0.00161723    1.875    0.467
        38  -8.9699    121.3974     17.3285   5.4582732981e+01   5.2591965436e+01    0.2354952    0.2281716  50.00 0.0007708811    1.094    0.086
        39  -8.8252    113.8980     15.7204   5.5640355240e+01   5.4521819613e+01    0.4510042    0.2475405 -24.06 0.0003660306    1.922    0.480
        40  -9.5270    109.7267     15.5112   5.6536746107e+01   5.5504287539e+01    0.3511524    0.2373465  11.30 0.0001981744    1.668    0.401
        41 -11.7027    101.3531     13.7901   5.7910081883e+01   5.7563639942e+01    0.4602022    0.4129987 -61.43 0.0002777667    1.412    0.292
        42 -11.1855    100.3031      9.7159   5.6474637161e+01   5.8198812427e+01     1.058024    0.6030616 -71.69  0.001831917    5.108    0.804
        43  -9.4802    193.2958     12.8788   4.1865575739e+01   3.5055218092e+01    0.5306418    0.3853936  51.12  0.002270364    1.462    0.316
        44  -8.5567    195.4156      5.2741   3.9598652838e+01   3.5301304691e+01    0.3215665    0.2355942 -71.95  0.001134613    1.300    0.231
        45 -10.1653     25.1055      9.5562   8.4524649710e+01   7.1086781379e+01    0.4845067    0.3786769 -41.38  0.003346086    1.595    0.373
        46 -10.7780      5.8156      7.6520   9.4132649150e+01   7.3155873069e+01    0.8258218    0.4671418 -46.57  0.005277139    1.644    0.392
        47  -9.1318     17.7036      8.6016   8.7944978750e+01   7.1991346955e+01    0.3185709    0.1625935 -29.06  0.001677809    1.634    0.388
        48  -9.4846     13.3145      8.9864   9.0538482844e+01   7.2339143258e+01    0.2403904    0.1627181 -26.46 0.0007608983    1.124    0.110
        49  -8.3633    229.0826     12.0993   3.8203204640e+01   2.6525106111e+01     0.231288    0.1596829 -88.94  0.000853652    1.346    0.257
        50  -8.5184    171.9144     11.8861   4.4163795529e+01   4.0544356040e+01    0.2109808     0.185917  76.47 0.0006874567    1.027    0.026
        51  -9.1750     80.9292     11.8577   6.2838755087e+01   6.2051943899e+01    0.3093395    0.1709938  39.79  0.001451624    1.630    0.386
        52  -8.5525     84.6296      6.7628   5.9409917600e+01   6.1819205848e+01     0.279682    0.2349077 -55.67  0.001708909    1.648    0.393
        53  -8.4819     73.6453     11.7943   6.5156599766e+01   6.3466951983e+01    0.2091542    0.1692571  68.45  0.001079867    1.751    0.429
        54  -8.3711    150.1730     10.8199   4.6946490151e+01   4.6155731989e+01    0.1961058    0.1703481 -86.20 0.0003899448    1.181    0.153
        55  -8.0627    128.6140      9.4315   5.0178290827e+01   5.1630750474e+01     0.200334       0.1315 -17.67 0.0006295866    1.681    0.405
        56  -7.8016     52.5090      9.9474   7.2078257725e+01   6.7347788302e+01    0.1763325    0.1067801 -22.47  0.000471013    1.521    0.342
        57  -8.1998     48.1747      9.8591   7.3838588157e+01   6.8027868439e+01    0.1713627     0.154822 -13.05  0.001199795    1.334    0.250
        58  -9.2111    250.3266      7.7079   3.5596027148e+01   2.2281946685e+01     0.201862     0.151674 -40.73 0.0007316651    1.287    0.223
        59  -8.3136    227.0102      2.4918   3.6133941017e+01   2.8026960517e+01    0.2626209    0.1649439 -71.81 0.0009516931    1.463    0.316
        60  -9.0688    225.0048      7.9200   3.7561584174e+01   2.7922816386e+01    0.2251551    0.1571046 -56.40 0.0005247366    1.274    0.215
        61  -8.9363    223.3448      3.1141   3.6564557036e+01   2.8810563899e+01    0.2919752    0.1697571 -24.37  0.001534958    1.969    0.492
        62 -10.1688     32.3293      6.2520   7.9182853368e+01   7.0683526980e+01    0.2545297    0.2001813 -14.15 0.0004236392    1.128    0.114
        63  -9.0294    146.3814      5.5026   4.5771576250e+01   4.7593134427e+01    0.3956515    0.2555901  65.15 0.0009453305    1.369    0.270
        64  -9.0578    150.9738      1.8309   4.3886421917e+01   4.6756814960e+01    0.2967894    0.2102783  38.21  0.001622192    1.479    0.324
        65  -9.1217    108.0042      6.0475   5.3127936367e+01   5.6802383703e+01    0.1977485    0.1781006  15.17 0.0003694528    1.105    0.095
        66  -9.7222    113.2185      4.3702   5.1323553208e+01   5.5742660954e+01    0.4122711    0.2831854  26.34 0.0007105857    1.478    0.323
        67  -8.8093    168.7667      5.1745   4.2561480638e+01   4.1983473435e+01    0.2226891    0.2136741  65.05 0.0006498331    1.107    0.097
        68  -8.5097     34.2370      1.5906   7.5734634133e+01   7.1014597326e+01    0.1967383    0.1192276  30.21 0.0006807535    1.572    0.364
        69  -8.2800    122.4630      4.2838   4.9438711578e+01   5.3565971430e+01    0.5180283    0.2314663  74.25  0.002008662    2.679    0.627
        70  -8.6126    218.1510      3.2776   3.7023288497e+01   3.0008922562e+01    0.2306584    0.1613244 -47.59 0.0005169049    1.328    0.247
        71  -8.2614    130.3168      3.2096   4.7607734463e+01   5.1757985533e+01    0.2733647    0.1537342 -29.30  0.001354457    1.922    0.480
        72  -8.5000    210.2112      2.6345   3.7538542954e+01   3.1959718648e+01    0.1992321     0.154487 -55.39 0.0005713904    1.199    0.166
        73  -8.8622    203.4908      2.3232   3.8058275760e+01   3.3611371964e+01    0.3109288      0.18701  80.88 0.0009792704    1.518    0.341
        74  -8.6186     14.8419      3.2922   8.6770677253e+01   7.3035549800e+01    0.2033979    0.1344725  23.51  0.001348344    1.605    0.377
        75  -8.0074    158.0011      1.4356   4.2800584294e+01   4.5025816804e+01    0.2003192    0.1186325  72.13 0.0003353057    1.516    0.340
        76  -8.6605    199.7985     75.6942   5.8223417380e+01   2.4776040398e+01    0.3320687    0.2261883 -35.98  0.001166905    1.414    0.293
        77  -8.3599    249.4280    249.7763   8.6732352696e+01  -1.1732147387e+01    0.1441186   0.08806731 -10.78 0.0009374872    1.561    0.359
        78  -8.5303    110.8742    249.9084   1.1173483285e+02   8.9532804484e+00    0.2022794    0.1568919  74.66  0.001384812    1.320    0.242
        79  -8.2796    195.8045     77.3348   5.9353906372e+01   2.5473561148e+01     0.248298    0.2180659 -71.53 0.0006607237    1.181    0.154
        80 -10.1640    188.7519     82.1877   6.1958176260e+01   2.6360957111e+01    0.3235447    0.2589857  51.91 0.0002962775    1.285    0.222
        81 -10.3836    195.7561     82.0051   6.0636643934e+01   2.4685594517e+01    0.3697085    0.2611713  57.58  0.001738705    1.465    0.317
        82  -8.1209    146.1871     82.4773   7.1072471085e+01   3.6708015745e+01    0.2572446    0.1781321 -42.69  0.000638965    1.432    0.302
        83  -7.8634    135.4999     82.9789   7.3876602984e+01   3.9116954086e+01    0.2390489     0.152407 -37.84  0.001019243    1.556    0.357
        84  -8.5522    126.3646     81.3526   7.5769612489e+01   4.1513857677e+01    0.3042445    0.2363833  19.73  0.000734232    1.520    0.342
        85  -7.2657     33.3377     82.7083   1.0629648029e+02   5.6201468755e+01    0.1231906   0.09584835  75.73 0.0004329344    1.643    0.392
        86  -8.2601    169.0452     81.4844   6.5643381794e+01   3.1336864654e+01    0.2407821    0.1531141  53.00 0.0006746367    1.585    0.369
        87  -7.6946     37.3274     81.6963   1.0464025089e+02   5.6057506639e+01    0.1248333   0.09786776  78.54 0.0003297944    1.647    0.393
        88  -9.3928     87.3602     83.1791   8.7866790669e+01   4.8944076546e+01    0.4056187    0.2781797 -64.74  0.001363036    1.798    0.444
        89  -8.3258     80.8118     79.1874   8.8799128795e+01   5.0917697081e+01    0.2682762    0.1674808  53.62  0.001198685    2.079    0.519
        90  -8.8006    153.7385     77.9592   6.7936780777e+01   3.5739790341e+01    0.5650119    0.2107049  50.50   0.00188144    2.644    0.622
        91  -9.8723     75.9841     78.1060   9.0086771190e+01   5.1932379800e+01    0.4305595    0.2897865 -71.90  0.001934872    2.171    0.539
        92  -9.5276     31.3046     77.1819   1.0574654060e+02   5.7639274756e+01    0.4105514    0.2113359   8.69  0.001349281    2.759    0.638
        93  -7.6911    245.4304     77.4826   5.1975468994e+01   1.4026083940e+01    0.1392077     0.120092 -46.34 0.0001059149    1.013    0.012
        94  -7.5672     93.1614     77.3900   8.4237748586e+01   4.9136299906e+01    0.2023293     0.139692  51.41 0.0007131389    1.670    0.401
        95  -8.9765    232.0316     74.9955   5.3145878411e+01   1.7334924405e+01    0.3582866     0.195053 -20.39  0.001455413    2.425    0.588
        96  -8.1046     87.1237     75.2940   8.5514925293e+01   5.0663012789e+01     0.194738    0.1858769 -13.51 0.0004731739    1.050    0.048
        97  -9.7030     19.1011     73.9148   1.0950496845e+02   5.9344537369e+01    0.3666405    0.3303505  77.48  0.002539835    1.348    0.258
        98  -8.4720    249.5528     73.2426   5.0467301366e+01   1.3802090233e+01    0.3235547    0.1947348  -1.77 0.0007377758    3.607    0.723
        99  -7.8304    220.4848     74.4877   5.4653624765e+01   2.0048235866e+01    0.1463692    0.1322073 -54.40 0.0008102118    1.028    0.027
       100  -8.9775    211.4221     70.6989   5.5027258292e+01   2.2788838792e+01    0.4786724    0.2675486 -36.92  0.002079505    1.671    0.402
       101  -8.4032    188.9537     73.5342   5.9509767378e+01   2.7800686161e+01    0.2739681    0.1434979  53.20 0.0008963837    1.922    0.480
       102  -8.3253    148.1232     73.1028   6.7738448220e+01   3.7994397281e+01     0.248171    0.2113632   8.90  0.001219745    1.343    0.255
       103  -8.8198     57.3061     66.5338   9.3134990092e+01   5.7110431393e+01    0.2516612    0.2301584 -33.30 0.0008850828    1.077    0.072
       104  -9.1088     59.3972     71.7812   9.3980566559e+01   5.5719537015e+01    0.4586533    0.2305293 -45.64  0.001563794    1.736    0.424
       105  -8.7084     56.3054     71.6453   9.5063978078e+01   5.6155212636e+01     0.261233    0.1911258 -59.34 0.0006982519    1.403    0.287
       106  -9.1661    243.4983     71.4597   5.0793023813e+01   1.5360723353e+01     0.300708    0.2041243  18.15  0.001278478    2.465    0.594
       107  -9.6953    128.5165     71.0117   7.1916354534e+01   4.3019915083e+01    0.2858897    0.2826218  81.90 0.0003724017    1.072    0.067
       108  -8.3488    123.8777     70.3569   7.2934122214e+01   4.4197033612e+01    0.2418802    0.2043432 -46.90 0.0005201996    1.219    0.180
       109  -9.8536    113.2695     70.1956   7.5826316782e+01   4.6558995610e+01    0.4535151    0.4050843 -58.98  0.001917845    1.242    0.195
       110  -9.7018     28.8962     71.5846   1.0528563691e+02   5.9099171973e+01     0.227191    0.1687442 -54.49 0.0003098986    1.114    0.102
       111  -8.3007    160.6401     70.6959   6.4209998904e+01   3.5344155074e+01    0.2983111    0.2049241 -68.41 0.0007198353    1.946    0.486
       112  -8.1350     37.5902     70.9812   1.0184199970e+02   5.8431228079e+01    0.1975898      0.15864 -23.42 0.0005062593    1.258    0.205
       113  -8.3820     93.6020     69.8008   8.1643570539e+01   5.0599730370e+01    0.2359439    0.2044443  -2.01  0.001011127    1.192    0.161
       114 -10.5469    101.1164     63.9085   7.7302163814e+01   5.0273617364e+01    0.7075954    0.6479297 -20.74  0.003421785    1.036    0.035
       115  -8.9185     10.3027     75.6347   1.1309614937e+02   5.9529122237e+01    0.3143197    0.1863728 -24.85  0.001758863    1.953    0.488
       116  -8.2757    204.1620     68.8310   5.5657391578e+01   2.4837724796e+01     0.219548    0.1886954 -69.69 0.0003479442    1.179    0.152
       117  -8.6960    193.0958     69.1025   5.7548517097e+01   2.7510410312e+01    0.4666567    0.1791767  48.79  0.001617911    2.757    0.637
       118  -7.6265    141.4501     69.4902   6.8179645952e+01   4.0257380151e+01    0.1523892     0.148976   4.69 0.0002646301    1.019    0.019
       119  -8.8319    134.5631     69.1037   6.9747939079e+01   4.1964703997e+01    0.4753366    0.2201502  51.62  0.001410906    2.169    0.539
       120  -8.0886     20.6527     68.9095   1.0777851381e+02   6.0344290881e+01     0.171011    0.1281415 -54.69 0.0003673687    1.075    0.070
       121  -7.7713    221.9836     67.9930   5.2784825374e+01   2.0723333172e+01    0.1692567    0.1560729  87.05 0.0003934149    1.114    0.102
       122  -9.5005     95.1478     66.2198   7.9950642306e+01   5.1007733125e+01    0.3339244    0.2534356 -82.69 0.0008939871    2.127    0.530
       123 -10.6792     48.9047     65.4762   9.5967066474e+01   5.8387733334e+01    0.4512708     0.300223   9.67  0.002396765    1.821    0.451
       124  -8.5884    173.3538     66.4418   6.0358150037e+01   3.2885540632e+01    0.4440789    0.2539088  32.30  0.001675312    2.485    0.598
       125  -8.8223    149.0819     66.9177   6.5579849120e+01   3.8857801989e+01    0.4843509    0.1977004  48.11   0.00170382    2.422    0.587
       126  -8.9762    144.1698     64.2429   6.5855517135e+01   4.0520365375e+01    0.2942275    0.2682942 -48.51 0.0006523716    1.127    0.113
       127  -8.4473      3.6092     66.8278   1.1385492599e+02   6.1847051492e+01    0.2087424    0.1230477 -72.07 0.0006968493    1.514    0.340
       128  -9.8118    233.1857     64.1706   5.0334207224e+01   1.8738047824e+01    0.4471174    0.3123568  15.37  0.001572374    2.319    0.569
       129  -9.0652     14.1004     66.2264   1.0968498244e+02   6.1383502593e+01    0.3237545    0.1723605   6.01  0.001399276    2.431    0.589
       130  -8.8218     19.2190     63.6702   1.0706639300e+02   6.1592532494e+01    0.3216307    0.1483941 -47.90  0.001159651    1.681    0.405
       131  -8.9346      8.8876     62.8832   1.1097095887e+02   6.2426589119e+01    0.2537282    0.1698256  89.28  0.001476917    1.944    0.486
       132  -8.5027    208.3621     64.8811   5.3953082908e+01   2.4443862474e+01     0.233044    0.2029909  68.61  0.000422657    1.179    0.152
       133  -8.4006    211.6670     63.3238   5.3051676891e+01   2.3888391210e+01    0.1501129    0.1366308 -61.29 0.0008310523    1.027    0.026
       134  -8.5376    201.8732     64.2870   5.4789525425e+01   2.6117827030e+01    0.2652839    0.2126349 -23.40 0.0003792695    1.348    0.258
       135 -10.7963    122.2679     64.0903   7.1287797475e+01   4.5707478316e+01    0.4629178    0.2571966  52.77  0.001927774    1.869    0.465
       136  -8.3880    138.9911     63.5075   6.6841014926e+01   4.1900459963e+01     0.226921    0.1202319  33.01 0.0008104144    2.542    0.607
       137  -8.8773     81.9521     61.8602   8.2780788906e+01   5.4268641120e+01    0.4397508    0.2406707  24.14  0.001817609    2.430    0.589
       138  -9.2547     28.9688     53.6234   1.0030273088e+02   6.2929265593e+01    0.3757284    0.1439775 -43.23  0.001072161    2.139    0.533
       139  -8.8412     27.4937     62.4720   1.0346293188e+02   6.1203387231e+01    0.2396545    0.2101259  -4.09  0.001623906    1.263    0.208
       140  -9.7780     25.1537     58.8360   1.0340425728e+02   6.2171316974e+01    0.3422945    0.2665219 -28.77  0.001442166    1.196    0.164
       141  -9.5661    242.5556     60.6234   4.8334653572e+01   1.7180373343e+01    0.4308362     0.235344 -25.75  0.001577679    2.022    0.505
       142  -7.7124    161.4554     62.4561   6.1514812626e+01   3.6536677190e+01    0.1496049    0.1480644  62.12 0.0002855142    1.013    0.013
       143  -8.8428     40.5459     61.8768   9.8112859103e+01   6.0085393739e+01    0.1997334    0.1838397  21.03 0.0003477811    1.276    0.216
       144  -8.1165    135.1897     60.7906   6.6867864941e+01   4.3276206360e+01    0.3214637    0.1806415 -58.47  0.001019602    2.677    0.626
       145  -7.9911    133.6045     57.2242   6.6062676089e+01   4.4252318891e+01    0.2185461    0.1441073 -19.25 0.0009513134    1.769    0.435
       146  -8.0910     89.7777     65.1990   8.1326733473e+01   5.2217152662e+01    0.2033263    0.1643645  -2.53 0.0008265601    1.342    0.255
       147  -8.2912     67.7995     64.5243   8.8646260398e+01   5.6040881249e+01    0.3357211     0.189902  21.54  0.001425339    2.242    0.554
       148  -8.4149     39.1398     66.4774   1.0000822795e+02   5.9254122600e+01    0.3489953    0.2040316  44.24  0.001408357    2.245    0.554
       149  -8.1924    188.8308     60.0508   5.5723626689e+01   3.0019119853e+01    0.3710058    0.1886171  62.05  0.001502106    1.999    0.500
       150  -7.7489    149.5707     59.3984   6.3075758418e+01   4.0005585694e+01     0.148133    0.1448121  74.36 0.0001150062    1.035    0.034
       151  -8.4255     35.1507     59.1411   9.9438105455e+01   6.1208641764e+01    0.1600795    0.1496356 -82.17  0.001009374    1.354    0.261
       152  -9.1565      5.8868     58.0789   1.1108260254e+02   6.3624677465e+01    0.3006051    0.1765344 -24.47  0.001646377    1.817    0.450
       153 -10.4715      9.3420     52.8701   1.0837927520e+02   6.4533388150e+01    0.3552241    0.3103676  26.41  0.002588699    1.463    0.316
       154  -9.4819    235.3989     57.0074   4.8314413138e+01   1.9296912848e+01    0.3117467    0.2178596 -70.74 0.0003432788    1.533    0.348
       155  -9.4045    175.6327     58.1620   5.7475353627e+01   3.3644446728e+01     0.564099    0.2899138 -12.59  0.001804209    3.720    0.731
       156  -8.4995    159.5060     57.5670   6.0393552574e+01   3.7817692425e+01    0.2847174    0.2282029  33.77   0.00140593    1.357    0.263
       157  -9.4872    155.8737     56.4644   6.0792278510e+01   3.8905762006e+01    0.3113788    0.2694254  53.97 0.0002622069    1.133    0.118
       158  -9.0324     88.6490     57.3815   7.8960097133e+01   5.3902859632e+01    0.2541921     0.218854 -39.19 0.0007309588    1.174    0.148
       159  -8.3833    224.0296     57.0415   4.9735498535e+01   2.1901928864e+01    0.2115087    0.1977276 -58.66  0.000625111    1.054    0.051
       160  -8.5198    192.9417     56.9595   5.4179086438e+01   2.9464696760e+01    0.2229167    0.1985691 -67.55 0.0004131183    1.100    0.091
       161  -8.4002    207.2606     55.5470   5.1626913197e+01   2.6133730972e+01    0.2615252    0.2217255  25.12 0.0006281421    1.452    0.311
       162  -9.5165    205.6010     50.9834   5.0640166385e+01   2.7208905365e+01    0.4324056    0.3157201  19.35  0.002060289    1.963    0.491
       163  -8.8326    141.6444     55.0268   6.3426982231e+01   4.2665752675e+01    0.3853038    0.2365544  42.06  0.001680951    1.676    0.403
       164  -9.4401    113.2249     55.1422   7.0677647862e+01   4.9284504018e+01     0.385492    0.3147731  12.66 0.0004737419    1.318    0.241
       165 -10.0065    119.5688     50.7686   6.7395748908e+01   4.8582925005e+01    0.4432392    0.3251342  34.31 0.0007782736    1.391    0.281
       166  -8.2104    119.5256     46.0322   6.5709087192e+01   4.9333788201e+01    0.2728005    0.2395448 -34.90  0.001094675    1.179    0.152
       167  -9.3081     62.8466     55.1024   8.7241748794e+01   5.8638477585e+01    0.3969072    0.2858622  70.60  0.001706596    2.644    0.622
       168  -9.2626     41.8372     54.2920   9.5202367423e+01   6.1503752861e+01     0.457532      0.18028 -47.15  0.001521336    2.097    0.523
       169  -9.2716     43.6629     48.1771   9.2358517618e+01   6.2497301033e+01    0.3590066    0.2551954  58.07   0.00130141    2.371    0.578
       170  -8.6255     39.7889     43.9953   9.2481236278e+01   6.3736437134e+01    0.2377302    0.1607236 -45.07 0.0009196631    1.324    0.245
       171  -8.3520    219.0915     54.1668   4.9646321563e+01   2.3485986944e+01    0.2466731    0.1868633  79.34  0.001166007    1.372    0.271
       172  -9.2385    125.1471     54.1133   6.7117210901e+01   4.6756481785e+01    0.2233486    0.1950867  12.29 0.0004170378    1.190    0.160
       173  -8.8415    197.4880     48.5262   5.1134280136e+01   2.9571823185e+01    0.2754669    0.2171654 -89.91 0.0007245525    1.315    0.240
       174 -10.3555    186.6705     51.5671   5.3654986786e+01   3.1849417248e+01    0.6861521    0.3944201  73.71  0.002028908    1.959    0.490
       175  -7.5529    100.4678     52.4845   7.3441908803e+01   5.2450650306e+01    0.1467344    0.1315063   2.55 0.0002571801    1.068    0.064
       176  -9.1050     95.0581     51.6688   7.4814374632e+01   5.3682369159e+01    0.3149108     0.256019  19.82 0.0009084747    1.244    0.196
       177  -8.8151     92.6091     47.8522   7.4161167728e+01   5.4810826222e+01    0.4821955    0.2844107  63.35  0.001980178    2.727    0.633
       178  -8.6746    249.3555     58.1146   4.6974142438e+01   1.6072089900e+01    0.2454837    0.1715146  39.70  0.001292216    1.913    0.477
       179  -9.6058    244.4855     50.0185   4.5619817209e+01   1.8270988923e+01    0.4535506    0.2344595  45.70  0.002023416    2.597    0.615
       180  -8.1619    227.5269     51.2664   4.7852823626e+01   2.1922913551e+01    0.1778802    0.1322851 -22.08 0.0004230774    1.519    0.342
       181 -10.0661    193.1983     49.2256   5.1968252233e+01   3.0545478145e+01    0.6234551    0.3399849 -57.72  0.002553246    2.178    0.541
       182  -8.3496     84.9777     51.4582   7.8012644700e+01   5.5646855255e+01    0.2465865    0.1357325  45.87 0.0008100197    1.946    0.486
       183  -8.8550     80.5236     49.3622   7.8740428333e+01   5.6820481865e+01    0.3285061    0.2392689  12.39  0.001708808    1.522    0.343
       184  -8.8195     72.2814     51.4110   8.2418769264e+01   5.7865087979e+01    0.2081627    0.1670571 -33.31 0.0007843532    1.154    0.133
       185  -8.4231     68.4231     49.9321   8.3277113561e+01   5.8756143361e+01    0.3513529    0.2221096  23.32  0.001761254    1.761    0.432
       186  -9.1221    237.5690     48.7037   4.6063421899e+01   1.9989341760e+01    0.3022119    0.2060911 -25.23   0.00157657    1.602    0.376
       187 -10.3448    224.6845     38.5032   4.5013800905e+01   2.4341118303e+01    0.9744695    0.3141717 -29.46  0.003474354    3.219    0.689
       188  -9.4903    222.3390     49.8707   4.8139029128e+01   2.3334786847e+01    0.4447537    0.2515203  56.87  0.002091963    1.845    0.458
       189  -8.2799    220.3915     46.1771   4.7443371543e+01   2.4314211521e+01    0.3089589    0.1875027 -48.65  0.001367728    1.537    0.349
       190  -9.0322    213.0211     48.9628   4.9096220596e+01   2.5689436365e+01    0.3534346    0.2950023  43.21  0.001709475    1.384    0.278
       191  -7.7005    134.4850     49.4447   6.3206189878e+01   4.5282095532e+01    0.1482934    0.1402611  29.79 9.462013e-05    1.028    0.027
       192  -9.3027    137.6880     44.8481   6.0892033898e+01   4.5192004848e+01     0.458678    0.3094607  24.03  0.001282108    1.837    0.456
       193  -9.4008    141.2688     39.6895   5.8343328871e+01   4.5041392116e+01    0.5751293    0.3230197  39.54  0.002451851    1.923    0.480
       194  -9.8872    174.2474     45.1130   5.3814248963e+01   3.5939329899e+01    0.3796093    0.3050737 -35.89  0.001977954    1.265    0.210
       195  -9.3934    233.9659     44.9611   4.5562991244e+01   2.1321867393e+01    0.3116454    0.2700835 -21.62   0.00147266    1.324    0.245
       196  -8.7216    238.0098     42.9516   4.4644244491e+01   2.0679446231e+01    0.2225148    0.1917535  59.28 0.0006013372    1.318    0.241
       197  -8.4912    111.6847     46.9148   6.8136516278e+01   5.0966216347e+01    0.3058558     0.167196  51.27  0.001327736    1.826    0.452
       198 -10.2494     32.6899     43.3007   9.5300100935e+01   6.4622147759e+01    0.5842912    0.3993629  -0.57  0.001581784    1.592    0.372
       199  -8.7091     19.9511     46.9402   1.0211247988e+02   6.5034240533e+01    0.2259399    0.1924842  45.35  0.001233025    1.606    0.377
       200  -8.0442    164.4949     46.0543   5.5827050521e+01   3.8293536173e+01    0.2199127    0.1429185 -35.63 0.0006922495    1.554    0.357
       201  -9.0296      7.9163     45.4968   1.0701948133e+02   6.6134959606e+01     0.246374    0.1543347 -31.27 0.0006948719    1.430    0.300
       202  -8.4477      9.5368     42.4260   1.0540292348e+02   6.6656125960e+01    0.1779504    0.1318261 -46.96 6.950243e-05    1.068    0.064
       203  -8.9761    246.8163     44.5759   4.4113023279e+01   1.8509468596e+01    0.2792526    0.1728337 -34.35 0.0009113636    1.508    0.337
       204  -9.0175    249.8539     40.3981   4.2857865332e+01   1.8410913143e+01    0.2794816    0.2693588  -4.90  0.001852392    1.317    0.241
       205  -9.4446    247.6954     37.6963   4.2449245968e+01   1.9234519632e+01    0.5206363    0.2146171 -48.17   0.00230539    2.131    0.531
       206  -9.0338    188.0057     44.0107   5.1279302692e+01   3.2593157663e+01    0.2984051    0.1961445  57.18            0    1.492    0.330
       207  -9.1086    185.5215     41.4851   5.0931500700e+01   3.3570454980e+01    0.3859337    0.2506861 -56.39  0.001213069    1.650    0.394
       208  -8.6714    163.3160     42.1067   5.4807183099e+01   3.9150081193e+01    0.2692353    0.1860089  56.02 0.0003852208    1.382    0.276
       209  -9.9525    153.8382     41.5638   5.6412396544e+01   4.1633212240e+01    0.8033375    0.5190119 -86.30  0.001836743    2.206    0.547
       210  -8.1476    178.4876     23.3066   4.6658233113e+01   3.7645606058e+01    0.2160258    0.1462638 -63.21 0.0007229415    1.604    0.377
       211  -8.4422    167.3422     28.9410   5.0015177608e+01   3.9827850248e+01    0.5613405     0.224813  53.50   0.00218047    2.296    0.565
       212  -9.0318     10.7812    249.2198   1.2895565247e+02   2.1760106145e+01    0.2526941   0.07969279  44.34  0.001452482    2.298    0.565
       213  -8.4847    161.3556     22.0131   4.8799137662e+01   4.2162404507e+01    0.3623121    0.2272099  40.74   0.00131212    1.729    0.422
       214  -8.4443    156.2640     22.0637   4.9637207690e+01   4.3452696506e+01    0.3318239    0.2183564 -73.76  0.001303698    1.907    0.475
       215  -8.9253    153.1652     23.8415   5.0738144939e+01   4.4039264366e+01    0.4186498     0.229821 -48.89  0.001542618    2.089    0.521
       216  -8.8534    213.5470    244.9425   9.2155380317e+01  -6.1751258694e+00    0.2570296    0.1443352  43.90  0.001466474    1.793    0.442
       217  -9.9460    153.7362     32.8330   5.3582504213e+01   4.2815565378e+01    0.4593718    0.3538156 -83.60 0.0006130325    1.497    0.332
       218  -8.7767    160.0518     30.0285   5.1558712352e+01   4.1557698157e+01    0.3915775    0.2645598  81.84  0.001762804    1.633    0.388
       219  -8.7293    155.8538     28.8708   5.1911936210e+01   4.2767271889e+01    0.3103602     0.209031  78.49 0.0008003121    1.601    0.375
       220  -9.9416    174.5550     25.5763   4.7890887392e+01   3.8385072883e+01      0.35278    0.2878608 -70.81  0.001207983    1.256    0.204
       221  -9.4495    169.2022     23.0905   4.7929287355e+01   4.0038761200e+01    0.4374346     0.300065  73.52  0.001214777    1.400    0.286
       222  -7.5567     95.4743     43.5519   7.1618670557e+01   5.4935514613e+01    0.1432507    0.1264624   7.19 4.800941e-05    1.060    0.057
       223  -8.1368     84.8720     42.6479   7.4674190399e+01   5.7152413551e+01    0.2186108    0.1586638  20.56 0.0008313492    1.438    0.305
       224  -9.9353    128.2440     31.2420   5.8221314760e+01   4.9342358847e+01    0.2786913    0.2408242  43.86  0.000304632    1.081    0.075
       225  -9.8096    128.2838     39.8916   6.1325929416e+01   4.8178132031e+01    0.4050047    0.3198792 -20.11  0.001457792    1.324    0.245
       226  -8.3910    120.0585     38.5765   6.2852924839e+01   5.0303188285e+01     0.238474    0.1704213  55.64 0.0006263531    1.389    0.280
       227 -10.2714    124.4113     36.1454   6.0894874591e+01   4.9616401883e+01     0.364407    0.3251136  -5.23 0.0008886791    1.144    0.126
       228  -8.3077    106.9412     43.0000   6.8008921170e+01   5.2611145692e+01    0.2329454   0.07910034  51.21 0.0007975788    2.909    0.656
       229  -8.7954     70.2072     32.2168   7.5534368125e+01   6.1416799437e+01    0.2901611    0.2437086  16.80  0.001779251    1.115    0.103
       230  -8.6051     67.0631     42.0278   8.0737281097e+01   6.0363518013e+01    0.3164321    0.1878582  39.35 0.0008065946    1.781    0.438
       231  -9.2226     55.0637     31.2456   8.0974327376e+01   6.3978645623e+01    0.2063671    0.1660712 -13.76 0.0005384754    1.054    0.051
       232  -8.6119     51.7718     28.4579   8.1121148718e+01   6.4894621836e+01    0.2455355    0.1962538   9.09  0.001202353    1.161    0.139
       233  -8.9811     51.3547     24.4115   7.9490831119e+01   6.5572107485e+01     0.365839    0.3230398  34.22  0.002436968    1.415    0.293
       234  -9.8398     63.6225     38.4422   8.0600602077e+01   6.1511220691e+01    0.7698331    0.3908564  24.70  0.003111229    2.425    0.588
       235  -8.4395     63.9582     32.9586   7.8191171295e+01   6.2340722903e+01    0.2283658     0.169518 -27.24 0.0005501815    1.230    0.187
       236  -9.6072     68.2323     27.0608   7.4030520517e+01   6.2511974402e+01    0.5395558    0.3180548  10.83  0.001883898    2.210    0.548
       237  -9.3298     51.9109     37.1062   8.4717010901e+01   6.3460952774e+01    0.5094622    0.2672985 -29.45  0.001719171    1.854    0.461
       238  -8.4259     56.2504     36.4255   8.2671591594e+01   6.2961487649e+01     0.215363     0.171079  14.26 0.0007771378    1.227    0.185
       239  -8.5527     59.7521     33.4020   8.0014424456e+01   6.2931560408e+01    0.2535103     0.196821 -13.34 0.0005969185    1.147    0.128
       240  -7.8350     58.9826     30.0115   7.8866020061e+01   6.3581447483e+01     0.184351    0.1563158  -6.33  0.001168406    1.025    0.025
       241  -7.7567     78.5044     40.9805   7.6182721667e+01   5.8591870103e+01     0.186412    0.1104077 -11.09 0.0005274211    2.265    0.558
       242  -8.9294     19.9051     40.2427   9.9968395623e+01   6.6356935861e+01    0.2103853    0.1726549 -41.36 0.0007985604    1.123    0.110
       243  -7.8303    241.9925     40.5449   4.3665427659e+01   2.0112138820e+01    0.1882353    0.1255323  76.29 0.0006547838    1.556    0.357
       244  -8.0584    106.6496     39.9686   6.6941634595e+01   5.3128019485e+01    0.1932722    0.1673555 -16.63 0.0004128355    1.139    0.122
       245  -9.2537     99.4541     38.4459   6.8430692689e+01   5.4892865639e+01    0.3933779    0.2796514 -29.73   0.00146454    1.399    0.285
       246  -8.2086     89.8076     40.6056   7.2254970030e+01   5.6527081331e+01    0.2661467    0.1229398  41.37  0.001112837    2.147    0.534
       247  -8.8643    216.0119     39.2489   4.6204863758e+01   2.6304576097e+01     0.275544    0.2456239  63.80 0.0008467715    1.198    0.165
       248 -11.5491    211.8565     34.6424   4.5511054896e+01   2.7913835969e+01      0.41598    0.3494365 -45.98 0.0005542938    1.148    0.129
       249  -9.4026    112.7194     36.1371   6.3829559441e+01   5.2326292666e+01     0.659398    0.3166523  41.67  0.002740868    2.072    0.517
       250  -9.2423     13.4220     37.2358   1.0197029047e+02   6.7419515542e+01    0.4153818    0.2854557  87.21  0.002209999    2.980    0.664
       251  -8.9035    233.8019    243.8034   8.8428642282e+01  -8.9577529828e+00    0.2081501    0.1041341   8.40 0.0009665422    2.929    0.659
       252 -10.0699     12.0757     30.0250   1.0011540725e+02   6.8872947719e+01    0.4145137    0.1986279  27.41   0.00209595    2.434    0.589
       253 -10.4293      8.8890     26.3988   1.0038071038e+02   6.9756055869e+01    0.3663332    0.2370812 -46.58  0.001253679    1.260    0.206
       254  -8.9472    192.3269     36.7091   4.8581071157e+01   3.2486393445e+01    0.4062617    0.2013133  53.21  0.001635773    2.018    0.505
       255  -8.9994    231.3086     41.0705   4.4912548223e+01   2.2458044472e+01    0.2851859    0.2029982 -85.92  0.001054014    1.451    0.311
       256  -8.8408    236.3821     35.8984   4.3139133595e+01   2.1982599686e+01    0.2890927    0.1862245  79.00 0.0006681041    1.593    0.372
       257  -8.0329    232.4792     36.5083   4.3684915438e+01   2.2793111498e+01    0.1837955    0.1297394 -20.42 0.0007134846    1.685    0.407
       258  -8.9807     91.2520     35.7472   6.9859014400e+01   5.6972816634e+01    0.2777939     0.248728  32.65 0.0009888398    1.128    0.113
       259  -8.3195     89.6548     32.7118   6.9127334633e+01   5.7728824545e+01    0.2576158    0.1464096  38.09  0.001223493    1.716    0.417
       260  -8.6760     33.6437     34.3841   9.1535136994e+01   6.6169249360e+01    0.2159792    0.1943501 -40.37 0.0009474771    1.318    0.241
       261  -9.6454     24.6298     33.4227   9.5326119176e+01   6.7234496006e+01    0.3377768    0.2376107   5.07  0.001762085    1.480    0.324
       262  -9.5913     21.4252     31.0420   9.5938149668e+01   6.7951098036e+01    0.3295569    0.2031776 -40.88 0.0009465477    1.293    0.227
       263  -8.4185    102.9002     34.0357   6.5701980178e+01   5.4788028670e+01    0.2105738    0.1904979   9.31 0.0004523679    1.029    0.028
       264  -8.8722     39.6278     32.4390   8.8061516982e+01   6.5833714993e+01    0.2488969    0.1741151 -17.25 0.0006083506    1.305    0.234
       265  -8.6927    134.2877     31.3914   5.6948075050e+01   4.7855144357e+01    0.2524429    0.1800005  -5.11  0.001189415    1.655    0.396
       266  -7.9143     47.1980     30.7550   8.4049308003e+01   6.5160270415e+01    0.1725058    0.1205433 -18.45 0.0004984197    1.294    0.227
       267  -9.5384    224.3396     27.7380   4.2394370431e+01   2.5799353489e+01    0.4170897    0.2307746 -32.00  0.001118878    1.788    0.441
       268 -10.8041    218.7776     25.1435   4.2324399022e+01   2.7433091606e+01    0.3744229    0.2473734 -87.98 0.0006005583    1.525    0.344
       269  -8.9752    185.9611     28.3240   4.7084261939e+01   3.5153840374e+01     0.423964    0.2826446 -67.96  0.002064678    1.655    0.396
       270  -8.5588     97.4110     29.2989   6.5384416214e+01   5.6600120335e+01    0.3026706    0.2270827 -39.24  0.001603617    1.474    0.321
       271  -8.3593     95.7790     23.3113   6.3392817215e+01   5.7704015679e+01    0.3431548    0.1724725 -39.10  0.001541455    2.219    0.549
       272  -9.0350     84.3266     29.4377   6.9471978034e+01   5.9235326595e+01    0.2991865    0.1876226 -15.55 0.0008103817    1.699    0.411
       273  -9.3076    123.9208     26.6402   5.7511182543e+01   5.0945309631e+01    0.3101395    0.2043101 -18.79  0.001528881    1.646    0.392
       274  -9.1382    105.4574     26.6313   6.2063178820e+01   5.5199964252e+01    0.3461458    0.2208575  -8.36   0.00117924    1.808    0.447
       275  -9.7335    114.8129     26.9605   5.9787860886e+01   5.3043796670e+01    0.2748877    0.2171636  45.34 0.0005211507    1.171    0.146
       276  -8.7280    234.9186     26.3265   4.1022583580e+01   2.3525386989e+01    0.3194804    0.1974663 -32.86 0.0006137272    1.593    0.372
       277 -10.1538    239.1655     24.5764   4.0227336657e+01   2.2779488679e+01    0.3055563    0.2099704 -62.93 0.0002932712    1.311    0.237
       278  -7.4626    201.6876     27.7436   4.4906658723e+01   3.1277485538e+01     0.132436    0.1011069  42.82 0.0002405024    1.527    0.345
       279  -8.7162     38.7749     24.9602   8.5240039725e+01   6.7172352694e+01    0.3046722     0.138358 -31.56  0.001486924    2.037    0.509
       280  -7.7948     31.4864     27.5003   8.9716561682e+01   6.7593555416e+01     0.154136    0.1105457  34.64 0.0009451938    1.719    0.418
       281  -8.2828     29.6199     24.7516   8.9424169487e+01   6.8252167895e+01    0.2828192    0.1622856 -23.00  0.001021643    1.648    0.393
       282 -10.1602    246.6698    240.1723   8.5650411793e+01  -1.0316583521e+01     0.406076    0.2159104  -5.10  0.002205234    2.249    0.555
       283 -10.0882    136.9707     25.3736   5.4268139072e+01   4.7923194262e+01    0.3742521    0.2641285 -64.64 0.0005974847    1.812    0.448
       284  -8.6466    143.7307     22.4157   5.1941823497e+01   4.6577738369e+01    0.2936451    0.2654194  49.50  0.001300795    1.041    0.039
       285  -9.0453    227.0727    240.9927   8.9149725368e+01  -7.6703295175e+00    0.2295107    0.1571819 -15.21  0.001497995    1.468    0.319
       286  -9.8205    171.4559    233.6599   9.8243021432e+01   1.9600975243e+00    0.3451888    0.3283398  55.24  0.002426014    1.246    0.197
       287  -7.3739    232.6484    232.3177   8.6761825549e+01  -7.4228737172e+00    0.1043519   0.09327293  52.23 0.0007047278    1.739    0.425
       288  -8.9238    194.3119    243.1056   9.5353393708e+01  -3.0260522129e+00    0.2202457    0.1348944  28.92 0.0008810403    1.386    0.279
       289  -9.5953    133.0010     19.7375   5.3059339460e+01   4.9531606156e+01     0.223444    0.2053486  81.93 0.0002758607    1.154    0.134
       290 -10.1899    129.6748     19.2946   5.3569459076e+01   5.0391724157e+01    0.3592513    0.2331444  69.10  0.001389674    1.586    0.370
       291  -9.5513    192.7392     23.7761   4.4920823116e+01   3.3984550537e+01    0.4098259    0.2870826  -4.60  0.001685403    1.936    0.483
       292  -7.9060    102.4839    229.4716   1.1115566585e+02   1.3755375349e+01    0.1249605    0.1016281  57.89 0.0001110084    1.007    0.007
       293  -8.6632    220.4807    228.6658   8.8312660828e+01  -5.1457088894e+00    0.2256691   0.09673939  37.22  0.001100785    2.024    0.506
       294  -8.1684    152.9373    234.0139   1.0186099501e+02   4.9347208422e+00    0.1893732    0.1438542   8.11 0.0007326055    1.670    0.401
       295  -8.2996     89.9042     24.9290   6.5809950144e+01   5.8723144906e+01    0.2240853    0.1636738  23.40  0.001227077    1.329    0.247
       296  -8.8774     78.3969     23.5529   6.8901196215e+01   6.1158846323e+01    0.4843842    0.2994593  10.41  0.002376797    1.941    0.485
       297  -8.1109     47.5811    218.7930   1.2077952486e+02   2.3371830046e+01    0.1638372   0.09354578  88.35 0.0007612524    1.647    0.393
       298  -8.2449    239.5742    216.2084   8.2779590694e+01  -6.4042062858e+00    0.1654525    0.1011177 -15.97 0.0006184558    1.634    0.388
       299  -8.5856    247.5921    214.0286   8.1007265098e+01  -7.3062486088e+00    0.3243294   0.09633829 -24.86 0.0009548392    6.385    0.843
       300  -8.2875    246.0029     23.3357   3.9352470491e+01   2.1413825415e+01    0.1760654    0.1404208 -81.50 0.0004015742    1.152    0.132
       301  -7.8673    113.6199     22.2294   5.8248849879e+01   5.3878462422e+01    0.1792862    0.1270355  -3.64 0.0002754093    1.568    0.362
       302  -8.8576    103.6514     20.9667   6.0262736179e+01   5.6276271649e+01    0.3054665    0.2298529  -2.41 0.0009718371    1.386    0.279
       303  -8.4229     71.3987     21.0227   7.0187084817e+01   6.2776750714e+01     0.242759    0.1477215 -40.08  0.001162281    1.872    0.466
       304  -8.1897     28.5260    212.5715   1.2392772306e+02   2.6801959635e+01     0.256535   0.07974289  87.16 0.0008096333    5.941    0.832
       305  -7.7537    209.0122    205.0000   8.6317084840e+01   4.9882401746e-02    0.2188763   0.06751424  40.91 0.0008085367    2.985    0.665
       306  -8.1096    241.8529    201.8538   7.9761540837e+01  -4.8309602204e+00    0.1963179     0.142624   3.59 0.0005407585    1.247    0.198
       307  -8.8924     29.2035    199.4700   1.2286779613e+02   2.9433385958e+01    0.2485487    0.1377511 -74.18   0.00124886    1.600    0.375
       308  -7.6850     33.7389    193.3773   1.2147585555e+02   3.0244146164e+01    0.1375591    0.1117573  34.37 0.0004302869    1.533    0.348
       309  -7.4357    238.5120    190.4480   7.8167432367e+01  -2.6878740871e+00    0.1294338    0.1092679   0.94 0.0001654671    1.029    0.028
       310  -8.1569     64.2169    184.1973   1.1401784579e+02   2.8583617073e+01    0.1717978    0.1518663  76.46 0.0002974621    1.088    0.081
       311  -7.7512    137.7008    170.6646   9.4882706260e+01   1.9555828902e+01    0.1449916    0.1164256  -7.96 0.0007033345    1.655    0.396
       312  -7.7089     66.3841    161.4529   1.1058709499e+02   3.3538820965e+01     0.134869    0.1159172 -86.20 7.196113e-05    1.024    0.024
       313  -7.7298    185.6972    153.6692   8.0647354109e+01   1.3385192812e+01    0.1534033    0.1153747   0.99  0.000397443    1.652    0.395
       314  -7.9457    171.5213    152.4701   8.3429001892e+01   1.6573982255e+01    0.1493836    0.1452913  12.56 0.0001795799    1.005    0.005
       315  -8.1935      7.1910    151.1301   1.2376057210e+02   4.2185635405e+01    0.1695928    0.1349509 -71.53 0.0004999624    1.203    0.169
       316  -8.2985      2.2476     20.3872   1.0158296058e+02   7.1253613063e+01      0.18853   0.09805331   4.89  0.001126705    2.149    0.535
       317  -8.4452     13.4990    133.0089   1.2046078414e+02   4.5927595207e+01    0.1724341    0.1460322 -89.38 0.0005246176    1.101    0.092
       318  -9.6294     66.3920    131.3210   1.0574531756e+02   4.0813831222e+01    0.4816983    0.3021156  24.28   0.00222106    2.012    0.503
       319  -8.5578     25.1425    128.3756   1.1679360896e+02   4.6087132317e+01    0.2919742    0.1728779  85.60   0.00153119    1.755    0.430
       320  -7.8264     39.2436    126.4780   1.1259708789e+02   4.5217836601e+01    0.1714039    0.1148091  50.41 0.0009356908    1.640    0.390
       321  -8.4023     29.9857    124.1841   1.1487343402e+02   4.6665136477e+01    0.2247805     0.153249 -69.68 0.0003916521    1.202    0.168
       322  -9.1090     32.8900     16.4040   8.4039870001e+01   6.9198944768e+01    0.3891093      0.18603  37.28  0.002056858    2.390    0.582
       323  -9.7520     69.3269    122.7668   1.0327545463e+02   4.2497297444e+01     0.244669     0.224041 -79.25 0.0002789601    1.050    0.047
       324  -7.7246    217.9564    119.0000   6.6206835960e+01   1.3011974623e+01    0.2273595   0.08525813  51.12  0.000731447    2.869    0.651
       325  -7.3899    125.6555    118.6679   8.6475123088e+01   3.3620502439e+01    0.1615358    0.1250271  -5.85 0.0007050313    1.759    0.431
       326  -8.7122    242.4671    115.6573   6.1372459776e+01   8.5013751224e+00    0.2249318    0.1342288  52.04  0.001071917    1.895    0.472
       327  -9.4058     12.0502    114.9976   1.1873584170e+02   5.0288128177e+01    0.2427303    0.1923019 -52.61 0.0004655025    1.262    0.208
       328  -9.3089     15.7385    112.2938   1.1730743178e+02   5.0668557363e+01    0.2179366      0.16003 -73.90  0.000549888    1.092    0.085
       329  -9.3911    171.0259     17.4769   4.5961088993e+01   4.0192148899e+01    0.6058223    0.1723421  55.91   0.00212894    2.956    0.662
       330  -9.3376      6.4448    113.2838   1.2012773898e+02   5.1058809642e+01    0.3243659    0.2033047 -82.47   0.00149978    1.343    0.255
       331  -8.0164     73.1923     16.8404   6.7652765325e+01   6.2970955871e+01    0.1836774    0.1329857   9.26  0.001055682    1.324    0.245
       332  -7.7398     65.4359    110.5173   1.0188811126e+02   4.6002402420e+01    0.1421506    0.1251742 -57.88 6.440753e-05    1.020    0.020
       333  -8.3927     22.3318    114.0292   1.1561415373e+02   4.9755114335e+01    0.1882449    0.1370071 -71.74 0.0005932436    1.113    0.101
       334  -7.5216     22.4444    107.5259   1.1459956223e+02   5.1296517137e+01    0.1293628     0.101512 -62.53  0.000116094    1.068    0.063
       335  -9.1842     19.2646    104.9070   1.1516846501e+02   5.2161278155e+01    0.3037128    0.1295674 -52.54 0.0008537103    1.953    0.488
       336  -8.0047      8.6986    106.3169   1.1858315571e+02   5.2551858231e+01    0.1209998   0.08074713  76.00 0.0003268628    1.619    0.382
       337  -7.9213     44.0386    105.2980   1.0748085304e+02   4.9842196232e+01    0.1774725    0.1614943 -70.56 0.0003851797    1.079    0.073
       338  -7.8446    218.8204    102.8255   6.2079705290e+01   1.5674252813e+01    0.2061383    0.1704858 -65.41  0.000607592    1.350    0.259
       339  -8.5245    120.0352    103.0460   8.3866442790e+01   3.8296447926e+01    0.2315614    0.2267673 -71.86 0.0003743869    1.045    0.043
       340  -8.9384     25.5063    103.0755   1.1292699036e+02   5.2109173985e+01    0.2177842    0.1640459  54.79 0.0006172346    1.552    0.356
       341  -9.6825      8.5816    100.7732   1.1785455344e+02   5.3856336361e+01    0.3581587    0.1712684  39.50  0.001882329    2.478    0.597
       342  -8.2432     56.0784    100.0732   1.0252470368e+02   4.9711620481e+01    0.2031312    0.1578787  81.24 0.0004934868    1.571    0.364
       343  -7.9327     16.7454     99.1965   1.1505837466e+02   5.3690227707e+01    0.1636192    0.1155861 -49.97 0.0002591194    1.282    0.220
       344  -8.6816    231.1137     96.9765   5.8669894402e+01   1.3971773289e+01    0.2139644    0.1937938 -34.92 0.0003617195    1.027    0.026
       345  -8.1604    203.9756     97.4899   6.3290071189e+01   1.9999096696e+01    0.2118565    0.1361191  86.46 0.0008103596    2.574    0.612
       346  -9.3810     71.6446     95.1059   9.6276688745e+01   4.8778868243e+01    0.4181603    0.3223352  59.95  0.001687646    1.589    0.371
       347  -8.4486     38.5382     94.9912   1.0718016182e+02   5.2855066615e+01    0.2626383    0.1561198 -48.37  0.001156617    1.470    0.320
       348  -7.8895    174.9263     92.9620   6.7682850437e+01   2.7764936224e+01    0.1893228    0.1823386 -38.82  0.000988794    1.018    0.018
       349  -8.7976    249.5577     92.2621   5.4899994616e+01   1.0858264968e+01    0.1966184    0.1231452 -25.31 0.0009496866    1.635    0.388
       350  -7.7515    237.4760     92.4091   5.6618781401e+01   1.3355896720e+01    0.1410249     0.126436 -45.64 0.0001405449    1.033    0.032
       351  -8.8061     99.7990     91.2275   8.6362289590e+01   4.4929538569e+01    0.2500561    0.2288249 -46.51  0.000513635    1.052    0.050
       352  -9.5424     19.5689     90.5847   1.1266821958e+02   5.5502676911e+01    0.3771882    0.2775608 -81.43  0.001942623    1.336    0.252
       353  -9.3132     55.8945     89.7464   1.0013786616e+02   5.2155371027e+01    0.3702285    0.2368153  54.72  0.001537265    2.080    0.519
       354  -7.9342     33.5507     90.9473   1.0801426850e+02   5.4276187373e+01    0.1947457   0.07529359 -45.21 0.0006964963    2.404    0.584
       355  -8.7734     27.1957     88.7836   1.0973795537e+02   5.5331715639e+01    0.2415845    0.1982205  85.11 0.0008032494    1.377    0.274
       356  -8.4551      1.9324     88.3548   1.1816634355e+02   5.7098550492e+01    0.2664869    0.1327174 -51.38  0.001488899    1.638    0.389
       357  -8.2261      5.9912     87.9527   1.1676189290e+02   5.6975726448e+01    0.1965984    0.1440823 -62.67 0.0008545247    1.051    0.048
       358  -8.6190    242.1728     87.9733   5.4895395348e+01   1.3072030338e+01    0.2414274    0.1369362 -54.96  0.000807825    1.957    0.489
       359  -9.3313    188.9924     87.9091   6.3488971816e+01   2.5285492270e+01    0.2720438    0.2461209  89.17 0.0003190931    1.182    0.154
       360  -7.7506     83.2568     87.3781   9.0416280432e+01   4.8719131726e+01    0.1936966    0.1365457  48.52 0.0008433722    1.617    0.381
       361  -8.6117    212.4840     93.9957   6.0911593061e+01   1.8643928104e+01    0.3408759    0.2217392 -70.18  0.001422644    2.207    0.547
       362  -7.9854    102.8032     86.3712   8.4025497344e+01   4.5410292774e+01    0.2009642    0.1422433  29.82 0.0004195216    1.573    0.364
       363  -8.5226     49.1774     85.1068   1.0128929333e+02   5.4024666851e+01    0.3637688    0.1164873 -45.28  0.001322038    2.878    0.653
       364 -10.3019     65.1816     83.7159   9.5388609254e+01   5.2306285244e+01    0.4566556    0.3301983  12.01 0.0005239227    1.692    0.409
       365  -9.3303     69.0000     78.9900   9.2732292542e+01   5.2807021086e+01    0.3460993    0.1648075 -47.78 0.0009852857    1.868    0.465
       366  -7.8375    236.3003     84.6775   5.4919381257e+01   1.4857667420e+01    0.1468532    0.1002933 -61.08 0.0006866281    1.628    0.386
       367  -8.7566     11.6390     83.0034   1.1400203781e+02   5.7779820998e+01    0.3224948    0.1436248 -52.02  0.001660459    1.741    0.426
