#   1 NUMBER                 Running object number                                     
#   2 MAG_AUTO               Kron-like elliptical aperture magnitude                    [mag]
#   3 X_IMAGE                Object position along x                                    [pixel]
#   4 Y_IMAGE                Object position along y                                    [pixel]
#   5 X_WORLD                Barycenter position along world x axis                     [deg]
#   6 Y_WORLD                Barycenter position along world y axis                     [deg]
#   7 A_WORLD                Profile RMS along major axis (world units)                 [deg]
#   8 B_WORLD                Profile RMS along minor axis (world units)                 [deg]
#   9 THETA_WORLD            Position angle (CCW/world-x)                               [deg]
#  10 FWHM_WORLD             FWHM assuming a gaussian core                              [deg]
#  11 ELONGATION             A_IMAGE/B_IMAGE                                           
#  12 ELLIPTICITY            1 - B_IMAGE/A_IMAGE                                       
         1  -8.6162     55.7750      9.8928   2.7850823817e+01   6.9032060399e+01    0.2208253    0.1689678 -42.95 0.0005544702    1.559    0.359
         2  -8.0849     90.9821      8.9805   1.6000019218e+01   6.1256447246e+01    0.2137654    0.1572967 -62.72 0.0005856344    1.680    0.405
         3  -7.8280     12.6843      8.3161   5.1998509608e+01   7.6079387527e+01    0.1031034   0.09850594  83.77 0.0004343462    1.648    0.393
         4  -8.1661     70.4090      6.1324   2.0282278368e+01   6.6327270085e+01    0.1810323    0.1148402 -35.85 0.0008273232    1.723    0.420
         5  -8.2902     33.8241      5.5085   3.5780566847e+01   7.3594332775e+01    0.2359337    0.1499524 -43.86  0.001165083    1.955    0.489
         6  -8.4160     79.1803      3.7807   1.6406095719e+01   6.4540550349e+01    0.2250802    0.1659253 -31.12  0.001040835    1.462    0.316
         7  -8.3360     62.5155      1.4483   2.0175802606e+01   6.8501357257e+01    0.1936962    0.1243968  71.19 0.0005191031    1.886    0.470
         8  -7.4201     39.6649      1.3277   2.9687308199e+01   7.3084951151e+01    0.1147233   0.09965913 -61.58 0.0007051821    1.722    0.419
         9  -9.2051    243.1155    246.1885   4.7073462457e+01  -8.2265846146e+00    0.3075787     0.142648 -21.00    0.0018689    2.052    0.513
        10 -10.1005    248.7736    241.9327   4.5545900331e+01  -8.3774570386e+00    0.4304332    0.1741921 -34.53  0.001870881    2.480    0.597
        11  -9.0003    132.7529    248.1208   6.7168783327e+01   5.3683947316e+00    0.3816138    0.2041958  57.72  0.001289521    2.800    0.643
        12  -9.2348    218.7895    246.9807   5.1166739287e+01  -5.5885173039e+00    0.3078192    0.1337703 -33.59  0.001771998    2.370    0.578
        13 -10.0762    223.9063    243.8697   4.9852254798e+01  -5.8265770320e+00    0.3918068    0.1991466 -41.86  0.002300712    2.611    0.617
        14  -9.4558    210.7876    246.2047   5.2419044971e+01  -4.5493532853e+00    0.1985561    0.1691484 -46.51  0.000925427    1.941    0.485
        15  -9.5773    146.9573    245.7162   6.4113055680e+01   3.7986488617e+00    0.3354349    0.2040202  61.35  0.001465111    2.812    0.644
        16  -9.4568    146.3615    239.7353   6.3488935560e+01   4.7834807167e+00    0.3454541    0.2442516  83.25  0.001729085    2.747    0.636
        17  -9.4211    120.3074    245.5744   6.9347912918e+01   7.4601771664e+00    0.3067796    0.1937732  65.41  0.001721021    2.189    0.543
        18  -8.9635    139.9253    244.9050   6.5388887250e+01   4.8813970367e+00    0.2691527    0.1734792  73.84  0.001348267    3.184    0.686
        19  -8.2421     67.5907    244.8064   7.9848993800e+01   1.4501048407e+01    0.1511606   0.09898341  80.85 0.0006298767    1.651    0.394
        20  -8.9332    201.8828    243.1160   5.3528399835e+01  -3.0824976312e+00    0.2197884    0.1499271 -43.94 0.0008084546    1.996    0.499
        21  -9.3710    193.9700    239.3002   5.4393406733e+01  -1.5903828245e+00    0.1754069    0.1606467 -29.03  0.000563837    1.489    0.328
        22  -8.8501     78.1166    243.0776   7.7601631560e+01   1.3488224491e+01    0.3181695    0.1341099  60.25  0.001425836    2.938    0.660
        23  -9.4484    183.4749    240.3737   5.6466696659e+01  -3.6213782385e-01    0.3828326    0.2569231  59.29  0.002050644    2.987    0.665
        24  -9.0810    169.0110    242.8894   5.9518318470e+01   1.2185870804e+00    0.1795658    0.1607818   1.04 0.0006517755    1.196    0.164
        25  -9.5574    159.9047    239.8793   6.0860541802e+01   2.8880049034e+00    0.2861236    0.2239556 -85.80  0.001303848    2.307    0.566
        26  -8.9438    153.6005    241.8997   6.2345431061e+01   3.4561941945e+00    0.1926018    0.1558964 -73.76  0.001267314    1.898    0.473
        27  -8.4540     88.0282    241.8287   7.5486513903e+01   1.2426020998e+01     0.194548    0.1359275  79.11 0.0007084064    1.655    0.396
        28  -8.5876    213.8183    241.1573   5.1161343099e+01  -4.3106181345e+00    0.1575743    0.1042821   1.60 0.0004767897    1.321    0.243
        29  -8.2042    240.4873    239.9723   4.6556163601e+01  -7.2667918698e+00    0.1928599    0.1071128 -20.98   0.00105046    1.597    0.374
        30  -8.6565    242.9742    236.0258   4.5554261554e+01  -7.1037624332e+00    0.2623927    0.1291688  -4.76  0.001431748    2.396    0.583
        31  -8.8950    135.7734    238.7193   6.5470006288e+01   6.4202881981e+00     0.197891     0.145773  69.86 0.0007397081    1.928    0.481
        32  -9.3303    231.0206    236.3949   4.7545990967e+01  -5.7887437610e+00    0.3337713    0.2373469 -31.40  0.001801042    1.607    0.378
        33  -8.0164    209.1532    238.1850   5.1529126511e+01  -3.3737284152e+00    0.1385971    0.1230451   8.99 0.0005653126    1.359    0.264
        34  -8.8799    128.9009    238.1549   6.6786349105e+01   7.4735889172e+00     0.186628    0.1443954  49.92  0.001196664    1.285    0.222
        35  -8.1774     14.4420    238.0000   8.9907188916e+01   2.1699355217e+01    0.2302414   0.05249586  30.09 0.0009314375    3.908    0.744
        36  -9.9476    214.6914    232.9293   4.9771859672e+01  -3.4063619392e+00    0.3969547     0.327755 -81.33   0.00232187    3.359    0.702
        37  -9.0915    203.3287    234.6635   5.2030105194e+01  -2.1917177083e+00    0.2564113    0.1824629 -47.62  0.001008079    2.057    0.514
        38  -9.8523    175.5902    233.1765   5.6925077100e+01   1.7039258777e+00    0.4028553    0.2589527 -58.20  0.002253846    2.547    0.607
        39  -8.8913    247.7212    234.0645   4.4500115789e+01  -7.4088761795e+00    0.1993326    0.1183899 -27.16 0.0008793998    1.556    0.357
        40  -9.6431    246.8746    228.0293   4.3680963695e+01  -6.6352615684e+00    0.4814597    0.1782198 -25.25  0.002430117    2.697    0.629
        41  -8.0943    170.1597    235.2485   5.8255823798e+01   2.1522332079e+00    0.1500028    0.1301685  42.00 0.0005108996    1.363    0.266
        42  -8.8438    152.8458    234.6071   6.1543541218e+01   4.6647753804e+00    0.1739772    0.1457701 -48.31 0.0007729494    1.478    0.323
        43  -9.5724    109.4828    234.5371   7.0354754407e+01   1.0801238075e+01    0.5068433    0.1840535  47.54  0.002099996    2.680    0.627
        44  -8.1162    122.8266    234.0199   6.7539318972e+01   9.0159590483e+00    0.1931088    0.1300034  68.47 0.0009200746    2.051    0.512
        45  -8.3902     99.7299    234.3321   7.2360109533e+01   1.2185616614e+01    0.2012472    0.1163276  58.25  0.001077201    1.862    0.463
        46  -8.6359     92.6381    232.2771   7.3636696562e+01   1.3525306160e+01    0.3164297    0.1973127 -79.66  0.001346386    2.022    0.505
        47  -8.9627     78.4025    233.7703   7.6756090738e+01   1.5144383978e+01     0.206126    0.1155104 -78.98  0.001123306    2.162    0.537
        48  -8.6902      8.1896    234.6340   9.0982155368e+01   2.2946055098e+01    0.1398474   0.09560267  27.98 0.0005667476    1.675    0.403
        49  -9.3770    194.6362    231.8807   5.3180446640e+01  -6.9045794350e-01    0.3431597    0.1819639 -19.20   0.00161952    2.318    0.569
        50  -8.5958    144.7292    232.9773   6.2949191634e+01   6.0716707730e+00    0.2409953    0.1350025  52.11  0.001226014    2.187    0.543
        51  -8.8370    140.2080    230.1388   6.3495702599e+01   7.1796088814e+00    0.2389537    0.1413164  46.73 0.0009518555    1.673    0.402
        52  -8.8446    132.7708    232.3335   6.5294493593e+01   7.8843312474e+00    0.2098928    0.1589379  75.46 0.0009225198    1.865    0.464
        53  -9.7157     68.2533    231.6379   7.8697357329e+01   1.6850125675e+01    0.4727285    0.2221262  76.36  0.002105452    3.115    0.679
        54  -8.9136    236.0766    230.5464   4.5808806740e+01  -5.6930221628e+00    0.2248091    0.1549997 -25.33 0.0008904032    1.411    0.292
        55  -8.2967    157.7976    231.6002   6.0157573507e+01   4.4282748680e+00    0.1737451   0.09666457  40.73 0.0005061293    1.639    0.390
        56  -8.9521    151.3084    228.6588   6.1048768592e+01   5.8188061892e+00    0.2268279    0.1866035  61.88  0.001148879    1.573    0.364
        57  -9.6211    148.5108    224.4332   6.1033759721e+01   6.9117621872e+00    0.3383979    0.2506086  76.46  0.001764087    2.239    0.553
        58  -8.1476      1.4197    230.2561   9.2138118029e+01   2.4421035681e+01    0.1591963   0.07678463  74.68 0.0009452429    1.701    0.412
        59  -8.7271    229.8506    228.5423   4.6516237008e+01  -4.7190716965e+00    0.1921155    0.1373063 -39.75   0.00129503    1.872    0.466
        60  -8.9154    162.1137    227.6831   5.8756313458e+01   4.4185629195e+00    0.3161564    0.1811583  47.51  0.001353881    1.975    0.494
        61  -8.9840    127.9901    227.1245   6.5631747772e+01   9.4563814186e+00    0.3013555    0.1827478  60.62  0.001321692    2.237    0.553
        62  -7.7603    223.3744    227.1716   4.7386086284e+01  -3.7628991192e+00    0.1411821   0.09777871 -35.86 0.0004994096    1.676    0.403
        63  -8.0420    120.0234    227.2726   6.7319846362e+01   1.0583478057e+01    0.1699767    0.1280827  71.04 0.0005002067    1.647    0.393
        64  -8.0033    111.3504    227.6837   6.9198411959e+01   1.1753842720e+01    0.1319669   0.08327354  57.84 0.0007047249    1.732    0.423
        65  -8.8316    205.9875    225.5003   5.0149356494e+01  -1.3303621127e+00    0.2442022    0.1544742 -37.51  0.001099089    1.741    0.426
        66  -8.4037    199.9055    225.9195   5.1310320642e+01  -5.8088577325e-01    0.1907026    0.1481653 -30.20 0.0007612975    1.405    0.288
        67  -7.9241     49.0000    225.9917   8.2317899182e+01   2.0308086186e+01    0.1745369   0.06449582 -74.13 0.0005886721    2.882    0.653
        68  -8.9962    180.6047    224.0837   5.4626748040e+01   2.3326161669e+00    0.2407326    0.1833681  50.06 0.0006653462    1.712    0.416
        69  -8.9707     94.1947    224.1133   7.2472334954e+01   1.4835142655e+01     0.378063    0.1709797  59.19  0.001522832    2.972    0.663
        70  -9.3320    239.0308    221.3652   4.3857027999e+01  -4.9451832988e+00     0.338381    0.1899379 -26.51  0.001622561    1.582    0.368
        71  -9.0718    216.3955    223.1931   4.7949640612e+01  -2.3775523480e+00    0.2412587    0.1841048 -35.50 0.0009185659    1.570    0.363
        72  -8.1771    113.9650    223.9068   6.8200177791e+01   1.2062931824e+01    0.1984172    0.1333136  59.95 0.0006216139    1.662    0.398
        73  -8.8393    104.9186    223.6568   7.0110975592e+01   1.3409262903e+01     0.291453    0.1950185  76.69  0.001584676    1.966    0.491
        74  -8.7769    173.1143    222.8049   5.5880471095e+01   3.5909305640e+00    0.2234489    0.1898383  86.42  0.000844659    1.979    0.495
        75  -9.2416    160.7506    221.2811   5.8102512296e+01   5.6271310760e+00    0.5400904    0.2401249  51.94  0.002046797    3.921    0.745
        76  -9.1528    225.4964    221.5957   4.6132612938e+01  -3.3244808367e+00    0.2167597    0.1982804  33.07  0.001244838    1.668    0.400
        77  -9.3677    192.3020    221.1836   5.1968675669e+01   1.1185746195e+00    0.2423168    0.2248053 -73.34 0.0006475355    1.743    0.426
        78  -9.2624    120.6010    219.1718   6.6191668280e+01   1.1957868943e+01    0.4728496    0.2139312  56.09  0.001833986    3.377    0.704
        79  -8.1144     73.0094    220.4926   7.6718954261e+01   1.8414551374e+01    0.2594988    0.1137087  66.56 0.0008517283    3.383    0.704
        80  -8.2658    202.5624    219.9719   4.9888742166e+01  -1.1817230402e-01    0.1655944    0.1082184 -32.56 0.0004455489    1.558    0.358
        81  -8.3725     82.6610    220.2812   7.4587092448e+01   1.7166171716e+01    0.2139835    0.1221207  61.53  0.001097068    1.852    0.460
        82  -8.3427    210.1298    219.1067   4.8390841525e+01  -1.0154144048e+00    0.1777072    0.1324284  -0.75 0.0004695944    1.136    0.120
        83  -8.7764    249.0387    218.0340   4.1718082434e+01  -5.7168009482e+00    0.1447444    0.1372122 -10.27  0.001129718    1.770    0.435
        84  -9.6046    186.4719    230.4906   5.4480654734e+01   5.9717664028e-01    0.2881304    0.2320238 -70.77  0.001588557    2.329    0.571
        85  -9.2537    132.9510    215.8273   6.3095350568e+01   1.0716953595e+01     0.454746    0.2795826  73.54  0.001950079    3.305    0.697
        86  -8.7630    169.3393    215.9848   5.5584747732e+01   5.2085936125e+00    0.2626379    0.2102482 -80.57  0.001043309    2.143    0.533
        87  -8.6413    142.9547    216.4417   6.1059852408e+01   9.0945269973e+00    0.2175457    0.1826606 -85.81  0.001020801    1.629    0.386
        88  -7.9334    112.3125    217.6531   6.7797696287e+01   1.3464602816e+01    0.1334724   0.08965161  62.29 0.0007046413    1.714    0.416
        89  -8.2276     61.6719    216.7402   7.8876715903e+01   2.0637880959e+01    0.2360186    0.1228244  76.81 0.0008439338    2.298    0.565
        90  -8.5953     51.6706    217.2056   8.1109412621e+01   2.1774598681e+01    0.2005314    0.1280042  69.37 0.0006410824    1.445    0.308
        91  -8.7191    243.4465    215.4888   4.2177914007e+01  -4.7548974217e+00    0.1136529   0.08544385  -4.20 0.0001665588    1.033    0.032
        92  -8.9448    232.2359    214.5083   4.3835984682e+01  -3.2636607511e+00     0.217878    0.1808475 -35.74 0.0008567105    1.627    0.385
        93  -8.4099    154.2013    214.6962   5.8460461915e+01   7.6918430259e+00    0.1976734    0.1735691 -60.60 0.0007049649    1.440    0.306
        94  -9.3645    214.1615    212.1849   4.6535548167e+01  -6.0675904081e-01    0.3448218    0.2659084  53.06  0.002001639    2.121    0.529
        95  -8.2965    185.6246    214.0882   5.2101074247e+01   3.1152909825e+00    0.1699165    0.1548757 -46.89 0.0006817885    1.467    0.318
        96  -8.7311     93.1952    213.8863   7.1577267299e+01   1.6971823907e+01     0.339047     0.154791  54.58  0.001467394    2.424    0.588
        97  -9.2056     72.5732    211.1729   7.5933410508e+01   2.0378486386e+01    0.5978479    0.2177154  57.80   0.00212973    3.723    0.731
        98  -8.1116    224.7128    211.5832   4.4607234256e+01  -1.9223131646e+00    0.1993204     0.093076 -34.72 0.0007718567    2.042    0.510
        99  -9.5831    175.3708    209.9548   5.3432078068e+01   5.2760766192e+00    0.3856196    0.2753582  63.57  0.001546705    2.408    0.585
       100  -8.6435    161.6627    212.1532   5.6540080762e+01   6.9880650601e+00     0.208062    0.1600578  42.30 0.0007211362    1.323    0.244
       101  -8.5523    106.3699    212.2268   6.8437663249e+01   1.5386625722e+01    0.1708075    0.1226151 -81.00 0.0005900611    1.712    0.416
       102  -9.0118    204.1889    210.5900   4.8054368471e+01   9.8770787032e-01    0.2397597    0.1801118 -36.08 0.0007305015    1.468    0.319
       103  -8.7387    147.8770    210.2553   5.9114751541e+01   9.4284407749e+00    0.2472612    0.1899592 -75.88  0.000951844    1.903    0.475
       104  -9.0126    116.4118    210.4512   6.5974675721e+01   1.4228985140e+01    0.3585826    0.2117668  58.73  0.001195219    2.052    0.513
       105  -8.3644    192.2912    210.0829   5.0177043478e+01   2.7569866018e+00    0.1692574    0.1452185 -18.43 0.0005772317    1.190    0.160
       106  -8.3186     85.6006    209.3456   7.2785094023e+01   1.8972284165e+01    0.2951419    0.1460679  64.30  0.001237654    2.724    0.633
       107  -9.1025    236.6436    208.1397   4.2032034779e+01  -2.9975588671e+00    0.2422378    0.2039579 -53.67  0.001202887    2.122    0.529
       108  -9.1199    246.3944    207.0776   4.0286352308e+01  -4.0673077168e+00    0.2474615    0.1543638 -22.40 0.0005149353    1.332    0.249
       109  -9.3177    250.1004    201.9851   3.8825561785e+01  -3.8767134530e+00    0.3324324    0.1519888 -30.71  0.001184601    1.871    0.466
       110  -7.9662    156.5648    207.7798   5.6910202171e+01   8.5164909097e+00    0.1586366    0.1280874 -61.27 0.0006906347    1.597    0.374
       111  -8.2129    139.2005    208.0613   6.0640474701e+01   1.1170213161e+01    0.2490119     0.154665  56.91 0.0009016893    2.057    0.514
       112  -8.0431    126.4347    208.2451   6.3454429954e+01   1.3118186117e+01    0.1658939    0.1289697 -76.91  0.000655974    1.633    0.388
       113  -8.5322      5.6847    207.3758   9.0480014312e+01   2.8712683715e+01    0.3587563   0.09558756  76.74  0.001249799    4.537    0.780
       114  -9.0102     99.4288    206.0060   6.9234876767e+01   1.7663016469e+01     0.357935    0.2099568  71.94  0.001253446    2.439    0.590
       115  -8.4455     56.3004    205.2574   7.9097335794e+01   2.3744239786e+01    0.2721514    0.1362689  62.72 0.0009975312    2.038    0.509
       116  -7.6813     11.6823    206.6804   8.9168873897e+01   2.8311354258e+01    0.1060455   0.08715515 -53.05 0.0005745608    1.660    0.398
       117  -9.1125    183.6727    203.7177   5.0765642753e+01   5.0257421183e+00    0.2849301     0.233113  66.97 0.0009433728    1.945    0.486
       118  -7.9657    109.1047    205.1292   6.6913625083e+01   1.6389212475e+01    0.1832131    0.1443449  63.10 0.0006301404    1.320    0.243
       119  -9.5940    194.7845    203.2468   4.8551245659e+01   3.4362124460e+00    0.4057854    0.2737738 -25.94  0.001419372    1.448    0.309
       120  -9.2950    192.3587    197.0050   4.7924539259e+01   4.7800358600e+00    0.3060644    0.2440538 -52.40 0.0009847416    1.666    0.400
       121  -9.7511    163.7579    202.8758   5.4629514276e+01   8.2435403199e+00    0.4158947    0.2610922  53.46  0.001304058    2.084    0.520
       122  -8.5387    131.1614    203.7107   6.1754941539e+01   1.3246376546e+01     0.267109    0.1976598  73.25 0.0009530759    1.840    0.457
       123  -7.8816     92.2964    204.6700   7.0712162585e+01   1.8986940514e+01    0.1382694   0.09081069  63.96 0.0003402116    1.637    0.389
       124  -8.9683    243.3428    200.9752   3.9709070825e+01  -2.9117237457e+00    0.2443869    0.1625752 -28.63 0.0008987096    1.361    0.265
       125  -8.5940    210.8633    201.5462   4.5297768635e+01   1.3611094517e+00    0.2162106    0.1560632 -47.46 0.0007877812    1.838    0.456
       126  -8.9301    140.2153    200.7885   5.9314414703e+01   1.2364026543e+01    0.3598058     0.223261  55.70   0.00137042    1.994    0.499
       127  -8.4403     80.1420    201.1813   7.3139444918e+01   2.1467985164e+01    0.3024457    0.1483415  62.53  0.001266377    2.549    0.608
       128  -8.1821    221.9947    201.0406   4.3253957297e+01  -1.1765371679e-01    0.1613559    0.1491178 -47.84 0.0005659424    1.658    0.397
       129  -9.2237    237.1851    198.4846   4.0259118396e+01  -1.7952451030e+00    0.2727682    0.1438288 -37.87   0.00105065    1.893    0.472
       130  -9.2997    149.5535    198.4536   5.6909359776e+01   1.1299484385e+01    0.3693442    0.2701614  85.65  0.001494785    2.356    0.576
       131  -8.8078    124.0313    198.9552   6.2650874956e+01   1.5305785264e+01    0.2865526    0.2146176 -89.73  0.001200402    1.799    0.444
       132  -9.5319    112.9466    198.2919   6.5097334524e+01   1.7190116909e+01     0.466566    0.2714857  65.37  0.001798108    2.483    0.597
       133  -8.8064    176.9924    198.7697   5.1243276417e+01   6.8670159598e+00    0.2120622    0.1788625 -32.10 0.0005336048    1.244    0.196
       134  -9.0043     88.6586    198.3102   7.0793839255e+01   2.0869595766e+01    0.3560902    0.2234545  83.12  0.001426204    2.036    0.509
       135  -8.5207    202.3002    197.7239   4.6182053910e+01   3.1741905409e+00    0.2126448    0.1872814 -51.66  0.000870176    1.584    0.369
       136  -9.0365     61.2075    196.7800   7.7161006152e+01   2.4995901393e+01    0.4224811    0.1944299  68.06  0.001707274    2.820    0.645
       137  -8.8875    216.1240    195.5952   4.3306895515e+01   1.4841665767e+00    0.2844663    0.1900943 -51.93  0.001127846    2.262    0.558
       138  -8.1159     12.6468    197.3233   8.8511331035e+01   3.0274318933e+01    0.2085481    0.1004649  61.82   0.00109647    1.725    0.420
       139 -10.1208    246.1819    193.2780   3.7892634288e+01  -2.2625747317e+00    0.4622379    0.2733196 -39.15  0.001781725    1.804    0.446
       140  -7.5641     53.2936    195.9458   7.8969305174e+01   2.6184470424e+01    0.2127672   0.08659329  81.42 0.0007030698    4.181    0.761
       141  -8.8008    224.4081    193.5145   4.1495304200e+01   6.1679045063e-01      0.29162    0.1274877 -40.10  0.001212657    2.301    0.565
       142  -7.5717    209.2664    195.6104   4.4532115608e+01   2.4715573537e+00     0.111853   0.09945034 -58.42 0.0006983151    1.707    0.414
       143  -9.0330    185.0609    194.6714   4.8925986482e+01   6.2872074684e+00     0.228496    0.2051551 -54.07 0.0006198524    1.454    0.312
       144  -8.3341    231.1398    194.1211   4.0471483870e+01  -3.9522517083e-01    0.1541089    0.1324353 -24.05 0.0004980059    1.320    0.243
       145  -8.7361    160.8376    193.9196   5.3738162928e+01   1.0298911802e+01    0.2709913    0.2055207  64.71  0.001007568    1.870    0.465
       146  -8.6640     76.9598    193.8001   7.3055707498e+01   2.3539856616e+01    0.2202804    0.1809303  82.59 0.0005603095    1.189    0.159
       147  -8.7804     44.3952    193.6456   8.0892000633e+01   2.7778995052e+01    0.4159082    0.1573461  57.05   0.00168497    2.695    0.629
       148  -8.2826    198.8899    191.5389   4.5706159859e+01   4.6534306613e+00    0.2336757    0.1610849 -51.11  0.000768479    1.912    0.477
       149  -8.4206    172.4933    191.5653   5.0897928125e+01   8.8217912155e+00    0.2374882    0.1854955 -78.66 0.0009893862    2.144    0.534
       150  -9.1447    139.4405    190.2799   5.7798017225e+01   1.4521825781e+01    0.3600144    0.2589979  81.99  0.001153704    2.214    0.548
       151  -7.9813    133.0324    195.9767   6.0160093269e+01   1.4450060595e+01    0.2126748    0.1599267  69.05 0.0007102067    1.715    0.417
       152  -8.2510    179.3822    191.2777   4.9448452614e+01   7.7595242655e+00     0.172086    0.1238226 -48.63 0.0004263506    1.614    0.380
       153 -10.1505     92.8370    189.1009   6.8607101144e+01   2.2269960892e+01     1.022924    0.1957517  43.79  0.002881653    4.648    0.785
       154  -8.6633    237.2159    188.1270   3.8381732418e+01  -3.8364725278e-01    0.2399282    0.1350052 -22.45 0.0008944008    1.597    0.374
       155  -9.0203    216.5690    187.8254   4.1809239610e+01   2.5751364658e+00    0.2649147    0.1926297 -32.79  0.000757255    1.333    0.250
       156  -8.3806    148.6315    189.1107   5.5551360790e+01   1.3216692404e+01    0.2039649    0.1747154 -84.88  0.001146399    1.527    0.345
       157  -8.9426    129.3562    188.4653   5.9802552862e+01   1.6564011313e+01    0.2836091    0.2224961  73.43  0.000896275    1.592    0.372
       158  -9.5486    120.5127    185.9462   6.1468779026e+01   1.8555766839e+01    0.4579214    0.2572334 -71.27  0.001908122    2.587    0.613
       159  -8.5642     34.3378    188.0347   8.2860125511e+01   3.0213403263e+01    0.3566303    0.1538014  69.12  0.001445286    2.533    0.605
       160  -8.0736    205.1735    191.2054   4.4479110522e+01   3.7521449645e+00    0.1610782    0.1450362 -33.77 0.0008598469    1.339    0.253
       161  -9.0186    191.6081    187.2362   4.6303519451e+01   6.4886082485e+00    0.3109241    0.2408431 -75.33  0.001346918    2.398    0.583
       162  -9.2907    155.9871    187.3060   5.3627897526e+01   1.2328275763e+01    0.3088613    0.2236232 -57.73 0.0009331495    1.670    0.401
       163  -8.9164     54.4667    186.1677   7.7749168851e+01   2.8293113431e+01    0.4686136    0.2222094  80.06  0.001825473    2.785    0.641
       164  -8.1992    230.4003    187.2274   3.9333329923e+01   6.8093685703e-01    0.1653258    0.1031936 -39.11 0.0005992018    1.652    0.395
       165  -8.7139    164.9520    186.5323   5.1569450668e+01   1.0969537091e+01    0.2430916    0.1931437 -64.77 0.0007962834    1.674    0.403
       166  -9.0576    109.6614    185.9570   6.4068122908e+01   2.0327115399e+01    0.3914053    0.2302762  64.61  0.001111691    2.332    0.571
       167  -9.2570    249.3720    185.5103   3.5984464424e+01  -1.6377291913e+00    0.2247851    0.1726581 -35.61 0.0007773611    1.473    0.321
       168  -9.0696    202.9119    184.4596   4.3645932096e+01   5.1646249123e+00    0.2263188    0.1743879 -46.60 0.0006548616    1.558    0.358
       169  -8.8537    182.9960    184.5551   4.7497224305e+01   8.3327062876e+00     0.237094    0.1837001 -54.08 0.0008061847    1.623    0.384
       170  -8.9167     66.7721    184.4742   7.4491216495e+01   2.7085567545e+01     0.372474    0.1874807  61.44 0.0009549895    2.232    0.552
       171  -8.5559    224.1419    183.5780   3.9704979035e+01   2.1047483336e+00    0.2051139    0.1481608 -34.63 0.0005810565    1.366    0.268
       172  -9.3732    210.2175    183.2984   4.2091751889e+01   4.2224275427e+00    0.3790366    0.1597289 -34.78 0.0007167911    2.244    0.554
       173  -8.9485    174.3142    183.3708   4.9037212319e+01   9.9786434253e+00      0.27991    0.2259364 -61.22 0.0009014279    1.627    0.385
       174  -8.8989     44.6551    182.4845   7.9845488556e+01   3.0356514723e+01    0.3458364    0.1490297  54.82    0.0011503    2.236    0.553
       175  -7.9757      1.7840    183.5924   9.0347683923e+01   3.4347055570e+01    0.1723349    0.0873831  44.76 0.0009436959    1.683    0.406
       176  -9.2949    147.5735    180.4767   5.4270155362e+01   1.5091083034e+01    0.3429419    0.2764517  84.10   0.00105838    1.723    0.420
       177  -7.8602    235.4686    181.4946   3.7429732707e+01   7.9376577320e-01    0.1230715    0.1000804 -13.30 0.0001009996    1.066    0.062
       178  -9.3742     25.7385    178.9234   8.4287557565e+01   3.3272419987e+01     0.618529     0.212495  73.02  0.002072093    4.086    0.755
       179  -8.3831    240.4790    179.8698   3.6320099017e+01   3.2919055757e-01    0.1822127    0.1012767 -31.27 0.0009046447    1.534    0.348
       180  -8.6213    137.5931    179.0078   5.6288430050e+01   1.7117856832e+01    0.3020127    0.2274507  76.41  0.001025534    1.849    0.459
       181  -9.3827    191.3573    177.9804   4.4604367011e+01   8.0928502122e+00     0.268106    0.2501255 -70.30 0.0005909036    1.461    0.315
       182  -9.5391    248.5235    176.2908   3.4393268783e+01  -2.6653595433e-01    0.3944529    0.2276923 -41.72  0.001470789    1.859    0.462
       183  -8.6125    250.4651    172.6510   3.3407559941e+01  -2.3202793775e-02    0.2259771    0.1224023 -33.96 0.0006092117    1.563    0.360
       184  -8.9417    205.0417    177.5107   4.1926681614e+01   5.9545629367e+00    0.2383989    0.1753537 -46.45 0.0007055707    1.579    0.366
       185  -8.1381    169.2262    178.2805   4.9142911473e+01   1.1773426084e+01    0.1786767    0.1637362  72.13 0.0006056287    1.392    0.281
       186  -8.6998    129.4061    177.5144   5.7948765460e+01   1.8848224723e+01     0.297763    0.2173908  80.91 0.0009151495    1.944    0.486
       187  -8.8493     35.8821    176.4444   8.1525732081e+01   3.2805947508e+01    0.4893278    0.1850771  74.51  0.001636636    3.950    0.747
       188  -8.7354    231.0937    176.4822   3.7190670703e+01   2.1472768971e+00    0.3308515    0.1503616 -32.00  0.001510492    1.945    0.486
       189  -8.4492    217.4661    176.9500   3.9591472078e+01   4.1070761386e+00    0.2209686    0.1715723 -42.87 0.0007857821    1.478    0.323
       190  -9.2398    183.1787    176.1500   4.5864676949e+01   9.7796503638e+00    0.2938583    0.2264216 -56.49  0.000643372    1.652    0.395
       191  -7.6990     97.3308    177.2957   6.5802714659e+01   2.4250352741e+01    0.1384767    0.1127396 -13.93 0.0005420832    1.637    0.389
       192  -8.3729     88.8214    176.5426   6.7857753679e+01   2.5758402675e+01    0.2655122    0.1788779  86.21 0.0008935439    1.781    0.439
       193  -9.0705     58.3264    174.9913   7.5568095410e+01   3.0474209972e+01    0.4719059    0.2184282  71.84  0.001727795    3.131    0.681
       194  -9.1730     55.8089    170.4211   7.5705008678e+01   3.1920283575e+01    0.9166119     0.360757  69.61  0.002485057    5.712    0.825
       195  -8.7750     12.7909    176.0984   8.7315232084e+01   3.5175352288e+01    0.3777158    0.1377103  82.35  0.001512562    2.855    0.650
       196  -8.6052    197.2797    183.4653   4.4514286448e+01   6.2118698835e+00    0.2082992    0.1600294 -55.67 0.0007695652    1.784    0.440
       197  -9.2012    158.8470    174.7766   5.0708393107e+01   1.4249829177e+01     0.416875    0.2937167  85.30  0.001342583    2.779    0.640
       198  -9.1490    104.2436    174.6196   6.3637759491e+01   2.3747938402e+01    0.5227316    0.2646371  61.12  0.001619838    2.969    0.663
       199  -8.7339    224.4985    174.3597   3.7880476454e+01   3.4407760259e+00    0.2363453    0.1632127 -45.83 0.0007969498    1.712    0.416
       200 -10.4382     75.9759    170.9884   7.0416365435e+01   2.9015034541e+01     1.044413    0.4340304 -81.74  0.003106144    4.617    0.783
       201  -9.6898    175.7096    172.0083   4.6577395697e+01   1.1816880052e+01    0.3636464    0.2580538 -38.09   0.00117201    1.389    0.280
       202  -8.4406    142.9140    172.5481   5.3878833693e+01   1.7524831326e+01    0.2746123    0.1960268 -72.59  0.001022877    1.932    0.482
       203  -7.9342    194.4537    172.4534   4.2926538627e+01   8.5297484156e+00    0.1362239    0.1186897  -6.30 0.0003416856    1.017    0.017
       204  -9.5216    121.3631    170.4415   5.8650538822e+01   2.1789456358e+01    0.3798061    0.2687952 -85.56 0.0009461103    1.950    0.487
       205  -8.9346     45.2158    170.8746   7.8568062104e+01   3.3110925311e+01    0.4412196    0.2032658  68.18  0.001760667    2.610    0.617
       206  -8.3005    134.6568    171.2414   5.5573754580e+01   1.9270076436e+01    0.2158169    0.1838385 -83.41 0.0008692105    1.399    0.285
       207  -8.3867    237.1376    169.3411   3.4827546369e+01   2.3240086410e+00    0.2366463    0.1549855 -35.00 0.0007788515    1.384    0.277
       208  -8.9949    230.3202    168.5325   3.5768856227e+01   3.4532082908e+00    0.4299824    0.1843401 -45.23  0.001854102    2.720    0.632
       209  -8.3441    205.8173    170.0860   4.0325027173e+01   7.0518638998e+00    0.1928993    0.1714884 -41.12 0.0005908135    1.308    0.235
       210  -8.4029    198.3531    169.9885   4.1693490226e+01   8.3013603763e+00    0.2134945    0.1931336  74.84 0.0007534581    1.585    0.369
       211  -8.6144    149.9173    169.4296   5.1677618474e+01   1.6913839685e+01    0.2530557    0.2045942 -73.92 0.0007949797    1.584    0.369
       212  -8.3763    244.5557    168.7755   3.3558423611e+01   1.3427337023e+00    0.2291573    0.1007439 -31.36 0.0008079996    1.928    0.481
       213  -9.2454    167.0128    168.3578   4.7686806593e+01   1.4048116324e+01    0.3437458    0.2554746  70.89  0.001256952    2.071    0.517
       214  -8.5939    218.8559    168.1262   3.7616020967e+01   5.2792979753e+00    0.1881204      0.16575 -35.94  0.000568113    1.290    0.225
       215  -7.9176     88.7953    168.6159   6.6680985926e+01   2.7647151723e+01    0.2119147     0.120396  47.02 0.0009352554    1.693    0.409
       216  -9.0359    191.9600    166.4479   4.2204181167e+01   1.0002818931e+01    0.2888569     0.188859 -38.57 0.0006157681    1.466    0.318
       217  -8.6414    185.0388    166.4300   4.3563662020e+01   1.1209392288e+01     0.248077     0.184616 -50.70 0.0005806068    1.530    0.346
       218  -8.5102    111.4923    167.1427   6.0542969810e+01   2.4251002702e+01    0.2405277    0.1914344  64.62 0.0006883217    1.345    0.257
       219  -9.2314     20.8239    166.3796   8.4608776371e+01   3.6811649470e+01    0.3337375    0.1262459  48.61  0.001211596    2.345    0.574
       220  -9.5061    137.4893    164.6513   5.3650835853e+01   2.0179161923e+01    0.6452722    0.2840108  54.60   0.00209778    3.504    0.715
       221  -8.1670    233.9799    164.9210   3.4459582817e+01   3.4507924108e+00     0.178004     0.146709 -50.94 0.0005642758    1.617    0.382
       222  -8.7196     35.6535    164.3316   8.0473140639e+01   3.5825983757e+01     0.367066    0.1412956  50.21   0.00148971    2.468    0.595
       223  -8.7824     32.4028    162.2422   8.1156174029e+01   3.6698669458e+01    0.3153312    0.1722228  64.11 0.0009963798    1.791    0.442
       224  -8.0557    239.8582    163.8082   3.3309487641e+01   2.7445969938e+00    0.1638124    0.1369868 -37.36 0.0005785209    1.346    0.257
       225  -8.8026    212.8844    163.2968   3.7683785476e+01   7.0186100518e+00    0.2715017    0.1718651 -47.50  0.000845579    1.796    0.443
       226  -8.7246    159.4079    164.0048   4.8471431278e+01   1.6288284680e+01    0.2609523    0.2354137  63.90 0.0008221272    1.292    0.226
       227  -8.5477    246.1588    162.7088   3.2126281740e+01   1.9911225421e+00    0.2065403    0.1404773 -34.04 0.0005147757    1.302    0.232
       228  -8.5755    204.7767    162.4662   3.8971821805e+01   8.5060351410e+00    0.2445505    0.1681862 -36.17 0.0005386081    1.350    0.259
       229  -9.2542      3.6026    162.1802   8.8830620962e+01   3.9315557447e+01    0.4422602    0.1682037  52.63  0.002005751    2.304    0.566
       230  -9.0813    177.3320    160.2990   4.3868205901e+01   1.3727954897e+01    0.2966733    0.2339778 -57.88 0.0008312897    1.527    0.345
       231  -8.7239    151.6853    160.6822   4.9536285858e+01   1.8399176262e+01    0.2839703    0.2244572 -72.68  0.001063945    1.627    0.385
       232  -8.3597     60.8135    160.3137   7.3081599558e+01   3.3797154395e+01    0.3150958     0.188641  72.66  0.001407358    1.896    0.473
       233  -8.8842    227.3757    159.0028   3.4337960498e+01   5.3787029055e+00     0.297451    0.1873354 -52.14  0.001045263    2.151    0.535
       234  -8.8351    245.0100    158.4929   3.1462118075e+01   2.7738970196e+00    0.3148811     0.181336  16.93  0.001597214    2.289    0.563
       235  -9.5942    250.1577    157.6557   3.0530773796e+01   2.1496917467e+00    0.3060512    0.1446652 -34.90 0.0008647577    1.737    0.424
       236  -8.1650    246.5802    155.4867   3.0624777182e+01   2.9860641990e+00    0.1925569     0.150224   6.55 0.0005437928    1.293    0.227
       237  -8.7359    237.1124    158.6993   3.2715710527e+01   3.9199947461e+00     0.218904    0.1480353 -36.29 0.0004787612    1.342    0.255
       238  -9.9058     94.7647    162.4994   6.4112454632e+01   2.8167161965e+01    0.8062743    0.4149225  73.03  0.002399263    4.503    0.778
       239  -9.4479    105.6346    157.6557   6.0364625765e+01   2.7499139568e+01    0.4469253    0.2913816  74.41  0.001278746    2.155    0.536
       240  -8.4243    196.3406    157.6748   3.9547830113e+01   1.0795522336e+01    0.2184682    0.2007093 -44.51 0.0005213832    1.239    0.193
       241  -9.3162    167.5310    156.9275   4.5229977377e+01   1.6196369672e+01    0.3681318    0.2615322 -69.37  0.001037029    2.093    0.522
       242  -8.3855    217.9772    156.3873   3.5373978176e+01   7.3154179497e+00    0.2482884     0.163876 -46.79 0.0007002762    1.667    0.400
       243  -7.9458    188.0214    157.3302   4.1085091524e+01   1.2342565060e+01    0.1905976    0.1758548  -6.23 0.0004663496    1.037    0.036
       244  -9.1939    157.5927    155.7666   4.7174388799e+01   1.8307296315e+01    0.3486878    0.2384425 -50.94   0.00112954    1.532    0.347
       245  -9.1731     81.5828    155.4135   6.6540858643e+01   3.2027615803e+01    0.4804551    0.3891167  54.95  0.002043173    1.196    0.164
       246  -9.1854    119.5241    154.9011   5.6202226133e+01   2.5668258958e+01    0.4070121    0.2756129 -86.63  0.001220816    2.196    0.545
       247  -9.0491     49.8695    155.2234   7.5508474383e+01   3.6506387319e+01    0.4476633    0.2133458  60.49  0.001725971    2.421    0.587
       248  -8.5321     33.9133    155.7714   8.0100228260e+01   3.8187573197e+01     0.273011     0.165012  23.38  0.001337776    1.943    0.485
       249  -9.2978    241.6072    154.0537   3.1081478638e+01   3.9409915349e+00    0.3187164    0.2359321  79.05  0.001630124    3.007    0.667
       250  -7.9670    204.5631    155.1003   3.7473933329e+01   9.8066505757e+00    0.2094896    0.1226853 -37.98 0.0008623992    1.566    0.361
       251  -8.5384    144.3039    154.6181   5.0003928569e+01   2.1080735025e+01    0.2696362    0.2164987  81.90 0.0007876063    1.642    0.391
       252  -9.5717    132.8590    152.8506   5.2412678140e+01   2.3649289194e+01     0.477026    0.3029298  65.78  0.001177934    2.298    0.565
       253  -9.0522    133.9424    148.0069   5.1123137115e+01   2.4536047402e+01    0.4106955     0.261753 -32.48  0.001743483    1.868    0.465
       254  -7.8418     95.9421    154.7803   6.2455755741e+01   2.9857409177e+01    0.2011382    0.1209333  35.90 0.0006827888    1.677    0.404
       255  -9.1392     67.7928    153.3821   7.0124976504e+01   3.4601332730e+01    0.4010077    0.2282557  73.10  0.001298322    2.280    0.561
       256  -8.3238    151.7885    152.3704   4.7775516352e+01   2.0127953042e+01    0.2031482    0.1877297 -54.80 0.0006847818    1.133    0.118
       257  -9.4474     29.7864    150.9373   8.0781789150e+01   3.9858474325e+01    0.4519276    0.1982721  67.12   0.00166117    2.678    0.627
       258  -7.9671     20.3348    152.6896   8.3635778513e+01   4.0308018617e+01    0.1457525   0.08206932  63.01  0.000704376    1.679    0.404
       259  -8.9176    189.5627    150.1076   3.9231553264e+01   1.3392760262e+01    0.2980326    0.2183187 -58.39 0.0008706513    1.724    0.420
       260  -8.2433    182.3837    151.1529   4.0885295886e+01   1.4532884869e+01    0.2031079    0.1288912 -49.72 0.0008461591    1.698    0.411
       261  -8.4165    162.6709    150.5718   4.4927210291e+01   1.8402806609e+01    0.2440425    0.1829574 -66.26  0.000633497    1.717    0.417
       262  -8.4825     98.2263    150.3429   6.1012946760e+01   3.0563300368e+01    0.2859526    0.1891304  89.64  0.000789054    2.054    0.513
       263  -9.4289    248.8984    149.0740   2.8988003949e+01   3.5892693954e+00    0.2965823     0.150064 -33.25 0.0007515906    1.603    0.376
       264  -9.6319    242.6276    149.6541   3.0028878575e+01   4.4492354170e+00    0.2460711     0.218777  54.74  0.001624948    1.570    0.363
       265  -8.6995      3.4747    150.4846   8.8169525929e+01   4.2238119597e+01    0.1330861    0.1024397  78.24 1.992309e-05    1.056    0.053
       266  -8.3261    212.9508    149.9267   3.4878454338e+01   9.2390648922e+00    0.1946942    0.1607233 -59.46 0.0005007058    1.578    0.366
       267  -8.4706    198.8006    148.9857   3.7224364808e+01   1.1905391879e+01    0.2042328    0.1805242 -48.10 0.0005015716    1.259    0.206
       268  -8.8824     91.3149    148.6816   6.2633478867e+01   3.2150468500e+01    0.3164026    0.2397274  60.57 0.0006956431    1.372    0.271
       269  -9.4575     88.4721    144.9585   6.2752477655e+01   3.3564233132e+01    0.4426588    0.2672162 -84.18  0.001749953    2.259    0.557
       270 -10.2318     55.2281    144.8006   7.2528655170e+01   3.8542693389e+01    0.8609704     0.389497  68.06  0.002787904    3.684    0.729
       271  -9.7786     55.9471    135.5573   7.0889597599e+01   4.0891552034e+01    0.5333086    0.2958651  -1.30  0.001758788    4.234    0.764
       272  -9.5709     39.8697    147.8182   7.7499549274e+01   3.9602609252e+01    0.5355445     0.233059  61.59  0.001762067    2.815    0.645
       273  -9.3290    233.4297    147.4227   3.0971022814e+01   6.2348697057e+00    0.2971381    0.1348859 -31.63 0.0008039514    1.930    0.482
       274 -10.3492    148.9080    144.9978   4.6838084597e+01   2.2270583971e+01    0.6219002    0.4314499 -87.09  0.001670639    2.512    0.602
       275  -8.4369    223.1181    146.6792   3.2465057832e+01   8.0480506051e+00    0.2220847    0.1597237 -38.28 0.0005045515    1.281    0.219
       276  -9.9885    106.6348    144.3547   5.7519418140e+01   3.0549255439e+01    0.7305058    0.4285347  75.34  0.002150577    3.241    0.691
       277  -8.8067     77.9036    146.7800   6.6137639996e+01   3.4795213968e+01    0.2836902    0.1822106  80.65 0.0007937864    1.964    0.491
       278  -8.9498     13.3335    145.9034   8.5062381851e+01   4.2651178578e+01    0.3228075     0.169192  68.23  0.001313617    1.831    0.454
       279  -7.7565    206.5100    146.4781   3.5269981763e+01   1.0961240916e+01    0.1394896    0.1227419 -21.92 1.474902e-05    1.022    0.022
       280  -8.1690    175.6791    146.1002   4.1147498401e+01   1.6784140779e+01    0.2267096    0.1789405 -59.33 0.0006354491    1.489    0.328
       281  -9.6139    138.9491    144.9320   4.9217310999e+01   2.4251706393e+01    0.3895395    0.2922013 -83.71  0.001295592    1.848    0.459
       282  -9.3914    240.1606    144.9106   2.9416369312e+01   5.5550068170e+00    0.1938642     0.153966 -40.63 0.0005577363    1.292    0.226
       283  -9.7953    124.9021    142.3393   5.2198596111e+01   2.7593453464e+01    0.5847771     0.360868 -72.79  0.001887753    2.377    0.579
       284  -9.2354    247.0536    143.6135   2.8134317545e+01   4.6815627131e+00    0.2441361    0.1503568 -27.10  0.000619859    1.351    0.260
       285  -9.0383    165.6043    143.9062   4.2804336854e+01   1.9193143354e+01     0.300494    0.2415119  73.69 0.0009214883    1.650    0.394
       286 -10.0594    242.8459    140.5076   2.8097653189e+01   5.8070942941e+00    0.5292056    0.2151144 -44.25  0.002271585    2.486    0.598
       287  -7.7697    230.6500    142.2996   3.0321869298e+01   7.4997132112e+00    0.1249693     0.100523 -61.07 0.0003086421    1.690    0.408
       288  -8.4560    182.1127    141.5170   3.8797693706e+01   1.6428166454e+01    0.2245909    0.1996194 -61.94 0.0006559457    1.300    0.231
       289 -10.3708     69.5941    140.9162   6.7588861913e+01   3.7572315693e+01    0.5717139    0.3250839  88.78  0.002215392    2.411    0.585
       290  -9.0539      2.9125    141.8460   8.7763986866e+01   4.4471858388e+01    0.2685939    0.1234456  70.11  0.001040274    2.077    0.518
       291  -8.0176    250.4820    140.5196   2.7007173781e+01   4.6202100953e+00    0.1283038    0.1012796 -25.30  0.000269547    1.015    0.015
       292  -9.4042    139.3314    137.7481   4.7505880137e+01   2.5788216075e+01    0.4700412    0.2774531 -26.72  0.001768124    2.423    0.587
       293  -9.8043    132.2853    131.2917   4.7769226687e+01   2.8692981364e+01    0.7143641    0.4592526  84.25  0.001041954    3.070    0.674
       294  -9.5774     23.5999    138.0339   8.1281786465e+01   4.3821521844e+01     0.560463    0.2230211  62.27  0.002066724    3.073    0.675
       295  -7.7201    218.5103    138.4906   3.1451253888e+01   1.0198632944e+01    0.1376747    0.1185054 -29.06 0.0004041316    1.059    0.055
       296  -8.4732    207.5388    137.4068   3.3080595223e+01   1.2361389291e+01    0.2603517    0.1214318 -42.21 0.0007218051    1.979    0.495
       297  -8.7075    197.4946    137.5336   3.4919319089e+01   1.4216845097e+01    0.2711925    0.2104648 -50.54 0.0008120302    1.379    0.275
       298  -8.8018    172.1602    137.7771   3.9992197965e+01   1.9129133376e+01    0.2994936    0.2216404 -66.04 0.0007414804    1.761    0.432
       299  -9.0108    248.5644    134.9069   2.6105260570e+01   5.7583634251e+00    0.2871394    0.1628688 -42.03 0.0009259966    1.601    0.375
       300  -8.3072    162.6734    136.2122   4.1679493024e+01   2.1367511756e+01    0.2329436    0.1851766 -60.42 0.0006557548    1.412    0.292
       301  -9.3152     39.1571    135.8639   7.6200141530e+01   4.2837203466e+01    0.2988701     0.209962  67.62 0.0008320963    1.420    0.296
       302  -7.8464    187.9930    135.5012   3.6254567549e+01   1.6428574565e+01     0.184127    0.1324236  78.21 0.0005203428    2.301    0.565
       303  -8.0748     95.5270    135.0288   5.8736506300e+01   3.4872497374e+01    0.2338936     0.149199 -59.32 0.0005320479    1.537    0.349
       304 -10.2604     83.5660    133.0383   6.1886869907e+01   3.7437892832e+01    0.5782654    0.3549429 -80.31  0.001346414    2.050    0.512
       305  -8.1275    231.4904    134.0014   2.8402482890e+01   8.6892903589e+00     0.204824    0.1128637 -34.17 0.0004326304    1.525    0.344
       306  -8.5545    179.6786    133.9040   3.7531466360e+01   1.8386683361e+01    0.2743266    0.1896085 -53.84 0.0008839531    1.596    0.373
       307  -8.9186    112.7556    133.1024   5.3406739009e+01   3.2155339946e+01    0.3539973    0.2624337  80.49 0.0009496702    1.749    0.428
       308  -8.3605    237.5201    133.0520   2.7292559615e+01   7.8274138695e+00    0.1851102   0.09534409 -50.90 0.0007633782    2.448    0.592
       309  -9.1209    143.1443    131.6579   4.5139984346e+01   2.6372128391e+01    0.3144074    0.2567149 -80.53 0.0008636312    1.500    0.333
       310  -8.6467    250.8003    129.8239   2.4727312707e+01   6.1723799298e+00    0.3759903   0.08661481 -33.65  0.001238128    3.775    0.735
       311  -9.9699     13.0111    129.0810   8.3671823352e+01   4.7063029955e+01    0.5831307    0.2372792  69.36  0.002107191    2.949    0.661
       312  -8.3269    246.9598    129.7324   2.5233394030e+01   6.7984035318e+00    0.2320764    0.1296784 -42.46  0.000524926    1.612    0.380
       313  -8.0683    204.6295    129.8926   3.1880050781e+01   1.4235590103e+01    0.2107704    0.1174531 -46.33 0.0009341993    1.777    0.437
       314  -8.1408    192.5404    130.0104   3.4104160537e+01   1.6564473448e+01    0.2251544    0.1325715 -39.41 0.0005329882    1.549    0.354
       315  -9.2738    168.2853    129.2272   3.8791869830e+01   2.1651193846e+01    0.3564865    0.2490272 -61.41 0.0008265394    1.750    0.429
       316  -9.4456    152.7993    128.8837   4.2169126200e+01   2.4964623501e+01    0.4311742    0.2617592 -57.81  0.001070221    1.933    0.483
       317 -10.0949     99.4431    127.8726   5.6026922138e+01   3.5970675883e+01    0.6490651    0.4102267  80.46  0.001828378    2.606    0.616
       318  -9.6055     73.1741    129.2974   6.4353119706e+01   4.0083171207e+01    0.3742327    0.2481242  88.09 0.0009180738    1.853    0.460
       319  -7.8220      1.4909    129.9776   8.7343515711e+01   4.7622518029e+01    0.1874652   0.08277673  71.76 0.0008045146    2.264    0.558
       320  -8.1995    211.6587    129.2636   3.0526143393e+01   1.3018832390e+01    0.2130436    0.1551865 -62.35   0.00106261    1.821    0.451
       321  -8.8660     50.3189    128.6640   7.1564610152e+01   4.3452912880e+01    0.3282366    0.1978218  79.25  0.001153326    1.988    0.497
       322 -10.5324     44.6442    123.5217   7.2595408531e+01   4.5519773410e+01     1.088918     0.502905  81.20  0.002977927    3.966    0.748
       323  -8.9305     32.1044    128.9287   7.7525768271e+01   4.5429321490e+01    0.2111297    0.1654545  77.48 0.0003822554    1.201    0.167
       324 -10.5396     60.2130    125.1033   6.7713543074e+01   4.3101307656e+01    0.7514182    0.4091673  76.84  0.002670947    2.895    0.655
       325  -9.9142    117.5778    124.8436   5.0134454708e+01   3.3205280130e+01    0.5493623    0.3877583 -82.35  0.001524455    1.957    0.489
       326  -8.9820    179.2406    124.5077   3.5369285758e+01   2.0315959801e+01    0.2940875    0.2357378 -64.90 0.0007524395    1.475    0.322
       327 -10.2111     28.7286    122.5985   7.7795213088e+01   4.7453733442e+01    0.6883528    0.3137523  72.55    0.0025093    3.050    0.672
       328  -8.1018    188.5410    123.7609   3.3370338177e+01   1.8542707963e+01    0.2079542    0.1302474 -48.76 0.0005932807    1.612    0.379
       329  -8.5136     84.0477    122.3106   5.9465479820e+01   4.0137949153e+01    0.2714287    0.2434941  58.33   0.00125497    1.137    0.121
       330  -7.8438    203.0034    121.9486   3.0303999723e+01   1.5971616371e+01    0.1748044     0.152255 -31.66 0.0003771709    1.017    0.016
       331  -7.9854    195.1966    121.9843   3.1702766367e+01   1.7523119806e+01    0.2366079    0.1530627 -58.43 0.0007138654    1.938    0.484
       332  -8.6102    172.0043    121.4601   3.6097513986e+01   2.2442323607e+01    0.2761366    0.2006367 -54.00 0.0004364569    1.450    0.310
       333  -9.1311    158.6536    121.2831   3.8943267754e+01   2.5339233243e+01    0.3613011    0.2625671 -75.05 0.0009517776    1.922    0.480
       334  -9.4054     71.2490    120.0051   6.3079230016e+01   4.2831913492e+01    0.4007879    0.2419841  85.09  0.001181106    2.473    0.596
       335  -9.8343    141.5898    118.3844   4.2221739715e+01   2.9661267963e+01    0.4834034    0.3071564 -66.02  0.001122819    2.118    0.528
       336  -9.8421    130.8743    118.5959   4.4995836414e+01   3.1917592332e+01    0.5206345    0.3569157 -89.83  0.001978075    2.378    0.579
       337  -8.0854     99.6160    119.6853   5.4060830705e+01   3.7996758188e+01     0.164197    0.1257179 -12.98 0.0007020021    1.821    0.451
       338  -9.7133      2.7117    116.4907   8.5849142167e+01   5.1067883482e+01    0.5990815    0.2421073  77.43  0.002375745    2.730    0.634
       339  -7.8738    231.6801    117.3536   2.4679283059e+01   1.1342481023e+01     0.138309   0.09532113 -57.40  0.000704689    1.750    0.429
       340  -9.8939    109.5386    114.1797   4.9744077823e+01   3.7412319967e+01    0.5781372     0.374525 -80.77  0.001709847    2.421    0.587
       341  -7.7410    159.6450    116.7078   3.7553920506e+01   2.6084043548e+01    0.1580934    0.1231322   5.29 0.0007029639    1.684    0.406
       342  -8.4967     59.4309    115.0842   6.6023653951e+01   4.5884453038e+01    0.4018798     0.245788 -10.83   0.00148536    3.101    0.678
       343  -8.2662    192.8737    115.0465   3.0433554392e+01   1.9282498043e+01    0.2259263    0.1855245 -55.14 0.0004893043    1.272    0.214
       344 -10.0751     92.7190    112.2149   5.4340258317e+01   4.1175325063e+01    0.6617752    0.3586853 -66.70  0.001696656    2.271    0.560
       345  -9.8451     79.1693    112.5093   5.8785892896e+01   4.3510093653e+01    0.5744001    0.3731377  84.47  0.001759558    2.268    0.559
       346  -9.4180     25.5910    114.2549   7.7719195025e+01   4.9980641425e+01    0.3127383    0.1623674 -39.55  0.001068072    2.351    0.575
       347  -8.0428    167.1962    114.1216   3.5245101795e+01   2.4962652193e+01    0.2105126    0.1770076 -65.51 0.0004310714    1.311    0.238
       348 -10.0654    133.7805    108.9993   4.1701806787e+01   3.3472184213e+01    0.6811899    0.3234879 -50.27  0.002330363    2.131    0.531
       349  -9.8057    121.8390    112.2694   4.5760714474e+01   3.5313562293e+01    0.3995963    0.3104255 -67.14 0.0009807259    1.414    0.293
       350  -8.4793    174.8987    111.6319   3.3009571919e+01   2.3773306085e+01    0.3145749    0.1833022 -54.40 0.0007863194    1.944    0.486
       351  -9.0036    159.0362    111.5512   3.6343622851e+01   2.7293358454e+01    0.2987706    0.2057347 -55.55 0.0006651623    1.549    0.354
       352 -10.0555     66.4126    109.5878   6.2425890766e+01   4.6323300414e+01    0.6362685    0.3253708 -70.85  0.001840814    2.249    0.555
       353  -9.9090     14.8049    111.3762   8.1143613000e+01   5.1625476712e+01    0.3726385    0.1887986  58.64  0.001192757    2.207    0.547
       354 -11.1816    248.4422    106.1129   1.9911526663e+01   1.0155313263e+01    0.8553743     0.269567 -33.17  0.003305091    2.676    0.626
       355  -8.0894    185.7964    115.8265   3.1942660839e+01   2.0618863256e+01     0.206187    0.1652294 -56.83 0.0004864543    1.330    0.248
       356  -8.8045      3.1010    108.6674   8.4976069989e+01   5.3100049022e+01    0.2454903    0.1013256  29.27  0.001101534    2.599    0.615
       357  -9.6271    139.9273    104.1906   3.8823974145e+01   3.3161805523e+01    0.4966455    0.3243379 -64.90  0.001246963    1.954    0.488
       358 -10.4494     45.8053    102.1341   6.8230752518e+01   5.1118000022e+01    0.8651609     0.440876  68.87  0.002940104    3.490    0.713
       359 -10.8141     22.8691    102.5820   7.6970782645e+01   5.3340766649e+01    0.7602674    0.3825127  65.68  0.001996436    2.591    0.614
       360  -9.6120    150.5659    103.0050   3.5948834842e+01   3.0992639828e+01    0.4949112     0.291867 -59.35  0.001312058    2.104    0.525
       361  -8.3964     78.1771    105.0157   5.7279512557e+01   4.5613417245e+01    0.2679827     0.165063 -33.42 0.0009264394    2.071    0.517
       362  -8.5390    166.7495    103.9513   3.2653571872e+01   2.7109815295e+01    0.2901716    0.1982893 -55.62 0.0006361061    1.564    0.361
       363  -9.1695      7.0229    103.3015   8.2985211134e+01   5.4285111336e+01    0.2473264    0.1595008  75.61 0.0007912862    1.541    0.351
       364 -10.0685    128.5071    101.5565   4.1006851931e+01   3.6317738163e+01    0.4352527    0.3094934 -69.53  0.001115389    1.754    0.430
       365  -8.2867    130.9841     96.5127   3.8900057739e+01   3.6875960739e+01    0.3726343    0.2309422  10.56  0.001117761    3.997    0.750
       366  -8.1812    175.5988    101.8069   3.0290184495e+01   2.5532248760e+01    0.2226568    0.1325686 -48.45 0.0003877822    1.645    0.392
       367 -10.7895    108.9454     98.8928   4.5742958519e+01   4.1202326746e+01    0.8638083    0.5036536  64.98  0.001644972    2.582    0.613
       368  -8.8333    107.0757     92.6587   4.4466665139e+01   4.3056116972e+01    0.5935067    0.3031155  29.72   0.00197415    2.941    0.660
       369  -8.4028    159.8120    100.7247   3.3247594802e+01   2.9341413486e+01    0.3173196    0.1965078 -48.59 0.0007638877    1.582    0.368
       370  -9.1290     82.1875     99.8074   5.4550010766e+01   4.6236183858e+01    0.3986693    0.2737569 -79.74  0.001101411    1.885    0.470
       371  -9.2270     94.9525     96.8436   4.9489413598e+01   4.4560592387e+01     0.332637      0.24203 -62.46 0.0006087991    1.433    0.302
       372 -10.0076     64.0893     95.8598   5.9930035983e+01   5.0258719806e+01    0.5771163    0.3628182  83.70  0.001594099    2.551    0.608
       373  -8.2015    164.9618     93.9626   3.0276439692e+01   2.9492938903e+01    0.2440376    0.1807299 -67.11 0.0006155164    1.587    0.370
       374 -10.2409    124.0141     91.0468   3.9122222500e+01   3.9666334238e+01    0.5406262    0.4876556  -2.75  0.001082764    1.272    0.214
       375  -8.1623    176.3019     92.9708   2.7763610113e+01   2.7052751230e+01    0.2208519    0.1809865 -45.62 0.0004369458    1.129    0.114
       376  -9.2313    139.1590     92.0959   3.5533051498e+01   3.5931508412e+01    0.3989688    0.2852504 -77.91  0.001109545    1.921    0.479
       377  -8.2314    157.6186     91.7323   3.1186934801e+01   3.1654817777e+01    0.2219508    0.1389294 -48.29 0.0004026037    1.557    0.358
       378  -9.0852     46.7097     91.9678   6.5613507277e+01   5.3687835628e+01    0.4081989    0.2012294  12.73  0.001477182    3.244    0.692
       379  -9.5078     34.9860     89.9557   6.9863181383e+01   5.5556361716e+01    0.5068378    0.2752576  87.65  0.001585044    2.686    0.628
       380  -9.4551      5.1859     91.7917   8.2269732292e+01   5.7414716693e+01    0.2758081    0.1963256  70.25   0.00101482    1.464    0.317
       381  -8.9028     22.8771     89.9776   7.4822388233e+01   5.6682556925e+01    0.3259202    0.2118711 -15.79  0.001451099    2.001    0.500
       382  -8.5059    150.3405     88.7689   3.1923247446e+01   3.3970742866e+01    0.3596961    0.2193182  70.88  0.001351838    2.248    0.555
       383  -9.9312     86.5493     85.8500   4.9005364372e+01   4.8847154088e+01    0.6968694    0.4487639 -66.57  0.001766606    1.895    0.472
       384  -8.4783     64.9866     87.4798   5.7323662207e+01   5.2251191948e+01    0.2137351    0.1360349   0.54 0.0008091462    2.698    0.629
       385  -9.7105     48.5788     84.2057   6.2911218488e+01   5.5453254848e+01    0.5513707    0.3251589  67.64  0.001771719    2.761    0.638
       386  -9.6980    104.9398     83.0969   4.2140414873e+01   4.5692815846e+01    0.4687466    0.3332045 -77.96 0.0009082715    1.985    0.496
       387  -7.6786    170.6276     83.3194   2.6136658763e+01   3.0175974340e+01     0.165014    0.1153036 -71.41 0.0007032774    1.801    0.445
       388  -8.9400    140.9160     82.2131   3.2114024479e+01   3.7541608485e+01    0.3994281    0.2026907 -49.01  0.001142686    2.020    0.505
       389  -8.0045     64.0080     82.3155   5.6198660634e+01   5.3691508837e+01    0.2038755    0.1937158 -65.93 0.0005466183    1.059    0.056
       390  -9.4948     24.6420     80.5731   7.2197636662e+01   5.8985584707e+01    0.4513179    0.2557442  84.65   0.00133239    2.392    0.582
       391  -8.8497     74.8657     80.3808   5.1466281078e+01   5.2325287530e+01    0.3357133    0.2125672 -66.90  0.000960637    1.920    0.479
       392  -8.9923      9.9504     80.7024   7.8638262626e+01   6.0027574490e+01    0.2906989    0.1722839  55.04  0.001346105    2.016    0.504
       393  -8.2910    189.1487    107.7512   2.9281526194e+01   2.1424901419e+01     0.265563    0.1804804 -46.51 0.0005683178    1.388    0.280
       394  -8.2032    150.2041     80.2145   2.9385200340e+01   3.5684599514e+01    0.2272384    0.1779167 -65.15  0.000648113    1.389    0.280
       395  -8.6966    119.3195     79.9070   3.6909583020e+01   4.3143198576e+01    0.3105489    0.2310702 -66.69  0.001147093    1.581    0.368
       396  -8.1431    166.9510     79.3359   2.5686549187e+01   3.1787144788e+01    0.2076388    0.1966697 -70.50 0.0004983486    1.048    0.045
       397  -8.1121    184.2196     78.0193   2.2214104269e+01   2.7908754483e+01    0.2070115    0.1145912 -36.18 0.0005892836    1.664    0.399
       398  -8.3696    157.9200     83.7156   2.8785615950e+01   3.3145179634e+01    0.2612705    0.2047228 -29.73  0.000342284    1.317    0.241
       399  -7.6486    157.1426     76.1736   2.6686427904e+01   3.4753076490e+01    0.2180389     0.171551 -60.98  0.000475995    1.316    0.240
       400  -9.3229    127.9571     75.0643   3.3024639872e+01   4.2092249949e+01    0.3562077     0.262927 -59.88 0.0006152894    1.482    0.325
       401  -8.4703    140.4913     75.0563   2.9964837648e+01   3.9048805931e+01    0.2440838    0.1497206 -41.79 0.0007397284    1.563    0.360
       402  -9.9329     63.1040     73.4442   5.3787678654e+01   5.5984374671e+01    0.4799992     0.286704 -63.55  0.001209033    1.897    0.473
       403  -9.6267     82.5520     72.5429   4.6053766273e+01   5.2701186159e+01    0.4343511    0.3003218 -74.82  0.001075784    2.092    0.522
       404  -8.1520    163.4990     73.0472   2.4484356371e+01   3.3762614146e+01     0.241813    0.1436041 -39.46  0.001022865    1.575    0.365
       405  -7.7923    151.6174     73.2928   2.6947201274e+01   3.6643478788e+01    0.1654529    0.1186878 -75.90 0.0007017567    1.755    0.430
       406  -8.5454    115.6341     72.6564   3.5525573774e+01   4.5503814148e+01    0.3015022    0.1858898 -44.41 0.0005713012    1.580    0.367
       407  -8.8361    105.9419     71.5476   3.7969901728e+01   4.7962420115e+01    0.3028647    0.2102634 -58.45 0.0007594337    1.616    0.381
       408  -9.0674     95.2764     71.0821   4.1169115880e+01   5.0410117604e+01    0.3838697    0.2400857 -61.12 0.0009608107    1.998    0.500
       409  -9.4642     51.4113     69.3422   5.7352522773e+01   5.8745517537e+01    0.4702798    0.2603216 -70.94  0.001585724    2.523    0.604
       410  -8.9498     17.1483     70.2370   7.3327299006e+01   6.2223345004e+01     0.312704    0.1959806  69.30  0.001039417    2.121    0.528
       411  -8.6181    147.0508     67.8616   2.6198719249e+01   3.8767809388e+01    0.2744884    0.2133735 -42.94 0.0006482409    1.233    0.189
       412  -8.5090    138.6044     65.9779   2.7444652624e+01   4.1215294198e+01    0.2996407    0.1734573 -48.92 0.0006774106    1.765    0.433
       413  -8.5998    121.5904     65.7902   3.1540841796e+01   4.5437961905e+01    0.2969171    0.2163859 -64.08 0.0004656146    1.612    0.380
       414  -8.6696    110.0854     63.3322   3.3830321205e+01   4.8655289917e+01    0.2805832    0.2071259 -63.77  0.000637377    1.606    0.377
       415  -8.5049     37.3248     64.1572   6.2091134187e+01   6.1814583993e+01     0.248421    0.1708788  59.70 0.0009650827    1.988    0.497
       416  -8.4601     65.3507     62.4452   4.9045573804e+01   5.8128779702e+01    0.3482832    0.2084856   3.80  0.001209157    3.440    0.709
       417  -7.9483    158.3530     61.7591   2.1991417925e+01   3.6999301923e+01    0.2041037    0.1425837 -27.88 0.0004200858    1.513    0.339
       418  -9.0977     97.6156     60.4415   3.6535196221e+01   5.2079983282e+01    0.2873464    0.2466537  70.36 0.0008029066    1.309    0.236
       419  -9.6603     73.3997     59.4442   4.4695337530e+01   5.7313385431e+01    0.4484133    0.2741278 -54.70  0.001182455    1.793    0.442
       420  -7.7854    147.0000     58.9854   2.3320396299e+01   4.0332219806e+01     0.247895    0.0855547 -34.43 0.0004304097    2.835    0.647
       421  -7.9825     89.2564     59.6296   3.8982367044e+01   5.4070101145e+01    0.1529389    0.1179182 -69.62 0.0006969206    1.643    0.391
       422  -8.4759    130.6993     57.4049   2.6344153764e+01   4.4716932037e+01    0.2792163    0.1753543 -47.38 0.0004861593    1.608    0.378
       423  -9.7753     23.5835     56.2500   6.6454533362e+01   6.5129925454e+01    0.4766802    0.2930939  83.83  0.002083227    2.720    0.632
       424  -9.3081      7.7265     57.1419   7.5009485388e+01   6.6083016716e+01    0.3106326    0.2066154  69.87  0.001208501    1.958    0.489
       425  -7.9083    139.9852     55.9981   2.3782185569e+01   4.2613472966e+01    0.1856232    0.1699343 -46.12 0.0003356744    1.069    0.064
       426  -8.7318     44.1600     55.5466   5.5895948679e+01   6.2955523150e+01      0.27048    0.2120654 -80.75 0.0008128581    1.681    0.405
       427  -9.1568     62.8426     54.1077   4.6883673678e+01   6.0356884484e+01    0.4433931     0.203434 -52.65  0.001622313    2.377    0.579
       428  -8.8360     54.0888     53.5532   5.0501795537e+01   6.1931972173e+01    0.3522967    0.2026601 -62.80  0.001350634    2.323    0.570
       429  -8.3323    170.2833     52.9414   1.7188225846e+01   3.5422220854e+01    0.2063552    0.1786327 -45.98  0.000302221    1.089    0.081
       430  -8.3911    105.8513     53.0931   3.1222925241e+01   5.1557977941e+01    0.2385724    0.2017727 -66.45 0.0005831312    1.325    0.245
       431  -9.3317     92.5824     50.5791   3.4299784640e+01   5.5069598803e+01    0.4147991    0.2612945 -56.38 0.0009852911    1.972    0.493
       432  -8.6365    119.1847     55.6795   2.8554303597e+01   4.7879224972e+01     0.315408     0.217383 -60.41 0.0007468513    1.714    0.417
       433  -7.9151    129.6547     48.7954   2.3516197396e+01   4.6418677966e+01    0.2202789    0.1307742 -43.67  0.000426403    1.675    0.403
       434  -8.3012    112.1770     46.7083   2.6993543033e+01   5.1126262511e+01    0.2633597    0.1944753 -47.96 0.0006999058    1.401    0.286
       435  -9.1016     82.2655     46.4810   3.6108567903e+01   5.8064828791e+01    0.2893816    0.2390442 -63.48 0.0007311236    1.449    0.310
       436  -8.2736     45.0755     44.4838   5.1048277223e+01   6.5211467192e+01    0.2147757    0.1688154 -43.47 0.0006253693    1.189    0.159
       437  -9.0059     16.7841     44.3563   6.6342240597e+01   6.8477723145e+01    0.2826813    0.1687969 -77.50 0.0008531034    2.172    0.540
       438  -8.3077    132.8270     42.5926   2.0579128461e+01   4.6569468255e+01    0.2499454    0.1720258 -37.59 0.0007638722    1.437    0.304
       439  -9.3108     69.6074     41.3373   3.8625263889e+01   6.1583859180e+01    0.4604658    0.2652199 -53.14  0.001433766    2.175    0.540
       440  -9.0127     58.1309     42.4688   4.3994799182e+01   6.3509923692e+01    0.3212189    0.2174459 -61.83  0.001451075    2.038    0.509
       441  -9.5327      5.2260     42.0214   7.2434976141e+01   6.9804725689e+01     0.334067    0.2050193 -86.43  0.001345997    2.066    0.516
       442  -8.6988    106.0296     41.4186   2.6537208489e+01   5.3475050751e+01    0.2813641    0.1969946 -50.85 0.0006447337    1.562    0.360
       443  -8.0661     36.8718     40.7786   5.3678691704e+01   6.7115477899e+01    0.1697657    0.1613302 -87.32 0.0005233643    1.340    0.254
       444  -8.8276     95.7044     38.2788   2.8177012119e+01   5.6431211286e+01    0.2667157    0.1707407 -45.57 0.0007105555    1.668    0.401
       445  -8.3725     80.8750     36.3421   3.2121464064e+01   6.0095120067e+01    0.3258114    0.1723436 -42.68   0.00100054    1.972    0.493
       446  -7.5297    133.6596     36.3052   1.8117736686e+01   4.7260765364e+01     0.156928    0.1089431 -68.35 0.0007041044    1.680    0.405
       447  -9.2665     26.2546     35.3658   5.7274979318e+01   6.9520858412e+01     0.283967    0.2191117 -72.92  0.000915235    1.732    0.423
       448  -8.1509    125.9603     35.3179   1.9320302155e+01   4.9381054658e+01    0.2030716    0.1873552  65.84 0.0004427697    1.056    0.053
       449  -8.5485    111.8402     34.5335   2.2225708453e+01   5.3070557103e+01    0.2921471    0.1755548 -48.22   0.00077228    1.825    0.452
       450  -8.8376     48.5298     33.0790   4.4069097828e+01   6.6882428294e+01    0.2508868    0.2115758 -58.92 0.0008145017    1.486    0.327
       451  -8.5791    119.3013     32.6236   1.9719248604e+01   5.1452973670e+01     0.369268    0.1067974 -35.33  0.001197747    3.184    0.686
       452  -8.5041     60.8909     32.4592   3.8046438309e+01   6.4804816274e+01    0.2473755    0.1855218 -50.03  0.000736739    1.539    0.350
       453  -8.9967     72.3002     30.8749   3.2653515571e+01   6.2787221061e+01    0.2504126    0.2045739 -58.48 0.0007175528    1.520    0.342
       454  -8.7198     13.0950     30.1332   6.3219103696e+01   7.1886375299e+01    0.2960528    0.1630308 -69.64  0.001004354    2.369    0.578
       455  -8.2931    101.8188     29.1448   2.2502917803e+01   5.6291729067e+01    0.2226372    0.1916858 -67.77 0.0006879864    1.312    0.238
       456  -8.9590     81.6748     27.3130   2.7610530354e+01   6.1278610720e+01    0.2836048    0.2196588 -65.71 0.0008192768    1.711    0.416
       457  -8.9100      3.8406     27.5604   6.8447446766e+01   7.3093987674e+01    0.2242757    0.1551305 -80.14 0.0007398819    1.842    0.457
       458  -8.7491     91.9859     26.4293   2.4002330799e+01   5.9020554680e+01    0.2676643    0.1867439 -46.54 0.0006304277    1.590    0.371
       459  -8.4033    209.8319     24.0578   4.2992202303e+00   2.9769471385e+01    0.2160638    0.1470804 -59.07 0.0005881319    1.276    0.216
       460  -7.7905     34.6403     23.2706   4.6343707047e+01   7.0759452315e+01    0.1166273    0.1052039  71.50 0.0005092297    1.648    0.393
       461  -8.0783    120.9979     21.5048   1.4947540257e+01   5.2412293065e+01    0.2144532    0.1840722 -27.21 0.0005441261    1.227    0.185
       462  -8.7922     48.4967     21.4747   3.7951001988e+01   6.8831212761e+01    0.2419899    0.2278235 -56.75 0.0007232837    1.376    0.273
       463  -8.8826     63.4967     20.6772   3.0845681544e+01   6.6095714703e+01    0.2706212    0.2006744 -58.52   0.00091057    1.891    0.471
       464  -8.8628     74.1164     19.3847   2.6205423953e+01   6.4017870026e+01    0.2555472    0.1890971 -37.66 0.0006831856    1.441    0.306
       465  -8.3317     87.9078     17.3458   2.0875704435e+01   6.1112425166e+01    0.2317319    0.1823099 -39.03 0.0006056229    1.366    0.268
       466  -7.9790     38.6502     17.8807   4.0992139475e+01   7.1040259021e+01     0.175495    0.1120353 -43.47 0.0004113094    1.691    0.409
       467  -7.7474    112.9872     16.7318   1.4589946070e+01   5.4993993748e+01    0.1770819    0.1165259  64.82  0.000394449    1.427    0.299
       468  -8.1661     30.0108     15.9600   4.4872415604e+01   7.2649112043e+01    0.1750773    0.1609852 -78.62 0.0006143479    1.673    0.402
       469  -8.2257     97.2120     15.0073   1.7333107648e+01   5.9127743955e+01    0.2271707    0.1408192 -51.59 0.0007190375    1.943    0.485
       470  -8.1341      7.4362     15.2386   6.0170102760e+01   7.5332904988e+01     0.159299    0.1088803 -59.13 0.0009425801    1.627    0.385
       471  -7.7432     17.3831     14.1426   5.2150289853e+01   7.4563542297e+01    0.1638124    0.1090782 -52.33 0.0004647591    1.712    0.416
       472  -7.8663     83.5027     10.5388   1.8728703456e+01   6.2888319919e+01    0.1332926    0.1260607  44.52   9.7026e-05    1.056    0.053
       473  -9.3423    233.3225    245.6624   4.8565639338e+01  -7.0993235921e+00    0.4491358    0.2001161 -20.82  0.002158726    2.361    0.576
       474  -8.1315    191.4376    249.2523   5.6249093720e+01  -2.5421453549e+00    0.1261757    0.1071539 -39.97 0.0008559228    1.640    0.390
       475  -9.2825    175.5408    247.3507   5.8889952665e+01  -2.5782317382e-01    0.2532765    0.2257015  84.69  0.001211046    1.912    0.477
       476  -9.1234    156.4500    248.1327   6.2583097645e+01   2.1645563390e+00    0.2680195    0.1873661  54.76  0.001071231    1.884    0.469
       477  -8.1582    113.4348    248.4385   7.1013854313e+01   7.9294140143e+00     0.174192    0.1136463 -81.31  0.001020957    2.274    0.560
       478  -9.2165    103.7388    246.6950   7.2771551909e+01   9.5125487596e+00    0.4128299    0.2249407  89.55  0.001942728    3.546    0.718
       479  -8.3974     93.9687    249.0773   7.4939953247e+01   1.0404411202e+01    0.1955052    0.1094237  56.55 0.0006708817    1.793    0.442
