#   1 NUMBER                 Running object number                                     
#   2 MAG_AUTO               Kron-like elliptical aperture magnitude                    [mag]
#   3 X_IMAGE                Object position along x                                    [pixel]
#   4 Y_IMAGE                Object position along y                                    [pixel]
#   5 X_WORLD                Barycenter position along world x axis                     [deg]
#   6 Y_WORLD                Barycenter position along world y axis                     [deg]
#   7 A_WORLD                Profile RMS along major axis (world units)                 [deg]
#   8 B_WORLD                Profile RMS along minor axis (world units)                 [deg]
#   9 THETA_WORLD            Position angle (CCW/world-x)                               [deg]
#  10 FWHM_WORLD             FWHM assuming a gaussian core                              [deg]
#  11 ELONGATION             A_IMAGE/B_IMAGE                                           
#  12 ELLIPTICITY            1 - B_IMAGE/A_IMAGE                                       
         1 -13.4681    220.3102      2.0589   4.3380324326e+01   2.8622820988e+01     2.496081     0.563098  63.52  0.006902714    3.605    0.723
         2 -13.8490    179.7849     44.5870   6.0982134105e+01   3.4253574208e+01     1.205241    0.9083636 -11.98  0.000906845    1.484    0.326
         3 -14.0638    190.5066     35.2808   5.6399910395e+01   3.2670948043e+01     1.301028     1.107095 -26.11  0.002981705    1.196    0.164
         4 -14.9107    198.4857     25.4931   5.2341896843e+01   3.1765135554e+01     2.320089     1.559999  31.13  0.001415166    1.819    0.450
         5 -10.6937    189.9572     15.0131   5.0223738798e+01   3.5178600452e+01    0.2228644    0.2115056 -88.91 0.0006476584    1.003    0.003
         6 -16.2308    100.3977    239.0155   1.1704143402e+02   1.5580237703e+01     6.691513      2.20891  35.79   0.02963518    3.343    0.701
         7 -13.3032    114.8951    207.7342   1.1128859619e+02   1.8379772430e+01    0.9266447    0.3115744  45.93  0.004160265    2.391    0.582
         8 -19.3986      8.7990    134.6945   1.2664259446e+02   4.5985440229e+01     16.79684     1.799225 -77.26   0.04040862    9.800    0.898
         9 -11.6037    108.0897    203.9070   1.1215407370e+02   2.0074895753e+01    0.2747658    0.2332329  44.62 0.0009325696    1.199    0.166
        10 -11.1205    104.1690    201.8824   1.1268358052e+02   2.1022006702e+01      0.25113    0.1695729  61.42  0.001224991    1.328    0.247
        11 -10.3163     37.8666    222.4624   1.2657357388e+02   2.6101980235e+01    0.2571493    0.2113088  11.90  0.001935293    2.224    0.550
        12 -11.2840     39.0037    211.0158   1.2570594402e+02   2.7953992983e+01    0.2270543    0.1291641  87.34  0.001154286    1.581    0.368
        13 -11.4440     71.1761    210.1544   1.1978301961e+02   2.4226639206e+01    0.2995656    0.1742007  35.55 0.0003941194    1.820    0.450
        14  -9.5773     28.9242    210.0609   1.2743478210e+02   2.9205469091e+01    0.2587561    0.0635035  47.77  0.001296206    2.721    0.632
        15 -12.4067    106.9725    210.2445   1.1307308699e+02   1.9169998504e+01    0.6172544    0.2776784  51.35  0.003207859    1.888    0.470
        16 -10.7686     33.0595    205.8835   1.2646042247e+02   2.9514590393e+01    0.1811851    0.1444164 -67.94  0.001412865    1.588    0.370
        17  -9.0985     43.6497    220.6820   1.2547853221e+02   2.5758219254e+01   0.08536535   0.08269286 -41.31 0.0007047775    1.736    0.424
        18 -10.8811    156.2053    199.9221   1.0236971449e+02   1.2855240342e+01    0.4165311    0.2054255 -59.09  0.001924583    3.089    0.676
        19 -10.5790     95.2258    200.3264   1.1425391242e+02   2.2630730448e+01    0.2788083    0.1706532  67.79 0.0009151655    1.656    0.396
        20 -11.1990     99.2187    196.8425   1.1308285229e+02   2.2660499547e+01    0.7467591     0.367679  24.80  0.002860566    4.417    0.774
        21  -9.5544     48.8248    217.6882   1.2438857811e+02   2.5675682863e+01    0.2959433    0.1463464  38.11  0.001807954    1.929    0.482
        22 -12.2478    193.7730    193.1908   9.4305489722e+01   7.2721372442e+00    0.7701215    0.4869522 -53.99   0.00350196    2.355    0.575
        23  -9.6654     46.1518    199.4303   1.2362476903e+02   2.9240214325e+01    0.1557828    0.1153968  60.46 0.0004215689    1.098    0.089
        24 -11.1886     44.6792    195.4370   1.2361359258e+02   3.0151420160e+01    0.2677077    0.1648556  65.78 0.0003838294    1.315    0.239
        25 -10.5706     38.8233    192.9065   1.2455202659e+02   3.1282803653e+01    0.2832779    0.1673397  50.86  0.001349329    1.402    0.287
        26 -11.1525    204.1395    198.8727   9.3396451093e+01   4.7158408599e+00    0.1842388    0.1596665  45.72 0.0008798947    1.286    0.222
        27 -12.5154     32.7554    198.3401   1.2605577921e+02   3.0922501530e+01    0.2607234    0.1566775  40.44  0.001190951    1.626    0.385
        28  99.0000     59.9950    217.4605   1.2239203505e+02   2.4377075144e+01    0.6378927    0.3204969 -53.74  0.002685082    2.864    0.651
        29 -13.2970     66.2123    191.8368   1.1911826678e+02   2.8210924922e+01    0.6860213    0.5769269 -79.06  0.004013302    1.290    0.225
        30 -10.1029     81.9414    195.3533   1.1634231528e+02   2.5437029077e+01    0.2483297    0.2156279  14.90  0.001693378    1.701    0.412
        31 -13.7257    113.7319    197.9814   1.1035200263e+02   2.0223300454e+01    0.6402349     0.471066  76.84  0.004005302    1.445    0.308
        32 -10.1865     18.7554    200.9276   1.2875567930e+02   3.1868972939e+01    0.1498427    0.1051013  61.07 0.0002869262    1.125    0.111
        33 -15.9060     70.5493    148.2985   1.1326709246e+02   3.6487097628e+01     5.082135     2.488493  81.78   0.01955308    3.539    0.717
        34  -9.9207     53.7239    230.3428   1.2435011991e+02   2.2981517424e+01    0.2773485    0.1318079 -84.36  0.001723163    2.235    0.553
        35  -9.6865    151.4989    183.4815   1.0078019182e+02   1.6326970810e+01    0.1316631    0.1125087  50.69 0.0001188653    1.059    0.056
        36 -10.9985     99.4988    180.7783   1.1108721051e+02   2.5593865714e+01    0.2299061    0.1962173  56.69  0.000669404    1.077    0.071
        37  99.0000     44.2328    211.0743   1.2477494476e+02   2.7357077354e+01    0.5740297    0.4211474 -56.51  0.003847144    1.914    0.478
        38 -12.4907     77.6291    177.1868   1.1526913141e+02   2.9514515418e+01    0.4655759    0.3405973  39.89  0.001853556    1.411    0.291
        39 -12.3879     81.1545    172.3067   1.1394127928e+02   2.9989618132e+01    0.3947235    0.2883579 -82.54  0.002437951    1.338    0.253
        40 -10.9774    144.1489    179.0838   1.0156234748e+02   1.8396416715e+01    0.2036717    0.1741721  20.38 0.0009452138    1.326    0.246
        41  -9.5323    168.2804    176.6280   9.6303634708e+01   1.4389829513e+01     0.186732    0.1619873 -80.00 0.0005764111    1.467    0.318
        42 -10.0650    166.1265    173.1716   9.6124864544e+01   1.5360328582e+01      0.23002    0.1872225 -82.99 0.0008012484    1.658    0.397
        43  -9.6139     65.9377    175.4953   1.1756477455e+02   3.1429064641e+01    0.1748275     0.105495  43.21 0.0008367636    1.543    0.352
        44  -9.9575     50.7327    172.9538   1.2053576180e+02   3.3830128929e+01    0.1833396    0.1434291  68.98 0.0008950711    1.050    0.047
        45 -11.0413     44.2600    172.0339   1.2181954519e+02   3.4763360420e+01     0.547628    0.1476822  41.73  0.002444947    2.973    0.664
        46 -11.2555    137.1870    170.8128   1.0166487922e+02   2.1126856366e+01    0.2721056    0.2323626  45.80 0.0008172834    1.065    0.061
        47  -9.6936    139.4832    167.5009   1.0062597755e+02   2.1316751361e+01     0.199094    0.1766253 -42.99 0.0005596677    1.285    0.222
        48 -11.5118    195.1682    168.5752   8.9645611540e+01   1.0574774689e+01    0.3120927    0.2683936  29.45 0.0007529195    1.021    0.020
        49 -10.6102    146.0252    168.3050   9.9385071095e+01   1.9964046346e+01    0.1959832      0.16577  48.60 0.0006827852    1.055    0.053
        50  -9.5945    111.6160    168.3511   1.0676682348e+02   2.6048826888e+01    0.2071649    0.1400014  69.92 0.0008828589    1.637    0.389
        51 -11.0725     55.6814    211.0288   1.2270203186e+02   2.6021356159e+01    0.3166911    0.1834893  42.06 0.0005113221    1.559    0.359
        52 -10.6332    190.1393    160.6606   8.9064825816e+01   1.2767136088e+01    0.2559391    0.2370142   8.18 0.0006930031    1.077    0.071
        53 -11.1922    189.0756    155.2433   8.8185896004e+01   1.3840868877e+01    0.4121604    0.3787639  66.82  0.002218327    1.271    0.213
        54 -12.6533     94.8318    155.1949   1.0855066729e+02   3.1439946230e+01    0.6948525    0.4715229 -43.51  0.003707987    1.844    0.458
        55 -10.8223    140.1118    156.8525   9.8616229119e+01   2.3188621853e+01    0.2785429    0.2182407  80.48  0.000527702    1.527    0.345
        56  -9.6651    182.6708    150.5703   8.8485648997e+01   1.5896221996e+01    0.2193337    0.1675032 -62.23 0.0006642891    1.731    0.422
        57 -11.4290    133.8607    144.9703   9.7770230501e+01   2.6685205709e+01     1.042296    0.2955301 -55.39   0.00291205    5.259    0.810
        58  -9.5107    113.1709    150.9797   1.0362407993e+02   2.9263567660e+01    0.2240194    0.1496419  89.36  0.001033035    1.998    0.500
        59 -10.3000    174.8071    148.9159   8.9725170719e+01   1.7776953981e+01    0.2457429    0.2013471 -65.36 0.0007295615    1.526    0.345
        60 -11.0733    144.5103    147.0358   9.5785794668e+01   2.4214021525e+01    0.3130774    0.2113929  45.41  0.001566071    1.380    0.275
        61 -11.2836    106.6125    140.5140   1.0332502849e+02   3.2584770229e+01     0.502877    0.3147595 -33.70  0.002277899    2.358    0.576
        62 -12.5732     94.5345    140.7418   1.0629937988e+02   3.4553655504e+01    0.2735299     0.252333 -58.71  0.000463843    1.192    0.161
        63 -12.0619     61.4686    203.5332   1.2105156118e+02   2.6648986556e+01    0.3909065    0.2093456  81.78 0.0007293129    1.967    0.492
        64  -9.6260    128.0865    139.4836   9.8024108286e+01   2.8891754946e+01    0.2174784    0.1333018  44.18  0.001021147    1.557    0.358
        65 -11.3065    114.3492    130.6516   9.9549727424e+01   3.3301983114e+01      0.67842    0.3720334  28.95  0.002761812    2.530    0.605
        66 -10.7795    106.1013    130.9101   1.0164556295e+02   3.4727498383e+01    0.3236303    0.2794619 -81.14  0.001194872    1.150    0.131
        67 -11.0214    135.8113    128.2352   9.3862862060e+01   2.9663159912e+01    0.4044485    0.1531603 -52.80  0.001391099    3.049    0.672
        68  -8.7805    144.7102    129.2895   9.2026576927e+01   2.7634586470e+01    0.1425085    0.1138389  84.90 0.0001838653    1.542    0.351
        69 -10.2797    160.8778    127.7499   8.8059096197e+01   2.4521937792e+01    0.2857412    0.1951708 -69.23   0.00124408    2.123    0.529
        70 -10.9701    101.8102    126.9907   1.0195813121e+02   3.6324268725e+01    0.2644468    0.2304675 -27.35  0.000724508    1.415    0.293
        71 -11.1114    118.9981    125.5518   9.7343571046e+01   3.3515812516e+01    0.6118995    0.2785994 -34.13  0.001966843    4.020    0.751
        72 -10.1958    109.9404    119.4967   9.8325125324e+01   3.6504178455e+01    0.2343362    0.1943697 -37.41 0.0004710906    1.348    0.258
        73 -10.2043     32.3767    227.9464   1.2778535434e+02   2.5780800794e+01    0.1683472   0.09088572  56.93 0.0006097339    1.327    0.246
        74 -10.0371    167.9805    112.8135   8.2940444515e+01   2.5744326301e+01     0.364911     0.252759 -72.47  0.001539649    2.201    0.546
        75 -10.0919    135.0000    112.4874   9.0418782347e+01   3.3041115213e+01    0.3220972   0.08445718 -45.24 0.0009266276    3.870    0.742
        76 -11.2618    120.1127    110.7930   9.3729194527e+01   3.6430027622e+01    0.4583648    0.3032991  80.49   0.00189571    2.384    0.580
        77 -10.1962    205.5072    110.1530   7.4860294331e+01   1.7673699524e+01    0.3112175    0.2023305  41.38 0.0008819773    1.543    0.352
        78  -8.8244    102.4841    110.4008   9.8267077980e+01   3.9840691030e+01     0.141303    0.1324281  84.94 0.0001162708    1.038    0.037
        79  -9.7003     74.0681    107.0159   1.0543411556e+02   4.5218053242e+01    0.2209475    0.1546231  73.56  0.001015516    1.704    0.413
        80 -11.3667     53.3737     90.8220   1.0831129753e+02   5.1655870410e+01    0.3488052     0.213778 -81.22  0.001725984    1.895    0.472
        81 -10.9179     42.0249     91.9049   1.1210288245e+02   5.2675861175e+01    0.2257327    0.1991499  58.26 0.0005771545    1.243    0.196
        82  -8.9805     67.7109     71.3178   9.8860603362e+01   5.4133220541e+01    0.1322614     0.104153 -89.38 0.0003473384    1.596    0.373
        83 -11.6310    163.2885     64.1321   7.0238384582e+01   3.5547808579e+01      0.39711    0.3017739 -79.23  0.000867967    1.697    0.411
        84 -12.6726     51.2834    208.4108   1.2331616454e+02   2.7011577932e+01    0.3594741    0.1883738  54.65  0.001582886    1.491    0.330
        85 -11.6295    163.6614     55.7177   6.7498493095e+01   3.6804818482e+01    0.3009908    0.2775145  33.05 0.0007377935    1.102    0.092
        86 -10.8597    171.8416    239.9185   1.0490206633e+02   4.8261869115e+00    0.3031558    0.2108873 -79.88   0.00181292    2.892    0.654
        87 -13.6665     55.3956    205.6235   1.2235307293e+02   2.7018913721e+01    0.6420279    0.3839833  55.13  0.002002818    1.313    0.239
        88 -13.1526     45.1527    232.4390   1.2590978463e+02   2.3635943862e+01    0.3236604    0.2142739  51.71 0.0007906036    1.206    0.171
        89  -9.4005     62.5583    234.2588   1.2311148051e+02   2.1285135524e+01    0.1172977   0.05244344  58.81 0.0003974288    1.820    0.451
        90  -9.4001    153.9836     25.4858   5.9122916505e+01   4.3574153731e+01    0.2130954     0.127312 -82.73 0.0008102322    2.533    0.605
