#   1 NUMBER                 Running object number                                     
#   2 MAG_AUTO               Kron-like elliptical aperture magnitude                    [mag]
#   3 X_IMAGE                Object position along x                                    [pixel]
#   4 Y_IMAGE                Object position along y                                    [pixel]
#   5 X_WORLD                Barycenter position along world x axis                     [deg]
#   6 Y_WORLD                Barycenter position along world y axis                     [deg]
#   7 A_WORLD                Profile RMS along major axis (world units)                 [deg]
#   8 B_WORLD                Profile RMS along minor axis (world units)                 [deg]
#   9 THETA_WORLD            Position angle (CCW/world-x)                               [deg]
#  10 FWHM_WORLD             FWHM assuming a gaussian core                              [deg]
#  11 ELONGATION             A_IMAGE/B_IMAGE                                           
#  12 ELLIPTICITY            1 - B_IMAGE/A_IMAGE                                       
         1 -12.5137    165.2797     66.4870   2.7684566958e+01   3.4914367164e+01     2.374778    0.9878128  56.12  0.009777408    2.572    0.611
         2  99.0000    202.9699     18.7623   1.1371179490e+01   3.3244541853e+01    0.7630441    0.5365966  -9.67  0.004485582    2.069    0.517
         3 -13.8235    193.7384     36.8399   1.6517121219e+01   3.3004017737e+01     1.687357     1.035658 -34.85  0.009470586    1.472    0.321
         4 -14.1086    194.8645     65.1595   2.3443673747e+01   2.8886872188e+01      1.39513    0.7819653 -56.34  0.004616778    1.690    0.408
         5 -13.2331    200.0538     46.6684   1.8393111154e+01   3.0433312469e+01     1.866378     1.009613 -11.36  0.007233297    4.155    0.759
         6 -14.0607    218.8356     55.5878   1.8810917828e+01   2.5649702837e+01     1.938119    0.8473783 -34.51   0.00500314    1.879    0.468
         7 -13.1034    234.8385     47.4345   1.5790357777e+01   2.3865825300e+01     1.441901    0.5605926 -37.43  0.006406694    1.853    0.460
         8 -13.8477    244.7282      8.5762   7.2030108118e+00   2.6546654054e+01     0.988263    0.3077262 -64.47  0.004861358    2.970    0.663
         9 -13.0540    221.7199     38.7134   1.4801891409e+01   2.7268595357e+01     1.081508    0.4587897 -61.09 0.0009412656    2.357    0.576
        10 -12.9626    226.3563     21.7568   1.0762746730e+01   2.8390024548e+01     1.008668    0.7607672  -4.72  0.005638886    2.051    0.512
        11 -11.6761    232.6511      4.1180   6.6930480777e+00   2.9102178193e+01    0.8909574    0.1360115 -35.37  0.003817261    3.146    0.682
        12 -14.7155     42.6064     75.1392   6.7538086969e+01   5.9708851713e+01     2.262355       1.6549  63.78  0.006862902    1.558    0.358
        13  99.0000     78.5843      9.3555   2.2857957059e+01   6.4512624515e+01    0.9116428    0.6508317 -79.51  0.002807787    1.484    0.326
        14  99.0000     30.7732     21.7470   5.1722398972e+01   7.3681588579e+01     1.133496    0.8420292 -62.14  0.006047114    1.696    0.410
        15 -13.7281     56.6655      4.0243   2.6034351323e+01   7.0545348791e+01     1.234423    0.5197038  69.85 0.0008851864    2.380    0.580
        16 -11.4724     47.6762      2.0603   2.8047746747e+01   7.2895809563e+01    0.4765297    0.3671475  38.58  0.002121627    1.281    0.220
        17 -13.2581     54.1827     70.7320   6.0497004908e+01   5.8959483615e+01     1.869895     1.011436 -85.47  0.005249075    4.806    0.792
        18 -13.0856     24.4506     39.7460   6.5976625546e+01   7.0937429627e+01     1.845578    0.7899188 -59.25  0.001701739    2.402    0.584
        19 -11.9831     10.9423     24.6664   7.0099402365e+01   7.5884292150e+01    0.6763008    0.3944609  21.94  0.001602631    1.688    0.408
        20 -13.2852     50.7639     21.0242   3.9404810527e+01   6.9802387757e+01     2.415875     1.127936  48.53  0.007583061    1.982    0.496
        21 -14.1842     12.0619     38.0524   7.4869425224e+01   7.2704460144e+01     1.593713     1.315159  69.75  0.007056643    1.429    0.300
        22 -12.9353     72.7889     25.0916   3.2786987604e+01   6.4053139325e+01     1.168175      0.54267 -39.95   0.00415649    2.219    0.549
        23 -12.2850     79.8889     23.2268   2.9620846066e+01   6.2546357099e+01    0.5653347    0.5281405   6.27  0.003295781    1.250    0.200
        24 -14.2949     10.3680     71.6510   8.4635782031e+01   6.4143997103e+01     2.955331     1.697488 -34.30   0.01322124    1.904    0.475
        25 -12.6704    222.7358      8.6618   8.0458412963e+00   3.0460677923e+01    0.7333032    0.2768854 -69.27  0.001773655    2.553    0.608
        26 -11.9871    176.4017     23.7027   1.4533067224e+01   3.8379294273e+01    0.3330681    0.2703504 -10.06 0.0008178055    1.660    0.398
        27  -8.9517    244.0668     18.1346   9.1703324337e+00   2.5663916420e+01    0.3416471    0.1093851 -49.86  0.001809026    2.081    0.520
        28 -11.5244    211.3055     21.0107   1.1416185625e+01   3.1328272353e+01    0.3889448    0.3533092  -3.28  0.002790634    1.577    0.366
        29 -11.1308    171.2032     18.0866   1.3393743401e+01   4.0205386934e+01    0.4147931    0.2710964   5.63  0.001664078    2.799    0.643
        30 -12.8344    172.9944      7.1485   1.0191479483e+01   4.0955557592e+01    0.4182275    0.2865529 -19.84  0.001104603    1.743    0.426
        31 -12.9886     64.0963     34.0488   4.0616302958e+01   6.4715721646e+01     2.378506     1.949658  40.41   0.01272791    1.242    0.195
        32 -10.7979     93.4785     16.3159   2.2913082205e+01   5.9912832696e+01    0.4410153    0.1953696  52.36  0.001450897    2.224    0.550
        33 -10.7440    150.1028     13.0752   1.3703724441e+01   4.5758903414e+01    0.2520559    0.1739137 -45.39 0.0007994755    1.298    0.229
        34 -10.4151    187.0957     12.9213   1.0869049204e+01   3.7219025834e+01    0.2725683    0.1098455 -59.16  0.001054924    2.159    0.537
        35 -11.6497    115.8623     10.2335   1.6503991459e+01   5.4720865166e+01    0.4184498     0.313689   6.17  0.001490668    1.851    0.460
        36 -10.4383    109.3284     10.2279   1.7425403796e+01   5.6422767273e+01    0.3518351     0.253114 -65.84    0.0018917    1.319    0.242
        37  -9.6287    212.3250     11.7717   9.2117521902e+00   3.2131974478e+01    0.2389923    0.1029425 -63.25  0.001244752    2.008    0.502
        38 -10.9484    131.8982      9.8927   1.4444764460e+01   5.0630246679e+01    0.4883269    0.2933549 -59.00  0.001404319    1.523    0.344
        39  99.0000    124.9658      9.2106   1.4972144596e+01   5.2469798614e+01    0.2870567    0.2668214 -22.03  0.001782392    1.298    0.230
        40 -10.4519     93.8803     11.6739   2.0684587561e+01   6.0311828293e+01    0.2021324    0.1837553 -87.51 0.0002764341    1.036    0.035
        41 -10.3206     87.8277     11.5214   2.1847692749e+01   6.1902598765e+01    0.3034717    0.2178402  89.14  0.001588749    1.354    0.262
        42 -12.9198     59.1555     60.8053   5.4640541680e+01   6.0397690332e+01     1.980277     1.235882 -87.48  0.007123628    3.035    0.671
        43 -11.5025    193.4063      7.6980   9.1713259823e+00   3.6411233601e+01    0.3228426    0.2291503 -19.51  0.001982351    1.714    0.417
        44 -11.0212     26.3853      9.8751   4.6519272593e+01   7.6459753779e+01    0.2699282    0.2094676   9.08  0.001541452    1.444    0.308
        45  -9.8635    145.9867      7.0679   1.2137828744e+01   4.7380311248e+01    0.3431613    0.2165879 -11.20  0.001740388    2.132    0.531
        46  -9.3226    165.4454      8.4699   1.1069223040e+01   4.2564789884e+01    0.1320005    0.1036475 -63.77 0.0001650859    1.017    0.016
        47  -9.2989    156.5129      7.4636   1.1419737281e+01   4.4780963325e+01    0.1348481    0.1056278 -66.03 5.735387e-05    1.037    0.035
        48  -9.8687     12.8203      7.3857   5.6863874592e+01   7.9096452757e+01    0.1594128    0.1380152  11.12 0.0005797125    1.058    0.055
        49 -11.2391      2.7679      5.9608   6.7783291237e+01   8.0578391876e+01    0.2555746    0.2330538   1.09 0.0008650789    1.070    0.065
        50  -9.3866    210.8003      5.9607   7.9320672071e+00   3.3031117670e+01    0.1498232    0.1225832  -3.24  0.000500489    1.808    0.447
        51 -10.4647    120.8363      4.7324   1.3753217070e+01   5.3957932225e+01    0.2915895     0.172806 -45.58 0.0009437985    1.576    0.365
        52 -10.5111    111.5571      4.3682   1.4706980457e+01   5.6396055578e+01    0.2578393    0.1946459  70.86  0.001182773    1.239    0.193
        53  -9.4928     97.6357      5.0158   1.6958255108e+01   5.9974519127e+01    0.1788891    0.1560674 -70.77 0.0005086046    1.089    0.082
        54  -5.3642    183.4933      3.8742   8.7009326000e+00   3.8931535585e+01    0.2812459    0.1499722 -59.62  0.001081871    1.507    0.336
        55 -10.5488    187.2517      1.4772   7.8881678681e+00   3.8345461548e+01    0.3471396    0.1385268 -89.75  0.001356074    2.456    0.593
        56 -11.2178    217.0995      2.3605   6.8583396810e+00   3.2164182445e+01    0.3082663    0.1848858 -89.27  0.001677895    1.657    0.396
        57 -10.1743    207.3574      2.4366   7.2502726066e+00   3.4066291160e+01    0.2077476     0.101212 -24.91  0.001104634    2.151    0.535
        58  -9.9487    143.1651      2.6806   1.0931144415e+01   4.8492125351e+01    0.2143258    0.1307991 -77.24  0.000909003    1.452    0.311
        59  -9.1207     93.4085      3.6108   1.6992171084e+01   6.1204465898e+01    0.1361618    0.1158916  64.32 -0.0001541599    1.153    0.133
        60  -9.7005     19.2371      3.6497   4.7187286318e+01   7.8681369490e+01    0.1149469    0.1000997 -72.81 0.0004688593    1.569    0.363
        61 -12.1614     85.9607      1.3964   1.7190108872e+01   6.3336056722e+01    0.4699474     0.121218  71.22  0.001203883    3.226    0.690
        62 -10.0954    250.2431      1.4460   5.6097616856e+00   2.6330813493e+01    0.1284578   0.07328456 -63.16 0.0003471759    1.383    0.277
        63 -11.9940    210.6017     47.4463   1.7650544624e+01   2.8259112927e+01     0.554036     0.298974 -71.45  0.002790015    2.070    0.517
        64  -9.9122     15.5729    238.5046   9.4893625011e+01   2.0636771992e+01    0.1195152    0.0936918  42.25 7.418888e-05    1.042    0.041
        65 -12.1007    209.1887     58.3898   2.0327413654e+01   2.7064559331e+01    0.4185119    0.2533816 -64.51  0.002346091    1.662    0.398
        66  -9.6781    101.1104    176.1006   6.7370556452e+01   2.4411719844e+01    0.1788564    0.1530212  54.46 0.0009865769    1.213    0.175
        67  -9.5082    236.8157    146.1120   3.5303060070e+01   1.0003764875e+01    0.1518016    0.1065288 -19.86 0.0003835684    1.276    0.216
        68 -11.3694    215.4245     42.0068   1.6005294986e+01   2.8036190616e+01    0.2876821    0.2006172 -61.72 0.0007804968    1.230    0.187
        69  -9.7266    152.7837    124.0379   4.4591212273e+01   2.6922404814e+01    0.1934826    0.1703947 -44.18  0.001085359    1.057    0.054
        70  -9.2123    206.7339    122.3697   3.4796606790e+01   1.7811156742e+01    0.1263442   0.08543564 -56.20 0.0006989713    1.661    0.398
        71 -10.2360    219.7156    121.3881   3.2812151138e+01   1.5967160917e+01    0.1950845    0.1206594  54.48  0.001139138    2.126    0.530
        72  -8.9006    232.6357     96.6988   2.6275085024e+01   1.7634986763e+01    0.1117196   0.08506332  -5.63  0.000703516    1.729    0.422
        73 -12.3892     48.4897     95.1814   6.9978693913e+01   5.3479928268e+01    0.4509845    0.3218671  47.18  0.002010596    1.405    0.288
        74 -10.4472    249.7808     94.2421   2.4074688731e+01   1.5439994438e+01    0.2349306    0.1469416 -48.90 0.0008437249    1.371    0.271
        75 -12.1697    116.7067     93.5192   4.5373287595e+01   4.0736168239e+01    0.4054732    0.3334844 -45.59 0.0008686719    1.211    0.175
        76 -13.0231    177.8133     73.6570   2.7748963624e+01   3.1061957868e+01     2.008262    0.4737963 -42.14  0.006652427    3.352    0.702
        77 -13.8881    209.7946     76.9520   2.4527824992e+01   2.4313378546e+01     1.246798    0.6812837 -68.90 0.0003737497    2.550    0.608
        78 -10.3426     89.1257     93.9379   5.3773881424e+01   4.6529573128e+01    0.2315998    0.2214547 -71.37 0.0002846039    1.043    0.041
        79 -10.0350    172.9682     91.2923   3.2943141306e+01   2.9106035806e+01    0.2973431    0.1927675 -68.73  0.001411416    1.933    0.483
        80 -10.5999    167.8542     89.9554   3.3458347593e+01   3.0383629496e+01    0.3327606    0.2134339  66.07 0.0008323513    1.824    0.452
        81 -11.3935     96.2696     90.7194   5.0510117145e+01   4.5798891296e+01    0.4981806    0.4145327  62.41  0.001439333    1.216    0.178
        82 -10.4076     79.6237     90.8954   5.6225129315e+01   4.9185966490e+01    0.2500324    0.2220611  17.84 0.0004377891    1.313    0.239
        83 -10.8361    181.5106    117.4209   3.7666397760e+01   2.2884273989e+01    0.4710875    0.1886418 -46.19  0.001930356    2.298    0.565
        84 -12.1153     85.2991     73.1467   4.8619548300e+01   5.2179059848e+01    0.9037704    0.6574047  50.74  0.003286789    1.361    0.265
        85 -13.1435      4.7027     54.6924   8.5117043368e+01   6.9037813296e+01     1.080424    0.7275283 -63.13  0.003232483    1.359    0.264
        86 -10.3168    203.7362    115.9350   3.3881626342e+01   1.9326705512e+01    0.3134885     0.183391  68.95  0.001506719    2.884    0.653
        87 -13.0047     66.8052     83.0932   5.8869328737e+01   5.3596275430e+01     1.061989    0.7449994  74.83  0.003118957    1.833    0.455
        88  -9.6689     73.0081    118.9814   6.5648561892e+01   4.3145199864e+01    0.2380594    0.1769039  67.92  0.001069215    1.494    0.331
        89 -10.8923     89.6174    114.7060   5.9030482664e+01   4.1292222053e+01     0.328317    0.2547115  64.25  0.001530186    1.393    0.282
        90 -11.2578    137.9493    112.6854   4.5166935217e+01   3.2143339791e+01    0.4309268    0.2275445  34.34   0.00168347    2.465    0.594
        91  -9.3139    242.4878    112.4024   2.8320355445e+01   1.3989057557e+01    0.1141483   0.08666003 -36.87 6.114245e-05    1.025    0.025
        92  -9.6583    174.2192    111.5037   3.7577679140e+01   2.5272109069e+01    0.1685466    0.1319212  31.42 0.0003722423    1.544    0.352
        93 -10.7180     38.4576    110.0368   7.7357713153e+01   5.0672579764e+01    0.2400785    0.1462761 -70.19 0.0005566833    1.586    0.370
        94 -11.1719    195.9103    107.9129   3.3282132490e+01   2.1961289358e+01    0.3640406    0.2633252 -58.23  0.001217066    1.455    0.313
        95 -11.3098    191.2995    102.7282   3.2801851075e+01   2.3642050272e+01    0.4745178    0.1613365 -47.84    0.0017756    2.895    0.655
        96 -12.0135    161.9241    107.2037   3.8800026144e+01   2.8429382782e+01    0.4608622    0.2080199 -50.31  0.001838618    2.228    0.551
        97  -9.8951    217.7036    108.0580   3.0347981694e+01   1.8301937256e+01    0.1755873    0.1301883 -37.31 0.0003688002    1.080    0.074
        98 -13.1308     46.1872     55.1470   5.8876085631e+01   6.4077477385e+01     1.494413    0.8963433 -21.07  0.004630165    3.011    0.668
        99 -12.7164     34.8371     52.6506   6.4366853661e+01   6.6482078338e+01     0.681362    0.6219741  27.73  0.002375537    1.098    0.089
       100  -9.2162     86.6539     89.6702   5.3378598443e+01   4.8063823723e+01    0.1602839    0.1286042  -8.62 0.0007050048    1.757    0.431
       101 -11.0814    152.9214    108.1385   4.0797827273e+01   3.0043300648e+01    0.2246736    0.2015685 -56.55 0.0004992477    1.055    0.052
       102 -11.9751    237.5639     86.3168   2.3661936780e+01   1.8323413245e+01    0.4643143    0.2782668  79.26  0.001924801    2.519    0.603
       103 -11.2202    231.0175     83.5096   2.3724353184e+01   1.9744549930e+01    0.2482297    0.1568797 -66.84 0.0003624868    1.894    0.472
       104 -11.9698    222.0984     88.3427   2.5673403183e+01   2.0515818801e+01    0.3368979    0.2004953  59.88  0.001974469    2.113    0.527
       105 -10.7645    225.7464     85.0587   2.4585944884e+01   2.0384556101e+01    0.1909439    0.1335845 -50.86 0.0006051235    1.227    0.185
       106 -11.7605    161.4953     84.5823   3.3163598325e+01   3.2669286344e+01    0.7644571    0.4292932  46.11  0.003457806    2.103    0.524
       107 -12.2608    168.4339     79.5267   3.0679845164e+01   3.2068513329e+01    0.5815781    0.3558023 -48.11  0.001341852    1.452    0.311
       108 -11.5478    147.5282     83.2396   3.5383972164e+01   3.5956577089e+01    0.6465476    0.3843555 -45.09  0.002572429    1.546    0.353
       109 -10.2214     30.9729     85.2431   7.6012767634e+01   5.8508809240e+01    0.2692169    0.2084201 -69.77 0.0006525458    1.245    0.197
       110 -12.7350    202.4116     59.8047   2.1332566816e+01   2.8170118071e+01    0.7310725    0.3739357 -59.12  0.003610563    1.985    0.496
       111 -12.4763     83.3374     83.9967   5.2827255673e+01   5.0102772089e+01    0.3251362    0.2751435  48.71 0.0004220686    1.179    0.152
       112 -10.7283    250.5424     82.1842   2.1656999174e+01   1.6922391564e+01     0.295055    0.1035114 -33.93  0.001219616    2.204    0.546
       113 -11.9749    114.5032     80.5345   4.2130457089e+01   4.3991568692e+01    0.5644001    0.5102594 -57.05  0.002768919    1.078    0.072
       114 -11.4854    103.8655     75.6202   4.3527607398e+01   4.7462044123e+01    0.7508221    0.4334289 -24.21   0.00258549    3.144    0.682
       115 -11.5867     94.0471     60.7806   4.1354607943e+01   5.2781948334e+01    0.6658521    0.3314409 -50.60  0.002444142    2.096    0.523
       116 -11.0786     88.6185     58.1753   4.2108326520e+01   5.4572927393e+01    0.3656155     0.295541  78.97  0.001085705    1.309    0.236
       117 -11.0573     87.9517     46.2843   3.7608555373e+01   5.6957119245e+01    0.3166435    0.2783779  15.95  0.000199882    1.424    0.298
       118 -13.4656     99.6575     79.1171   4.5904018072e+01   4.7670952784e+01     1.611165    0.8476188 -48.76  0.006390535    1.883    0.469
       119 -12.0920     96.1878     68.1664   4.3327382682e+01   5.0789252990e+01    0.6049643    0.3550158 -57.91  0.002469869    1.893    0.472
       120 -12.1098     87.8526     64.6059   4.4747728813e+01   5.3446769779e+01     1.002623    0.5930825  74.92  0.003653629    2.658    0.624
       121 -13.0550     80.0616     59.0004   4.5370861164e+01   5.6376352466e+01    0.8196746    0.5793706  42.23  0.001680869    1.473    0.321
       122 -11.9295     75.9467     51.9950   4.4097859188e+01   5.8717477014e+01    0.3566632    0.2834276 -58.96 0.0003153462    1.310    0.237
       123 -11.9801     75.4227     42.0360   4.0007171837e+01   6.0704424242e+01    0.4919119     0.372694 -47.69  0.001125113    1.360    0.265
       124 -12.5310     81.8411     40.5367   3.7117234344e+01   5.9433737963e+01    0.5676093    0.3813948  57.74  0.001696048    1.418    0.295
       125 -11.5486    203.5442     79.0025   2.5714360205e+01   2.5155201176e+01    0.2400801    0.2241317  42.66  0.001626578    1.365    0.267
       126 -11.3242    199.7746     76.2093   2.5513206884e+01   2.6283967905e+01    0.2630004     0.232449 -56.04  0.001158487    1.094    0.086
       127 -10.4361    232.2784     78.9892   2.2658284311e+01   2.0166068589e+01    0.2349286    0.1588044  83.91  0.001483774    1.965    0.491
       128 -10.1542    161.9265     77.5030   3.1207003467e+01   3.3813576530e+01    0.1902258    0.1396384  65.97 -0.0003105626    1.470    0.320
       129 -10.4560    155.7462     76.7666   3.2067359724e+01   3.5300047418e+01    0.3292307    0.2286278  82.18  0.001445382    1.698    0.411
       130 -11.7295    249.8494     75.0199   2.0304826756e+01   1.7955334694e+01    0.2731418     0.161019 -36.10 0.0004594413    1.277    0.217
       131 -10.5031    249.2940     68.3512   1.9025848073e+01   1.8894078771e+01    0.3310772    0.1415371 -37.00  0.001324531    1.676    0.403
       132 -11.1437    241.3066     71.7717   2.0359143075e+01   1.9691757240e+01     0.462116    0.2452457 -51.82  0.002756451    1.612    0.380
       133  -9.7146    151.1921     72.7822   3.1764124731e+01   3.7018603285e+01    0.1854435    0.1615605 -27.28 0.0005200701    1.306    0.234
       134 -12.1021    145.5534     66.9663   3.1103773634e+01   3.9323483198e+01    0.8810777    0.6854137   5.24   0.00291391    2.015    0.504
       135 -11.7962    154.3844     62.7255   2.8336987682e+01   3.7987934850e+01    0.8180535    0.4340405 -47.11  0.003413804    1.700    0.412
       136 -11.3438    143.3413     60.6966   2.9625458471e+01   4.0906121979e+01     1.407959    0.4760302  45.60  0.004155973    4.668    0.786
       137  -9.8631    145.4822     53.6101   2.7086927133e+01   4.1544372616e+01     1.132407    0.5132048  42.48  0.003877581    3.574    0.720
       138 -11.8439    135.0906     72.1991   3.4718091529e+01   4.0835755956e+01    0.9307744    0.6005191  84.12   0.00403686    2.004    0.501
       139 -11.6619    123.9501     69.3439   3.6285986465e+01   4.3995247459e+01    0.5628774    0.3715558  79.10  0.001745538    1.828    0.453
       140 -11.4432    162.0029     57.4986   2.5668608406e+01   3.7072515421e+01     0.733856    0.5178258   4.16  0.003329519    2.595    0.615
       141 -10.9777    159.6017     53.9094   2.4990537924e+01   3.8174158225e+01    0.9635934    0.4979845 -19.55  0.003625152    3.230    0.690
       142 -12.1847    112.5311     67.8432   3.8592038059e+01   4.7002600887e+01    0.5240514    0.4068748  63.75 0.0007690022    1.283    0.220
       143 -13.7755    117.3204     61.5270   3.5286087362e+01   4.7037463960e+01     0.851824    0.6510922  66.51  0.001763988    1.297    0.229
       144 -12.6929     81.3995     49.7987   4.1223126351e+01   5.7880925906e+01    0.6753805    0.6011087   5.72  0.003543763    1.399    0.285
       145 -12.4102    128.0530     58.1872   3.1785221222e+01   4.5012814807e+01    0.4545132    0.3062161  44.87  0.002115723    1.745    0.427
       146 -10.9094     99.4148     47.7271   3.4843592105e+01   5.3891087655e+01    0.3423539    0.2844217   4.31  0.001084402    1.663    0.399
       147 -11.5864    100.4465     54.1728   3.7021055468e+01   5.2496766470e+01     1.049496    0.4769565  63.29  0.003813934    2.455    0.593
       148  -7.9390    107.1983     53.4014   3.4932929281e+01   5.0976847263e+01       0.4925    0.2670543 -74.82  0.001599415    3.521    0.716
       149 -10.6533    174.6889     55.5603   2.3414325197e+01   3.4527712734e+01    0.3518095    0.1681261 -51.20 0.0007305078    1.899    0.473
       150 -10.0630    170.5012     56.2207   2.4134935019e+01   3.5354020682e+01    0.2355158    0.1819035  79.31 0.0008485581    1.345    0.257
       151 -10.5892     70.1187     55.4160   4.7770529863e+01   5.9318320809e+01    0.3192967     0.259933  69.10  0.001368589    1.299    0.230
       152 -10.6931    206.3647     52.6312   1.9243248793e+01   2.8389354544e+01    0.2690139    0.1924614  43.62  0.001581948    2.006    0.501
       153 -10.5209    136.0484     52.8701   2.8498457854e+01   4.3944064174e+01    0.4760845    0.2012761  65.55   0.00181678    2.468    0.595
       154 -11.3830     90.4541     51.0933   3.8774258646e+01   5.5485622681e+01    0.2533601    0.2236731  67.67   0.00133733    1.084    0.077
       155 -11.3455    246.6538     49.4987   1.5423546842e+01   2.1653206310e+01    0.3685518    0.2906428  48.20  0.002705048    1.884    0.469
       156  -9.7405    167.5605     42.0464   2.0554078556e+01   3.8058036116e+01    0.3263698    0.1354649 -39.69  0.001408608    2.022    0.505
       157  99.0000    168.7304     33.7310   1.8062376016e+01   3.8894976752e+01    0.6325696    0.5425758  12.75   0.00375389    1.680    0.405
       158 -12.3841    173.0744     44.7370   2.0663256616e+01   3.6437004584e+01    0.6571651    0.4578125  36.58  0.002441145    2.169    0.539
       159 -11.7203    178.0179     37.5884   1.8177129628e+01   3.6295714242e+01    0.3306212    0.2653508 -14.35 0.0008699746    1.625    0.385
       160 -11.8068    160.8739     36.4532   1.9726561069e+01   4.0367461556e+01    0.3679256    0.3548737 -57.77  0.002337394    1.230    0.187
       161 -11.0982    246.7485     42.0775   1.3911780280e+01   2.2525152674e+01    0.3038876    0.1514871 -53.30  0.001432782    1.575    0.365
       162 -11.3813    144.1891     45.3742   2.4728348847e+01   4.3115371587e+01    0.7834831    0.4126252  70.17  0.002222212    1.933    0.483
       163 -12.4741    148.9043     40.6611   2.2549513219e+01   4.2651008606e+01     0.647238    0.3204438 -44.27  0.002902601    1.790    0.441
       164 -10.6023    126.2582     44.0460   2.7372767053e+01   4.7752448214e+01    0.4615336    0.2452147 -48.04  0.001679962    1.802    0.445
       165 -10.8322     41.0201     44.6839   5.7363408461e+01   6.7317493528e+01    0.3735324    0.3052149  56.39  0.001977674    1.318    0.241
       166 -11.1476     39.8175     39.5247   5.5669007326e+01   6.8627766390e+01    0.9773234     0.467063  23.46  0.003321431    3.487    0.713
       167  -9.8147    121.0520     44.8182   2.8664186669e+01   4.8941450992e+01    0.3148853    0.1489071 -57.45  0.001164338    2.543    0.607
       168 -10.6518     93.6993     43.0080   3.4543783451e+01   5.6107904640e+01    0.3529451    0.2663876 -24.77  0.001439828    1.596    0.373
       169 -10.1081    156.1660     41.5102   2.1818377323e+01   4.0790782121e+01    0.3518735    0.1623995 -55.35  0.001469721    2.162    0.537
       170  -9.7865    105.1625     43.1971   3.1600041899e+01   5.3206144185e+01    0.2055372      0.16112 -84.57 0.0007551574    1.309    0.236
       171 -10.4045    100.3270     41.3095   3.2065994483e+01   5.4727036787e+01    0.3027593    0.2750614   2.17  0.001642714    1.379    0.275
       172 -10.7764    133.1203     39.9242   2.4737561995e+01   4.6644713404e+01    0.4053814    0.2062208  67.12  0.001353433    1.920    0.479
       173  -9.9556    210.1106    105.6719   3.0820785903e+01   1.9900762103e+01    0.2216089    0.1779121 -55.39  0.001002177    1.240    0.193
       174 -10.3207    134.2712     35.6937   2.3116732224e+01   4.6953407181e+01    0.2262155    0.1715592 -70.68 0.0001942387    1.232    0.188
       175 -10.5734    131.2646     33.2875   2.2766565614e+01   4.8038810408e+01    0.3415899    0.1726498 -52.94 0.0009080577    1.947    0.486
       176 -11.7041    122.7398     33.6946   2.4341283399e+01   5.0148158698e+01    0.3945722    0.2074132 -48.37 0.0004918567    1.829    0.453
       177 -10.4552    123.7271     26.7596   2.1639714035e+01   5.0812908375e+01    0.5037204    0.2268806 -45.12  0.002114559    2.077    0.519
       178 -11.0542    114.5595     28.0049   2.3683527614e+01   5.3012267499e+01    0.2441815    0.2003273  58.63  0.000215243    1.267    0.211
       179  -9.9203    109.8646     36.1693   2.7790455643e+01   5.3089596249e+01    0.2479173    0.2365315  77.96 0.0004094027    1.122    0.109
       180 -10.8206    112.9932     32.5522   2.5741810570e+01   5.2803033818e+01    0.3238531    0.2696546 -22.17 0.0003484072    1.425    0.298
       181  -9.7646    108.6801     32.2890   2.6519236057e+01   5.3948377600e+01     0.600158    0.2780674  86.59  0.001974646    3.481    0.713
       182 -11.1463     92.2777     33.8292   3.1059934196e+01   5.7916838808e+01    0.4581494    0.2999036  40.89  0.002107863    1.792    0.442
       183 -10.6808     74.9107     34.0120   3.6476190015e+01   6.2185357123e+01    0.2883923     0.263039  38.92 0.0007918089    1.172    0.147
       184 -10.9923    161.0519     40.5493   2.0909181891e+01   3.9771847773e+01    0.2883611    0.2083504  48.95 0.0004376913    1.723    0.420
       185 -13.8958    243.8542     61.5326   1.8067403553e+01   2.0609325446e+01     1.587909     1.016858  48.08  0.006315121    2.303    0.566
       186  -9.8895    239.6870     30.3655   1.1901959937e+01   2.5061132959e+01    0.3370973    0.2021554  73.95  0.002234601    2.002    0.500
       187  -9.3557    154.3575     30.2677   1.8631163780e+01   4.2723416385e+01    0.1293584    0.1013898  45.30 0.0006991817    1.637    0.389
       188 -11.2663     86.3123     28.6130   3.0359805015e+01   6.0185086011e+01    0.4480618    0.2505082  54.42  0.001141945    1.688    0.407
       189  -9.2995     90.4265     26.8103   2.8432315188e+01   5.9390891441e+01    0.1837916     0.142844 -36.87 0.0004268434    1.362    0.266
       190 -10.1555    162.7334     29.0361   1.7334352099e+01   4.0883963889e+01    0.2119366      0.14464 -59.35 0.0005541375    1.265    0.209
       191  -8.9403    104.4366     27.4207   2.5440024004e+01   5.5704860667e+01    0.1449728    0.1279203 -85.44 0.0001056493    1.028    0.027
       192 -12.4645     75.5328    103.4189   6.1107826811e+01   4.6792799048e+01    0.5323161    0.3272654 -64.39  0.001393857    1.702    0.412
       193 -10.0790    168.4357     26.6622   1.6075691799e+01   3.9845170977e+01     0.283036    0.1555925 -68.96   0.00138458    1.779    0.438
       194  -9.7493    144.6361     26.3215   1.8550120250e+01   4.5590783236e+01    0.2837006    0.1089257 -60.13 0.0009950239    3.142    0.682
       195 -10.5980    148.3748     24.3822   1.7481715411e+01   4.4905684969e+01    0.3331828    0.2751795  13.72  0.001154343    1.736    0.424
       196 -10.8162     20.8326     25.1587   6.1520027970e+01   7.4588736285e+01    0.4530057    0.3055747  45.90  0.002359579    1.625    0.385
       197 -10.2923     20.1101     19.3163   5.8581630280e+01   7.5852829599e+01    0.2584894    0.2109677  64.56  0.001472077    1.589    0.371
       198 -10.8329    234.2406     24.3008   1.0908951902e+01   2.6689573373e+01    0.3045616    0.2237654  83.79  0.001827914    1.561    0.359
       199 -11.1991    144.5824    103.1629   4.1297332290e+01   3.2735137584e+01    0.3493572    0.3184577  17.45  0.001391964    1.295    0.228
       200 -10.8506    246.9439     22.5542   9.9433693943e+00   2.4705673602e+01    0.1864487    0.1747093 -52.83 0.0009977259    1.414    0.293
       201 -11.7413    242.4739     22.6660   1.0168912952e+01   2.5444745227e+01    0.2963902    0.1940108  72.83  0.001444437    1.889    0.471
       202 -10.9732    239.2711     20.6518   9.8993096960e+00   2.6212782910e+01    0.2179402    0.1055398 -41.93 0.0006428665    1.425    0.298
       203  -9.1852    153.3049     25.2770   1.7210393199e+01   4.3596090080e+01    0.1235067    0.1026181  44.72  0.000213131    1.547    0.354
       204 -10.7017    135.4304     24.7019   1.9192015403e+01   4.8089600113e+01    0.2864327    0.2027998 -68.54  0.001514157    1.306    0.234
       205 -10.1031    113.9870     23.7646   2.2132964957e+01   5.3698713611e+01    0.2608492    0.1751899 -85.08 0.0005196793    1.496    0.332
       206 -14.1652    133.1501     97.4931   4.2371206264e+01   3.6312957799e+01     1.609523    0.9308875  37.31  0.006663695    2.153    0.536
       207  -9.7517    103.3778     19.2622   2.2228864247e+01   5.6997158532e+01    0.2138754    0.1709928 -21.00  0.000266403    1.468    0.319
       208  -9.1228    102.6998     23.3095   2.4080571166e+01   5.6683531255e+01    0.2262782    0.1740908 -56.15 0.0006140825    1.279    0.218
       209 -10.4396     98.4381     22.1284   2.4463486042e+01   5.7935852122e+01    0.3889885     0.214871  54.50  0.001110109    1.764    0.433
       210 -10.0912    119.3894     21.9541   2.0534489250e+01   5.2520826438e+01    0.2329695    0.1731725 -81.52 0.0006095261    1.261    0.207
       211  -9.7000    163.3260     20.8937   1.4879214869e+01   4.1719146035e+01    0.1746218    0.1384595 -51.37 0.0003297026    1.115    0.103
       212 -10.0669    150.9837     20.6457   1.6011633900e+01   4.4707312980e+01    0.1948321    0.1522051 -81.38  0.001126626    1.135    0.119
       213  -9.6888    123.9863     20.7407   1.9380776159e+01   5.1479406637e+01    0.1931931    0.1569964 -85.68  0.001081316    1.096    0.088
       214 -11.4004    141.0884     95.9724   4.0176824472e+01   3.4911797437e+01    0.4947236    0.3746877 -82.27   0.00179418    1.594    0.373
       215 -12.2765    133.9782     88.0366   3.9578521435e+01   3.8051086248e+01     1.019389    0.6273303  35.61  0.004293141    2.173    0.540
       216 -10.8106    130.0924     19.3162   1.8016552450e+01   5.0080112452e+01    0.2762534    0.1966636  78.00 0.0004639003    1.303    0.232
       217 -12.0116    127.7857     89.8039   4.1518528692e+01   3.9072897695e+01    0.4870243    0.4164183  75.36 0.0009839475    1.212    0.175
       218 -10.9232    193.7421     17.4060   1.1603615082e+01   3.5308650616e+01    0.2716782    0.1538475 -54.43 0.0008768308    1.391    0.281
       219  -9.8814    138.9074     18.0339   1.6484505391e+01   4.7994255969e+01    0.1618058    0.1558114 -23.73 0.0003673038    1.286    0.223
       220 -14.1429    122.6295     85.7993   4.1624734258e+01   4.1052994192e+01     1.768294     1.382659 -31.83  0.006998017    1.447    0.309
       221 -10.1305    121.9055     17.0353   1.8295268430e+01   5.2438023965e+01    0.2100501    0.1772613 -76.29 0.0004337121    1.036    0.035
       222  -9.4242    125.0000     15.9893   1.7481342947e+01   5.1756275945e+01    0.1752504    0.1162094 -31.86 0.0004353544    1.565    0.361
       223  -9.9630    153.9877     16.0480   1.4277246536e+01   4.4493936897e+01    0.1957476    0.1780298  71.26  0.001234109    1.279    0.218
       224 -11.3673    132.9725     77.4957   3.6755674116e+01   4.0335870863e+01    0.2693375    0.2435957 -75.05 0.0003213143    1.038    0.037
       225  -9.2077     11.2916     14.2836   6.3681642421e+01   7.8010742792e+01    0.1291086   0.09184079 -16.27 0.0002816949    1.534    0.348
       226 -12.1659    136.9377     80.9737   3.6914093980e+01   3.8763508662e+01    0.5603648    0.4240557  69.88 0.0006153263    1.404    0.288
       227  -9.3338    159.9758     13.7645   1.3052846717e+01   4.3303881406e+01     0.150989   0.09933697  84.23 0.0002217302    1.430    0.300
       228  -9.4557    141.2730     13.0078   1.4536283571e+01   4.7947974485e+01    0.1663061    0.1121118 -33.70 0.0008851794    1.489    0.328
       229 -11.2532     96.2205    102.0931   5.3714875904e+01   4.3114750109e+01    0.4015261    0.2143863 -49.07   0.00157526    1.858    0.462
       230 -10.0593    214.5294    102.5061   2.9579162523e+01   1.9659200454e+01    0.1256982    0.1007007 -39.53  0.000106294    1.013    0.013
       231 -12.5202     71.5087     73.0677   5.3749317394e+01   5.5110928140e+01     1.195601    0.6849158  57.24  0.001840197    2.024    0.506
       232 -10.5816    165.0639    102.0028   3.6951216682e+01   2.8775490247e+01    0.2241508    0.1962645 -49.76 0.0007831404    1.025    0.025
       233  -9.3552    155.6530     12.6170   1.3068920858e+01   4.4460448188e+01    0.1312362    0.0955358  39.28 0.0006992548    1.924    0.480
       234 -10.2035    244.7717     98.0031   2.5288476741e+01   1.5649060959e+01    0.2369205    0.1043704 -30.64  0.001232903    1.994    0.499
       235 -11.1127    158.9025     99.1223   3.7379697932e+01   3.0556907315e+01    0.2907803    0.2633956  37.99 0.0003035986    1.267    0.210
       236 -12.4052    155.6424     95.7670   3.7148211259e+01   3.1862147991e+01    0.7702382    0.5974821  33.25  0.002357975    1.604    0.377
       237 -11.5157     33.7193    100.5562   7.7751354667e+01   5.3911903318e+01    0.3168801    0.2694086  34.26  8.01759e-05    1.195    0.163
       238 -11.4533    102.1237     96.1503   5.0257790928e+01   4.3293992104e+01    0.3018364    0.2923464  63.86 0.0007588218    1.070    0.065
       239 -12.4813    106.8543     96.6425   4.8994827603e+01   4.2174179776e+01    0.5331573    0.3554447 -27.40  0.001689627    2.092    0.522
       240 -12.3002    107.5032     92.4920   4.7629693690e+01   4.2973156414e+01    0.5535965    0.2846188  42.66  0.001821176    2.057    0.514
       241  -9.1966    100.7189     10.6339   1.8968397671e+01   5.8631849386e+01    0.1390036    0.1001823  37.53 0.0007014629    1.685    0.407
       242 -12.8772     85.7774     98.8020   5.6264312771e+01   4.6013617773e+01     0.776533    0.4010451  36.03  0.002939948    2.087    0.521
       243 -11.8664    225.9353     97.5119   2.7176012209e+01   1.8562873327e+01    0.3492506    0.2125802 -48.28  0.001894444    1.414    0.293
       244 -10.7581    169.6868     97.5456   3.5038876198e+01   2.8661819362e+01    0.4681557    0.3239543  85.17  0.002276381    2.007    0.502
       245 -13.2615     56.5963     94.6627   6.6343052485e+01   5.2373018105e+01    0.7437823    0.4267817  63.97  0.001703986    2.376    0.579
       246 -13.1219     61.7317     90.4072   6.3068901644e+01   5.2639562672e+01    0.9311385    0.4110135 -64.40  0.002991271    2.553    0.608
       247 -12.1256     57.9420     89.0859   6.4311707047e+01   5.3630922705e+01    0.3657403    0.3192158 -18.05 0.0009752588    1.355    0.262
       248 -10.3684     17.3812     95.2231   8.4593252623e+01   5.7031639903e+01    0.3770968    0.2046604  83.83  0.001053253    2.026    0.507
       249 -11.6237     12.0091     97.3089   8.7476844468e+01   5.6844488637e+01    0.3523253    0.3342223   9.05  0.001055746    1.150    0.131
       250 -11.2251     13.5234     93.5463   8.6259190811e+01   5.7805959002e+01    0.2667305    0.2408665  50.33 7.369809e-05    1.117    0.105
       251 -10.7092     36.4044    248.7887   9.0518763179e+01   1.6800344313e+01    0.1448187    0.1071958 -62.80 0.0009622304    1.722    0.419
       252 -14.3224    193.5828     87.4866   2.8953874261e+01   2.5706324226e+01     2.125198     1.232139  55.08   0.01111123    2.015    0.504
       253 -11.2924    113.6602    246.2638   7.3120779671e+01   9.2424943019e+00    0.2699588    0.1894524 -26.77  0.001260081    1.628    0.386
       254 -13.3627    192.2567     75.8595   2.6357999073e+01   2.7789256903e+01    0.6999111    0.6172528  -0.75  0.001829128    1.485    0.327
       255 -13.0073    185.2616     58.4622   2.2886352238e+01   3.1832251262e+01     1.282709    0.4812486 -51.72   0.00117665    2.596    0.615
       256 -10.3521    180.7530    243.5812   5.9642016521e+01   2.6120016690e+00     0.146385   0.08406834  29.94 0.0009507338    1.666    0.400
       257  -9.5903    218.3380    239.6824   5.2869980666e+01  -3.9118715954e-01   0.08441085    0.0756129  12.52 0.0004931604    1.704    0.413
       258 -10.7280     88.2009    238.8292   7.8007323724e+01   1.3301220285e+01    0.1641487    0.1296983   1.98 0.0005038697    1.319    0.242
