#   1 NUMBER                 Running object number                                     
#   2 MAG_AUTO               Kron-like elliptical aperture magnitude                    [mag]
#   3 X_IMAGE                Object position along x                                    [pixel]
#   4 Y_IMAGE                Object position along y                                    [pixel]
#   5 X_WORLD                Barycenter position along world x axis                     [deg]
#   6 Y_WORLD                Barycenter position along world y axis                     [deg]
#   7 A_WORLD                Profile RMS along major axis (world units)                 [deg]
#   8 B_WORLD                Profile RMS along minor axis (world units)                 [deg]
#   9 THETA_WORLD            Position angle (CCW/world-x)                               [deg]
#  10 FWHM_WORLD             FWHM assuming a gaussian core                              [deg]
#  11 ELONGATION             A_IMAGE/B_IMAGE                                           
#  12 ELLIPTICITY            1 - B_IMAGE/A_IMAGE                                       
         1 -13.7978    248.7354     84.9299   1.4058599167e+01   1.3652927719e+01     2.080607    0.3131868 -39.29  0.005980771    5.525    0.819
         2 -15.5952    247.8724     30.2377   3.6205820861e+00   2.1411050510e+01     6.215149    0.8533502 -34.86    0.0168424    8.539    0.883
         3 -12.9850     11.9990     24.0614   5.8198449674e+01   6.9576801932e+01    0.6040069     0.259984 -24.58  0.002965296    2.512    0.602
         4 -11.6834      1.7553     24.9474   6.4068914147e+01   7.0216464727e+01    0.3906071    0.1326798 -51.49  0.001909906    2.716    0.632
         5 -12.8509      6.3472     11.2626   5.5963589467e+01   7.1963287388e+01    0.7151881    0.3770707 -16.13  0.004295643    1.786    0.440
         6 -11.9946      9.8734      2.3088   4.9734136291e+01   7.2820896352e+01    0.5775914    0.2126499  21.90  0.002898387    2.710    0.631
         7 -10.1034      2.0241      1.5183   5.3989913158e+01   7.3655614250e+01    0.1894167   0.08594343  26.17 0.0008769227    2.079    0.519
         8 -11.8395     13.5162     12.6816   5.2578187472e+01   7.1104357216e+01     0.301201    0.1618258 -19.57  0.001365935    1.746    0.427
         9 -12.1018     15.3398      7.2146   4.9051280662e+01   7.1637808881e+01    0.4087967    0.2135427  -7.98  0.002284324    2.119    0.528
        10 -11.6758     19.8103     14.2932   4.9932058387e+01   7.0229493610e+01    0.3019519    0.1581092 -17.54  0.001690708    1.966    0.491
        11 -12.1527     25.2228      4.0744   4.2341451263e+01   7.0845663897e+01     0.412999    0.2272573  13.05  0.002435717    1.771    0.435
        12 -10.2067     33.0981    236.2227   8.7922481057e+01   2.0663350748e+01    0.2447229     0.119779  70.15  0.001230271    2.123    0.529
        13 -12.4214    242.3412    246.7149   4.5691181871e+01  -1.1003574948e+01    0.5815832     0.297488 -20.22  0.002929382    1.963    0.490
        14 -12.1247    240.1571    239.4581   4.4881558099e+01  -9.7566314795e+00    0.2850109    0.1608189 -34.89  0.001540104    1.715    0.417
        15 -12.1076    244.6023    230.6615   4.2609130156e+01  -9.0834093637e+00    0.4349965    0.1595307 -32.50  0.002009903    2.583    0.613
        16 -11.6716    249.9861    232.9864   4.2065756597e+01  -1.0067705646e+01    0.4282811    0.2020058 -30.74   0.00187928    1.900    0.474
        17 -11.7191    249.0120    225.6172   4.0974977200e+01  -8.9194161810e+00    0.4163406    0.1946841 -36.00  0.002223496    1.947    0.486
        18 -12.1349    247.0103    239.6701   4.3705810516e+01  -1.0620207217e+01    0.4692107    0.2137981 -33.67  0.002550297    2.012    0.503
        19 -10.9226    249.1015    250.0182   4.5041340137e+01  -1.2227533115e+01    0.3691586    0.1720637  22.78  0.002045782    2.021    0.505
        20 -10.9915    248.7234    245.1634   4.4315366157e+01  -1.1553812684e+01    0.3371398     0.189706 -21.52  0.002042548    1.593    0.372
        21 -12.3685    234.0460    244.8645   4.6877520276e+01  -9.7389944205e+00    0.4304926    0.2424177 -23.27  0.002180817    1.681    0.405
        22 -11.5021    225.4630    248.8225   4.9099625255e+01  -9.1972360053e+00    0.2841454    0.1838762 -18.34  0.001759307    1.438    0.305
        23 -11.9212    212.1801    248.3357   5.1530303721e+01  -7.3825981129e+00    0.3857822    0.2350778  -9.70  0.002148928    1.782    0.439
        24 -10.5604     50.6948    250.0835   8.5408710851e+01   1.5769108189e+01    0.3435031    0.1176357  41.10   0.00159116    2.265    0.558
        25 -11.6833     36.8125    248.6022   8.8060171428e+01   1.7731000024e+01    0.4586049    0.2142254  55.53    0.0024568    1.840    0.456
        26 -10.9866     27.3218    248.7092   8.9913891840e+01   1.8785848063e+01    0.3024642    0.1471933  56.70  0.001649682    1.721    0.419
        27 -11.8943      3.5156    197.2511   9.1443919673e+01   3.2081607859e+01    0.5238521    0.2666755  82.77  0.002529743    1.841    0.457
        28 -11.6283     18.6545    221.8064   8.9877925702e+01   2.5259438114e+01    0.3239112    0.1833812  66.91  0.001849393    1.594    0.373
        29 -12.7839     12.1491    216.9805   9.0908054540e+01   2.6941539403e+01    0.6131174    0.3112767  62.10  0.002880633    1.789    0.441
        30 -11.6497     20.3281    249.0401   9.1268192076e+01   1.9479291937e+01    0.4390444    0.2143009  53.45  0.002002172    1.643    0.391
        31 -12.3200      2.2195    210.9095   9.2589895366e+01   2.9166175316e+01    0.9105793    0.2561582 -82.54  0.003607469    3.519    0.716
        32 -11.5461     14.1072    231.9561   9.1454046328e+01   2.3572852200e+01    0.4375405    0.2442066  67.48  0.002024064    1.559    0.359
        33 -11.7488     11.2297    225.6889   9.1646489830e+01   2.5167458877e+01    0.4257872     0.212666  54.39  0.001852961    1.703    0.413
        34 -11.7977     12.1445    248.8928   9.2791738283e+01   2.0358760874e+01    0.4953838    0.2002917  44.04  0.002026157    1.936    0.484
        35 -12.4584     16.0030    240.3624   9.1585466920e+01   2.1659831971e+01    0.6170457    0.3065852  54.73  0.002694027    1.652    0.395
        36 -12.1668      6.6309    236.3366   9.3157310787e+01   2.3406198451e+01    0.5670788     0.275284  59.72  0.003283624    1.723    0.420
        37 -11.9440      4.8128    228.3215   9.3071580337e+01   2.5225330690e+01    0.5263886    0.2631098  67.52  0.002298832    1.762    0.432
        38 -11.5823      2.3403    221.0648   9.3155433395e+01   2.6974373722e+01    0.4693863    0.2223117  86.87  0.001864791    1.925    0.480
        39 -11.1512      3.3774    250.2585   9.4462035878e+01   2.0961566166e+01    0.3207042    0.1474632  33.76  0.001806187    2.114    0.527
        40 -12.4795      3.4049    243.3600   9.4124286394e+01   2.2307215053e+01    0.5923895    0.2987353  80.82  0.003529397    1.757    0.431
        41 -11.5174    231.6608    234.9683   4.5664800480e+01  -8.0452206749e+00    0.3185588     0.125735 -31.39  0.001467003    2.548    0.608
        42 -10.6369     40.2889    231.2887   8.6054490305e+01   2.0865564684e+01     0.256212    0.1231287  77.71  0.001183183    2.488    0.598
        43 -12.1696     25.7489    228.8785   8.8901891262e+01   2.3010812460e+01    0.5086005    0.2531911  73.97  0.002618709    2.053    0.513
        44 -12.3090    236.7906    228.5869   4.3644464120e+01  -7.7908844017e+00    0.3303103    0.2090521 -27.45  0.001804638    1.422    0.297
        45  -9.8903     32.4185    229.1988   8.7542188167e+01   2.2211391816e+01    0.1731871   0.09919339  85.23 0.0009468683    1.721    0.419
        46 -12.4836    248.2237    215.9639   3.9427207418e+01  -7.4252009252e+00    0.5989332    0.2626547 -30.29  0.002953591    2.122    0.529
        47 -11.8027    238.8073    219.3022   4.1667151804e+01  -6.6874353522e+00    0.2742975    0.1842263 -31.11  0.001425132    1.363    0.266
        48 -10.4496    227.5883    219.2507   4.3699668985e+01  -5.1495350978e+00    0.2355135    0.1123464 -41.55  0.001148478    2.136    0.532
        49 -10.2437     24.3622    217.3509   8.8353580044e+01   2.5639147728e+01    0.2640772    0.1280589  63.06  0.001321256    2.019    0.505
        50 -10.8743     21.4257    211.5008   8.8546561377e+01   2.7231717134e+01    0.2950612    0.1684884  89.28  0.001627411    1.641    0.391
        51 -10.3205    233.4807    211.9990   4.1326169822e+01  -4.8467699906e+00    0.1930674    0.1101048 -34.56  0.001038489    1.611    0.379
        52 -12.9995     12.1171    205.4613   9.0130372910e+01   2.9480390858e+01    0.5922584    0.3495693  65.61  0.003426588    1.539    0.350
        53 -11.3472    246.9933    205.5149   3.7773195024e+01  -5.6973249989e+00    0.2473563     0.144771 -23.70  0.001272019    1.581    0.368
        54 -10.6859    250.4342    200.7170   3.6319360341e+01  -5.4254040699e+00    0.2933202    0.1028661 -37.18   0.00128127    2.506    0.601
        55 -10.9756    243.5020    199.9928   3.7369193436e+01  -4.3663813353e+00    0.3209917    0.1083662 -39.23  0.001346649    2.664    0.625
        56 -11.0894    239.9754    206.9809   3.9258918163e+01  -4.9679595071e+00    0.2007303    0.1621137 -14.04 0.0009461069    1.030    0.030
        57 -11.8473      8.8836    196.3532   9.0190525488e+01   3.1825347033e+01    0.4511624    0.1868478  89.43  0.002035392    2.496    0.599
        58 -12.1267      4.0833    188.5602   9.0709987020e+01   3.4010809393e+01    0.6208765    0.2796273  72.17  0.002934565    2.376    0.579
        59 -11.7063      5.3273    182.8587   8.9997308405e+01   3.5226178315e+01    0.2998863    0.1941847  86.44  0.001225008    1.352    0.260
        60 -11.7546      1.9078    178.4148   9.0463539427e+01   3.6526226768e+01    0.5009439    0.2438561 -81.97  0.002496606    1.780    0.438
        61 -11.7004    246.8554    193.4340   3.5587435400e+01  -3.8023963690e+00    0.4272124    0.1539743 -47.40  0.001639482    3.536    0.717
        62 -11.5486     11.3032    190.7620   8.9219637049e+01   3.2893685286e+01    0.2806713      0.15174 -85.45  0.001498989    1.665    0.399
        63 -11.7176     17.3632    189.8150   8.7731549540e+01   3.2566011793e+01    0.3187682    0.1552902  79.30  0.001486136    2.254    0.556
        64  -9.8872     24.3206    186.6511   8.5789573990e+01   3.2644389636e+01     0.139319   0.08138978  66.32 0.0007048744    1.739    0.425
        65 -12.2353     11.5769    183.8378   8.8600150370e+01   3.4478172629e+01    0.3991511    0.1812129 -88.43  0.001862044    2.201    0.546
        66 -11.7580      8.9878    178.1534   8.8749135271e+01   3.6028466711e+01    0.2902329    0.1619031  89.05   0.00154262    1.670    0.401
        67 -10.9886    249.5014    184.5179   3.3485091866e+01  -2.7594353917e+00    0.2647783    0.1071407 -38.73  0.001191435    2.149    0.535
        68 -10.6643     17.2276    181.2298   8.7015664845e+01   3.4593544247e+01     0.206962   0.09001534 -87.72 0.0008859902    2.462    0.594
        69 -10.8853    248.7280    176.1347   3.2030462313e+01  -1.2951939635e+00    0.2021315    0.1458281 -46.41  0.001188472    1.462    0.316
        70 -11.0709     11.5030    172.5054   8.7642343837e+01   3.7157346057e+01     0.228941    0.1047312 -88.95 0.0009107203    2.256    0.557
        71 -12.0861      6.7241    171.9172   8.8776781615e+01   3.7679727865e+01    0.3599789    0.1828087 -84.77  0.001833962    1.791    0.442
        72 -10.6377      1.6057    170.2010   8.9893721063e+01   3.8469684203e+01    0.2947525    0.1349241 -67.30   0.00150191    1.814    0.449
        73 -11.9276      2.2857    165.5883   8.9344602899e+01   3.9508198793e+01    0.4694747    0.2346483  68.99  0.002314371    2.178    0.541
        74 -11.7314     10.9017    166.8011   8.7271473424e+01   3.8566596496e+01    0.2402716    0.1516784  53.87  0.001354899    1.608    0.378
        75 -12.0790      5.6307    161.4429   8.8129843002e+01   4.0250615719e+01    0.3032224    0.1863849  84.47  0.001237459    1.550    0.355
        76 -12.9467      3.2282    153.9433   8.8063536126e+01   4.2211571580e+01    0.7448093    0.1932281 -68.43  0.002938895    2.856    0.650
        77 -11.6623     11.9895    161.2861   8.6459632728e+01   3.9803355183e+01    0.2734827    0.1288539  75.94  0.001174877    2.655    0.623
        78 -13.9334    247.1932    104.1971   1.8086715852e+01   1.0895574726e+01     1.528334    0.5556828 -53.97   0.00549427    3.645    0.726
        79 -13.7701    248.6291    131.9727   2.3435943175e+01   6.0638551048e+00     1.871675    0.2429233 -41.12  0.004810343    6.276    0.841
        80 -14.1851    247.9309    119.4611   2.1042166202e+01   8.2653019678e+00     1.663676    0.6494055 -53.29  0.006302308    3.261    0.693
        81 -10.0401    202.6586    249.6829   5.3591599994e+01  -6.2760165432e+00    0.1308739   0.08219349   1.89 0.0007048829    1.711    0.416
        82 -10.1503     65.9956    249.4839   8.2238283432e+01   1.3921174515e+01    0.1898088   0.07096199  51.75 0.0008098917    2.511    0.602
        83 -10.8942    234.2919    135.2793   2.6276072103e+01   7.9811808948e+00    0.2730014    0.1399264 -55.39  0.001160977    2.433    0.589
        84 -12.6508    241.2595    125.9702   2.3308396012e+01   8.3455508471e+00    0.3827679     0.275301 -35.66  0.002189554    1.259    0.206
        85  -9.8861    228.0000    124.9335   2.5123487883e+01   1.0938195339e+01    0.2283898   0.07014723 -40.43 0.0007993304    2.921    0.658
        86 -12.0888      6.0695    122.6881   8.3799020583e+01   4.9514785770e+01      0.30011    0.1635803 -89.99  0.001475291    2.059    0.514
        87 -11.3973      5.3518    110.3281   8.2348277612e+01   5.2480107094e+01    0.2144331    0.1142949 -42.86  0.001122632    1.733    0.423
        88 -11.1176      3.3815    105.1856   8.2262774676e+01   5.3789393573e+01    0.1808991    0.1052329 -80.19  0.000955835    1.733    0.423
        89 -11.8652    244.2237    148.5725   2.7395802600e+01   3.9987799675e+00    0.2613732    0.1591786 -40.32  0.001390878    1.422    0.297
        90 -12.8776      3.8274    145.3149   8.7055514816e+01   4.4237165860e+01    0.7861297    0.3190957  65.20  0.003017198    3.728    0.732
        91 -12.3438      3.0064    128.1250   8.5408058903e+01   4.8403610245e+01    0.4742331    0.2020548 -83.51  0.002066947    2.505    0.601
        92 -11.5413      1.8405     94.5071   8.1155023496e+01   5.6319720932e+01    0.3269121    0.1340905 -67.39  0.001546855    2.055    0.513
        93 -11.0829      6.4859     93.9950   7.9383968367e+01   5.6186945687e+01    0.1977472    0.1050807 -65.06  0.001037617    1.605    0.377
        94 -12.5096      3.9656    136.3985   8.6068963216e+01   4.6366443778e+01    0.5273588    0.2060342 -84.23  0.002146837    2.842    0.648
        95 -11.8058      2.6051     79.4039   7.8208440043e+01   5.9638582280e+01    0.4372235   0.07880561 -63.08  0.001530316    3.838    0.739
        96 -12.3225    242.7857    134.0799   2.4720274300e+01   6.7025328059e+00    0.4028593    0.1753887 -44.53  0.001796479    2.035    0.509
        97 -10.8836      7.3856     79.1881   7.6271457613e+01   5.9426767360e+01      0.17238     0.107449 -72.46 0.0009560444    1.699    0.411
        98 -10.4456      9.2459     68.7283   7.3231131609e+01   6.1543855805e+01     0.207349   0.06178176 -50.65 0.0008935633    2.396    0.583
        99 -10.7194    234.4956    146.5448   2.8543456541e+01   5.9816532288e+00     0.287584    0.1178442 -40.55  0.001208656    2.157    0.536
       100 -12.4337      2.7789     50.3638   7.1525516619e+01   6.5607218725e+01    0.5106907    0.2009554 -50.38  0.002639859    1.933    0.483
       101 -11.2850      8.3523     44.5532   6.7194985063e+01   6.6361002856e+01    0.2357049    0.1211147 -48.21   0.00133772    1.630    0.387
       102 -11.6290     12.1034     38.0093   6.3246728351e+01   6.7263390676e+01    0.3348918   0.09478974 -41.87  0.001455296    2.804    0.643
       103 -11.7582      3.1376     33.8921   6.6435277206e+01   6.8613328796e+01    0.3076823     0.117528 -45.16  0.001612444    2.025    0.506
       104 -11.0146     18.9942     30.3139   5.7008849214e+01   6.7953806436e+01    0.2595353    0.1081962 -26.76  0.001183104    2.704    0.630
       105 -10.7291    194.2000    246.3989   5.4747548081e+01  -4.5892026660e+00    0.2684948    0.1293301 -15.38 0.0009582844    4.359    0.771
       106 -10.6676     44.7915    245.0609   8.6208783390e+01   1.7491056369e+01    0.2744836    0.1555752  56.07  0.001568753    1.508    0.337
       107 -10.7219    177.9845    244.5000   5.7749293892e+01  -1.9041251131e+00     0.191561   0.09967016  14.80  0.000810476    2.597    0.615
       108 -12.1955    225.9233    241.3763   4.7796230441e+01  -8.2130289770e+00    0.3122033     0.178875 -28.34   0.00178959    1.666    0.400
       109 -11.9068     29.5736    240.5991   8.8940557601e+01   2.0160721739e+01    0.4317454     0.198196  64.21  0.002109272    2.124    0.529
       110 -10.3648     57.3930    241.7622   8.3343013952e+01   1.6586222420e+01    0.3304303    0.1098013  48.55  0.001390419    2.606    0.616
       111 -10.3440     38.4930    240.5136   8.7140940125e+01   1.9160701974e+01    0.2300733    0.1250395  62.94  0.001078235    1.694    0.410
       112  -9.9534     45.3186    237.6354   8.5514504069e+01   1.8939469005e+01    0.1360492   0.07390492  63.73  0.000704011    1.776    0.437
