#   1 NUMBER                 Running object number                                     
#   2 MAG_AUTO               Kron-like elliptical aperture magnitude                    [mag]
#   3 X_IMAGE                Object position along x                                    [pixel]
#   4 Y_IMAGE                Object position along y                                    [pixel]
#   5 X_WORLD                Barycenter position along world x axis                     [deg]
#   6 Y_WORLD                Barycenter position along world y axis                     [deg]
#   7 A_WORLD                Profile RMS along major axis (world units)                 [deg]
#   8 B_WORLD                Profile RMS along minor axis (world units)                 [deg]
#   9 THETA_WORLD            Position angle (CCW/world-x)                               [deg]
#  10 FWHM_WORLD             FWHM assuming a gaussian core                              [deg]
#  11 ELONGATION             A_IMAGE/B_IMAGE                                           
#  12 ELLIPTICITY            1 - B_IMAGE/A_IMAGE                                       
         1 -13.4123    236.1576     23.4948   1.4548463619e+00   2.2261032587e+01    0.9010025    0.8505794 -53.50  0.004122629    1.045    0.043
         2 -10.8312     16.7569     10.9952   5.4531772484e+01   7.1278673970e+01    0.1649521    0.1216668 -33.67 0.0006834436    1.025    0.024
         3 -11.4981      7.8664     10.9947   5.9301705587e+01   7.1905729654e+01    0.1832474    0.1434686 -18.72 0.0005182276    1.213    0.176
         4 -10.3601     71.3097      7.1843   2.7762887811e+01   6.4697930232e+01    0.2429459   0.09016551  45.72   0.00101615    2.627    0.619
         5  -9.6509    125.0886    244.2759   6.8676539257e+01   1.0643182224e+01    0.1537705    0.1457158 -66.98 0.0008277631    1.428    0.300
         6  -9.4558    100.9562    250.4109   7.3295546458e+01   1.3255369316e+01    0.1485452   0.09915174  50.62  0.001078237    1.091    0.084
         7  -9.7763     75.9450    249.9103   7.7341011568e+01   1.6677351394e+01    0.2959951    0.1179821  41.15  0.001721445    2.037    0.509
         8  -9.6447     75.8366    245.6231   7.7061304304e+01   1.7336063354e+01    0.2604722     0.121832 -58.63  0.001566622    2.774    0.639
         9 -14.6825     49.3899    176.2253   7.6363560759e+01   3.2955173591e+01     2.359891     1.151594 -56.64   0.01280329    2.296    0.565
        10 -14.9008     56.8127    230.4714   7.9181354884e+01   2.2117463510e+01     2.489701     1.179698 -52.23   0.01195827    3.525    0.716
        11 -18.3824     10.4282    226.5412   8.6505695224e+01   2.7761335940e+01     4.703282     2.226868 -81.99   0.02441861    1.877    0.467
        12 -11.1977     71.7204    225.0616   7.6237165429e+01   2.1147605662e+01    0.2993664    0.1580033  48.65  0.001381706    1.465    0.317
        13  -9.9615    174.5364    223.4734   5.7446303668e+01   5.6409726581e+00    0.1228428   0.09529699  36.66 6.157987e-05    1.028    0.027
        14  -9.9803    118.1872    221.6201   6.7545522506e+01   1.5082781005e+01    0.1747539     0.140787  74.78 0.0004878478    1.257    0.204
        15 -14.2914     29.5862    248.1802   8.4475830515e+01   2.2376343559e+01     0.611873    0.3301583  50.85  0.003346907    1.353    0.261
        16 -10.0081    139.0646    216.1318   6.3014175596e+01   1.2613933680e+01    0.2226653    0.1685117 -64.73  0.001444051    1.647    0.393
        17 -10.1277    198.9613    216.0305   5.1950122975e+01   2.4956643601e+00    0.1996071    0.1281894  17.77  0.001135965    1.691    0.409
        18  -8.7058    133.2652    213.6755   6.3798857767e+01   1.3951301214e+01    0.1182871   0.08290889  68.13  0.000283318    1.564    0.361
        19  -8.9855     70.0000    241.0289   7.7699209712e+01   1.8790134369e+01    0.1400739   0.05527547 -70.48 0.0005384413    2.853    0.650
        20 -10.5023    131.1915    203.4879   6.2890187602e+01   1.5960612565e+01    0.2041938    0.1684525 -63.50  0.000677521    1.426    0.299
        21  -9.9574    136.8308    200.8246   6.1424037602e+01   1.5457362767e+01    0.1871612    0.1584172  37.27 0.0008288581    1.167    0.143
        22  -9.6501    210.9479    198.6882   4.6946059505e+01   2.6536241547e+00    0.1810516    0.1360902  34.24 0.0004535227    1.114    0.102
        23 -10.9549     55.2164    194.0184   7.6758812646e+01   2.8777698433e+01    0.3236769    0.1887106  76.79   0.00197739    1.609    0.379
        24 -10.5062    194.5663    196.2798   4.9549430762e+01   5.8989698520e+00    0.2224716    0.1862546 -70.10  0.001339966    1.817    0.450
        25 -11.4812     68.9385    194.8760   7.4167956125e+01   2.6887889494e+01    0.3709003    0.2394524 -78.11  0.001850403    1.523    0.343
        26 -10.8516    102.0247    195.1784   6.7628670637e+01   2.2115235092e+01    0.2094063    0.1729357 -78.96  0.001391184    1.280    0.219
        27 -11.3686    107.3876    193.7856   6.6379153434e+01   2.1536005412e+01    0.2636814    0.1676968 -53.13  0.001506334    1.846    0.458
        28  -9.2499    206.6864    190.3012   4.6249051233e+01   4.5370456669e+00    0.1182819    0.1013101  66.26 0.0002726875    1.611    0.379
        29 -10.3898    102.9330    239.0487   7.1989827602e+01   1.4647524757e+01     0.223253    0.1519731 -59.54 0.0005039236    1.875    0.467
        30 -10.6219     72.9169    187.2393   7.2622827508e+01   2.7824213606e+01    0.2279195    0.1568188  75.01  0.000786636    1.333    0.250
        31 -10.3644    226.2417    186.7464   4.2056826427e+01   1.4999872734e+00    0.1940281   0.09917739 -18.63 0.0008934341    2.429    0.588
        32 -12.1475    106.9487    231.5924   7.0598666953e+01   1.5207229770e+01     0.467384    0.3620084 -54.13  0.002272192    1.723    0.419
        33  -9.8633    115.8003    181.8282   6.3053028195e+01   2.2400623910e+01    0.1856885    0.1379607  67.20 0.0008728359    1.334    0.251
        34 -10.1351     97.8675    181.1359   6.6745435274e+01   2.5412898559e+01     0.205589    0.1511866  66.71  0.001109276    1.264    0.209
        35  -9.3959     73.0392    178.5652   7.1673230756e+01   2.9518299323e+01    0.2612459    0.1200192  74.47  0.001034474    3.542    0.718
        36 -10.1565     96.6354    175.4360   6.6262315746e+01   2.6725024273e+01    0.2136341    0.1837433  74.68 0.0003133814    1.046    0.044
        37  -9.7833     75.0022    175.3747   7.0899010456e+01   2.9892983348e+01    0.2019396    0.1461596  85.21 0.0005831081    1.303    0.233
        38 -11.5328    245.4421    174.2573   3.6330809008e+01  -2.9763332293e-01    0.2844606    0.2112646 -53.88  0.001553753    2.286    0.562
        39 -10.4771    221.6053    173.1733   4.0289093423e+01   4.1527723703e+00    0.1862185    0.1187608 -15.85 0.0009547876    1.729    0.422
        40 -10.5200    104.8763    173.1211   6.4157139872e+01   2.5882493758e+01     0.203066    0.1585743  71.10 0.0004666305    1.233    0.189
        41  -9.3853     68.4576    172.2867   7.1949830543e+01   3.1399960151e+01     0.162895    0.1039271 -87.91   0.00093166    1.554    0.356
        42 -10.5543     73.7724    168.9613   7.0413582112e+01   3.1371051370e+01    0.3611433    0.1793418  58.27  0.001251524    2.053    0.513
        43 -11.5926     80.7037    164.4816   6.8319412956e+01   3.1332680774e+01      0.42468     0.243414  22.83  0.001961445    2.786    0.641
        44 -12.0889     88.8216    164.0487   6.6438451683e+01   3.0232876630e+01    0.6114832    0.3477235  71.69  0.001986274    2.229    0.551
        45  -9.8532     86.1907    168.2279   6.7589124409e+01   2.9760752361e+01    0.1844649    0.1323638  71.00  0.001069135    1.347    0.258
        46 -10.1407    110.6844    167.1695   6.1999413039e+01   2.6114266173e+01    0.2078159    0.1584717  87.38 0.0007748224    1.432    0.302
        47 -10.1570    101.5014    166.9777   6.4014781014e+01   2.7659966329e+01    0.1868696    0.1257092 -64.24 0.0003975572    1.545    0.353
        48 -10.1341    178.7998    166.6028   4.7245224827e+01   1.3467109178e+01    0.2058599    0.1223303  51.77 0.0009556371    1.697    0.411
        49  -9.6233    184.5658    236.4820   5.7440100926e+01   2.3439631350e+00    0.1175968   0.08891368  36.95 -9.22957e-05    1.023    0.023
        50 -11.0955     56.6432    142.4245   7.1051896842e+01   3.9256302514e+01    0.3394335    0.2046706 -78.79  0.001394933    1.567    0.362
        51 -10.7307     58.9555    151.2639   7.1617164212e+01   3.7043035835e+01    0.2245437    0.1773136 -70.10 0.0002596664    1.215    0.177
        52 -11.1796     53.8812    147.2341   7.2317017292e+01   3.8528931470e+01    0.3815109    0.2828824  86.34  0.002395272    1.208    0.172
        53 -11.9918     55.8330    124.5797   6.8751100390e+01   4.3347926618e+01    0.5911108    0.3019673  65.57  0.002615834    2.661    0.624
        54 -12.5961     64.4509    154.5589   7.0749235442e+01   3.5642300821e+01    0.4251282     0.325157  70.74  0.001833544    1.186    0.157
        55 -12.0504     68.6486    132.7646   6.6681311303e+01   3.9892441081e+01    0.4617713    0.3081738  70.43  0.001184566    1.640    0.390
        56 -12.2248     64.5817    128.4764   6.7058972821e+01   4.1388774096e+01    0.6040754    0.4684803  13.64  0.001915493    1.779    0.438
        57 -10.9300     81.2082    150.7646   6.6308156760e+01   3.4174101811e+01    0.2552095    0.2019375  76.31 0.0006851164    1.198    0.165
        58 -13.8659     69.5257    144.4642   6.8203198435e+01   3.7174762501e+01     1.233704    0.7068975  70.74  0.003962894    2.105    0.525
        59 -11.6409     58.2709    133.3205   6.9407844156e+01   4.1085248285e+01    0.5355289    0.2952131  67.25  0.002583534    2.200    0.545
        60 -12.0081     68.9479    161.7910   7.0617347839e+01   3.3515796695e+01    0.3760621    0.2998252 -52.91   0.00180886    1.479    0.324
        61 -12.0524     73.0060    157.9589   6.9213966071e+01   3.3782858562e+01    0.3979897    0.2970195 -45.58  0.001392715    1.679    0.405
        62  -9.8869     95.3401    160.3585   6.4430927795e+01   3.0001014645e+01    0.2621238    0.1501434 -86.69 0.0009000865    2.471    0.595
        63 -10.4781     70.2941    233.0452   7.7084020336e+01   2.0019843922e+01    0.2591653    0.1878686  31.09  0.001832602    1.816    0.449
        64 -11.1015     23.2705    155.5627   8.0091714038e+01   3.9917716053e+01     0.503888    0.2049104 -80.26  0.002607721    2.150    0.535
        65 -10.2762     24.8570    148.4180   7.9139100508e+01   4.1282917445e+01    0.3251505    0.1701911  46.13  0.001277542    1.842    0.457
        66 -10.4619     35.4806    157.4642   7.7598889027e+01   3.8343905352e+01    0.1866993    0.1129067  71.88 0.0006755727    1.518    0.341
        67 -10.2097     32.5920    155.2055   7.8026995231e+01   3.9110064294e+01    0.2329549    0.1847756 -73.65 0.0009975735    1.233    0.189
        68 -10.9956     29.3811    153.2709   7.8561558587e+01   3.9831215818e+01    0.3908585    0.2380312  69.12  0.002432489    1.492    0.330
        69  -9.3635    167.4731    156.0736   4.7525403199e+01   1.7575007674e+01    0.1981783    0.1432614 -42.09 0.0004184549    1.513    0.339
        70 -11.0207     43.7189    153.1584   7.5338872569e+01   3.8394518221e+01    0.3933321    0.2256109  69.76  0.001973416    1.737    0.424
        71 -12.2220     91.6689    140.0338   6.2070929187e+01   3.4934325904e+01    0.4285447    0.4102513 -71.03  0.001796475    1.136    0.120
        72 -11.2388     89.1522    151.6407   6.4557019455e+01   3.2803903107e+01     0.298631    0.2167594  85.00 0.0007978099    1.461    0.316
        73 -12.1806     86.5683    147.4596   6.4528290752e+01   3.4098093048e+01     0.470778    0.3654361 -30.45 0.0006976576    1.806    0.446
        74 -11.3537    133.5192    145.1007   5.2905643917e+01   2.6468334987e+01    0.9576391    0.2539576 -54.07  0.002644668    5.104    0.804
        75 -10.8756    108.8715    145.3110   5.8793693531e+01   3.0949784147e+01    0.2787506    0.2467866  68.55 0.0006695302    1.066    0.062
        76 -10.3223    147.4660    144.0173   4.9468612501e+01   2.3920445077e+01    0.2979565    0.2361902 -82.15  0.001234604    1.605    0.377
        77  -9.3542    152.7858    144.0009   4.8260143907e+01   2.2838084078e+01    0.1902364    0.1864854  55.80  0.001094941    1.053    0.051
        78 -10.5747     36.7746    142.5129   7.5821453787e+01   4.1421553046e+01    0.2337902    0.1666173 -82.53 0.0008824453    1.174    0.149
        79  -9.6639    127.9196    137.7323   5.2750147483e+01   2.9066836953e+01    0.2045662    0.1813439  56.27 0.0004870097    1.081    0.075
        80  -9.5538     24.7415    137.3757   7.8143824052e+01   4.3671878396e+01    0.1656805    0.1187893  62.96 0.0006098782    1.316    0.240
        81  -9.4805    242.0342    136.0722   2.8838216633e+01   5.4287475094e+00    0.2030883    0.1654517 -53.95 0.0008973516    1.656    0.396
        82 -12.0660    104.3689    131.7343   5.7367706383e+01   3.4662799387e+01    0.5831368    0.4465364 -21.23  0.002345187    1.849    0.459
        83  -9.1950     45.2517    135.4277   7.2953582599e+01   4.2102601923e+01    0.1639424    0.1021826  50.92 0.0009399298    1.605    0.377
        84 -11.5499     89.7018    132.4509   6.1237725299e+01   3.6918162968e+01     0.251639    0.2249785 -66.68 0.0002842729    1.100    0.091
        85 -10.5146     39.2383    128.0023   7.3536514981e+01   4.4383895125e+01    0.2039128    0.1650947  53.80 0.0002492063    1.289    0.224
        86  -9.3646    150.4953    130.2291   4.5775693031e+01   2.6022130225e+01    0.1980062    0.1439133 -59.87 0.0005988822    1.604    0.376
        87 -10.1310    120.9262    129.8936   5.2831516519e+01   3.2059492136e+01    0.2094297    0.1950526  -9.10 0.0003819398    1.241    0.194
        88 -10.0273    111.0564    126.6826   5.4645935816e+01   3.4584418244e+01    0.2536727    0.1990972  22.69 0.0007111782    1.548    0.354
        89 -11.1904    115.2999    123.4748   5.2876804304e+01   3.4501464201e+01    0.2941101    0.2865758  26.44 0.0007279384    1.107    0.096
        90 -10.5824     43.9946    130.4917   7.2643959705e+01   4.3337530263e+01    0.3045547    0.2052369  78.32  0.001510739    1.471    0.320
        91 -10.9904    134.9551    124.3219   4.8136722492e+01   3.0467720934e+01    0.3333686    0.2041414 -55.76  0.001308222    1.802    0.445
        92 -10.8608     32.4614    124.4994   7.4840228871e+01   4.5820171760e+01    0.2295517    0.1665542  72.36 0.0005663866    1.326    0.246
        93 -10.0270     44.8908    122.9379   7.1399929836e+01   4.4942551947e+01    0.1884004    0.1524481 -54.61 0.0009170235    1.291    0.226
        94 -10.3581     98.7330    121.5130   5.6776912603e+01   3.7884972333e+01    0.3078209    0.2389311  11.04  0.001150034    1.776    0.437
        95 -10.3565    131.0306    120.5088   4.8227318039e+01   3.2065881865e+01    0.2228551    0.1437532  45.20 0.0003850412    1.520    0.342
        96  -9.5369    143.5154    119.0184   4.4806617545e+01   2.9769469630e+01     0.219832    0.1496764 -45.38 0.0003987476    1.509    0.338
        97 -10.7973     56.2527    118.8228   6.7738635013e+01   4.4606963358e+01    0.3388734    0.1782726  45.75 0.0008175492    1.999    0.500
        98 -10.0779     45.3706    116.9179   7.0403979885e+01   4.6257170178e+01    0.2068114    0.1573479  60.26 0.0007354832    1.362    0.266
        99  -9.6145    107.6708    116.0796   5.3236903794e+01   3.7523086780e+01    0.2002798    0.1765093 -56.61 0.0003614632    1.114    0.102
       100 -10.2071     40.1207    113.1584   7.1287565590e+01   4.7647995762e+01    0.2049157     0.164247  65.48 0.0003772621    1.282    0.220
       101 -11.7221     31.6989    109.8355   7.3146703762e+01   4.9191658030e+01    0.6412583    0.3762075  49.08  0.003246025    1.857    0.461
       102 -12.0002     21.2318    108.6153   7.5881522853e+01   5.0334095549e+01    0.4710218    0.2972423 -33.39  0.002752237    2.140    0.533
       103 -11.1144     24.1467    104.9720   7.4599962368e+01   5.0925402103e+01    0.2977991    0.2319107 -64.62 0.0009537584    1.134    0.118
       104 -10.1812    176.0479    230.9890   5.8200314758e+01   4.4071641297e+00    0.1823221    0.1255334  18.16 0.0009052473    1.666    0.400
       105 -10.0808    111.4104    104.7888   4.9571532635e+01   3.9304758548e+01    0.2052824    0.1349255 -38.48 0.0002934615    1.624    0.384
       106 -12.0496    127.3449    228.9226   6.6679871188e+01   1.2531812988e+01    0.3031448      0.18457  48.83  0.001891977    1.274    0.215
       107 -10.8491     36.3949    102.1401   7.0666565990e+01   5.0513558137e+01    0.4458342    0.1998527  46.86  0.002141864    2.555    0.609
       108 -10.5253     24.4953     94.5176   7.3014138590e+01   5.3257773621e+01    0.2340712    0.1653228 -56.01 0.0007030377    1.260    0.207
       109 -10.8097     21.1745     93.3993   7.3846637450e+01   5.3761132163e+01    0.2191524    0.1819783  77.39 0.0008789101    1.245    0.197
       110 -11.1004     57.8297     93.7112   6.2665124253e+01   5.0160961540e+01    0.3549203    0.2232927  65.64  0.001272142    2.152    0.535
       111  -9.2035    219.9806    242.7274   5.2291324638e+01  -3.8944468444e+00    0.1536279     0.110694  29.19 0.0004613498    1.023    0.022
       112  -9.2553     15.1190     89.3579   7.5098732970e+01   5.5090818365e+01    0.1523825   0.09810555  42.90 0.0009470331    1.811    0.448
       113 -12.4500     97.7333    222.9612   7.1419711103e+01   1.7926283200e+01    0.6072692    0.4120841  89.37  0.002708941    1.626    0.385
       114 -10.1066     27.5037     87.0316   7.0888288039e+01   5.4710973600e+01    0.1853364   0.09968378 -66.61 -9.852482e-06    1.507    0.336
       115 -10.2996     54.7229     84.0355   6.1541499463e+01   5.2722692763e+01    0.4949875    0.1752027  34.99  0.002033684    3.066    0.674
       116 -11.1442     80.8402    220.4606   7.4241756700e+01   2.0710821322e+01    0.3400129    0.1901186  61.15 0.0003189516    1.538    0.350
       117 -10.6347     21.6266     82.3628   7.1976176318e+01   5.6208802334e+01    0.2189462    0.1785131 -77.82 0.0004310418    1.109    0.098
       118 -10.7284     28.1871     77.6490   6.8973211019e+01   5.6765765898e+01    0.2207137    0.1855598 -42.81  0.000876301    1.207    0.172
       119 -10.0492     30.8071     72.5919   6.7068205428e+01   5.7679874681e+01      0.15347    0.1119457  42.78 0.0005793792    1.645    0.392
       120 -11.5892    187.7914     62.3489   1.9245250500e+01   2.9473402933e+01    0.3832084    0.3455529 -11.65 0.0008164403    1.142    0.125
       121 -10.7604     13.5327     60.1293   7.0699965205e+01   6.1654303452e+01    0.2007954    0.1595429 -89.26 0.0006254367    1.366    0.268
       122 -13.4528    204.2399     50.3818   1.2925871188e+01   2.6951857815e+01     1.430278    0.9462718  32.16  0.004794211    1.805    0.446
       123 -12.7111    210.4055     45.9193   1.0717956107e+01   2.5967633508e+01    0.7448164    0.6137111 -10.21  0.001828964    1.319    0.242
       124  -9.4858    134.7506     58.9985   2.9709124718e+01   4.3462718226e+01    0.2104287    0.1942822 -17.88 0.0001967677    1.072    0.068
       125 -11.1529      9.9816     41.8963   6.8038361923e+01   6.5735271777e+01    0.3979255   0.08777146  28.05  0.001646035    4.752    0.790
       126 -10.2085     34.2827     38.1717   5.6545045591e+01   6.4679888319e+01    0.2225747     0.165472  35.54  0.001262393    1.662    0.398
       127  -9.5602     53.3889     31.6155   4.6042213666e+01   6.3756851112e+01    0.2266682    0.1065513  48.60 0.0009367673    3.446    0.710
       128 -12.4047     88.7891    222.5659   7.2997559812e+01   1.9262802055e+01    0.6641497    0.3885013  76.45  0.004015616    1.876    0.467
       129 -10.0631     60.8015     21.3258   3.8604560918e+01   6.4448525371e+01    0.1790873    0.1640144  43.36 0.0008357547    1.435    0.303
       130 -10.8942     68.8284    247.2395   7.8307877954e+01   1.7982391101e+01     0.276648    0.1587142  74.14  0.001936202    1.623    0.384
       131 -10.4491     90.0593    217.3112   7.2281597967e+01   1.9966940839e+01    0.1901228    0.1571657 -80.81 0.0003459107    1.331    0.249
