#   1 NUMBER                 Running object number                                     
#   2 MAG_AUTO               Kron-like elliptical aperture magnitude                    [mag]
#   3 X_IMAGE                Object position along x                                    [pixel]
#   4 Y_IMAGE                Object position along y                                    [pixel]
#   5 X_WORLD                Barycenter position along world x axis                     [deg]
#   6 Y_WORLD                Barycenter position along world y axis                     [deg]
#   7 A_WORLD                Profile RMS along major axis (world units)                 [deg]
#   8 B_WORLD                Profile RMS along minor axis (world units)                 [deg]
#   9 THETA_WORLD            Position angle (CCW/world-x)                               [deg]
#  10 FWHM_WORLD             FWHM assuming a gaussian core                              [deg]
#  11 ELONGATION             A_IMAGE/B_IMAGE                                           
#  12 ELLIPTICITY            1 - B_IMAGE/A_IMAGE                                       
         1 -16.6483    201.4353     92.1545   7.0694037699e+01   2.1513335153e+01     3.094455     2.561251  70.42   0.01589726    1.370    0.270
         2 -19.0543    185.5616    133.8949   8.4058287065e+01   1.8099696046e+01     8.762961     3.692714  48.55   0.03381935    2.293    0.564
         3 -17.5782    173.0434     69.0705   6.9509358900e+01   3.2282329203e+01     8.120367      3.50286  44.83   0.02874293    2.457    0.593
         4 -12.6662    201.0588     20.9182   5.0366152654e+01   3.1624732453e+01    0.6609586    0.2797775 -36.11  0.002640969    2.187    0.543
         5 -10.8635     12.1889     15.0576   1.0346564625e+02   7.1627561182e+01    0.2846941    0.1282725 -56.56  0.001471834    1.958    0.489
         6 -11.1236     89.9495     13.7634   6.9171023706e+01   6.0513397559e+01    0.2289142     0.181472 -14.77 0.0004625526    1.206    0.171
         7 -10.0906     28.1651     12.1762   9.3658305261e+01   7.0713354407e+01    0.1484739    0.1292923 -43.18 0.0003860331    1.302    0.232
         8 -12.4984    248.4783      4.9137   4.1647046415e+01   2.1594658630e+01    0.4784738    0.2470796 -13.89  0.002205775    2.370    0.578
         9 -10.8835     25.6563      7.9132   9.2880143204e+01   7.1695828553e+01    0.2264271    0.1473766   1.29  0.001378345    1.712    0.416
        10 -12.3822    238.5954      3.6928   4.2063935728e+01   2.4020099439e+01    0.3694502     0.216837 -16.34  0.001838408    1.916    0.478
        11 -11.2545    224.0387      5.0097   4.3561049762e+01   2.7421327444e+01    0.1637095    0.1475161 -56.54 0.0003807343    1.038    0.037
        12 -11.1104    202.2303      3.9814   4.5263466308e+01   3.3066637884e+01    0.1921681    0.1763873 -64.20 0.0005281722    1.044    0.042
        13  -9.6513      8.6971      4.7027   1.0093400759e+02   7.3761028518e+01    0.1167146    0.0655357 -29.03 0.0002576798    1.581    0.368
        14 -11.0435    178.1611      5.0197   4.8219185587e+01   3.9332019662e+01    0.3136033    0.2037967 -25.19 0.0008711617    1.599    0.375
        15 -10.5752     39.4866      2.4856   8.2860817358e+01   7.0857992450e+01    0.1219797   0.09847674 -12.57 6.262177e-05    1.012    0.012
        16 -10.6839    207.9453      1.5050   4.4010849508e+01   3.1821453372e+01    0.2099792    0.1284279  75.85 0.0007537418    1.563    0.360
        17 -12.9857    127.3189    237.9616   1.1214904153e+02   1.1791857128e+01    0.2630397    0.1979109  61.83 0.0006022063    1.251    0.200
        18 -12.1229    201.9875    249.4731   1.0090840450e+02  -8.3770246018e-01    0.2112802    0.1468879  33.24 1.353624e-05    1.035    0.033
        19 -12.5445    190.3250    249.1395   1.0276155137e+02   9.1763870569e-01     0.402158     0.173506  39.33 -0.000275831    1.696    0.410
        20 -12.7296    188.9815    242.0361   1.0209095470e+02   1.8977518817e+00    0.3015081    0.1784441  39.12 0.0004579514    1.257    0.204
        21 -10.0625    125.4032    249.8153   1.1363342373e+02   1.0446214879e+01     0.117052    0.1030787 -38.72 0.0009394564    1.659    0.397
        22  -9.6956     61.5043    240.5268   1.2357118390e+02   2.0361029778e+01    0.1067827   0.07246424  60.49 -4.60274e-05    1.049    0.047
        23 -10.7889     47.0790    242.6805   1.2604705987e+02   2.1723103273e+01     0.164936    0.1009513  71.33 0.0005547462    1.310    0.237
        24 -11.7417    183.6453    237.1627   1.0236046012e+02   3.2728519752e+00    0.3737679    0.1499673  37.07  0.001937872    1.992    0.498
        25 -10.7596     43.4027    238.1987   1.2640153666e+02   2.2842407841e+01    0.1369863   0.07415516  81.00  0.000950625    1.692    0.409
        26 -10.7379    245.5029    233.5163   9.1771098612e+01  -5.5787502129e+00    0.1622102   0.09685994 -19.23 0.0007561814    1.802    0.445
        27 -11.8274    233.4628    235.9954   9.4023187172e+01  -4.0948800225e+00    0.3242628    0.1697253  29.58  0.001664171    1.493    0.330
        28 -10.8244    102.7188    236.0217   1.1623532494e+02   1.5639277160e+01    0.2428799    0.1390732  70.94  0.001476603    1.997    0.499
        29 -10.4391    143.5287    236.0548   1.0912710415e+02   9.6118829445e+00    0.1333069    0.1141001 -61.39 0.0005348512    1.526    0.345
        30 -10.8692    201.2607    233.0228   9.8842203119e+01   1.0260727625e+00    0.1544674     0.124171  26.65  0.000189039    1.087    0.080
        31 -12.3290    175.6699    230.9247   1.0291624121e+02   5.2725352082e+00    0.3475858    0.2582261 -10.42  0.002342591    1.798    0.444
        32 -10.6198    183.4034    229.1006   1.0133873979e+02   4.2754519321e+00    0.1574345    0.1467188 -41.04 0.0006973706    1.437    0.304
        33 -10.3995     81.8632    230.1648   1.1937292231e+02   1.9406519517e+01    0.1652726    0.1105997  59.01 0.0002586237    1.144    0.126
        34 -10.7477     69.3085    230.1118   1.2155089905e+02   2.1044841758e+01    0.1675141    0.1193423  47.14 0.0003429096    1.252    0.201
        35 -11.7848    197.2357    226.6523   9.8629205343e+01   2.3806710138e+00    0.2211155       0.1903  20.68 0.0006888425    1.157    0.136
        36 -11.9395    203.2016    225.4340   9.7441880896e+01   1.5816647824e+00    0.3669378     0.190618  43.97  0.002118709    1.622    0.383
        37 -11.9846    205.7083    221.5427   9.6447061812e+01   1.6338691803e+00    0.2621103     0.201675 -31.58  0.001723209    1.599    0.375
        38 -10.0306     91.3152    227.6789   1.1750047345e+02   1.8521836287e+01    0.1170508    0.0659132  63.62 0.0005401952    1.658    0.397
        39 -12.9805    245.0495    222.3993   9.0137325439e+01  -4.4653875829e+00    0.4321014     0.259325   9.45 0.0008267809    1.633    0.388
        40 -11.7766    170.4232    224.4587   1.0298338698e+02   6.9362068815e+00    0.2955626    0.2228538  53.58  0.001339944    1.334    0.251
        41 -12.4050    163.6597    223.8157   1.0409865367e+02   8.1100748313e+00    0.4698019    0.1693182  42.21  0.002223294    2.164    0.538
        42 -11.5450    175.7599    220.7708   1.0153953231e+02   6.5566498905e+00    0.1777046    0.1352403  29.66 0.0005661167    1.159    0.137
        43 -11.0990    188.0094    222.0387   9.9564080061e+01   4.4092717616e+00    0.2440566     0.203551  74.68  0.001428921    1.763    0.433
        44 -12.2096    182.6105    221.3069   1.0040510168e+02   5.3745579596e+00     0.376126    0.2176447  30.63   0.00130261    1.572    0.364
        45 -12.7495    130.8865    221.0700   1.0968253406e+02   1.3716556778e+01    0.4413843    0.3493937  43.14  0.003097811    1.106    0.096
        46 -10.7529    217.0114    222.0205   9.4618398766e+01  -1.9678669924e-01    0.1740865    0.1334385  30.02 0.0004102316    1.073    0.068
        47  -9.7021     30.4634    222.4113   1.2772022797e+02   2.6842033780e+01    0.1034929   0.07161923  64.97 7.815285e-05    1.015    0.015
        48 -10.4860    199.5757    220.8837   9.7396905156e+01   2.6892441864e+00    0.2346798    0.1312029  28.88  0.001344185    1.622    0.384
        49 -13.2491    124.3572    216.0718   1.1031000556e+02   1.5506105351e+01    0.5843739    0.4167029  31.24  0.003729022    1.506    0.336
        50 -11.9655    128.5361    211.0444   1.0893204462e+02   1.5645219296e+01    0.2286142    0.1955835  81.20 0.0007807135    1.273    0.214
        51 -11.6051    231.2853    220.2657   9.2002407526e+01  -2.2039533282e+00    0.4155428    0.1323564  41.72  0.001934503    2.568    0.611
        52 -12.7834    171.1928    216.9649   1.0182822944e+02   7.8117400458e+00    0.3653474    0.2420863 -50.73   0.00187548    1.989    0.497
        53 -12.2571    146.3226    208.3130   1.0522679954e+02   1.3181950581e+01    0.4084681    0.3379881  14.34  0.001974238    1.470    0.320
        54 -13.0865    142.4323    215.2994   1.0686150626e+02   1.2755120628e+01    0.4337873    0.3240703 -83.11  0.002763315    1.817    0.450
        55 -12.1505    137.9947    215.4987   1.0770857609e+02   1.3438991961e+01    0.2776909    0.2322243 -60.79  0.001255005    1.474    0.322
        56 -15.5359    222.1600    208.3021   9.1603714976e+01   5.3035476064e-01     2.186632     1.300873  42.29  0.007902388    1.500    0.333
        57 -12.6370     87.5545    173.6608   1.1258716828e+02   2.8753981433e+01    0.4363507    0.2371979 -61.56  0.002310325    1.908    0.476
        58  -9.9324     48.1754    180.8665   1.2166438686e+02   3.2503230776e+01    0.1389616    0.1262241 -88.46 0.0003790908    1.297    0.229
        59 -13.9403    100.8657    172.6989   1.0957509958e+02   2.6910772535e+01    0.4863128    0.4116662 -81.52  0.001052959    1.194    0.163
        60 -10.3331     16.9458    176.5656   1.2765275564e+02   3.6597603248e+01    0.1402247   0.09351803  43.78 5.049958e-05    1.489    0.328
        61  -9.8040     39.3205    175.2800   1.2302326377e+02   3.4611286773e+01   0.09771975   0.08609377 -51.55 0.0001932169    1.583    0.368
        62 -16.8067    146.4390    192.4276   1.0296671006e+02   1.5691693369e+01     3.966022     2.510711  70.91   0.01974395    2.307    0.567
        63 -10.1357     56.5243    170.5093   1.1895113370e+02   3.3589947615e+01    0.1200367   0.09768365  75.42 1.781998e-05    1.013    0.013
        64 -11.6422     92.5514    165.2200   1.1037565622e+02   2.9702547097e+01    0.2670504    0.1536201 -51.67   0.00116082    1.959    0.489
        65 -12.8936     91.9801    162.0062   1.1005485296e+02   3.0448066208e+01    0.5165789    0.2741807  27.54  0.002291586    2.679    0.627
        66 -10.2629     38.0925    165.9204   1.2250046894e+02   3.6648031094e+01     0.179645    0.1219584  71.77 0.0003343923    1.238    0.193
        67 -16.3848    170.3219    197.3955   9.9113675501e+01   1.0745033797e+01      3.38665     1.267619  43.57   0.01337627    2.232    0.552
        68 -10.0301     49.3030    165.6464   1.2003943668e+02   3.5453913141e+01    0.1287593   0.07292206  69.97 0.0007039654    1.707    0.414
        69 -16.5036    225.3441    179.8262   8.6100420517e+01   3.4530624793e+00     2.761927     1.410129  35.09   0.01403321    1.760    0.432
        70 -11.1428    248.4841    159.7048   7.8355770180e+01   1.9487350624e+00    0.2121573    0.1905578  10.73 0.0003911184    1.171    0.146
        71 -10.4913     98.4932    160.5120   1.0836077936e+02   2.9735278282e+01    0.1321227     0.115211  69.69 0.0002819205    1.012    0.012
        72 -11.0415     86.4991    158.9401   1.1087298659e+02   3.1914814745e+01    0.1959417    0.1583726  55.08  0.000658118    1.139    0.122
        73 -11.4942     42.2983    159.9188   1.2103432864e+02   3.7441843304e+01    0.3971142    0.1374312 -76.17  0.001528014    2.855    0.650
        74 -11.6727    102.4712    154.9975   1.0660163642e+02   3.0227561736e+01    0.2343278    0.1895555 -83.43 0.0005618698    1.250    0.200
        75 -12.8146     83.1690    153.3442   1.1085385755e+02   3.3588486465e+01    0.4496258    0.2746472  84.82  0.002226149    2.000    0.500
        76 -12.1830     86.7921    140.5093   1.0801724178e+02   3.5808304483e+01    0.3383818    0.2215191  50.65 0.0003662727    1.473    0.321
        77 -13.1262     98.1258    139.6320   1.0507532374e+02   3.4193610926e+01     0.863349    0.2831883  36.82  0.003034296    3.353    0.702
        78 -12.8275     90.1938    150.1897   1.0872697126e+02   3.3197441678e+01    0.6932381    0.2461537 -51.22  0.002716342    3.033    0.670
        79 -12.5215    101.5177    134.7244   1.0335100837e+02   3.4686656644e+01    0.5468276     0.302516 -36.91  0.002285252    2.644    0.622
        80 -13.0892    101.2788    126.7908   1.0189199490e+02   3.6454874563e+01    0.5520465    0.4046682 -59.57  0.002552361    1.346    0.257
        81 -13.2355     98.0484    150.5385   1.0692321447e+02   3.1880160153e+01    0.5177016     0.423807 -71.05  0.001808971    1.216    0.178
        82 -11.9159     93.1202    145.4913   1.0728376306e+02   3.3742784339e+01    0.5117019    0.1953754  53.18  0.001894898    3.090    0.676
        83 -11.9450     93.8186    214.5286   1.1583572926e+02   2.0323982377e+01    0.2876205    0.1824656  40.01 0.0007754859    1.452    0.311
        84 -11.2406     50.1151    149.6378   1.1817458230e+02   3.8751339563e+01    0.2047406    0.1436941  89.34 0.0004759015    1.270    0.212
        85 -11.0290     13.8449    149.8013   1.2653748839e+02   4.2326779563e+01    0.1652485    0.1025532  69.51 0.0006696651    1.366    0.268
        86 -11.3741     56.8884    145.6655   1.1608688024e+02   3.8805957652e+01    0.2163436    0.1711045 -89.26 0.0004430503    1.100    0.091
        87 -10.6427     92.4876    183.5019   1.1274694456e+02   2.6099692943e+01    0.1247246    0.1038695  64.62 -9.662808e-05    1.003    0.003
        88  -9.7237     14.4809    140.5122   1.2568539954e+02   4.4248986562e+01    0.1140624   0.08907875  89.07 -3.298237e-05    1.041    0.039
        89 -11.8575     71.0888    137.9196   1.1152439390e+02   3.8664970174e+01    0.3314755    0.1838359  56.74  0.001632493    1.887    0.470
        90 -17.1843    186.2607    108.9930   7.7944964937e+01   2.2248808855e+01     2.407636     1.846559  74.58   0.01153335    1.653    0.395
        91 -10.2622     80.8260    137.4977   1.0901405824e+02   3.7368074220e+01    0.1915509    0.1255859  42.00  0.001013337    1.532    0.347
        92 -11.2957     78.7372    130.0548   1.0831485340e+02   3.9328072935e+01    0.4290229     0.184614 -50.67   0.00181745    2.403    0.584
        93 -10.6661    238.0495    209.6266   8.9199664641e+01  -2.1185100898e+00    0.2062131     0.145966  -0.95 0.0006577836    1.347    0.257
        94 -11.6758     88.0911    127.5079   1.0543506863e+02   3.8471732724e+01    0.2682489    0.2237442 -14.01  0.001058287    1.680    0.405
        95 -10.7035     81.1098    125.0109   1.0681074237e+02   4.0105115013e+01    0.1981307    0.1800672 -81.13 0.0003228849    1.036    0.035
        96 -11.3430     85.9552    181.2206   1.1384376475e+02   2.7500178961e+01     0.322419     0.186883 -88.63   0.00114691    2.086    0.521
        97  -9.9593     63.5564    122.4996   1.1106881788e+02   4.3136638986e+01    0.1305727    0.1144593 -82.75 0.0001108044    1.017    0.017
        98 -10.3410     11.6913    207.6839   1.3022372480e+02   3.1264238780e+01   0.08528557   0.07225896 -69.18 0.0003153132    1.632    0.387
        99 -10.7009     71.0311    117.4708   1.0816622660e+02   4.3271697799e+01    0.1827888    0.1305199  39.32 0.0001339698    1.496    0.332
       100 -10.9159      9.9312    116.9902   1.2477488430e+02   4.9735301862e+01    0.1731326    0.1362842 -85.90 0.0003255962    1.022    0.021
       101 -10.3453     84.9066    116.5335   1.0418459247e+02   4.1429250425e+01    0.1960617    0.1350227  38.93 0.0005578879    1.536    0.349
       102 -10.7237    249.5833    114.1419   6.8317754678e+01   7.7103846061e+00    0.2739058    0.1858373  17.66  0.001409242    1.670    0.401
       103 -10.6498     67.2793    114.5788   1.0868266266e+02   4.4446497677e+01    0.2238916    0.1448808 -45.90 0.0008148539    1.678    0.404
       104 -11.6009      5.6630    114.0055   1.2562648526e+02   5.0688511997e+01    0.2059167    0.1529455  77.49 0.0004750015    1.187    0.157
       105 -10.5293    248.1884    206.1417   8.6995261347e+01  -3.3014682481e+00    0.1663172    0.1195476  16.31 0.0003084267    1.098    0.089
       106 -10.6754     71.6699    109.0050   1.0638772244e+02   4.5111302494e+01     0.221525    0.1760539  59.69 0.0004243367    1.308    0.235
       107 -10.1921     85.4928    106.9997   1.0203879203e+02   4.3485184435e+01    0.2751412    0.1681501 -50.02  0.001326233    1.585    0.369
       108 -12.0466     85.9817    100.2656   1.0038729587e+02   4.4921259389e+01    0.6161799    0.2322045 -46.98  0.002295305    2.652    0.623
       109 -11.2961    241.4707    104.3634   6.7227427029e+01   1.0706297359e+01    0.3335354    0.2094898 -25.47 0.0009676823    1.491    0.329
       110 -11.0672     76.8524    202.1560   1.1787166956e+02   2.4844406224e+01    0.2566749    0.1469831 -80.76 0.0009070872    1.884    0.469
       111 -10.7429     72.4611     97.4691   1.0374460689e+02   4.7627123154e+01    0.2421392    0.1756694  82.08  0.000700392    1.683    0.406
       112 -10.6036     68.8507    202.2493   1.1941890525e+02   2.5887762174e+01    0.2107973   0.08809189  65.30 0.0009599058    2.879    0.653
       113 -11.3827     33.0220     94.7066   1.1532376174e+02   5.2913480953e+01    0.2399698    0.1499166 -66.56 0.0004116426    1.327    0.246
       114 -11.2606     75.0758     93.7360   1.0210597245e+02   4.8089159200e+01    0.3421309     0.206708  45.69  0.001120783    1.780    0.438
       115 -11.1052    105.3835     93.0778   9.3044116845e+01   4.3091938650e+01     0.251552    0.2005969  78.10 0.0006829689    1.511    0.338
       116 -11.2308    173.0821    247.2792   1.0538235923e+02   3.7035120500e+00    0.2023825    0.1414432  42.65 0.0003841139    1.109    0.098
       117 -16.4778    230.3457    122.7816   7.3317838343e+01   1.0377338427e+01     1.965763     1.713072 -46.33   0.01142872    1.326    0.246
       118 -11.6507     46.1589    200.3385   1.2358035664e+02   2.9016622519e+01    0.2518443    0.1697427 -67.26  0.000792183    1.645    0.392
       119 -10.4621    242.8583     88.6328   6.3208231648e+01   1.2610742170e+01     0.228642    0.1715211 -14.94 0.0001892614    1.314    0.239
       120 -11.0658     87.4970     88.9939   9.7180416294e+01   4.7182157824e+01    0.2703885    0.2068176  15.08  0.001373636    1.704    0.413
       121 -11.0219     79.9827     88.0162   9.9216217985e+01   4.8620715907e+01    0.2065174     0.189806 -63.07 0.0003461526    1.017    0.017
       122 -10.4279    240.1889     82.8876   6.2157022621e+01   1.3988728930e+01    0.2060809    0.1766302 -44.95 0.0005862937    1.185    0.156
       123 -11.9868    129.4869    200.5738   1.0742887376e+02   1.7199672894e+01     0.251116    0.1866548  56.72  0.001575003    1.199    0.166
       124  -9.9886     83.4556     79.5340   9.5888942419e+01   4.9927773255e+01    0.1401529    0.1301887 -56.66 6.855658e-05    1.023    0.023
       125 -12.7876    222.8897     77.0227   6.3152420200e+01   1.8753341690e+01    0.3770734    0.2963999 -61.17 0.0007982503    1.461    0.315
       126 -10.4105    225.7247     72.1532   6.1452326177e+01   1.8787300035e+01    0.2800016    0.1813079  -9.97 0.0006370731    1.847    0.459
       127 -17.0181    190.5651    169.1795   9.0392305457e+01   1.1326979444e+01     2.580421     1.850282  18.89   0.01399205    1.510    0.338
       128 -10.6630    229.8397     75.6254   6.1768725558e+01   1.7337744484e+01    0.4322285    0.1935934 -21.26  0.001609397    2.587    0.613
       129 -10.4925     88.3180     73.3120   9.2568246611e+01   5.0434217469e+01    0.1433392    0.1103054 -13.28 0.0003096442    1.644    0.392
       130  -9.9639    240.8061     72.3949   5.9433906764e+01   1.5295006365e+01    0.1824329    0.1265182  45.34 0.0004879934    1.554    0.356
       131 -11.8992    100.1118     71.5584   8.8406270559e+01   4.8630553445e+01    0.2630038    0.2553381  77.20 0.0003143164    1.101    0.092
       132 -10.7117     93.8511     71.9034   9.0418642198e+01   4.9737141010e+01    0.1904777    0.1688607 -81.00 0.0003835078    1.283    0.221
       133 -11.2228     53.7310     68.8431   1.0289809632e+02   5.6566646894e+01    0.3287999    0.1533756 -54.22 0.0009717447    1.839    0.456
       134 -10.5207     43.8416     68.8732   1.0643977134e+02   5.7701379348e+01    0.1911364    0.1521622 -43.90 0.0003501197    1.175    0.149
       135 -10.0416     63.4265     68.5039   9.9402576350e+01   5.5372543563e+01    0.1352624    0.1190569 -48.59 5.665584e-05    1.014    0.014
       136 -11.4230    243.0146     65.7903   5.7477553619e+01   1.5688618443e+01    0.4365606    0.2687024 -83.92  0.001691271    2.532    0.605
       137 -15.4592    218.1298    165.6895   8.4648988443e+01   6.6353726107e+00     1.043228    0.7551782  25.51  0.003560556    1.272    0.214
       138 -11.1120    112.1720     64.0363   8.2452929807e+01   4.7676473324e+01     0.237593    0.2026027  -3.98  0.001230444    1.306    0.235
       139 -10.2771    230.1026     63.2738   5.8502683414e+01   1.8995577234e+01    0.1876237    0.1798855 -55.64 0.0003456323    1.063    0.060
       140 -11.7827     30.0348     62.2041   1.0992050578e+02   6.0526738228e+01    0.2245843    0.2025331 -39.84 0.0003731606    1.151    0.132
       141 -16.5092    160.6227    111.7337   8.4034737455e+01   2.7604270646e+01     2.322644     1.915636 -54.05   0.01183915    1.303    0.233
       142 -10.2702     23.3450    198.9415   1.2772462382e+02   3.1719858622e+01    0.1445477     0.103949  78.50 0.0004446725    1.090    0.083
       143  -9.8715    102.2887     60.6613   8.4211497590e+01   5.0366648290e+01    0.1451755    0.1153694 -74.31 0.0003645492    1.639    0.390
       144 -10.6757      9.6009     60.1997   1.1728207971e+02   6.2456394302e+01    0.1711386   0.08112394 -59.06 0.0003336732    1.582    0.368
       145 -16.8481    172.2979    155.4422   9.1329757733e+01   1.7134811451e+01     2.869315     1.624207  24.92  0.008728441    2.467    0.595
       146 -16.8423    211.4839    138.9492   8.0252279137e+01   1.1840119877e+01     2.192249      1.15496  46.12  0.009956392    1.828    0.453
       147 -12.9412    156.3036    245.0605   1.0794219361e+02   6.4990714607e+00    0.2785934    0.2197187  19.24 0.0008868086    1.453    0.312
       148 -11.9263    138.4016     58.2355   7.3617623685e+01   4.2741145396e+01    0.3365531    0.2479578  13.81  0.001340191    1.730    0.422
       149 -12.7850    118.1072    191.4928   1.0849436900e+02   2.0621247387e+01    0.4659802    0.4102728 -70.08  0.002462578    1.281    0.220
       150 -13.1979    111.0505    184.7061   1.0903909588e+02   2.2993330890e+01    0.6658242    0.4109866 -75.87  0.003555022    2.000    0.500
       151 -10.3242      1.5945     57.7543   1.1990427494e+02   6.3417662196e+01    0.1505632    0.1208204 -59.04 0.0005933692    1.092    0.084
       152 -10.9899     86.3410    192.4137   1.1502159366e+02   2.5314260140e+01    0.3031133    0.1937991  18.63  0.001530819    2.810    0.644
       153 -10.3988    244.9487    191.3535   8.4944743065e+01  -1.2051546212e+00    0.2187533    0.1386122   6.25 0.0009163677    1.590    0.371
       154 -13.3511    120.2085     54.8375   7.7082569527e+01   4.7602709005e+01    0.6640721    0.3973909  32.78     0.001395    1.999    0.500
       155 -10.6358     11.3333    202.3178   1.3004752886e+02   3.2256783888e+01   0.08728118    0.0735021 -63.35 0.0007048127    1.693    0.409
       156 -10.8602    112.2673     55.3203   7.9447040730e+01   4.9277770527e+01    0.3332593    0.2553506  69.52  0.001143792    1.622    0.383
       157 -11.7644    249.3547     52.9167   5.3484689837e+01   1.5937053281e+01    0.2205044    0.2101607 -56.16 0.0002691282    1.075    0.070
       158 -13.2257    141.0134     48.7385   6.9755728720e+01   4.3664676894e+01    0.7030712    0.3651436 -37.22  0.002041518    1.906    0.475
       159 -11.7550     58.7544    216.4528   1.2242373526e+02   2.4642878038e+01    0.3603902    0.2678388  19.21  0.002306608    2.218    0.549
       160 -12.9431    242.4602     48.4919   5.3136646531e+01   1.8056570741e+01    0.3118037    0.2703798  33.46 0.0006782652    1.300    0.231
       161  -9.9235     29.3181     49.3215   1.0687459808e+02   6.3383379817e+01    0.1296813   0.07773696 -35.58 0.0004081281    1.666    0.400
       162 -11.1465    230.2279     47.3264   5.4260061799e+01   2.1079647415e+01    0.2485121    0.2144775 -48.07 0.0003751282    1.102    0.092
       163 -11.9367    127.6402     46.9833   7.2349333012e+01   4.7204117883e+01    0.2911486    0.2359407  27.67  0.001311658    1.304    0.233
       164 -11.9888    125.0000     44.0406   7.1945457813e+01   4.8304316852e+01    0.3306553    0.2028236 -43.90  0.001132458    1.715    0.417
       165 -11.2132    113.7604     47.6358   7.6262261448e+01   5.0298429816e+01     0.360603    0.2340523  19.85  0.001529921    2.112    0.527
       166 -12.8674    155.8761     44.2415   6.5004508797e+01   4.0573441733e+01     0.591315    0.2995698 -28.71  0.002086407    2.019    0.505
       167 -11.4798     92.0490    190.5320   1.1365907075e+02   2.4836790132e+01    0.2856423     0.157056  70.59  0.001355145    2.185    0.542
       168 -10.2298    132.9335    246.4899   1.1204609676e+02   9.7959380542e+00    0.1718257   0.08120452  43.98 0.0007763423    1.549    0.354
       169 -10.9102    194.9512     44.0337   5.8099572981e+01   3.0374116300e+01    0.2744746    0.2114388  45.20 0.0007414427    1.348    0.258
       170 -11.5586    101.3550    194.6009   1.1225198454e+02   2.2696651340e+01    0.2937795    0.1219914  44.75  0.000824756    2.002    0.500
       171 -12.3038    145.4318     42.8096   6.6695809160e+01   4.3464350012e+01    0.3259567    0.2664769  60.21 0.0004573342    1.229    0.186
       172 -10.5882     95.9224    195.9966   1.1349714868e+02   2.3259224418e+01    0.1755037    0.1448639  61.52  0.001192324    1.023    0.022
       173 -11.4014    191.9009     40.4442   5.7476227497e+01   3.1648474112e+01    0.2228721    0.1968289 -31.72 0.0005714648    1.131    0.116
       174 -12.1730    117.5283     39.8075   7.2302583913e+01   5.0722291262e+01     0.491934    0.2955742  21.55  0.001198936    2.398    0.583
       175 -10.8508     93.5234     40.9381   7.9735264727e+01   5.5720886746e+01    0.2126407    0.1334084 -35.66 0.0003857478    1.523    0.343
       176  -9.5796    231.2927     40.2894   5.2262993044e+01   2.1709961497e+01    0.1358214     0.105741  26.10 0.0002834893    1.547    0.354
       177 -12.0998    132.1520     39.3267   6.8452024244e+01   4.7304661334e+01    0.3537987     0.262059 -44.36  0.001063542    1.428    0.300
       178 -12.4011    133.7575     34.2679   6.6200356454e+01   4.7641981773e+01    0.4265062    0.3561845  44.43  0.001352973    1.162    0.140
       179 -11.4492    166.5704     38.2467   6.0949316589e+01   3.8623251341e+01    0.3774928    0.3149423   0.58  0.001231423    1.331    0.249
       180 -11.0623    166.8268     32.1510   5.8868063685e+01   3.9360978352e+01    0.2669422    0.1985805 -42.04 0.0007313762    1.376    0.273
       181 -10.3686     31.8110    187.1448   1.2540830638e+02   3.3078197417e+01    0.1310865    0.1168025  81.63 0.0003485607    1.300    0.231
       182 -13.5458    198.5275     32.6913   5.4191261986e+01   3.0903855178e+01    0.5269307    0.4075651  40.10 0.0008601668    1.403    0.287
       183 -10.5520     64.1414     47.3935   9.2408365379e+01   5.9656798297e+01    0.1732224    0.1256198  49.45  0.000460064    1.676    0.403
       184 -10.3042     55.2997     38.6908   9.2630481835e+01   6.2610179147e+01    0.1202931    0.1025905 -79.27 0.0001869014    1.599    0.375
       185 -10.7446     89.1840     37.2056   7.9649524481e+01   5.7210053608e+01    0.1791031     0.165455 -65.24 0.0003122069    1.305    0.234
       186 -11.1200     85.2034     34.3630   7.9806999263e+01   5.8452567272e+01    0.3428806     0.204836 -25.19 0.0007336258    1.755    0.430
       187 -11.6096    118.7539     31.4343   6.8732752774e+01   5.1690425959e+01    0.4327859    0.2717202 -68.19  0.001698087    2.792    0.642
       188 -12.2884    214.5464     31.6170   5.1842821245e+01   2.6909411115e+01    0.3429686    0.2510359  69.29 0.0002728151    1.378    0.274
       189  -9.7560     29.6346     40.7513   1.0417724613e+02   6.5147870365e+01     0.122595   0.08013324 -26.92 0.0002958267    1.618    0.382
       190 -11.0178    187.9747     33.2036   5.5837527603e+01   3.3613846182e+01    0.2274049    0.1904305 -70.43 0.0004860934    1.259    0.205
       191 -11.3834     68.6731     31.1074   8.4331858271e+01   6.1952363149e+01    0.2209019    0.1873722  45.15  0.001035863    1.370    0.270
       192 -11.0137    125.4807     28.5055   6.5925086668e+01   5.0480579822e+01    0.2227721    0.1454357  70.39 7.738311e-05    1.807    0.446
       193 -10.2459     28.8774     28.1585   1.0014130647e+02   6.7729188444e+01    0.1691478    0.1448624 -46.22 0.0003075205    1.148    0.129
       194 -12.0247    216.5575     25.3327   4.9847822966e+01   2.7138014307e+01    0.3445382    0.2061158 -49.74  0.000962965    1.661    0.398
       195 -10.3485     18.8420     39.1496   1.0846099427e+02   6.6375373237e+01    0.1679406    0.1119973 -39.67 0.0003014787    1.313    0.239
       196 -12.5814    243.8042    243.4066   9.3480767057e+01  -6.2292324093e+00    0.2350555    0.1776737  24.12 0.0007400516    1.152    0.132
       197 -11.9076    210.0443     25.2274   5.0559152639e+01   2.8809076303e+01    0.3382751    0.1971565  71.99  0.001285575    1.735    0.424
       198 -10.9824    248.8819    185.1771   8.3195493844e+01  -1.1406705403e+00     0.373333    0.1143758  34.94  0.001473141    3.315    0.698
       199 -10.7430    125.7173     23.0044   6.3700397101e+01   5.1141507538e+01    0.2026638    0.1883323  -5.99 0.0004506236    1.075    0.070
       200 -10.9153    175.0517     22.3535   5.4292598055e+01   3.8358861536e+01    0.2082465    0.1809123  71.13 0.0004026955    1.117    0.105
       201 -11.5809    229.4565     19.0802   4.6817052047e+01   2.4629030071e+01    0.3629351    0.1810259 -43.15  0.001258893    1.836    0.455
       202 -12.2018    214.1966     19.6438   4.8511248133e+01   2.8376027306e+01    0.2584612    0.2404863  81.81 0.0002723284    1.070    0.066
       203 -11.2730     20.5620     18.2726   1.0033287608e+02   7.0359519329e+01    0.2092267    0.1694078 -35.90 0.0005799476    1.044    0.043
       204 -11.8955    123.1894    184.2078   1.0646127563e+02   2.1089641891e+01    0.2630407    0.2510252  27.56 0.0009506024    1.238    0.192
       205 -10.7541    240.0501    183.9259   8.4393598844e+01   4.4588300489e-01    0.1869923    0.1443766  13.03 0.0004610737    1.081    0.075
       206 -11.5329     49.3363     16.4771   8.5595328310e+01   6.7362412137e+01     0.245243    0.1902516 -15.99  0.000196218    1.144    0.126
       207 -10.2569    165.6441    245.6781   1.0643902411e+02   5.0136259097e+00    0.1117354   0.07280544  21.80 0.0007045839    1.762    0.432
       208 -10.9799    182.4683     16.0214   5.1201663938e+01   3.7077666065e+01     0.287004    0.1986299 -84.64  0.001092268    1.598    0.374
       209  -9.7946     62.2704     15.6941   7.9787458713e+01   6.5483816974e+01    0.1167286   0.09965134 -53.46 0.0001480669    1.538    0.350
       210 -10.2497      1.7402     15.0102   1.0920924514e+02   7.2297221930e+01    0.1563758    0.1113844 -48.47 0.0002567795    1.060    0.057
       211 -10.4499     51.6616    245.4504   1.2546263865e+02   2.0769074202e+01    0.1707465   0.06871375  45.37 0.0004057987    1.782    0.439
       212 -11.6292    238.6236     16.5674   4.5328831383e+01   2.2692043042e+01    0.2687175    0.1548275 -31.36  0.001248748    1.594    0.372
       213  -9.5198     17.2835    184.6855   1.2806103928e+02   3.4987356779e+01    0.1129891    0.0581614  66.92 0.0002202804    1.578    0.366
       214 -11.8194    233.9789    243.7891   9.5056788470e+01  -4.8963173829e+00     0.176077    0.1332081   5.20 0.0009896522    1.255    0.203
       215  -9.4994     76.6569     11.6876   7.2480105733e+01   6.3456956395e+01     0.141324   0.09267393  15.30 0.0007046523    1.704    0.413
       216  -9.9456     64.5107     11.5019   7.6822471381e+01   6.5705038595e+01    0.1301717    0.1117012  -4.80 7.101864e-05    1.012    0.011
       217 -10.9577    121.4842    243.0208   1.1365232413e+02   1.1939026777e+01    0.2196384    0.1116439  51.47  0.001031251    1.562    0.360
       218 -10.6986     81.8699    242.8642   1.2034565592e+02   1.7437964893e+01    0.1493498    0.1138142  52.81 0.0003027142    1.140    0.123
       219 -10.5093     32.6119    242.7737   1.2835210221e+02   2.3304941895e+01    0.1311413   0.07038075  80.44 0.0009498469    1.621    0.383
       220 -10.2650      2.4933    242.4540   1.3295452804e+02   2.6343055033e+01    0.1298279   0.06934119 -75.55 0.0006257021    1.987    0.497
       221 -11.3764    223.0904    241.2142   9.6414875609e+01  -3.0966674299e+00    0.1672769    0.1505141 -86.79  0.001255082    2.154    0.536
       222 -10.8271    208.3248    241.1289   9.8784739325e+01  -9.1553420581e-01     0.202787    0.1141119  31.97 0.0009923925    1.370    0.270
       223 -10.1178    113.4877    241.5625   1.1488196786e+02   1.3297107014e+01    0.1112564    0.0815234  50.98 6.248226e-05    1.010    0.010
       224 -10.3966    110.0558    240.7417   1.1539462849e+02   1.3904669086e+01    0.1527741    0.1077405  48.73 0.0003013765    1.071    0.067
