#   1 NUMBER                 Running object number                                     
#   2 MAG_AUTO               Kron-like elliptical aperture magnitude                    [mag]
#   3 X_IMAGE                Object position along x                                    [pixel]
#   4 Y_IMAGE                Object position along y                                    [pixel]
#   5 X_WORLD                Barycenter position along world x axis                     [deg]
#   6 Y_WORLD                Barycenter position along world y axis                     [deg]
#   7 A_WORLD                Profile RMS along major axis (world units)                 [deg]
#   8 B_WORLD                Profile RMS along minor axis (world units)                 [deg]
#   9 THETA_WORLD            Position angle (CCW/world-x)                               [deg]
#  10 FWHM_WORLD             FWHM assuming a gaussian core                              [deg]
#  11 ELONGATION             A_IMAGE/B_IMAGE                                           
#  12 ELLIPTICITY            1 - B_IMAGE/A_IMAGE                                       
         1 -11.2789    178.9830      1.4482   3.5420959770e+02   3.8636527394e+01    0.2265777    0.1145676  85.72 -2.170234e-05    1.849    0.459
         2 -13.0646    184.2942     11.5958   3.5663271926e+02   3.6378145637e+01    0.7356314    0.4770489  74.56  0.004038843    1.490    0.329
         3 -13.5936    174.7347      5.4253   3.5565249564e+02   3.9314398962e+01     1.289422    0.5264574  88.84  0.005305778    2.542    0.607
         4 -11.2192     49.6223     14.1618   2.6179957473e+01   7.0211511327e+01    0.2999311    0.2667437  17.02 0.0008389022    1.038    0.037
         5 -10.5962     45.3443     12.1203   2.7120719909e+01   7.1359489667e+01    0.2407791    0.2177118  38.43 0.0008681233    1.130    0.115
         6 -11.2756    151.0387     13.4741   4.0430666838e-01   4.4580240611e+01    0.2152512    0.1833756 -41.35  0.001240178    1.211    0.174
         7 -10.1370     35.1889     13.6911   3.4150915234e+01   7.3017566375e+01    0.2186584    0.1826066 -15.07 0.0006896911    1.156    0.135
         8  -9.6755     79.4630     11.9587   1.3195613606e+01   6.3624499217e+01    0.1844357    0.1079503 -52.87 0.0005467802    2.207    0.547
         9  -9.7722     27.4452     11.7687   3.8205220680e+01   7.4596253958e+01    0.1833844    0.1141856 -26.86 0.0009490205    1.663    0.399
        10 -11.0732    241.4404     10.2213   3.5276450361e+02   2.4119056966e+01    0.2034098    0.1365761 -27.41  0.001310749    1.496    0.332
        11 -10.3154     32.3061     10.2450   3.3744257588e+01   7.4047683954e+01    0.2016496    0.1509807 -11.83 0.0006131863    1.362    0.266
        12 -10.2552    115.2752      8.9536   3.7304810046e+00   5.4560100464e+01    0.1902277    0.1780064  80.27 0.0004555881    1.054    0.051
        13  -9.6484     69.4670      9.5359   1.5076105862e+01   6.6336067685e+01    0.1397125     0.124132  43.81 0.0001135102    1.010    0.010
        14 -11.5796    124.1097      6.7057   1.4649426132e+00   5.2393080837e+01    0.4066019    0.2484384 -82.69  0.001908242    1.714    0.417
        15 -10.8606     85.5541      7.2317   9.0781700732e+00   6.2564280258e+01     0.258158     0.229725  64.62 0.0008691088    1.037    0.036
        16 -10.2203     16.6208      4.8688   4.2065136911e+01   7.7293029806e+01    0.2313369    0.1716055  30.89 0.0008003341    1.356    0.262
        17 -11.7997     99.9759      6.1347   5.3052901991e+00   5.8900758087e+01    0.5258998    0.3693373  58.72  0.002198823    1.264    0.209
        18 -11.1279    113.8031      1.8070   1.0201736621e+00   5.5578640247e+01    0.3020514     0.179632  72.67 0.0006642439    1.476    0.323
        19 -10.2627     10.8910    134.3600   7.8652807015e+01   4.6247119510e+01    0.1784403    0.1259928  -3.33 0.0009395687    1.780    0.438
        20 -10.9396    235.4647    132.5151   1.9758513777e+01   9.6053968117e+00    0.1909513   0.09642483 -40.29 0.0008817345    1.804    0.446
        21 -10.6408     17.8629    132.2188   7.6099413246e+01   4.6271825645e+01    0.2691777    0.1601108  40.43  0.001001812    1.591    0.371
        22  -9.5442      5.3270    125.3204   7.9921197036e+01   4.8968320990e+01    0.1379998    0.0906077 -46.49 0.0007047385    1.684    0.406
        23 -12.5416    244.9294    121.0129   1.6169105783e+01   9.7371745095e+00    0.4277427    0.1375856 -33.26  0.001837118    2.556    0.609
        24 -10.5841    134.9618    124.5153   3.7143502848e+01   2.9866817322e+01    0.2345475    0.1478393  43.92 0.0005182117    1.557    0.358
        25  -9.1348     73.6753    121.6965   5.4873966127e+01   4.2252781747e+01    0.1543499    0.1201095 -20.01  0.000363769    1.640    0.390
        26  -9.9468     15.3676    113.8393   7.5227265454e+01   5.1316775215e+01    0.2875292    0.1173203 -72.66  0.001168385    2.174    0.540
        27  -9.5418     91.5262    116.4550   4.7742821975e+01   4.0431590202e+01    0.1554159    0.1499881  56.94 0.0001247223    1.004    0.004
        28  -9.8675     96.0967    111.7015   4.5117739132e+01   4.0707893123e+01    0.2154485    0.2016173  32.15 0.0005862672    1.080    0.074
        29  -9.3764     79.4992    110.5604   5.0398150122e+01   4.4085850514e+01    0.1536032    0.1497925  56.16 0.0006288724    1.016    0.016
        30  -9.6882     13.0029    105.7701   7.5292250944e+01   5.3630885770e+01    0.1793907    0.1702376  74.10  0.001097691    1.069    0.064
        31 -13.2291    246.4127    101.7945   1.2040455225e+01   1.2107952849e+01    0.6993726    0.1648366 -33.84  0.002600465    3.359    0.702
        32  -9.6405     40.3139    105.3415   6.4125773097e+01   5.1243003531e+01     0.155232    0.1052024 -35.90 0.0007047253    1.703    0.413
        33 -10.2253      1.9025    104.8364   7.9668498677e+01   5.4531209370e+01    0.2139768     0.163023 -51.47  0.001218966    1.329    0.248
        34  -9.5240     66.0175    103.0049   5.3516663763e+01   4.8286201494e+01    0.1779951    0.1717874 -78.35 0.0009523891    1.025    0.024
        35  -9.7263    231.6779    102.3593   1.3937854057e+01   1.4503213854e+01    0.1304486   0.08636598 -56.10 0.0007043739    1.771    0.435
        36 -10.1920    117.3361    102.0245   3.6126710693e+01   3.8513112696e+01    0.2134864    0.2069109 -54.94 0.0004883395    1.048    0.046
        37 -10.8288    103.0043     95.9355   3.8711989097e+01   4.2986395477e+01    0.3922718    0.2715918 -48.48 0.0009867713    1.471    0.320
        38 -11.4773     64.8479     96.3269   5.2337858116e+01   5.0179650488e+01    0.3219448    0.2800487  44.91 0.0006700527    1.148    0.129
        39 -11.5598    236.8359     95.6721   1.1858666466e+01   1.4545743675e+01    0.2240172     0.129832 -29.51 0.0008344267    1.497    0.332
        40  -9.5257      4.3182     96.2953   7.7909818770e+01   5.6661377743e+01    0.1400563   0.08888474 -45.20 0.0002859456    1.609    0.378
        41  -9.9948     89.9808     94.0285   4.2451229628e+01   4.6138574845e+01    0.2372292    0.2304158  47.24 0.0004924055    1.018    0.018
        42 -10.1795     18.3794     94.1916   7.1551715869e+01   5.6329283025e+01    0.3930211   0.06614739  24.71  0.001163709    4.566    0.781
        43 -11.6657    249.3943     85.5284   8.3146350964e+00   1.3776194805e+01     0.351697   0.09534313 -32.59  0.001391652    2.975    0.664
        44 -10.2199     96.9585     86.4360   3.7859074940e+01   4.6431943441e+01    0.2197129     0.214858 -51.42 0.0003278517    1.043    0.042
        45  -9.1549    155.7321     86.6468   2.2364372598e+01   3.2762553845e+01    0.1497556    0.1193716   3.31 0.0004952424    1.628    0.386
        46 -10.4021     11.9708     85.9112   7.3261088163e+01   5.8970234573e+01    0.2030995    0.1843788 -67.20 0.0003347873    1.023    0.022
        47 -11.6092    239.0824     82.8866   8.8330649383e+00   1.5896097045e+01     0.293622    0.1359525 -46.45  0.001441204    1.981    0.495
        48  -9.8327    187.2334     82.4442   1.5513227272e+01   2.6277893572e+01    0.1947241    0.1374848  77.11 0.0009571715    1.720    0.418
        49 -11.7487     54.3063     78.5893   5.1951995764e+01   5.6308201320e+01    0.4128748    0.3103731  54.70 0.0007805026    1.479    0.324
        50 -10.2403     78.0162     78.0094   4.1953936172e+01   5.2270033347e+01    0.2255778    0.2201359  50.33  0.001205833    1.018    0.017
        51 -12.0216    154.6379     75.3384   1.9348762362e+01   3.5027331916e+01    0.3108821    0.2770037  47.30 0.0001648449    1.172    0.147
        52  -9.6028    144.0111     77.2777   2.2153991549e+01   3.7265916415e+01    0.1970137    0.1339745  55.32 0.0005776369    1.468    0.319
        53  -9.8896     30.2792     76.0142   6.2582472426e+01   6.0053669855e+01    0.2053319    0.1775557 -61.12 0.0005642576    1.090    0.083
        54 -10.4241     88.4669     73.0287   3.6452691039e+01   5.1225595717e+01    0.3101851    0.2224553  28.12  0.001377708    1.594    0.373
        55 -11.9660     95.3718     68.7024   3.2588327044e+01   5.0608875330e+01    0.4961481    0.3745895 -38.97  0.001304349    1.378    0.274
        56 -11.5461     64.1090     69.5540   4.4823585242e+01   5.6845803070e+01    0.2625028    0.2357975 -48.84 0.0002965222    1.115    0.103
        57 -10.5766    135.1785     75.6034   2.3662212289e+01   3.9729830489e+01      0.22464     0.140059  44.01 0.0004180919    1.678    0.404
        58 -12.2887      5.6052     65.0285   7.3268317837e+01   6.4756521433e+01    0.5696976    0.3276065 -80.05  0.001976725    1.673    0.402
        59 -10.8844      3.5120     58.9803   7.3415725392e+01   6.6388830695e+01    0.2952074    0.2079381 -55.18  0.001659526    1.238    0.192
        60 -10.0893    204.2375     65.4999   8.8064581005e+00   2.5120788488e+01    0.2236679    0.1576858 -52.37 0.0008056221    1.325    0.245
        61  -9.8088    151.8216     66.4093   1.7244346373e+01   3.7232937171e+01    0.2128233     0.136095  48.91 0.0009456202    1.619    0.382
        62  -9.4815    192.2654     65.7015   1.0416266417e+01   2.7720340664e+01    0.1399234   0.09568257 -59.62 0.0002384047    1.516    0.340
        63  -9.0819    199.2942     64.2983   9.1248565283e+00   2.6363786483e+01    0.1274731    0.1054877  15.19 0.0002288468    1.567    0.362
        64 -10.3573     85.0031     63.9387   3.4499212996e+01   5.3905592089e+01     0.224221    0.2186031  42.04  0.001205231    1.001    0.001
        65 -10.7070     99.7473     62.0859   2.8808283126e+01   5.0913073236e+01    0.3134243    0.2538948 -72.27  0.001056695    1.457    0.314
        66  -9.3111     78.3195     62.6935   3.6554886385e+01   5.5596373471e+01    0.1535369    0.1225119  84.27 0.0003175847    1.635    0.389
        67 -11.6343    248.2703     54.8247   1.9007031105e+00   1.7857017664e+01    0.4056033    0.2206227 -40.69  0.002247803    1.419    0.295
        68 -11.4643    230.2532     59.4735   4.5190819580e+00   2.0624781496e+01    0.4430853    0.2175492 -53.63  0.001430955    2.035    0.509
        69 -10.2175    125.0060     59.6731   2.0921994641e+01   4.5128554459e+01    0.2188378    0.1900776  58.31 0.0004120511    1.117    0.105
        70 -10.6139    152.3928     57.6388   1.4443179444e+01   3.8505591492e+01    0.2766797    0.2319961  78.03 0.0009587655    1.191    0.160
        71 -10.7100     65.5658     57.8095   3.9962056618e+01   5.9196654508e+01    0.3681212    0.1948189  55.99  0.001371289    2.552    0.608
        72 -11.0529     22.2758     57.9418   6.2268820002e+01   6.5388693357e+01    0.2502625    0.2052089  48.38 0.0004223715    1.373    0.271
        73  -9.9555     44.2184     56.2158   4.9595167211e+01   6.3184397865e+01    0.2436476    0.1683423  70.03  0.001073469    2.213    0.548
        74  -9.7957     17.6521     56.6968   6.4626747232e+01   6.6090487944e+01    0.1483828   0.08994792 -33.56 0.0007040271    1.693    0.409
        75  -9.6792     99.4654     55.4960   2.6450796927e+01   5.2221048335e+01    0.1532658    0.1477996  58.17 5.908874e-05    1.003    0.003
        76  -9.7289     78.4784     55.5268   3.3756445164e+01   5.7033462300e+01    0.1514922    0.1450181  22.43 1.345593e-05    1.036    0.035
        77 -10.1903     69.7846     55.6217   3.7301117594e+01   5.8828406792e+01    0.2133453    0.1382245  51.28 0.0009421369    1.631    0.387
        78  -9.4057     88.4964     52.6072   2.8930081269e+01   5.5352415660e+01    0.1519591    0.1429564  47.69 0.0001426415    1.024    0.023
        79  -9.3829     11.3255     51.6449   6.7168398911e+01   6.7793551905e+01     0.137855   0.09623609  60.93 0.0007046113    1.770    0.435
        80  -9.4408    233.3284     50.6521   2.2355383385e+00   2.1145988508e+01    0.1358826   0.07426631 -56.03 0.0007049465    1.757    0.431
        81 -11.5278     94.0188     48.6226   2.5492029384e+01   5.4767843094e+01    0.2573819     0.220659 -37.17 0.0002486327    1.220    0.180
        82 -10.2178     14.7907     48.3720   6.4114153811e+01   6.8346341930e+01    0.1784362    0.1213145  -4.92 0.0002813107    1.593    0.372
        83 -10.7768    248.9854     44.6955   3.5968443909e+02   1.8938325383e+01    0.3129454    0.2047095 -55.08  0.001998579    1.326    0.246
        84 -10.8440     39.2959     43.8261   4.7474306911e+01   6.6669826776e+01    0.3212998    0.2934401 -18.21  0.001547967    1.031    0.030
        85  -9.8126    114.3190     60.9665   2.4126316327e+01   4.7581216033e+01    0.2106859      0.20052 -39.52 0.0003630857    1.095    0.087
        86 -10.7284    119.0224     42.4251   1.6175141941e+01   4.9464396992e+01    0.3595715    0.2274743 -28.39  0.000790835    1.739    0.425
        87 -10.2611      6.7708     44.2884   6.8248919547e+01   6.9857109096e+01    0.2717587    0.1743139  57.87  0.001383488    2.004    0.501
        88 -10.6912    185.8232     41.4884   4.7369384033e+00   3.2563887928e+01    0.2398045    0.2162315 -57.01 0.0002782746    1.046    0.044
        89 -10.6581    144.4958     40.8674   1.0468067111e+01   4.3017541702e+01    0.3209639    0.1694266  48.83  0.001328715    2.008    0.502
        90 -10.1810    107.0006     41.0610   1.8647800266e+01   5.2779825227e+01    0.2313319    0.2092971  51.37 0.0004891375    1.071    0.067
        91 -11.1784    158.9390     39.3204   7.6452617406e+00   3.9492999120e+01    0.2520317     0.235126 -80.52  0.000272209    1.034    0.033
        92  -9.7525     89.8787     39.1775   2.2894810679e+01   5.7360053662e+01    0.2034155    0.1715327  20.31 0.0002894579    1.317    0.241
        93  -9.6213     96.1263     37.9059   2.0411997518e+01   5.6019414857e+01    0.2038172    0.1664076  35.82 0.0004074286    1.270    0.212
        94 -11.7207     27.7070     33.9248   5.0317529870e+01   7.0355032552e+01    0.5383769    0.4018756  -5.42  0.002409364    1.416    0.294
        95 -10.4260    129.8714     36.0394   1.1496219426e+01   4.7527688568e+01    0.2223596    0.2091624  83.39  0.000424773    1.019    0.018
        96 -10.9443    119.1594     34.8975   1.3292525676e+01   5.0514316370e+01    0.2853363    0.2139998  53.36 0.0003989769    1.281    0.220
        97 -10.5666     39.2962     35.5434   4.3784129636e+01   6.8399187403e+01    0.4158905    0.1265647  37.49  0.001437997    3.210    0.689
        98  -9.3064    174.3471     34.7082   4.1885122702e+00   3.6208851498e+01     0.150393   0.09367789 -65.29 0.0007028375    1.665    0.399
        99 -10.2617    139.2860     33.1342   8.7425721287e+00   4.5423521506e+01    0.2541104     0.183795  57.71 0.0007071035    1.343    0.255
       100 -10.3109    153.4977     32.0076   6.1255873779e+00   4.1840194712e+01    0.2195502    0.1831819  81.10 0.0004899856    1.128    0.113
       101  -9.5509     76.5279     32.4899   2.4491252498e+01   6.1598764622e+01    0.1464382    0.1365401  36.40 0.0001935156    1.012    0.012
       102  -9.9945     48.4831     32.4717   3.7090795878e+01   6.7449307263e+01    0.1424418    0.1276114   4.74  0.000808895    1.066    0.062
       103 -10.8543      3.9373     31.3730   6.6607661140e+01   7.3051331824e+01    0.3062195    0.1739832  32.75  0.001445643    1.972    0.493
       104 -10.1915     92.4925     31.0487   1.8514146369e+01   5.7949894761e+01    0.2187363    0.1879678  57.39 0.0003465629    1.088    0.081
       105 -10.2490     17.2653     30.9466   5.6328279314e+01   7.2149297342e+01    0.2488896     0.172299  36.40  0.001151711    1.604    0.377
       106 -10.0959     59.1830     29.8635   3.0403549838e+01   6.5834726227e+01    0.2081471    0.2002858  77.81  0.001218076    1.207    0.171
       107  -9.9325     60.5101     25.9862   2.7768827746e+01   6.6185465736e+01    0.2626081    0.1404571 -28.80 0.0006988186    2.092    0.522
       108 -11.9379     36.4124     29.2856   4.2442040845e+01   7.0077114410e+01    0.6306333    0.2990336  37.88   0.00277457    2.090    0.522
       109 -11.0665    153.2867     27.6858   4.7589491886e+00   4.2423932294e+01    0.2399167    0.2229329  72.46 0.0002748519    1.114    0.103
       110  -9.1284    103.7187     28.2941   1.4249405477e+01   5.5456011778e+01    0.1457828     0.110457 -70.64 0.0002150128    1.535    0.349
       111  -9.8309    160.5222     27.0219   3.5893966415e+00   4.0631084826e+01    0.1979087    0.1353084 -32.12 0.0003621914    1.488    0.328
       112 -10.1821    110.4374     27.4972   1.2312396564e+01   5.3799420216e+01    0.1469273    0.1366415  68.78 8.246976e-05    1.012    0.011
       113 -11.1235     46.9873     26.8216   3.4945801988e+01   6.8735303882e+01    0.2319717    0.2059273 -19.03 0.0003418465    1.112    0.101
       114  -9.3284     49.6614     24.2901   3.2122701821e+01   6.8660272218e+01    0.1477519    0.1288233  12.14  0.000309095    1.095    0.087
       115 -10.6080     82.9135     25.8728   1.9098686813e+01   6.1051917770e+01    0.2293825    0.1859978  29.73  0.000875564    1.284    0.221
       116 -10.7693    136.0776     23.4910   5.8829085031e+00   4.7457585464e+01    0.2127178    0.1913858 -45.27 0.0005669266    1.158    0.136
       117  -9.6419    128.9664     23.9827   7.2442330149e+00   4.9298502342e+01    0.1738279    0.1577432  82.63 0.0003491734    1.006    0.005
       118  -9.8220    240.4872     24.1189   3.5581632987e+02   2.2849249081e+01    0.2463821    0.1057793  58.92  0.001243425    2.823    0.646
       119 -10.6724     98.5027     22.7721   1.3165604476e+01   5.7516971641e+01    0.2667382    0.2372433  62.83 0.0005771128    1.034    0.033
       120 -10.4287     38.1872     22.7359   3.7780479063e+01   7.0997871643e+01    0.2076152    0.1802095 -41.36 0.0003709724    1.258    0.205
       121  -9.4712    208.6464     20.3267   3.5704879571e+02   2.9830649683e+01     0.143133   0.07418916 -58.86 -7.207683e-06    1.769    0.435
       122 -11.0741    109.0495     18.9405   9.0606040430e+00   5.5196524358e+01    0.3675282    0.1798186 -57.24  0.001373561    2.776    0.640
       123  -9.4334     84.7024     20.3274   1.5849424211e+01   6.1338599552e+01    0.1440455    0.1094889 -69.34 0.0003199935    1.633    0.388
       124 -10.3726     67.4654     19.9861   2.1614316971e+01   6.5525659209e+01    0.2831194    0.1767284  37.39  0.001055686    1.601    0.375
       125  -9.3770     48.5497     19.5234   2.9978100523e+01   6.9638097646e+01    0.1362844    0.1249883  18.30 4.747591e-05    1.030    0.029
       126 -10.0509    126.0025     17.0445   5.1396172453e+00   5.0869776279e+01    0.2374533    0.1571032 -66.80  0.001124015    1.645    0.392
       127  -9.2249    116.6310     17.6867   7.0377155949e+00   5.3313042824e+01    0.1566443   0.09871862  40.09 0.0005259531    1.774    0.436
       128 -10.2379     19.8163     16.1739   4.6891439827e+01   7.4880597960e+01    0.2611991    0.1601965 -36.14  0.000984653    1.549    0.354
       129  -9.6745     23.5186     16.5137   4.4191220436e+01   7.4339154562e+01    0.1888335    0.1164981  40.33 -2.918475e-06    1.774    0.436
       130  -9.7535     66.1152     16.1679   2.0042662322e+01   6.6340563646e+01    0.1835504    0.1649812 -89.60 0.0002862377    1.319    0.242
       131  -8.8089    211.3327    226.6677   4.0419616181e+01   2.5872903195e-01   0.09588023   0.08563046  32.41 0.0007052201    1.728    0.421
       132 -12.2592      2.9838    213.3188   8.4489720437e+01   2.8418193911e+01    0.3095882     0.165701 -66.83  0.001782181    2.185    0.542
       133  -9.4400    180.3469    209.6942   4.3483170083e+01   6.4854098690e+00    0.1122804   0.09333543  49.43  0.000704222    1.697    0.411
       134  -9.8693     85.0939     15.5433   1.3377767810e+01   6.1811623675e+01    0.3934096    0.1306498  62.16  0.001366193    2.761    0.638
       135 -10.6316      1.4426    181.0619   8.3859828943e+01   3.5508713577e+01     0.179093    0.1073742  89.27 0.0005051407    1.546    0.353
       136 -10.7682    243.9954    180.0467   2.7506993414e+01   2.0617927516e+00     0.157937    0.1337058 -42.82  0.001004243    1.738    0.425
       137 -10.0522     20.6057    174.7603   7.8407514532e+01   3.5379275787e+01    0.1771621    0.1085103  79.48 0.0004972758    1.551    0.355
       138 -10.8262    224.0450    173.0348   2.9332449838e+01   5.6100038150e+00    0.1692727    0.1466802 -49.89 0.0008588932    1.693    0.409
       139 -10.3488    120.0586     12.9633   4.5433486468e+00   5.2887457257e+01     0.232229    0.1526327  42.47 0.0006000414    1.652    0.395
       140 -10.5024     21.5214    170.0177   7.7848957248e+01   3.6426940632e+01    0.2001531    0.1604977  43.53 0.0005805214    1.139    0.122
       141  -9.3536     39.6784     12.2990   3.0450833596e+01   7.2424247514e+01    0.1222896    0.1083206  87.84 0.0004641121    1.624    0.384
       142 -10.3710     63.3424    162.8829   6.4942880296e+01   3.3419116997e+01    0.2246929    0.1735928  48.79 0.0003197761    1.176    0.150
       143 -11.1334      3.3451    156.5478   8.2345069003e+01   4.1179534866e+01    0.2371107    0.1474918  51.12 0.0007303947    1.395    0.283
       144 -10.0782     39.9276    148.3178   7.0391183098e+01   3.9965751352e+01     0.280545     0.191812 -69.21  0.001429607    1.449    0.310
       145 -10.2400     25.5054    146.2612   7.4815111153e+01   4.1967486147e+01    0.2472244    0.1757329  28.52 0.0006796494    1.417    0.294
       146 -10.6861      6.7468    143.0121   8.0587000962e+01   4.4321422211e+01     0.194084    0.1538146  86.72  0.001151632    1.128    0.113
       147 -11.0482    246.1016    137.9011   1.9377774765e+01   7.2767079176e+00    0.1812129    0.1436323 -35.06   0.00123789    1.238    0.192
       148 -10.2190     28.8301    138.1786   7.2938071271e+01   4.3741242704e+01    0.2061955    0.1700138  62.18 0.0003515164    1.120    0.108
       149  -9.9951     17.6393    138.3253   7.6701911535e+01   4.4701110896e+01    0.1545338   0.08327062  56.62 0.0007042328    1.784    0.440
       150  -9.1271     43.2676    134.7031   6.7611051198e+01   4.3112270190e+01    0.1475243   0.09993905  63.57 0.0001606554    1.516    0.341
