#   1 NUMBER                 Running object number                                     
#   2 MAG_AUTO               Kron-like elliptical aperture magnitude                    [mag]
#   3 X_IMAGE                Object position along x                                    [pixel]
#   4 Y_IMAGE                Object position along y                                    [pixel]
#   5 X_WORLD                Barycenter position along world x axis                     [deg]
#   6 Y_WORLD                Barycenter position along world y axis                     [deg]
#   7 A_WORLD                Profile RMS along major axis (world units)                 [deg]
#   8 B_WORLD                Profile RMS along minor axis (world units)                 [deg]
#   9 THETA_WORLD            Position angle (CCW/world-x)                               [deg]
#  10 FWHM_WORLD             FWHM assuming a gaussian core                              [deg]
#  11 ELONGATION             A_IMAGE/B_IMAGE                                           
#  12 ELLIPTICITY            1 - B_IMAGE/A_IMAGE                                       
         1 -15.4169     26.1161     94.6036   1.3505674944e+02   5.4205196932e+01     1.823734     1.314455  -6.84   0.01117412    1.917    0.478
         2 -15.2040     55.8325     70.8796   1.1976968868e+02   5.6471345946e+01     1.976869     1.560781  40.45  0.003839513    1.459    0.315
         3 -15.0913    122.6697     36.7425   8.6724123171e+01   5.0406437896e+01     1.570855    0.8387181  45.29  0.003972638    1.807    0.447
         4 -15.4952      6.9698     69.7048   1.3706208058e+02   6.1043177946e+01       1.4004    0.6887565 -66.66  0.004048651    1.568    0.362
         5 -15.2614    119.4730     54.7576   9.4094397794e+01   4.8325678187e+01     1.858499    0.9813167  34.32   0.00728735    2.318    0.569
         6 -13.6994    187.0044     13.3376   6.7107094129e+01   3.6711644808e+01     1.166909    0.7398279  25.35  0.004022592    2.182    0.542
         7 -12.4200    194.9075     23.7158   6.9139653389e+01   3.3483605715e+01    0.7051725    0.3325442 -28.94  0.002185129    2.172    0.540
         8 -13.5268     53.4636     29.3382   1.0623469567e+02   6.4734554266e+01     1.342178    0.6773266  11.83   0.00515986    3.960    0.747
         9 -14.9547     42.4711      8.1794   1.0109033166e+02   6.9395289616e+01     1.697914     1.093608 -16.00   0.00809072    1.405    0.288
        10 -13.5727      8.1255      3.2289   1.1621597877e+02   7.3751797481e+01    0.8470783    0.6647733  38.39   0.00544595    1.938    0.484
        11 -13.7905     25.7816     32.3308   1.1948697130e+02   6.7358652180e+01     1.089465    0.7002505 -67.08  0.006198598    2.133    0.531
        12 -15.0567      8.2239     29.4645   1.2670595925e+02   6.9200212886e+01    0.8721251    0.7812151  35.49  0.006825139    1.514    0.340
        13 -15.1466     13.6476     20.6008   1.2086669783e+02   7.0455049333e+01     1.157591    0.5555335 -33.83  0.006633629    1.794    0.443
        14 -13.9440     24.8308     14.2925   1.1253109360e+02   7.0555057715e+01      0.55421    0.3985757  19.75  0.002576255    1.495    0.331
        15 -12.8001    139.4138     21.6527   7.7383210466e+01   4.8236546777e+01    0.6568299    0.5265348  77.59 0.0005892144    1.323    0.244
        16 -14.8505    166.5110     30.4456   7.5412238332e+01   4.0166955405e+01     1.627524     0.835972  67.93  0.003472064    1.931    0.482
        17 -14.4214    145.8034     30.8048   7.9363205549e+01   4.5507177051e+01      1.17349    0.6404707  59.27  0.004495694    1.714    0.417
        18 -12.2274     97.2570     28.4551   9.0398745870e+01   5.7209871898e+01    0.5575712    0.2903397 -27.59  0.002537014    1.938    0.484
        19 -13.1984    232.1178      2.5266   5.9737756003e+01   2.6390282047e+01     1.513632    0.3967821  63.55  0.004985572    3.293    0.696
        20 -12.4479    222.9306     21.4969   6.5310561752e+01   2.6563981071e+01     0.409541    0.3693184  73.48  0.001264939    1.145    0.127
        21 -13.2567    215.1224     20.8474   6.5961203270e+01   2.8600335562e+01    0.5927069    0.4871927  14.99  0.002018844    1.584    0.369
        22 -13.7914    218.6477     15.1377   6.4093915731e+01   2.8358815456e+01    0.7893679    0.5884785  42.71  0.003789547    1.607    0.378
        23 -13.3376    215.2337      9.6027   6.2982938481e+01   2.9816221149e+01    0.7984877    0.3950043  59.11   0.00263078    1.961    0.490
        24 -15.6689     99.8834     12.8733   8.3055671479e+01   5.8564124115e+01     1.489305    0.7370576  52.13  0.003188835    1.853    0.460
        25 -11.9292    202.2173     11.1329   6.4717781179e+01   3.2976704032e+01    0.3250421    0.2578253  25.69  0.000784251    1.593    0.372
        26 -11.8312    162.4451      8.6139   6.8932725102e+01   4.3647155498e+01    0.3630589    0.2427334  85.33  0.001787138    1.552    0.356
        27 -11.3226    126.0441      8.8040   7.5255496800e+01   5.2906337516e+01    0.2579843     0.206376 -26.68  0.001344028    1.347    0.257
        28 -12.1594    121.3627      4.3181   7.4446741514e+01   5.4453453089e+01    0.3842762    0.2378536  86.05  0.001782354    2.159    0.537
        29 -14.0811    190.1888     27.2031   7.0785575106e+01   3.4308277276e+01     1.493956    0.5502866 -46.40  0.005267432    2.922    0.658
        30 -10.9221     67.7441      3.6219   8.8605729142e+01   6.5949408764e+01     0.256483    0.1692224  11.59  0.001297013    1.501    0.334
        31 -11.5806     26.3237      3.8602   1.0661503689e+02   7.1966098385e+01    0.2451077    0.1575842   3.40  0.001263771    1.551    0.355
        32 -12.0424     81.0092      1.8817   8.3418371013e+01   6.3612171847e+01    0.5559744    0.1432962  50.17  0.002113507    3.158    0.683
        33 -11.2961     59.3776      2.2139   9.0939543290e+01   6.7553766507e+01    0.2364771    0.1807658 -21.06  0.001535381    1.276    0.216
        34 -10.6146     62.4832      1.5059   8.9410512207e+01   6.7100229771e+01     0.205134    0.1341488  37.28 0.0007236248    1.414    0.293
        35 -11.2566    153.7861      8.0421   7.0043419579e+01   4.5960232435e+01    0.2457521    0.1863764  66.29 0.0003717827    1.195    0.163
        36 -10.5136    107.5285    193.0299   1.2923444949e+02   2.1456703885e+01    0.1851594    0.1251818 -62.36  0.001026644    1.586    0.369
        37 -12.8921     58.1566    245.9798   1.4364887888e+02   1.8899198075e+01     0.826318     0.448366  29.76  0.004628859    2.871    0.652
        38 -11.3121     41.3023    250.1004   1.4662931724e+02   2.0270827980e+01    0.1780207    0.1215447 -89.97  0.001388349    1.363    0.266
        39 -13.8454     27.2927    244.7124   1.4856526868e+02   2.2758948862e+01    0.9853787    0.4868322  88.86  0.006680586    1.782    0.439
        40 -12.6793     15.9755    197.6103   1.4797080927e+02   3.2551346994e+01    0.5042734    0.1968664 -60.93  0.002423704    2.837    0.648
        41 -13.7520      9.8448    210.6018   1.4976257805e+02   3.0644878761e+01    0.7295995    0.5090181  49.16  0.005425126    1.423    0.297
        42 -12.2227     24.7465    217.0859   1.4753215989e+02   2.7928534929e+01    0.4635239    0.2746834  69.86  0.002623408    1.266    0.210
        43 -13.5499     25.7018    227.6805   1.4795415757e+02   2.5891110030e+01    0.6383173     0.312199 -60.75  0.003919851    2.593    0.614
        44 -13.5794     20.3414    224.4232   1.4867872529e+02   2.7045838162e+01    0.4144963    0.3432462  78.97  0.001625554    1.313    0.238
        45 -11.8882      2.9675    249.9863   1.5248383696e+02   2.4397999644e+01     0.254534    0.1319199  54.94  0.001955105    1.358    0.264
        46 -14.1919      9.1704    245.6388   1.5140150394e+02   2.4503280159e+01    0.7099168    0.3279014  59.53  0.003041721    1.479    0.324
        47 -10.8437     81.0851    193.3781   1.3479478364e+02   2.5510521616e+01    0.2694684     0.106424  40.73  0.001216901    2.325    0.570
        48 -12.4355     97.8752    188.1362   1.3062478165e+02   2.4008850143e+01    0.3573484    0.1982408  53.39  0.001811543    1.632    0.387
        49 -12.0325    109.9951    183.1270   1.2732508220e+02   2.3034963772e+01    0.3976812     0.267276  20.28  0.001895599    2.363    0.577
        50 -12.3516     48.7975    180.9117   1.4022719939e+02   3.2416401044e+01    0.5061039    0.2621977 -62.69  0.002785916    1.899    0.473
        51 -11.4627    198.6766    183.2190   1.0891975085e+02   6.3490701014e+00       0.2925    0.1691195  35.27  0.001372319    1.639    0.390
        52 -11.5846    122.5851    181.9574   1.2441795905e+02   2.1080784831e+01    0.4458407    0.2572127  79.20  0.001787375    2.967    0.663
        53 -12.8820     85.2525    179.1680   1.3218227212e+02   2.7840248586e+01    0.4642881    0.2951193  66.21  0.002493147    1.546    0.353
        54 -12.0327    194.6913    177.9060   1.0867505414e+02   7.9854699063e+00     0.303138     0.272281  56.32  0.001030529    1.224    0.183
        55 -11.3070     36.6132    182.2570   1.4287447656e+02   3.3534887548e+01    0.1649165    0.1527357 -14.12  0.001176568    1.732    0.423
        56 -13.3077    124.1272    166.8851   1.2159699370e+02   2.3893404021e+01    0.6929359    0.4345821 -72.24  0.003214425    1.967    0.492
        57 -10.9764    177.4952    167.4899   1.1008405312e+02   1.3235583991e+01     0.143418    0.1320846  36.28 0.0001837705    1.007    0.007
        58 -10.9580    101.7914    161.3912   1.2582773129e+02   2.9034952377e+01    0.1931471    0.1301061  32.30 0.0009546786    1.733    0.423
        59 -11.4602     27.7638    158.7563   1.4269239016e+02   3.9502409176e+01    0.2911981    0.1716729 -83.41  0.001739327    1.408    0.290
        60 -12.4575     25.2257    155.8497   1.4299367750e+02   4.0385808433e+01    0.4021586    0.3381031 -17.80  0.002758249    1.875    0.467
        61 -12.4069    238.9777    159.5983   9.6794630681e+01   2.2888937401e+00    0.5700606    0.1020091  44.04   0.00160155    5.319    0.812
        62 -12.5338     85.6175    153.4065   1.2840292458e+02   3.3436001229e+01     0.639258    0.5931312  45.74  0.003960645    1.233    0.189
        63 -12.7298     77.6301    157.1945   1.3090261295e+02   3.3785262960e+01    0.6697319    0.3466508  46.79  0.002197871    1.858    0.462
        64 -13.2013     74.2041    153.5974   1.3119891227e+02   3.5093281285e+01    0.7119278    0.4697106  37.06  0.002987518    1.652    0.395
        65 -12.7985    111.9287    155.8524   1.2248786674e+02   2.8483861358e+01    0.6322727    0.3859884  73.51  0.002712167    2.257    0.557
        66 -11.8461     55.1606    156.2737   1.3611716949e+02   3.7026867188e+01    0.3912195    0.2599586  19.85  0.001749966    2.245    0.554
        67 -13.0680    208.3290    154.7740   1.0129544620e+02   9.1054359693e+00    0.7194184    0.3642003  47.44   0.00309654    1.934    0.483
        68 -12.2876     41.7688    150.3972   1.3858877020e+02   3.9913141132e+01    0.2579969    0.1981179  73.19  0.001606976    1.168    0.144
        69 -11.9388      6.7247    148.8053   1.4655571604e+02   4.3515558497e+01    0.4810953    0.2067443 -74.76  0.002658387    1.805    0.446
        70 -11.1730    188.0000    155.9879   1.0555756951e+02   1.3139215185e+01    0.2334852   0.08326382 -40.69 0.0008030572    2.947    0.661
        71 -12.0029    103.5578    149.7492   1.2341213083e+02   3.1313434231e+01     0.339909    0.3030114 -35.13  0.001421927    1.371    0.271
        72 -11.7119    245.2046    148.0727   9.3286235313e+01   2.8238231670e+00    0.2760217    0.2532575 -45.45  0.001693678    1.294    0.227
        73 -12.5343    122.3695    156.1488   1.2007598458e+02   2.6501938124e+01    0.4268006    0.3825128  11.26  0.002379536    1.401    0.286
        74 -11.6383     44.5797    145.3446   1.3730457167e+02   4.0748255486e+01    0.2161122    0.1885436 -76.78 0.0005167949    1.152    0.132
        75 -11.7058     38.4783    145.7248   1.3883775206e+02   4.1323323246e+01    0.2331642    0.1953154 -87.36 0.0007367703    1.057    0.054
        76 -11.9212    148.9845    141.1830   1.1080786581e+02   2.4349271729e+01    0.4398758    0.3558601  66.79  0.002214202    1.317    0.241
        77 -10.8917    162.6674    142.6831   1.0803973963e+02   2.1107124982e+01    0.1532304    0.1196345   8.63 0.0003553717    1.689    0.408
        78 -11.4393     88.5980    141.0245   1.2558151312e+02   3.5788396759e+01    0.3716222    0.2532817  23.71  0.001805671    1.999    0.500
        79 -12.9646     43.7532    138.6370   1.3665613890e+02   4.2374304544e+01    0.7756813    0.3644779 -52.08  0.002903822    2.215    0.548
        80 -10.8969     39.1927    136.3986   1.3752275450e+02   4.3375969950e+01     0.218638    0.1736113  38.97 0.0008459362    1.453    0.312
        81 -10.3425     15.0343    139.0484   1.4379215686e+02   4.5006969576e+01    0.1357653    0.1125019  83.64 0.0004794472    1.109    0.098
        82 -10.7806     56.5151    137.5016   1.3324084442e+02   4.1149574129e+01    0.2217888    0.1651368 -41.10 0.0009561444    1.672    0.402
        83 -12.3649    246.3244    135.0660   9.0238484035e+01   4.5637678132e+00    0.3944368    0.3026243 -87.37  0.001995372    2.140    0.533
        84 -11.9972     62.7344    134.3346   1.3113914186e+02   4.1094754263e+01    0.4626591    0.2713897  49.27  0.002065584    1.757    0.431
        85 -11.7219    137.0189    133.1790   1.1185448284e+02   2.8564560436e+01    0.3381681    0.2262453  33.44 0.0009522901    1.695    0.410
        86 -12.9061    132.9321    132.4774   1.1269058060e+02   2.9563440915e+01    0.9763359    0.3769712 -49.94  0.003424133    2.651    0.623
        87 -12.2666    110.7300    131.7782   1.1810791986e+02   3.4076446765e+01    0.5414553    0.4372018  15.87  0.002740389    1.636    0.389
        88 -13.5555    134.7569    103.2234   1.0501780784e+02   3.5478692145e+01     2.053419    0.4535906  49.77  0.005052527    5.040    0.802
        89 -12.7330    109.9456     96.0749   1.0971547351e+02   4.2213236796e+01    0.4385747    0.3331424  87.50 0.0003400911    1.756    0.431
        90 -14.5100    105.4048    123.2580   1.1765767427e+02   3.6990985690e+01     2.595764     1.106206  36.53  0.009598404    2.687    0.628
        91 -14.8799    106.1521    108.2485   1.1394250798e+02   4.0251419200e+01     1.861582     1.456976 -63.44  0.009162079    1.292    0.226
        92 -13.8076     91.6585    109.1952   1.1824198910e+02   4.2627295855e+01      1.07284    0.8186518  23.06  0.005479134    1.621    0.383
        93 -12.3650    223.0636    128.1972   9.2576212945e+01   1.0448429368e+01    0.3647146    0.3141235 -63.24   0.00197288    1.386    0.278
        94 -13.0166     62.4272    102.6616   1.2538226043e+02   4.8517382144e+01     1.295066    0.4937989 -62.20  0.005078534    2.513    0.602
        95 -13.5370     28.2126    123.3552   1.3870912756e+02   4.7437231287e+01     1.044472    0.4797539 -58.03  0.005362995    1.878    0.467
        96 -13.1584     32.4551    111.2603   1.3583764193e+02   4.9835987078e+01    0.5761029    0.3459116 -79.46  0.003191062    1.525    0.344
        97 -12.5926      4.0586    119.8662   1.4467429762e+02   5.0085637384e+01    0.4252204    0.2591875  30.15  0.002182847    2.003    0.501
        98 -13.1242      5.6982    112.0627   1.4343224339e+02   5.1723477527e+01    0.8853053    0.4085484  82.33  0.004405913    2.411    0.585
        99 -14.0020      2.6917     96.8515   1.4252107456e+02   5.5299873478e+01    0.8873574    0.4299238 -81.54  0.003877544    1.774    0.436
       100 -14.5703     18.0438    111.1646   1.3991603647e+02   5.1066490165e+01    0.8760966    0.6584903 -77.45  0.002524566    1.059    0.055
       101 -11.6124    234.7191    249.0005   1.1352419766e+02  -8.2550992833e+00    0.1603727    0.1214918  19.80  0.001183342    1.053    0.050
       102 -12.7529    231.5617    134.3278   9.2520052386e+01   7.6544818262e+00    0.3785225    0.3067397  44.27  0.002082475    1.274    0.215
       103 -11.6310    184.9171    124.1271   9.8891006614e+01   1.9738046506e+01     0.299869    0.2562298  82.13 0.0006869001    1.375    0.273
       104 -12.2793    180.7974    121.1028   9.9003138738e+01   2.1266761878e+01    0.4430431    0.3154113  36.75  0.001400025    1.483    0.326
       105 -11.3896     85.1273    110.2208   1.2034422450e+02   4.3468264667e+01    0.2047147    0.1845601 -40.48 0.0008019757    1.180    0.153
       106 -13.8491     48.0736     96.8898   1.2860122969e+02   5.1576155069e+01     1.226218    0.9364461  48.59  0.007351207    1.483    0.326
       107 -12.3166    120.9680    111.6595   1.1079147946e+02   3.6587321334e+01    0.4184651    0.3020568  72.90  0.001476969    1.753    0.430
       108 -10.5468     42.4977    113.5130   1.3331392382e+02   4.8327657975e+01    0.1902895    0.1281729  31.20 0.0008397294    1.751    0.429
       109 -11.9613     46.3258    109.5136   1.3152368426e+02   4.8848670522e+01    0.4335486    0.2843088 -49.13  0.001804507    1.487    0.328
       110 -11.1915    175.4840    111.4841   9.7687194191e+01   2.4365206386e+01    0.1534166    0.1523126  53.15 0.0001413433    1.001    0.001
       111 -10.9769    222.4985    109.6604   8.8212857235e+01   1.3663418567e+01     0.252498    0.1381483  53.51  0.001073284    1.908    0.476
       112 -12.8887    137.2156     96.2782   1.0248366573e+02   3.6377495558e+01    0.5569075    0.4044076 -50.48  0.001623341    1.401    0.286
       113 -10.9633    249.6583    100.3392   8.1705865634e+01   9.1991944165e+00    0.1460352    0.1023204 -61.84 -0.0002203689    1.770    0.435
       114 -12.0741    127.8327     95.8178   1.0477461343e+02   3.8555596695e+01    0.4224962    0.2576819  63.62  0.001692652    2.119    0.528
       115 -10.4370     82.4819     96.4914   1.1786089364e+02   4.7026821356e+01    0.1415138    0.1302357 -55.21 5.662191e-05    1.016    0.016
       116 -11.2610     76.0134     95.7806   1.1965644965e+02   4.8189968547e+01    0.2188349    0.1818671 -56.67 0.0002416137    1.096    0.088
       117 -13.5049     84.6547    115.5932   1.2166111805e+02   4.2302216050e+01     1.173499    0.6367625  27.41  0.004954112    2.485    0.598
       118 -14.0047    188.1966     84.3333   8.7752853287e+01   2.6261107504e+01     1.986911     1.120971  73.32  0.006669884    2.499    0.600
       119 -14.6514    160.8283     80.5593   9.2297987798e+01   3.3814086581e+01     1.789073     1.148675  22.81  0.001147149    2.344    0.573
       120 -13.6819    170.0036     77.5007   8.9421243983e+01   3.2061940288e+01    0.8824773    0.6886133   6.18  0.002735628    1.653    0.395
       121 -11.8111     89.6534     87.6492   1.1334675874e+02   4.7802915932e+01    0.4652427    0.2666453  50.88  0.002058927    2.014    0.504
       122 -11.9398    125.5100     86.7183   1.0277502423e+02   4.0947617175e+01    0.4885235    0.3500226  55.87  0.002271684    1.482    0.325
       123 -12.5074    131.5584     85.5406   1.0083238064e+02   3.9841016970e+01    0.7251183    0.4135987  64.95  0.002724763    2.438    0.590
       124 -10.5060     79.0348     87.5088   1.1660121179e+02   4.9579940278e+01    0.1955867    0.1399971  38.64 0.0004428961    1.520    0.342
       125 -12.3932    241.8263     83.8396   7.8833476874e+01   1.3424597167e+01    0.4960719    0.2984562  60.99   0.00216615    1.816    0.449
       126 -13.2216    238.4452     80.3278   7.8438318289e+01   1.4724956670e+01    0.6122076    0.3865281  70.59  0.002371431    1.859    0.462
       127 -10.9039     98.2775     84.1513   1.0974274388e+02   4.7013677571e+01    0.2548468    0.1855268  73.52 0.0006017491    1.917    0.478
       128 -11.5540    219.5918     75.1986   7.9884286580e+01   1.9967947074e+01    0.2565211     0.221605  63.12 0.0005963352    1.196    0.164
       129 -12.6358    217.4461     79.6610   8.1391171488e+01   1.9782082343e+01    0.5778166    0.4619402   2.26   0.00193229    1.543    0.352
       130 -12.9250    210.6578     77.2534   8.1840195174e+01   2.1832674834e+01    0.6825204    0.4860561 -80.59  0.002402484    1.799    0.444
       131 -11.0983     90.0164     81.0026   1.1134428139e+02   4.9173575141e+01    0.3210988    0.2733645  77.62  0.001187544    1.422    0.297
       132 -10.9195     92.5071     78.5030   1.0983216782e+02   4.9260697224e+01    0.2718889    0.2391467  55.52 0.0009059886    1.252    0.201
       133 -13.7204    106.8903    247.0462   1.3542462234e+02   1.1973401488e+01     1.411798    0.6924049  73.37  0.006693575    3.204    0.688
       134 -13.1537    111.1699     42.0705   9.1764135612e+01   5.2239653499e+01    0.6106036    0.3088422  43.94  0.001393684    1.950    0.487
       135 -13.4839     95.9446    236.6711   1.3638783529e+02   1.5280944093e+01    0.5883407     0.464785  43.45  0.002489473    1.325    0.245
       136 -14.0924     91.1273    231.7193   1.3679354250e+02   1.6829867200e+01     1.065295    0.4735239  63.16  0.005186851    2.473    0.596
       137 -13.1124    134.9443     79.5640   9.8156592406e+01   4.0245645050e+01    0.8921313    0.4404447  52.86  0.002722615    2.093    0.522
       138 -13.5220    133.7192     67.0587   9.4519280665e+01   4.2876715302e+01     1.252947    0.8078771  42.61  0.005293617    1.582    0.368
       139 -12.1880     41.8813     77.1991   1.2630432477e+02   5.6678121635e+01    0.3159612    0.2359249 -54.36 0.0005375863    1.122    0.108
       140 -13.7177    198.3111     70.7574   8.2118304022e+01   2.5981207707e+01     1.092729    0.5786033  41.85  0.003354923    2.212    0.548
       141 -11.6812      5.8890     50.9829   1.3364312103e+02   6.5066103962e+01    0.3270133    0.1794968 -55.70  0.001150765    1.345    0.257
       142 -12.0006    113.8396     80.7416   1.0419161473e+02   4.4659319041e+01    0.3987975    0.3809391 -49.85  0.001339884    1.040    0.039
       143 -11.6450    158.1738     64.1431   8.7861854123e+01   3.7377058554e+01    0.4486453    0.1974785 -44.16  0.001602929    2.382    0.580
       144 -14.5231    101.6181     50.4761   9.7663217986e+01   5.2897642800e+01     1.343778    0.7506363  39.73  0.004176748    1.849    0.459
       145 -10.4211     28.9985     64.2695   1.2780372280e+02   6.0691792314e+01    0.1694231     0.134576 -50.79 0.0005400592    1.022    0.022
       146 -13.1818     79.2398     60.2643   1.0832706883e+02   5.5250802987e+01    0.6866928    0.5000461 -17.18  0.003568941    1.571    0.363
       147 -13.8017    177.9148     57.7257   8.1940253930e+01   3.3321459939e+01    0.7882029    0.6345066 -65.74  0.002105776    1.353    0.261
       148 -12.6616     39.1097     60.5236   1.2297877425e+02   6.0547536798e+01    0.3160461    0.2727376  72.14  0.002056568    1.505    0.336
       149 -12.2860     24.5145     60.2817   1.2851259211e+02   6.1904483696e+01    0.2616596    0.1937969 -54.67 0.0006572719    1.091    0.083
       150 -13.3210    171.1369    242.1664   1.2347478233e+02   2.5019099943e+00    0.7661397    0.3625832  41.02  0.004122534    1.647    0.393
       151 -11.6459    248.7953     55.5962   7.1040010260e+01   1.5969672899e+01    0.3973236    0.2638906 -72.46  0.001453393    1.725    0.420
       152 -12.4629    250.1545     48.8121   6.9252557741e+01   1.6588455832e+01    0.5011115    0.3509776   5.45 0.0005057804    2.193    0.544
       153 -11.5367    231.3597     55.4741   7.3106045739e+01   2.0066167225e+01    0.3012733    0.2400634  80.72  0.001346122    1.302    0.232
       154 -13.4153     66.3483     50.8001   1.0958313489e+02   5.9096868654e+01    0.9790981    0.5017346 -39.85  0.004645661    1.777    0.437
       155 -11.8826     66.5850     38.7812   1.0497577114e+02   6.1223712162e+01    0.4712272     0.273335 -53.10  0.001594485    2.182    0.542
       156 -12.8878     75.7757     37.5739   1.0115009013e+02   5.9923257527e+01    0.4097148    0.2672533  29.70 0.0008038912    1.612    0.380
       157 -11.9899     70.5140     36.5129   1.0261403518e+02   6.0978519246e+01    0.3527045    0.2305817  25.64  0.001207097    1.650    0.394
       158 -13.8663     77.7290     72.6033   1.1278187782e+02   5.2998912076e+01     1.595152    0.7495602  21.68  0.005272531    4.335    0.769
       159 -11.3688     86.3966     49.5511   1.0213468264e+02   5.6001798123e+01    0.2356921    0.2172885 -16.34  0.000588234    1.023    0.023
       160 -10.5740     23.1610     49.9407   1.2629649963e+02   6.4154964298e+01    0.1680064    0.1460724 -65.71 0.0005464284    1.245    0.197
       161 -12.4721    169.1866     43.3722   7.9086330456e+01   3.7742130946e+01    0.5770822    0.2771676  56.72  0.001658887    1.940    0.485
       162 -13.0135    153.7174     46.6168   8.3138369629e+01   4.1296917990e+01    0.8557399    0.2725554  54.08   0.00252269    2.827    0.646
       163 -14.0333     87.7287     65.5277   1.0727128827e+02   5.2760222239e+01     1.123584    0.6241518 -25.78  0.003865632    2.437    0.590
       164 -11.9377    201.2760     45.8877   7.4617672874e+01   2.8968547399e+01    0.3957046    0.2349471 -65.51  0.001642293    2.095    0.523
       165 -12.5508    146.4660    238.3576   1.2742920769e+02   7.0886560844e+00    0.4769849    0.2857214  65.40  0.002566804    2.076    0.518
       166 -10.3742    136.6352    237.2978   1.2908906982e+02   8.8505951318e+00    0.1257321   0.07696651  62.63 0.0007032595    1.722    0.419
       167 -14.1993    217.8009     42.0333   7.1306698071e+01   2.5270055895e+01     1.351057    0.5680601  62.19  0.004876954    2.289    0.563
       168 -13.2699    159.0266     43.4966   8.1040046355e+01   4.0379909171e+01    0.8331557    0.3815008  59.83  0.002646044    2.089    0.521
       169 -11.8992     16.3717    235.1012   1.4984228762e+02   2.5564422443e+01    0.3191021   0.09877986  64.12  0.001650401    2.745    0.636
       170 -13.4147      8.7482     43.0148   1.3046602084e+02   6.6530994835e+01    0.8082433    0.6005165  54.78  0.005465013    1.922    0.480
       171 -12.7428     34.2892     33.0791   1.1594384491e+02   6.6407015622e+01    0.4040646    0.2848897  41.12  0.001765005    1.858    0.462
       172 -11.9702    235.2134    229.4058   1.1041638706e+02  -6.2304498715e+00    0.1653704    0.0954115  44.86  0.000957878    1.731    0.422
       173 -13.5649     57.4853    203.8725   1.4057634556e+02   2.6641743795e+01    0.7902831    0.3614122 -75.52  0.004198658    2.140    0.533
       174 -12.5882     53.0346    214.2705   1.4227489853e+02   2.5194438961e+01    0.5143368     0.236584  65.10  0.002769983    2.027    0.507
       175 -13.5843     67.0135    223.3268   1.4043873754e+02   2.1700837862e+01     0.745922    0.5084752  40.32   0.00492594    1.544    0.353
       176 -14.6548     62.8856    215.1511   1.4051760118e+02   2.3765454582e+01     1.336962    0.5237095  54.81  0.006720692    2.178    0.541
       177 -13.4228     98.8724    216.5458   1.3381683668e+02   1.8361218779e+01    0.5224097    0.3959732 -58.35  0.003382538    1.596    0.373
       178 -13.5945    205.1745     40.1372   7.2447042721e+01   2.8745274760e+01     1.038326    0.4957914  86.62  0.003562958    3.224    0.690
       179 -11.0172     25.7968     42.9129   1.2308248136e+02   6.5344764160e+01    0.1851714    0.1280193 -37.34 0.0004157471    1.208    0.172
       180 -12.5805    242.4925     36.1703   6.6992279268e+01   2.0021730997e+01    0.7225305    0.3419294  74.44   0.00310175    2.278    0.561
       181 -11.7274    104.7993     36.7952   9.1542599776e+01   5.4423985180e+01    0.3788752    0.1929593 -31.53  0.001648794    1.961    0.490
       182 -11.2335     51.3448     36.5482   1.1004212469e+02   6.3794144400e+01    0.3223871    0.1467346  33.43  0.001539918    2.409    0.585
       183 -11.2028    249.0004    225.4907   1.0748569299e+02  -7.8854799104e+00     0.181568   0.09412552  36.90  0.001045832    1.629    0.386
       184 -11.2779    204.5358    217.9777   1.1391719068e+02   1.6644888794e-01    0.1700653    0.1218757 -31.84 0.0008135476    1.610    0.379
       185 -12.5056    152.2764     31.3999   7.8298164354e+01   4.3767499171e+01     0.429918    0.3106451  -4.68  0.001231437    1.669    0.401
       186 -11.1583     85.4546    215.7854   1.3631083303e+02   2.0513330323e+01    0.2326783      0.14356  48.38  0.001396475    1.359    0.264
       187 -11.5299    211.3496     33.3348   6.9763981148e+01   2.8044928559e+01     0.263054    0.2199177 -67.52 0.0003462388    1.144    0.126
       188 -11.0430    185.4670    213.9668   1.1678275116e+02   4.0489139632e+00    0.1594386     0.113034 -75.03 0.0008096204    2.555    0.609
       189 -10.8795    157.4851    213.5079   1.2204383944e+02   9.0828642962e+00    0.1301302    0.1082739  46.19 0.0008104366    1.010    0.010
       190 -13.0477    216.1277     28.8445   6.7980957693e+01   2.7390714605e+01    0.4998766    0.3333921 -64.91  0.001426875    1.541    0.351
       191 -10.9196    136.7065    211.0067   1.2574541508e+02   1.3145206780e+01    0.1730291    0.1585478  67.80 0.0008714584    1.125    0.111
       192 -13.1967     94.4868    218.7586   1.3489144996e+02   1.8626143598e+01    0.4143799    0.2674239  57.90  0.001894408    1.273    0.215
       193 -10.8501     39.6984    210.9785   1.4448196418e+02   2.7425192867e+01    0.2621716    0.1088723  47.21   0.00146735    1.949    0.487
       194 -11.2508     80.3093    208.3098   1.3655269172e+02   2.2672126521e+01    0.2609423    0.1352676  67.42  0.001329819    2.027    0.507
       195 -10.8778    149.5394    206.9255   1.2262858117e+02   1.1592471579e+01    0.2483614    0.1634499  33.21  0.001027793    1.537    0.350
       196 -10.6260     60.3475     15.9478   9.7428805338e+01   6.5715149532e+01    0.1796901     0.142364 -16.49 0.0006792589    1.117    0.104
       197 -12.5960     41.8721    201.1337   1.4335339495e+02   2.9090862817e+01     0.261113     0.174571  87.90  0.001362026    1.249    0.199
       198 -10.4217    140.3356     10.6861   7.3228893461e+01   4.9163480083e+01    0.1433793    0.1038335 -67.17 0.0004420245    1.689    0.408
       199 -13.4299     39.3229    195.1688   1.4338185340e+02   3.0577139280e+01    0.5597363      0.33779  65.83  0.003550821    1.370    0.270
       200 -10.7147    212.4549    200.5012   1.0951116387e+02   1.2003371171e+00    0.1311609    0.1084438  21.13 0.0001319044    1.052    0.050
       201 -12.8161    164.4577    195.1648   1.1780263357e+02   1.0881938431e+01    0.6550738    0.4069845 -71.44  0.002934258    2.766    0.638
       202 -11.4190     70.7358     16.9769   9.4021925152e+01   6.3837652578e+01    0.2072272    0.1743672  33.97 0.0004067829    1.228    0.186
       203 -13.4385     29.9507    169.8698   1.4320969846e+02   3.6870175125e+01    0.6869449    0.5594857 -28.35  0.003313333    2.004    0.501
       204 -14.4941     13.9563    157.6508   1.4564960660e+02   4.1010091815e+01     2.116559     0.960152 -47.21   0.01028067    3.317    0.699
       205 -13.9283     22.3950    181.1154   1.4566180097e+02   3.5255138714e+01    0.6575565    0.5262676 -70.02  0.003631777    1.406    0.289
       206 -14.9856      8.4497    183.4868   1.4854878645e+02   3.6072880735e+01     1.012702    0.7846396  78.96  0.007847829    1.108    0.097
       207 -14.1244     15.6446    175.6437   1.4662925739e+02   3.7036047222e+01    0.9407583    0.3899447  62.58  0.004624447    2.241    0.554
       208 -12.7226    201.4941    191.4642   1.0991703184e+02   4.5258379950e+00    0.4489641    0.3384508  14.92  0.001903565    1.396    0.284
       209 -11.2390     76.5006     23.7280   9.5048005040e+01   6.1900573434e+01    0.2863072    0.2247251  49.55  0.001685778    1.460    0.315
