#   1 NUMBER                 Running object number                                     
#   2 MAG_AUTO               Kron-like elliptical aperture magnitude                    [mag]
#   3 X_IMAGE                Object position along x                                    [pixel]
#   4 Y_IMAGE                Object position along y                                    [pixel]
#   5 X_WORLD                Barycenter position along world x axis                     [deg]
#   6 Y_WORLD                Barycenter position along world y axis                     [deg]
#   7 A_WORLD                Profile RMS along major axis (world units)                 [deg]
#   8 B_WORLD                Profile RMS along minor axis (world units)                 [deg]
#   9 THETA_WORLD            Position angle (CCW/world-x)                               [deg]
#  10 FWHM_WORLD             FWHM assuming a gaussian core                              [deg]
#  11 ELONGATION             A_IMAGE/B_IMAGE                                           
#  12 ELLIPTICITY            1 - B_IMAGE/A_IMAGE                                       
         1 -14.1538    178.4823     78.7708   6.8257814792e+01   2.9493659909e+01     8.521181     3.420691 -56.08   0.01869237    6.924    0.856
         2 -11.0623    216.6117     14.7092   4.3709104780e+01   2.8775225399e+01    0.9843524    0.4645079 -68.83  0.003861148    2.693    0.629
         3 -14.5759    214.1892     70.8125   5.9809765544e+01   2.1997738178e+01     10.83538     3.913841 -49.29   0.02712087    3.708    0.730
         4 -11.8221    233.0036      6.6594   4.0187479084e+01   2.5632593038e+01     1.125533    0.5081005 -12.78  0.004509091    3.010    0.668
         5 -13.6294    228.0868     59.2725   5.4710870610e+01   2.0380325731e+01     2.726247     1.651098  88.10  0.007527331    2.313    0.568
         6 -12.4363    248.4358      6.1605   3.8982255016e+01   2.2122928084e+01     1.166041    0.5424556  -5.54  0.004283091    4.130    0.758
         7 -15.1102    237.8237     33.3413   4.6708622295e+01   2.1503844685e+01     8.345865     1.644158  61.40   0.02650724    4.387    0.772
         8 -10.5691    145.1735     26.4633   5.7209254028e+01   4.6141020252e+01     0.725576    0.3396413 -19.40  0.002743407    2.397    0.583
         9 -11.2430    143.1582      9.3373   5.1045873967e+01   4.8559401112e+01     1.556094    0.4863831 -12.25  0.004370864    4.950    0.798
        10 -10.1358    125.9965     14.4860   5.6279321026e+01   5.2457875900e+01    0.4234186     0.340523 -47.93  0.001529414    1.377    0.274
        11 -12.0392    119.1353      9.9379   5.5783679358e+01   5.4646735618e+01    0.8439982    0.6760022  52.19  0.002849415    1.182    0.154
        12  -9.4970    178.6244     11.3672   4.6741571735e+01   3.8948044782e+01    0.5096441    0.2298332 -26.31  0.001462801    2.174    0.540
        13 -10.6437    208.2969      8.6621   4.2773402813e+01   3.1495448959e+01     0.302517    0.2837414  23.86  0.001492437    1.233    0.189
        14  -9.0623    224.0019      7.6290   4.1137352900e+01   2.7695478795e+01    0.2951787    0.1699165 -28.60  0.001287634    1.646    0.392
        15  -8.1584    170.9452      8.0042   4.6574551547e+01   4.1319268272e+01     0.230128    0.1560386 -67.85 0.0004235064    1.621    0.383
        16  -9.9808    136.8397      6.6680   5.1061089347e+01   5.0459392100e+01    0.3167695    0.2553902 -37.88 0.0009067231    1.308    0.236
        17  -9.4924    128.9414      3.3587   5.1092863247e+01   5.2790563515e+01    0.3456025    0.2033844 -13.42 0.0007677068    1.814    0.449
        18  -7.9904     79.9966      4.2834   6.3130843664e+01   6.4213941420e+01     0.184385    0.1568552   2.76 0.0008095845    1.055    0.052
        19  -7.4520    145.3231    151.6483   9.4068574676e+01   2.2705837993e+01    0.1485582    0.1126594  83.82 0.0007047956    1.754    0.430
        20  -8.4926    249.5869    250.1811   9.1577689925e+01  -8.5073979916e+00    0.1964021   0.06249523  40.14  0.001006162    2.665    0.625
        21  -8.2163    203.3358    173.7807   8.6594099955e+01   7.6304919850e+00     0.295732    0.2062246 -88.64  0.001163763    4.060    0.754
        22  -9.9953    230.0618    166.5200   8.0368899859e+01   3.8774613941e+00     0.290069    0.1738558 -28.72  0.001524033    1.614    0.380
        23 -12.0149     39.3149    163.8378   1.2062815835e+02   3.6477009012e+01    0.5601331    0.4342315  67.51  0.001730205    1.119    0.106
        24 -11.6149     46.0188    159.9808   1.1872086217e+02   3.6587545387e+01     0.766543    0.4373991  69.73  0.002911152    1.712    0.416
        25 -12.0783     51.5886    156.2905   1.1701927794e+02   3.6767787277e+01    0.8074372    0.6059301 -88.36  0.001967507    1.140    0.123
        26  -7.7145     42.3525    246.8229   1.2573905347e+02   2.0333414315e+01    0.1187034    0.0813278 -76.22 0.0003691667    1.642    0.391
        27  -8.2204    192.0405    144.0286   8.2548062965e+01   1.4674527372e+01    0.2059371    0.1760548 -75.72 0.0004028845    1.567    0.362
        28  -8.6937    184.4870    246.4920   1.0157271382e+02   9.1587761712e-01    0.1125769   0.08483329  33.37 0.0008104292    1.018    0.018
        29  -9.4072    186.7090    139.9921   8.2697392569e+01   1.6487816615e+01    0.2066457    0.1892396 -21.90 0.0006684336    1.081    0.075
        30  -8.2201    193.9809    139.3178   8.1102201249e+01   1.5091240022e+01    0.2277346    0.1219764  67.49 0.0007048828    4.298    0.767
        31 -10.0330    126.0198    239.3308   1.1088130957e+02   1.0557553390e+01    0.1730357    0.1534538  59.28 0.0002314649    1.169    0.145
        32 -10.5838    180.3710    135.7740   8.3017690699e+01   1.8586272450e+01    0.4926226    0.3055177  25.75  0.002093647    2.035    0.509
        33  -7.7483    128.5273    225.3782   1.0890387108e+02   1.2296678560e+01    0.1187747    0.0923444  47.52 0.0001172689    1.030    0.029
        34  -9.3264    195.9988    134.4939   7.9593667203e+01   1.5506369679e+01    0.2245996    0.1413455  45.79  0.001034581    1.595    0.373
        35  -7.8860    169.3616    134.2843   8.4988711681e+01   2.1207686937e+01    0.1537877    0.1151461  12.48   0.00070195    1.682    0.405
        36  -9.9480    135.9636    127.0725   9.0945805062e+01   2.9697201805e+01     0.660887    0.2474231 -52.94  0.002170071    3.041    0.671
        37  -9.9575    161.2553    129.0580   8.5531500635e+01   2.3961619002e+01    0.3579315    0.2751026 -59.84  0.001731405    1.486    0.327
        38 -11.7501    186.2370    121.3813   7.8359154117e+01   1.9952213747e+01    0.7605812    0.5992676 -16.00  0.003779629    1.361    0.265
        39  -8.3700    189.9485    148.9394   8.4044965399e+01   1.4250053203e+01    0.2169495    0.1807087 -81.53 0.0006843071    1.700    0.412
        40  -8.2508    236.8104    213.1800   8.7855203745e+01  -3.0809245788e+00    0.1605302    0.1331055  19.95 0.0004069178    1.191    0.160
        41  -9.9618    160.7005    117.8554   8.2905096060e+01   2.6313209736e+01    0.3322078    0.2701519 -58.12 0.0003226307    1.341    0.254
        42  -8.9759    192.9942    194.9872   9.2405956477e+01   6.3080294028e+00    0.5541152    0.2706217 -59.33  0.001606819    7.856    0.873
        43  -8.9684    175.9441    115.9550   7.9106290478e+01   2.3263970927e+01    0.2405805    0.1894298 -73.75 0.0009149352    1.672    0.402
        44  -8.7004    129.5065    116.0451   8.9903145790e+01   3.3413936051e+01    0.2364609    0.1472036 -50.86  0.001023448    1.597    0.374
        45  -9.9170    167.9096    113.9707   8.0314709447e+01   2.5461759634e+01     0.352788    0.2784805 -63.33  0.000945163    1.493    0.330
        46  -9.5763    134.6248    109.0633   8.6834275623e+01   3.3852872083e+01    0.8794695    0.1410991 -46.45  0.001899311    6.344    0.842
        47  -8.8264    133.5491    145.8304   9.5593086353e+01   2.6185932165e+01    0.5577543    0.1445428 -52.07  0.001605569    4.336    0.769
        48 -11.7651    205.1493    109.9839   7.1851452314e+01   1.7738672385e+01    0.8453529    0.4509096  43.37  0.003537209    1.964    0.491
        49 -11.3765    202.1567    101.7469   7.0249402751e+01   1.9820164336e+01    0.7462044    0.4947758  69.62  0.001513348    1.997    0.499
        50 -10.4156    213.4455    106.1874   6.9411156742e+01   1.6521968611e+01    0.3524615    0.2973105 -26.82 0.0002830502    1.102    0.093
        51  -9.2130    156.7050    110.7215   8.1968751104e+01   2.8638681644e+01    0.3013846    0.2522216  49.34  0.000221169    1.216    0.177
        52 -10.5189    120.2370    105.3354   8.9581724451e+01   3.7676496259e+01    0.4823852    0.2538201 -45.19  0.001745329    1.847    0.459
        53  -9.2827    169.3974    102.9757   7.7065611635e+01   2.7244057949e+01    0.4581591     0.272399 -59.05  0.001326681    2.300    0.565
        54  -9.7718    124.8436    103.3624   8.7837434886e+01   3.7160949894e+01    0.4235097    0.2738724  61.95   0.00179087    1.901    0.474
        55  -9.3544    148.6855    101.3973   8.1322036323e+01   3.2350458297e+01    0.3263825    0.2727669  25.38 0.0006987759    1.333    0.250
        56  -9.1283    134.7600     97.4598   8.3644098978e+01   3.6297279917e+01     0.291022    0.2529415 -82.95  0.001079194    1.312    0.238
        57 -11.0234    218.0285    102.9897   6.7814061921e+01   1.6025316120e+01    0.6706636    0.3804181  62.50  0.002505706    2.217    0.549
        58  -9.1596    169.2763     97.5498   7.5589769739e+01   2.8307501568e+01    0.3891746    0.1508117  49.42  0.001183716    2.608    0.617
        59 -12.2281    233.2404     48.3195   5.1147185670e+01   2.0667767826e+01      1.01059    0.3458619 -46.23  0.003243821    2.925    0.658
        60 -10.5588    159.2779     95.5617   7.7224973628e+01   3.1057775694e+01    0.5655771     0.326118  35.13  0.002200184    2.094    0.523
        61  -9.9514    162.7823     91.1380   7.5171030881e+01   3.1077965659e+01    0.3432059    0.2522111 -69.39  0.001033372    1.778    0.438
        62  -7.8034    115.5381     95.5422   8.8202565605e+01   4.0803524824e+01    0.1529727    0.1449497 -63.77 -3.504761e-05    1.040    0.038
        63  -9.5970    142.3891     91.2825   7.9957607748e+01   3.5855739941e+01    0.3234606    0.2664236 -64.93 0.0005971688    1.355    0.262
        64 -11.0340    175.0011     86.6800   7.1282959799e+01   2.8946222887e+01    0.6509258    0.4629893  27.96   0.00165356    1.695    0.410
        65  -8.0650    101.6910     88.1831   9.0072263439e+01   4.5174271479e+01    0.2022258     0.181417 -42.56 0.0003811809    1.068    0.064
        66  -9.6442    208.8539     85.5425   6.4719393066e+01   2.0954067900e+01    0.5884693    0.3295077 -59.42  0.002201506    2.645    0.622
        67 -10.1067      4.4421     81.1004   1.2092766339e+02   5.8629429046e+01    0.2460869    0.1334676 -59.12  0.001419398    1.462    0.316
        68  -9.4373      9.9951     81.7603   1.1911837396e+02   5.8158838005e+01     0.164815    0.1409595 -71.21 0.0009866841    1.111    0.100
        69 -10.4517    191.9167     76.7747   6.5161570357e+01   2.6496182575e+01    0.3690127    0.2817278  40.47  0.001501491    1.404    0.288
        70 -10.6749    197.3761     74.0356   6.3416443595e+01   2.5594462525e+01    0.5135419    0.3853887  17.93  0.001588799    1.653    0.395
        71 -10.8774    157.2949     85.8433   7.4832201674e+01   3.3409340444e+01    0.4069306    0.2962972 -29.42  0.001364206    1.404    0.288
        72  -8.5406    138.9550     76.3917   7.6240076574e+01   3.9620866961e+01    0.2941712    0.2030959 -52.23 0.0006016662    1.547    0.354
        73  -8.3756    212.7225    160.8227   8.2256934447e+01   7.8674601887e+00     0.190604    0.1604098   4.53 0.0005984041    1.097    0.089
        74  -8.8364      5.3360     72.3217   1.1930837001e+02   6.0633821694e+01    0.1283107   0.06823729 -47.81 0.0007050331    1.709    0.415
        75 -11.1914    117.9289     67.6176   7.8864961790e+01   4.6162734410e+01    0.6188127     0.429767  63.69  0.002760732    1.759    0.432
        76  -9.9560    234.1730    195.1348   8.5157665514e+01  -5.6456759853e-01    0.5176941    0.2802014  56.31  0.002305553    3.454    0.710
        77 -10.8530     23.6169    162.6217   1.2402821367e+02   3.8333019709e+01    0.3527907    0.1721622  69.06  0.001897951    1.913    0.477
        78  -8.5911     77.9572    161.0662   1.1138756341e+02   3.2244529790e+01    0.1869303     0.161797  81.29            0    1.013    0.012
        79 -12.7926    240.8163     46.0080   4.9701567620e+01   1.9219235898e+01     1.171849    0.5675629 -55.87  0.001956025    2.382    0.580
        80  -8.0395    203.6961    160.5963   8.3876930309e+01   9.6123810534e+00    0.1799979     0.127281  50.20 0.0005438838    1.532    0.347
        81  -9.1757    250.1573    158.7303   7.5453541577e+01   1.4575040891e+00    0.2138112     0.159554 -29.23 0.0006267947    1.326    0.246
        82 -11.7086     66.5730    145.7102   1.1201871917e+02   3.7299099009e+01      1.01233    0.7646049 -81.34  0.004410565    1.194    0.162
        83  -8.2023    198.0026     30.6123   5.0371692843e+01   3.1685049431e+01    0.2177216    0.1681492 -31.25 0.0001893733    1.257    0.205
        84  -9.1051    222.9653    189.9954   8.6132343768e+01   1.9078962662e+00    0.2073202    0.2020821   7.38 0.0004272645    1.381    0.276
        85  -9.0394    180.6643     28.7975   5.2145291523e+01   3.6457961352e+01    0.5150481    0.1479489 -30.69  0.001669781    3.055    0.673
        86  -8.1201    198.3953    152.8193   8.3240297731e+01   1.1903909877e+01    0.1942506    0.1288757 -23.02 0.0009412363    1.620    0.383
        87  -9.9238    112.0282     29.3896   6.5846002490e+01   5.4027575995e+01    0.3900248    0.1704091  53.96  0.001519681    2.252    0.556
        88  -8.3893    154.1705     25.7705   5.5308453318e+01   4.3862810859e+01    0.2088889    0.1691294  29.75 0.0004775842    1.320    0.242
        89  -8.9765    223.9111    185.6093   8.5156537438e+01   2.3302744314e+00    0.2026924    0.1631717 -10.37 0.0004743394    1.174    0.148
        90  -9.4372    203.5708     18.3390   4.6051620704e+01   3.1680187428e+01    0.5196273    0.3078974  88.85  0.002361288    1.865    0.464
        91  -8.1116    159.7516     18.9615   5.1939205812e+01   4.3172976319e+01    0.1927086    0.1819415 -28.10 0.0002960022    1.084    0.077
        92  -8.3400     12.6859     18.3244   1.0144372679e+02   7.1964901705e+01    0.1043148   0.08994459 -84.38            0    1.663    0.399
        93  -8.1524     56.5619     17.1475   7.8690426612e+01   6.6940212142e+01    0.1912519    0.1132194 -34.49 0.0006280466    1.527    0.345
        94  -8.1845    210.5653     16.5186   4.4800813544e+01   3.0096928218e+01    0.1376354    0.1293302 -60.55 0.0002768945    1.038    0.036
        95 -11.7859      5.5287    185.0139   1.2913109545e+02   3.5269628808e+01    0.6235651    0.3047405  40.55  0.003466982    1.911    0.477
        96 -12.6291      4.1715    181.0056   1.2920094747e+02   3.6192482677e+01    0.7382378    0.6149038  35.15  0.005838981    1.586    0.369
        97  -8.7862    249.1689    186.2785   8.1063443986e+01  -1.8492209007e+00    0.2044817    0.1416883  -7.00 0.0007605731    1.293    0.226
        98  -9.8609    222.5563    178.3769   8.4018674771e+01   3.5423485943e+00    0.4877502    0.3569677 -72.27   0.00230707    3.206    0.688
        99 -10.0099    192.2688    177.3196   8.9357847465e+01   9.1099852049e+00    0.2302739    0.2102285  26.28 0.0002777688    1.080    0.074
       100  -8.9309     77.9195    176.6558   1.1337862717e+02   2.8884118728e+01    0.1822318    0.1556129 -76.56 0.0003792347    1.198    0.165
       101 -11.2533     22.6895    174.8014   1.2510829885e+02   3.5811180102e+01    0.5554877    0.1967943  67.96  0.002419712    3.131    0.681
       102  -8.1749    144.9259    178.3507   9.9069464918e+01   1.7622158980e+01    0.1811096    0.1569913  43.68  0.001079883    1.048    0.046
       103  -7.8840    250.4793    175.5349   7.8791915540e+01  -7.4655949346e-01    0.1269325    0.1000812   4.07  0.000153293    1.032    0.031
       104  -8.0481    203.9678    151.9791   8.2001678110e+01   1.0943080556e+01    0.1732089    0.1528403  22.86  0.000608917    1.066    0.062
