#   1 NUMBER                 Running object number                                     
#   2 MAG_AUTO               Kron-like elliptical aperture magnitude                    [mag]
#   3 X_IMAGE                Object position along x                                    [pixel]
#   4 Y_IMAGE                Object position along y                                    [pixel]
#   5 X_WORLD                Barycenter position along world x axis                     [deg]
#   6 Y_WORLD                Barycenter position along world y axis                     [deg]
#   7 A_WORLD                Profile RMS along major axis (world units)                 [deg]
#   8 B_WORLD                Profile RMS along minor axis (world units)                 [deg]
#   9 THETA_WORLD            Position angle (CCW/world-x)                               [deg]
#  10 FWHM_WORLD             FWHM assuming a gaussian core                              [deg]
#  11 ELONGATION             A_IMAGE/B_IMAGE                                           
#  12 ELLIPTICITY            1 - B_IMAGE/A_IMAGE                                       
         1 -14.1359    162.7685     52.4794   7.7564428278e+01   3.7686745953e+01     1.943909     1.343068  11.71  0.006585182    2.217    0.549
         2 -13.7333    175.6960     36.0975   7.0733142559e+01   3.6700337361e+01     0.867959    0.7687072 -62.51  0.002811857    1.178    0.151
         3 -12.4999    190.1388     15.0157   6.3265353723e+01   3.5598116565e+01    0.4224491    0.2545144 -75.94  0.001900571    1.832    0.454
         4 -13.6561    194.4397      4.6374   6.0277580028e+01   3.5623953510e+01      0.91056    0.5314147  72.85  0.004048316    1.421    0.296
         5 -10.5108    198.6010    222.7418   1.1012271170e+02  -2.7791048031e+00    0.2431914    0.1653626  36.82 0.0004398973    1.310    0.237
         6 -18.8942     60.5185    245.5738   1.4088882728e+02   1.6341916689e+01     6.427115     4.939479  45.10   0.03919631    1.402    0.287
         7 -11.5076    205.5102    180.4913   1.0056835143e+02   3.4551496032e+00    0.4745834    0.3089249  45.98  0.002096037    1.553    0.356
         8 -11.3799    208.6903    178.6644   9.9540827033e+01   3.1702408113e+00    0.3941458    0.3388332   6.03   0.00214777    1.189    0.159
         9 -10.4742    158.6219    204.8876   1.1535292574e+02   7.9793210029e+00    0.3601879    0.1720691  51.21  0.001424544    2.185    0.542
        10 -12.0298    136.2842    179.6976   1.1580787011e+02   1.7730691640e+01    0.4215546    0.2008022  45.68  0.001368345    2.006    0.502
        11 -11.4794      6.1172    250.6930   1.5041730807e+02   2.1929614411e+01    0.1648903   0.07576213  45.01  0.001042358    1.926    0.481
        12 -11.9290    196.0239    171.2370   1.0058530140e+02   7.1690753043e+00    0.6967418    0.3969168 -48.18  0.002372087    1.866    0.464
        13 -10.6247    193.8209    164.9744   9.9697697786e+01   8.8813999737e+00    0.3522443    0.2799883 -49.79  0.001291589    1.319    0.242
        14 -10.4724     22.9020    205.1753   1.4454990274e+02   2.9278912467e+01    0.1836566    0.1500123  48.84  0.001238714    1.394    0.283
        15 -12.1235    139.5274    200.6989   1.1885633052e+02   1.2521971598e+01     0.412314    0.3102773 -88.60   0.00174038    1.660    0.397
        16 -11.2310    208.6870    197.2883   1.0332015307e+02  -2.3988807946e-01    0.2260028    0.2181398  66.88 0.0005575623    1.254    0.203
        17 -19.1328     43.5059     93.3310   1.2341926241e+02   5.2780883145e+01      18.9898     1.575895 -57.61   0.03466555   12.535    0.920
        18 -11.5633    120.9944    164.4938   1.1656866721e+02   2.4221903832e+01      0.51393     0.252198  53.76  0.001656759    2.323    0.570
        19 -11.3634    154.8952    196.8200   1.1472408333e+02   1.0345933954e+01    0.2994945     0.250022  69.07  0.001182989    1.305    0.234
        20  -9.7387    223.3864    163.2253   9.3360675609e+01   3.1500346084e+00    0.2058216    0.1296414 -48.95 0.0004130736    1.695    0.410
        21  -9.8742     14.3570    160.1138   1.4221160800e+02   4.0149655017e+01     0.170343    0.1594265 -45.16 0.0006905228    1.375    0.272
        22 -10.5307    237.5113    159.5042   8.9945439178e+01   1.0906691376e+00    0.1408434    0.1287634 -21.34 2.494579e-06    1.003    0.003
        23 -12.6793    134.0000    144.4739   1.0903148810e+02   2.6280303659e+01      1.09175    0.3272017 -55.58  0.002751942    4.769    0.790
        24 -13.5121     11.9075    205.2704   1.4665016360e+02   3.0375989469e+01    0.3887629    0.3619447 -74.65   0.00252317    1.455    0.313
        25 -10.5413    174.6970    148.7415   1.0023910448e+02   1.6425919544e+01    0.3699012    0.2434435 -66.37  0.001331168    2.060    0.515
        26 -12.2381    145.3703    146.4785   1.0664488711e+02   2.3400236844e+01    0.5519109    0.3987329  68.16  0.001847095    1.681    0.405
        27 -10.8708     11.0032    142.7150   1.4110102376e+02   4.4397848118e+01    0.2138925    0.2030572 -62.08 0.0004518337    1.262    0.207
        28 -11.6330    142.4798    139.0347   1.0563456333e+02   2.5718933636e+01    0.4017508      0.27053 -64.22  0.001683626    1.765    0.434
        29 -12.1368    102.5238    138.9123   1.1606647424e+02   3.3764717507e+01     0.315008    0.2948405 -15.23 0.0004189113    1.202    0.168
        30 -12.4927     91.9140    137.3979   1.1863935056e+02   3.5978919225e+01    0.6722387    0.3318954  29.66  0.001838865    2.528    0.604
        31  -9.7647      2.8221    137.1291   1.4248292261e+02   4.6246141124e+01    0.1675276    0.1079229 -58.71   0.00077853    1.329    0.247
        32  -9.4651    168.3210    134.6597   9.8368597872e+01   2.0898144662e+01    0.1653461    0.1269602 -85.99 0.0007050257    1.718    0.418
        33 -12.2616    106.2019    130.9012   1.1327018746e+02   3.4986851344e+01    0.4785449    0.4140508  79.38  0.001600366    1.276    0.216
        34 -11.2646    106.9064    125.6001   1.1183442229e+02   3.6094624177e+01    0.3094917    0.2683552  -6.89 0.0006622712    1.360    0.265
        35 -12.0523    118.6093    129.6706   1.0960611165e+02   3.2874333098e+01    0.4056403    0.3982945  89.19 0.0009731638    1.012    0.012
        36 -12.2991    135.4476    122.6114   1.0342089225e+02   3.0957448153e+01    0.7188333    0.2589697 -51.41   0.00220762    3.097    0.677
        37 -10.0889      3.5059    130.5115   1.4155229064e+02   4.7693303743e+01    0.1193333   0.09213249 -73.94  9.13012e-05    1.018    0.017
        38 -10.9753    160.4344    127.2310   9.8388713109e+01   2.4316342696e+01    0.3866988    0.2590736 -61.54  0.001166496    1.779    0.438
        39 -11.2149    142.2992    127.2926   1.0284035044e+02   2.8406967079e+01    0.3450267    0.2726798  86.70 0.0006215116    1.593    0.372
        40 -11.5284    125.2707    127.1462   1.0721627187e+02   3.2097403787e+01    0.4311486    0.2849127  79.51  0.001324449    2.530    0.605
        41 -12.2092    121.7987    124.2027   1.0742149918e+02   3.3486094287e+01    0.5872822    0.3518114 -20.56   0.00201081    3.104    0.678
        42 -11.0520    167.8394    189.4813   1.1045313777e+02   9.2727857271e+00    0.3363447    0.2715581 -30.21  0.001137867    1.382    0.276
        43 -11.0870    112.7187    118.7203   1.0854002746e+02   3.6559011542e+01    0.3737557    0.2930409 -81.72  0.001200981    1.601    0.375
        44 -11.3307     98.9346    213.8031   1.2982394000e+02   1.7007406003e+01    0.3277218    0.2109766 -72.11  0.001017165    1.643    0.391
        45 -10.9558    167.5546    112.8091   9.3078010718e+01   2.5700225784e+01    0.6648427    0.3853254  73.79  0.002216595    3.045    0.672
        46 -10.6240      3.6034    112.5960   1.3922548665e+02   5.1695690216e+01    0.2287542    0.1816414 -39.73 0.0009504551    1.324    0.245
        47 -12.5869     86.2295    108.7008   1.1368127905e+02   4.3625847803e+01    0.5329822    0.4521286   2.13  0.002875461    1.339    0.253
        48 -10.4124    205.4814    110.1646   8.4566255251e+01   1.7211519674e+01    0.3272485    0.2199421  44.93   0.00089603    1.581    0.368
        49 -10.5379     16.0385    213.3760   1.4646954655e+02   2.8256046205e+01    0.1348747    0.1237198  61.31   0.00103399    1.425    0.298
        50 -12.9334    193.7863    193.3120   1.0560058757e+02   3.3432818461e+00     1.142869    0.5985394 -55.62  0.002889473    2.645    0.622
        51 -10.9286    134.6767    105.3358   9.9106186125e+01   3.4887440667e+01    0.4419178    0.1430085 -45.30  0.001346917    3.128    0.680
        52 -10.4961     86.2554     77.7465   1.0514819472e+02   5.0141983251e+01    0.1945958    0.1557555  -8.14 0.0007555765    1.321    0.243
        53  -9.7539    108.2255     74.6025   9.7500484482e+01   4.6628580414e+01    0.2096805    0.1310966  33.40 0.0009447442    1.672    0.402
        54 -10.6194    163.4987    204.2653   1.1417645580e+02   7.1568295184e+00    0.2715504    0.2401655 -55.18 0.0004880693    1.249    0.199
        55  99.0000      2.5280    244.5134   1.5066336839e+02   2.3449631706e+01    0.1067684     0.074718  77.75 0.0008065747    1.045    0.043
        56 -13.0530    179.8640     29.1778   6.8251520969e+01   3.6518979174e+01     0.525002    0.4577964  41.33    0.0013825    1.298    0.230
        57  -9.8327     13.6130     59.9177   1.2583090776e+02   6.2130921652e+01    0.1633162     0.115127 -48.49 0.0004575709    1.164    0.141
        58  -9.6704    121.2614     24.8727   7.7816799128e+01   5.1102269466e+01    0.2460701    0.1458473  70.34 0.0006571508    2.018    0.505
        59 -11.5251    132.6191    183.0584   1.1730297739e+02   1.7697649709e+01    0.3491158    0.1710081  56.36  0.001275789    2.481    0.597
