#   1 NUMBER                 Running object number                                     
#   2 MAG_AUTO               Kron-like elliptical aperture magnitude                    [mag]
#   3 X_IMAGE                Object position along x                                    [pixel]
#   4 Y_IMAGE                Object position along y                                    [pixel]
#   5 X_WORLD                Barycenter position along world x axis                     [deg]
#   6 Y_WORLD                Barycenter position along world y axis                     [deg]
#   7 A_WORLD                Profile RMS along major axis (world units)                 [deg]
#   8 B_WORLD                Profile RMS along minor axis (world units)                 [deg]
#   9 THETA_WORLD            Position angle (CCW/world-x)                               [deg]
#  10 FWHM_WORLD             FWHM assuming a gaussian core                              [deg]
#  11 ELONGATION             A_IMAGE/B_IMAGE                                           
#  12 ELLIPTICITY            1 - B_IMAGE/A_IMAGE                                       
         1 -14.4753    169.1796     37.4921   7.5054961567e+01   3.8638699631e+01     1.221003     1.045978   9.74  0.004417482    1.370    0.270
         2 -13.4850    183.5820      8.6063   6.4177915019e+01   3.8203208651e+01     1.007924    0.5523626 -68.09  0.004444523    2.140    0.533
         3 -13.6529    188.1247      4.0330   6.2350657072e+01   3.7472213732e+01    0.9981191    0.6676556 -50.85  0.005289271    1.498    0.332
         4 -13.4066    137.7005    198.3959   1.2186868873e+02   1.4894338989e+01    0.7043785     0.379543  58.88  0.003158404    2.128    0.530
         5 -19.1224     71.6748    240.4416   1.3957759348e+02   1.7567419221e+01     6.378271     5.078493  71.64     0.039205    1.121    0.108
         6 -11.7940    155.8397    197.7186   1.1799367902e+02   1.1714189976e+01    0.3045745    0.2138973 -87.83  0.000855049    2.205    0.547
         7 -11.2931    208.0575    196.2981   1.0743243883e+02   2.3268102380e+00    0.1936151    0.1557585  31.54   0.00105438    1.101    0.092
         8 -11.1237    198.8026    222.7808   1.1367910878e+02   8.6277709028e-02    0.1870585     0.145524  23.17 0.0005731961    1.137    0.121
         9 -10.8888    180.0402    192.4463   1.1216808194e+02   8.1147953404e+00    0.2335747     0.195272 -69.57  0.000663741    1.552    0.356
        10 -12.2808    167.5043    191.0686   1.1446775958e+02   1.0723600165e+01     0.367233    0.2762028  31.28  0.001520326    1.300    0.231
        11 -18.8393     57.0528     93.6118   1.2322340355e+02   5.1540068303e+01     17.85808    0.7543548 -58.28   0.02326852   22.254    0.955
        12 -10.8671    176.6182    187.7878   1.1201947480e+02   9.5679449951e+00    0.2278649    0.1758301 -52.50 0.0006850272    1.506    0.336
        13 -10.7910    184.1943    186.8366   1.1031590728e+02   8.2837243529e+00    0.2086682    0.1854206  54.84 0.0006838205    1.200    0.166
        14  -9.8945     38.6695    185.9153   1.4143655297e+02   3.2372412862e+01    0.1592541    0.1146624  81.82 0.0002207374    1.116    0.104
        15 -10.5123     20.7795    219.2994   1.4716941596e+02   2.7579991966e+01    0.1283493   0.08086371  66.81 0.0005114971    1.166    0.143
        16 -10.2525     21.5345    234.4816   1.4783264680e+02   2.4698229882e+01    0.1057363   0.07547294  70.93 0.0001479965    1.055    0.052
        17 -12.1493    205.5129    180.4758   1.0492338454e+02   5.2767962371e+00    0.4859585    0.2907621  42.71  0.001885042    1.567    0.362
        18 -12.3396    208.6866    178.6572   1.0396139577e+02   4.9690523883e+00    0.4350632    0.3404008  24.87  0.001962951    1.212    0.175
        19 -11.0467    196.6622    175.3440   1.0562995399e+02   7.8350853542e+00    0.3018958     0.253835  82.16 0.0009495696    1.637    0.389
        20 -12.5048    196.4297    171.3465   1.0487484169e+02   8.5662984413e+00    0.6282038    0.4417355 -54.83  0.002125351    1.780    0.438
        21 -10.5392     26.2402    165.0786   1.4230015690e+02   3.8225117445e+01    0.5650983    0.3199241   0.91  0.002376295    4.987    0.799
        22 -13.3196    137.6092    171.0196   1.1732766227e+02   2.0326388804e+01    0.6674083    0.3649671  45.63  0.002573266    1.697    0.411
        23 -10.6367    223.8250    164.0346   9.8170221627e+01   4.4295165129e+00    0.1978558    0.1852029 -52.34 0.0005666484    1.302    0.232
        24 -12.4266    144.1773    168.2613   1.1533939434e+02   1.9617776978e+01    0.5336425    0.3161106  69.74  0.002087594    2.660    0.624
        25 -10.7438    237.5349    159.4756   9.4793092715e+01   2.5567820333e+00    0.1351458    0.1202222  -2.78 0.0001031929    1.010    0.009
        26 -11.1117    163.1859    210.1319   1.1848830963e+02   8.2274378819e+00    0.2137596    0.1881377 -59.97 0.0008903969    1.354    0.262
        27 -11.7686    163.2180    155.2823   1.0849285107e+02   1.8379931940e+01    0.3530535    0.2893623 -89.63  0.001135281    1.512    0.339
        28 -11.7532    158.5880    204.6682   1.1855056586e+02   9.9844700817e+00    0.3554831    0.2267864  62.26   0.00176197    1.897    0.473
        29 -14.1527    132.8088    145.5335   1.1347016320e+02   2.6716976621e+01     1.103346    0.6347972 -62.37  0.004063454    2.061    0.515
        30 -11.1795     14.2191    151.3239   1.4383568213e+02   4.2386209339e+01    0.2659557    0.2150764 -26.89  0.001811599    1.855    0.461
        31 -11.5932    163.5812    203.8465   1.1741370859e+02   9.2189723569e+00    0.2968732    0.2423111 -57.19  0.001065867    1.451    0.311
        32 -10.7304    174.7158    149.1005   1.0465138460e+02   1.7162400288e+01    0.2617392    0.2049538  57.80  0.000674092    1.343    0.255
        33 -12.5868    144.8555    145.8103   1.1065455017e+02   2.4188258811e+01    0.4540902    0.3455794 -86.01  0.002129515    1.680    0.405
        34 -12.7200    115.5458    138.1183   1.1620154364e+02   3.1761992477e+01    0.5147243    0.3401203 -40.50  0.002023901    1.717    0.417
        35 -11.4953     20.6454    141.1692   1.4133870306e+02   4.4142027517e+01    0.1921549    0.1443228  60.90 0.0005514537    1.314    0.239
        36 -12.9237      5.5880    139.4453   1.4486236555e+02   4.5722905654e+01    0.5085959    0.3407438  87.50  0.002174371    1.196    0.164
        37 -12.4257      2.9230    112.3681   1.4296805110e+02   5.2026805179e+01    0.4016232    0.2096642 -65.71  0.001800576    1.482    0.325
        38 -11.8498     11.0765    110.8483   1.4049415403e+02   5.1854233962e+01    0.3512816    0.1873394   3.22   0.00182876    3.036    0.671
        39 -13.3217      3.0331    128.0098   1.4448710488e+02   4.8475144660e+01    0.7708647    0.2853616 -83.69  0.003604488    2.387    0.581
        40 -12.9869    105.7406    138.2385   1.1874841047e+02   3.3550943321e+01    0.5322582    0.3537654  68.57 0.0009252395    1.832    0.454
        41 -11.6762    160.7975    198.5498   1.1711359324e+02   1.0650864467e+01    0.3089531    0.2138985  64.20  0.001326859    1.726    0.421
        42 -12.5585    106.0400    130.8180   1.1712558381e+02   3.5213978900e+01    0.4403043    0.3488141 -72.12  0.001275509    1.289    0.224
        43 -11.8088    108.8946    125.0094   1.1508818526e+02   3.6027519359e+01     0.317941    0.2773338 -15.12 0.0008133756    1.423    0.297
        44 -12.7331    119.6022    129.2676   1.1322938123e+02   3.2990660485e+01     0.440019    0.4105285   9.94  0.001240251    1.243    0.196
        45 -12.7826    125.5293    126.9656   1.1117390306e+02   3.2322055077e+01    0.6849364    0.4212086 -89.79   0.00234258    3.311    0.698
        46 -12.8507    135.8308    122.4867   1.0749157617e+02   3.1162557054e+01    0.8408527    0.2568137 -50.25  0.002473062    3.522    0.716
        47 -11.1482    160.7711    127.7096   1.0278998396e+02   2.4547957963e+01    0.3278438    0.2176276 -53.91  0.001429598    1.630    0.386
        48 -11.7779     99.8123    126.7312   1.1791750482e+02   3.7284753706e+01    0.2985417    0.2468935  43.08 0.0008484659    1.260    0.206
        49 -11.3849    113.9728    118.3443   1.1217150576e+02   3.6581435177e+01    0.2713229    0.2171831 -46.74 0.0004064092    1.247    0.198
        50 -11.0870    116.1390    115.1922   1.1082067795e+02   3.6868796824e+01    0.2761302    0.2023582  62.77 0.0008099146    1.535    0.349
        51 -12.5791     27.7196    118.2970   1.3672793168e+02   4.8834040238e+01    0.3297064    0.1962612 -43.63  0.001203022    1.897    0.473
        52 -11.0681    167.3711    112.9762   9.7588678680e+01   2.6032258298e+01    0.4444082     0.316057  81.89  0.001857865    1.989    0.497
        53 -13.3389     21.6833    127.4155   1.3955753329e+02   4.7225622714e+01    0.4358621    0.3226208 -35.69  0.002240089    1.743    0.426
        54 -10.5971    205.6540    110.1226   8.9077627715e+01   1.7551152756e+01    0.2838924    0.2211841  43.22 0.0006727499    1.330    0.248
        55 -12.5856     95.9593    110.4083   1.1527384398e+02   4.1761762138e+01    0.4327505     0.361264   2.98  0.001607678    1.543    0.352
        56 -10.5539     30.3706    205.5554   1.4458344671e+02   2.9233772107e+01    0.1211914    0.1014136  49.91 0.0002447933    1.389    0.280
        57 -13.0861     29.2583    112.2612   1.3541292102e+02   5.0111379058e+01    0.4883618    0.2926131   3.50  0.002509628    2.669    0.625
        58 -11.2238     41.7804     91.9403   1.2787552902e+02   5.3658810621e+01    0.1944933    0.1891255 -18.88 0.0004660555    1.191    0.160
        59 -10.8459     25.7765    232.0140   1.4699425840e+02   2.4688010057e+01    0.1417758    0.1105983  85.51 0.0006757227    1.255    0.203
        60 -10.3144    117.8525     67.0965   9.6430851709e+01   4.6616267416e+01     0.219933    0.2014335 -72.23 0.0003435037    1.223    0.182
        61 -10.0886     13.5084     59.8662   1.3104521302e+02   6.3114686258e+01    0.1752332   0.09519805 -62.08 0.0004145738    1.481    0.325
        62 -14.1768    156.9772     53.2355   8.2376227739e+01   3.9539577522e+01     1.265217     1.021846  30.26  0.003976016    1.374    0.272
        63 -11.2199    196.9514    246.3631   1.1754795050e+02  -2.7152917621e+00    0.2024917    0.1638179  -6.50  0.001132076    1.388    0.279
        64 -12.5810    172.8879     30.4579   7.2246015521e+01   3.8570896802e+01    0.4142653    0.3380311  -7.94 0.0009291077    1.443    0.307
        65 -11.9135    176.0020    233.9972   1.1957971038e+02   2.3218023435e+00    0.2193277    0.1747356 -38.93  0.001449821    1.542    0.351
        66 -10.5658    135.4397     30.4004   7.9131294321e+01   4.8226060834e+01    0.2768179    0.2096089  81.61 0.0008761355    1.524    0.344
        67  -9.8513     13.4670    245.1020   1.4962253188e+02   2.3674438209e+01    0.2740525   0.07390346 -71.36  0.001428647    3.427    0.708
