#   1 NUMBER                 Running object number                                     
#   2 MAG_AUTO               Kron-like elliptical aperture magnitude                    [mag]
#   3 X_IMAGE                Object position along x                                    [pixel]
#   4 Y_IMAGE                Object position along y                                    [pixel]
#   5 X_WORLD                Barycenter position along world x axis                     [deg]
#   6 Y_WORLD                Barycenter position along world y axis                     [deg]
#   7 A_WORLD                Profile RMS along major axis (world units)                 [deg]
#   8 B_WORLD                Profile RMS along minor axis (world units)                 [deg]
#   9 THETA_WORLD            Position angle (CCW/world-x)                               [deg]
#  10 FWHM_WORLD             FWHM assuming a gaussian core                              [deg]
#  11 ELONGATION             A_IMAGE/B_IMAGE                                           
#  12 ELLIPTICITY            1 - B_IMAGE/A_IMAGE                                       
         1 -12.4984     68.7383    144.7719   9.0190170315e+01   3.7330277888e+01     1.627487     1.263594  81.93  0.003740868    1.582    0.368
         2 -11.7495    200.9795     45.3223   3.3578282625e+01   3.0119159964e+01     0.882135    0.7159203 -50.45  0.005020062    1.215    0.177
         3 -12.0115    210.8789     36.2133   3.0499225891e+01   2.9203139925e+01    0.7333293    0.5980917  53.61  0.001505598    1.488    0.328
         4 -10.6133    239.8848     12.5632   2.3438580147e+01   2.6231647735e+01    0.5163735    0.4075385 -21.19  0.003702609    1.962    0.490
         5 -11.1117    233.9449     10.0376   2.3400441601e+01   2.7629402256e+01    0.6113349     0.542747 -14.38   0.00469012    1.789    0.441
         6  -8.7462    116.2891     12.4256   3.7945338745e+01   5.2928872390e+01     0.283989    0.1538202  53.00  0.001513992    1.505    0.335
         7  -9.9401    120.2795      9.1791   3.6176677913e+01   5.2316457493e+01    0.3752857    0.3022999  62.14  0.001588336    1.036    0.035
         8  -7.9707    143.3773      1.8117   3.0413465010e+01   4.7705241660e+01    0.1413912    0.1155926   6.94 0.0004537408    1.625    0.385
         9  -8.2567    160.9295    237.8255   8.2309290991e+01   1.2815204884e+00    0.2015339    0.1583176  -5.43 0.0004910155    1.260    0.206
        10  -8.8083    105.9226    250.4909   9.6389049826e+01   6.9126482729e+00    0.3574172    0.1157689  32.14  0.001266531    2.740    0.635
        11 -10.4123     94.5260    246.5979   9.8472273887e+01   9.2837468578e+00    0.4936683    0.3245986 -69.13   0.00224413    1.773    0.436
        12  -9.8960     93.7550    238.1218   9.7650444543e+01   1.1134338799e+01    0.5414347    0.2855762 -78.91  0.002287887    2.871    0.652
        13  -8.9077     71.8603    249.1982   1.0374820108e+02   1.1805896479e+01    0.2122158    0.1749982 -66.65 0.0007548543    1.340    0.254
        14  -8.4311     72.0096    245.7190   1.0337318002e+02   1.2501127569e+01    0.2018966    0.1726922  88.92 0.0004344401    1.210    0.173
        15 -13.2570     52.8012    183.3230   1.0095218012e+02   2.9441965178e+01     8.014201     2.491452  53.77   0.01891008    7.313    0.863
        16 -10.1012    124.1844    205.9384   8.5738781263e+01   1.3550619069e+01    0.4034545    0.2739271 -71.49  0.001848655    1.930    0.482
        17  -8.3552    181.8962    209.2934   7.2818144530e+01   3.4873674417e+00    0.1986075    0.1697834   8.07 0.0008214587    1.068    0.064
        18 -13.6672     43.6817    197.6353   1.0501948287e+02   2.6932976575e+01     8.151684     2.420953  53.27   0.02307523    5.398    0.815
        19  -8.6465     79.4831    235.4483   1.0061284021e+02   1.3675788379e+01    0.3493276    0.2251892 -33.63  0.001724359    2.185    0.542
        20 -15.9134      9.8395    241.0441   1.1603287438e+02   2.0520252617e+01      4.00953     1.870596  22.07   0.02040837    2.730    0.634
        21  -8.8204    196.0230    200.8197   6.8230203022e+01   2.9089128299e+00    0.1921749    0.1601044 -59.71  0.001058403    1.593    0.372
        22  -8.7490    151.3698    216.8958   8.1052015829e+01   6.8095822995e+00    0.2445502    0.1890933  20.35  0.000353722    1.221    0.181
        23  -8.6029     58.4258    195.7848   1.0105522643e+02   2.5640916821e+01     0.467205    0.2411546  61.88  0.001898328    2.486    0.598
        24 -14.1800      8.6813    171.2818   1.1131276191e+02   3.6757793401e+01     5.778585     1.622616 -72.47   0.02177054    2.920    0.657
        25  -7.2794    174.2727    195.6686   7.1953527878e+01   7.4265358238e+00    0.1334181    0.1180146  89.94 0.0002635362    1.592    0.372
        26  -7.2870     84.4666    195.4877   9.4237645190e+01   2.2188213872e+01     0.140517     0.140235 -44.09 0.0008090374    1.053    0.050
        27  -7.4406    189.1978    236.3291   7.5981087315e+01  -2.5220908912e+00    0.1770111    0.1077815  35.35 0.0004403678    1.637    0.389
        28  -8.1989    145.6514    221.7038   8.3183416100e+01   6.7330650733e+00    0.1466901    0.1041331  -4.56 0.0007033712    1.678    0.404
        29  -8.2882     70.3475    189.3374   9.7074662840e+01   2.5692471046e+01     0.237875    0.2079593 -34.87  0.000623969    1.265    0.210
        30  -8.8319    111.4205    212.7464   8.9983173816e+01   1.4045256568e+01    0.2721675    0.1449093 -62.28  0.001150932    2.161    0.537
        31  -7.8859    145.6417    184.8264   7.6596337363e+01   1.4686980819e+01    0.2088193    0.1434801 -59.05  0.000937317    1.673    0.402
        32  -7.7105    112.1820    182.8625   8.4813708143e+01   2.0930562855e+01    0.2081108    0.1774351  -9.55 0.0006770428    1.299    0.230
        33  -7.9756     70.9778    179.0088   9.5387210476e+01   2.8209456829e+01     0.234971    0.1705536 -28.98  0.001121062    1.676    0.403
        34  -8.6084     63.0823    176.7977   9.7242192086e+01   2.9823476476e+01    0.4238534    0.2579317  86.60  0.001478529    2.181    0.542
        35  -9.4918    103.7514    175.7327   8.5786424185e+01   2.4076501579e+01    0.4891388    0.2278719 -53.20  0.001120597    2.103    0.524
        36  -8.7757     89.0016    174.2750   8.9603260857e+01   2.6791384775e+01    0.2261738    0.1604415  31.75 0.0005695415    1.427    0.299
        37  -8.1637    124.9057    173.7353   7.9712157120e+01   2.0942032016e+01    0.3553784    0.1838075  56.67  0.001186111    3.074    0.675
        38  -8.5565    116.1866    172.5312   8.1802374365e+01   2.2761055155e+01    0.3176946    0.2394678  89.30 0.0008423774    1.828    0.453
        39 -10.1076     67.9529    170.8385   9.4965610391e+01   3.0708177615e+01    0.4081032    0.2913683 -38.60  0.001854502    1.530    0.346
        40 -10.3314     72.4271    166.2015   9.2928063254e+01   3.1287797288e+01    0.4984683    0.3630957 -58.09 0.0009812915    1.311    0.237
        41  -7.8519     59.6477    170.1592   9.7219926692e+01   3.1964927216e+01    0.1990526    0.1696959  68.26 0.0006898289    1.223    0.182
        42  -8.3605    192.0912    169.1540   6.2774369657e+01   9.7964605706e+00    0.2312899    0.1869309  -9.14 0.0006482354    1.286    0.222
        43  -7.6356    144.7464    168.7014   7.3573040207e+01   1.8527858012e+01    0.2402013    0.1313639 -60.38 0.0008898751    2.345    0.573
        44  -7.7684    110.5155    168.0300   8.2468936740e+01   2.4844780814e+01    0.2388592    0.1519254 -54.38   0.00102726    1.576    0.365
        45 -10.7144     55.4610    121.6929   8.9873314239e+01   4.4939867914e+01    0.7276117    0.4133099 -76.22 0.0004869942    2.447    0.591
        46 -10.8919     81.0077    158.6138   8.9084756073e+01   3.1998693676e+01    0.9349494    0.6837336  86.44 0.0006445064    1.756    0.430
        47 -12.2898     58.3157    133.1715   9.1259149660e+01   4.1684745104e+01     1.506293    0.7050602  37.38  0.006082576    2.244    0.554
        48  -8.0878    166.2333    161.9891   6.6950547072e+01   1.6017587023e+01    0.2441171     0.197552  -9.04 0.0006217088    1.358    0.264
        49  -8.7380    104.8165    157.9133   8.2040578720e+01   2.8337828465e+01    0.2503654    0.2182264  27.12  0.000396991    1.165    0.142
        50  -9.7216     54.9967    144.9611   9.4510091771e+01   3.9064425051e+01    0.4019566    0.3546524 -76.39  0.002219948    1.139    0.122
        51 -10.3207     57.5826    152.2805   9.4975393084e+01   3.6851124835e+01    0.8485305    0.4409457  59.54   0.00313673    2.909    0.656
        52  -9.4378     49.5102    145.2547   9.6271406781e+01   3.9634280498e+01    0.3845686    0.2786139  53.10 0.0008943443    1.567    0.362
        53  -9.4114     45.0702    142.0317   9.7120805801e+01   4.0962010725e+01    0.3084928    0.2678196 -56.61 0.0004188417    1.045    0.043
        54 -10.5316     88.3373    151.2519   8.5491046096e+01   3.2749773148e+01    0.6996875    0.5134361 -20.06  0.003184948    1.661    0.398
        55  -7.8908     54.7403    167.1715   9.8173123775e+01   3.3340882066e+01    0.2748213    0.1812521 -18.29  0.001228415    2.114    0.527
        56  -9.0229    133.8499    146.8578   7.1632005810e+01   2.5688900583e+01    0.8474571    0.2303098 -54.45  0.002005037    5.308    0.812
        57  -9.5595    100.6468    138.0782   7.8994308361e+01   3.3995829518e+01    0.6157003    0.5270734  78.53  0.003026307    1.418    0.295
        58 -10.4849     89.5198    137.4231   8.2224040438e+01   3.6051330371e+01    0.3581648    0.3255517  56.96 0.0003460591    1.206    0.171
        59  -9.7772     26.2076    138.8072   1.0254525728e+02   4.3611138927e+01    0.3816097    0.2098948  37.26  0.001334067    1.997    0.499
        60  -9.1599    245.3495    133.6692   4.6050298352e+01   7.4602353003e+00      0.30395    0.1884209 -41.13 0.0002268767    1.332    0.249
        61  -8.4265    111.4493    131.0733   7.4170865292e+01   3.3730771949e+01     0.500815    0.2372558 -58.52  0.001724771    2.582    0.613
        62  -9.6457    161.1869    164.3915   6.8648729246e+01   1.6436633149e+01    0.2630438    0.2409774 -35.81  0.000269789    1.068    0.064
        63  -9.3859     30.6070    130.5919   9.9876068665e+01   4.5325345384e+01    0.3739446    0.1868058  49.41  0.001564325    2.588    0.614
        64  -9.1020     98.4590    125.3719   7.6684793261e+01   3.7478233244e+01    0.3022322    0.2588116  -7.88 0.0008640555    1.252    0.201
        65 -11.4266     69.1305    153.2152   9.1639786249e+01   3.5097650615e+01    0.4577505    0.4133129 -33.84  0.000850244    1.126    0.112
        66  -8.3711    234.7743    124.4585   4.5773693339e+01   1.0825904148e+01    0.3189925    0.1481694 -54.53  0.001191426    2.477    0.596
        67 -12.0147     43.9568    246.4226   1.0946018058e+02   1.5804926316e+01     1.399487    0.4529244  41.91  0.006197413    2.448    0.592
        68  -8.4180     73.7902    121.1907   8.3585756630e+01   4.2555508601e+01    0.2648654    0.1668017  70.47 0.0009736072    2.954    0.661
        69 -10.4798     20.9134    118.9982   1.0122222506e+02   4.9038387146e+01    0.5665749    0.2131259 -51.90  0.002369018    2.122    0.529
        70  -8.8298    170.2938    118.7396   5.6142038994e+01   2.4420893681e+01    0.3147799    0.2399473 -31.34 0.0008014127    1.363    0.266
        71  -7.9492    107.6660    118.9092   7.2290827746e+01   3.7307809294e+01    0.2134633    0.1872963 -48.43 0.0003102389    1.149    0.130
        72 -10.3687    191.9683    247.6797   7.7261101725e+01  -4.7911673548e+00    0.2347404    0.1968648 -13.97  0.001525588    1.153    0.133
        73  -8.8223     42.5916    114.0025   9.2735358652e+01   4.8326227108e+01    0.2031278    0.1696308  12.79  0.001132066    1.282    0.220
        74  -9.7111     17.7958    110.8013   1.0093303687e+02   5.1287369157e+01    0.2913531    0.2267946 -84.97 0.0008104458    1.414    0.293
        75  -8.8400     14.3437    111.6843   1.0229657608e+02   5.1304532096e+01    0.2175812    0.1514641  43.87 0.0009671412    1.741    0.425
        76  -7.6519     50.8765    163.6001   9.8756884154e+01   3.4722181452e+01     0.200835    0.1221258  43.31 0.0006119128    1.727    0.421
        77  -9.3918     33.7808    110.8007   9.5226412779e+01   4.9988348545e+01    0.2737406    0.1904197  31.41  0.001440838    1.597    0.374
        78  -8.6497    238.1700    109.3091   4.2224148034e+01   1.2853036592e+01     0.233401     0.111671  45.38  0.001086646    2.603    0.616
        79  -9.5270     21.8033    108.7817   9.9146986372e+01   5.1489462208e+01    0.2886863    0.1096046 -51.28   0.00108493    2.081    0.519
        80  -9.1480      1.5478    106.2762   1.0594415093e+02   5.3339147895e+01    0.3064398   0.06521459 -60.16  0.001137183    2.866    0.651
        81  -7.4541     86.7476    106.0284   7.5516652241e+01   4.4068799128e+01    0.1896345    0.1270368 -48.36   0.00034312    1.473    0.321
        82 -10.1750     75.3294    105.8052   7.9299325452e+01   4.5996884140e+01    0.2529761    0.2373885   2.57 0.0002658633    1.057    0.054
        83  -8.0955     64.1872    106.3982   8.3331625153e+01   4.7511543647e+01    0.1965803    0.1339365  39.70  0.000487688    1.602    0.376
        84  -9.8957     37.7614    102.7858   9.2094283326e+01   5.1543729118e+01    0.3989429    0.2504645 -86.06  0.001741967    2.485    0.598
        85  -9.0000     33.4903    100.5126   9.3193243837e+01   5.2497393773e+01     0.235198    0.2048089  13.30  0.001401248    1.242    0.195
        86  -9.0284     36.4150     96.7712   9.1248192651e+01   5.3098116272e+01    0.2423201    0.1603842  34.51 0.0008620968    1.703    0.413
        87 -13.8695     11.2009    209.9074   1.1379289009e+02   2.7254116629e+01     1.568909     1.179839  59.86  0.009725461    1.203    0.168
        88  -7.2293     78.7020     92.2882   7.4472669878e+01   4.8479262650e+01    0.1374726     0.118884  73.75 0.0001722825    1.555    0.357
        89 -11.6093     28.8707    249.4588   1.1276973848e+02   1.6854963574e+01    0.3244576    0.2300527  33.74 0.0002594479    1.429    0.300
        90  -8.1965    142.8290     61.6530   4.7191446316e+01   4.0907177247e+01    0.2081778    0.1903599  -9.52 0.0004971192    1.236    0.191
        91  -8.2783    216.3837     56.1971   3.4072488715e+01   2.5401806017e+01    0.1835098     0.157957  70.11 0.0007540977    1.243    0.196
        92 -10.9262    189.4306     53.3321   3.6910763571e+01   3.1535598549e+01    0.4237955    0.3916295  80.95 0.0009672883    1.109    0.099
        93  -9.6767    146.6760    230.0878   8.4293029989e+01   4.8965991378e+00     0.285663    0.1932275  22.13  0.001466344    1.409    0.290
        94  -8.2307    229.0124     52.0297   3.1818138930e+01   2.3457382616e+01    0.1807092    0.1489778 -71.22 0.0003338033    1.015    0.014
        95  -8.5589    112.0265     51.9330   5.1581989605e+01   4.9280308311e+01    0.1995874    0.1810847  37.20  0.001180444    1.007    0.007
        96  -9.3823    140.5495    229.8203   8.5658589433e+01   5.8882663661e+00    0.2607248    0.1707807  59.64 0.0007232915    2.211    0.548
        97  -7.9123    158.5096     23.9810   3.4132078428e+01   4.2173325613e+01    0.1840014    0.1453545  69.97 0.0003455779    1.094    0.086
        98 -12.4395     54.3406    233.4434   1.0610113240e+02   1.7347784218e+01    0.7567283    0.6916747  64.49  0.003284135    1.068    0.064
        99  -9.1180    158.2705    246.6915   8.4258707001e+01   6.5725433535e-02    0.2904714    0.2076028  35.28  0.001011644    1.317    0.241
       100  -8.9170    159.9684    242.1049   8.3188292330e+01   6.4237569480e-01     0.217916    0.1773761 -22.97 0.0003323574    1.247    0.198
       101  -8.2259     80.0614    246.7876   1.0170893755e+02   1.1219058886e+01    0.2003479    0.1738154 -81.28 0.0004872016    1.243    0.196
