#   1 NUMBER                 Running object number                                     
#   2 MAG_AUTO               Kron-like elliptical aperture magnitude                    [mag]
#   3 X_IMAGE                Object position along x                                    [pixel]
#   4 Y_IMAGE                Object position along y                                    [pixel]
#   5 X_WORLD                Barycenter position along world x axis                     [deg]
#   6 Y_WORLD                Barycenter position along world y axis                     [deg]
#   7 A_WORLD                Profile RMS along major axis (world units)                 [deg]
#   8 B_WORLD                Profile RMS along minor axis (world units)                 [deg]
#   9 THETA_WORLD            Position angle (CCW/world-x)                               [deg]
#  10 FWHM_WORLD             FWHM assuming a gaussian core                              [deg]
#  11 ELONGATION             A_IMAGE/B_IMAGE                                           
#  12 ELLIPTICITY            1 - B_IMAGE/A_IMAGE                                       
         1 -16.3546     99.0443    162.9530   6.6643443538e+01   2.8171398886e+01     3.841666      2.48521  82.53   0.01388024    2.333    0.571
         2 -13.4868    168.5269     57.8205   2.2212557130e+01   3.5548773955e+01     1.924343    0.9346651 -65.07  0.005894254    4.395    0.772
         3 -13.9685    139.2675     32.8773   2.0377144179e+01   4.6088188442e+01     3.097748     1.561322 -81.66  0.006855221    9.887    0.899
         4 -11.3822    168.5441     30.2328   1.4525031350e+01   3.9270969104e+01    0.8064522    0.1866806 -40.81  0.002643197    4.086    0.755
         5 -11.3272    163.4573     18.7232   1.2080314883e+01   4.1791323883e+01    0.4580307    0.3224076 -51.96   0.00234361    1.514    0.339
         6 -13.4307    220.5644     26.6735   7.3093691920e+00   2.7496316594e+01    0.8272004    0.7272329 -76.20  0.004231899    1.094    0.086
         7 -12.1372    101.2936      6.3954   1.9383434592e+01   5.7588135439e+01    0.9424464     0.538706 -84.14  0.003709662    4.024    0.751
         8 -11.5393     40.2235      2.1251   3.7334833575e+01   6.9547490575e+01     0.362412    0.1051685  39.93  0.001585865    2.957    0.662
         9 -12.2449    110.1495    222.8547   7.3376273370e+01   1.2657760967e+01    0.4481172     0.287066 -71.93  0.001946625    1.882    0.469
        10 -14.4773    245.4567    230.6297   4.6715147523e+01  -9.7818896206e+00     3.144425    0.8228438 -35.61   0.01241934    3.623    0.724
        11 -14.7522    154.9103    199.0236   5.9406937981e+01   9.9488362376e+00     1.620843     1.304052 -77.23  0.005776006    1.656    0.396
        12 -15.0804    167.8923    229.5639   6.1747601792e+01   1.9310239099e+00     2.271442     1.614319  33.60  0.009401306    1.236    0.191
        13 -14.9362    143.2781    209.2814   6.3840282649e+01   9.9145814243e+00     1.246441     1.118567 -55.25  0.005476972    1.234    0.190
        14 -15.0461    123.3763    192.7630   6.5735713129e+01   1.6921736440e+01     8.512766      3.54136  58.99  0.007335427    7.538    0.867
        15 -19.6887     16.1470    150.3431   8.7386815598e+01   4.1698734409e+01      18.1229     3.195466 -74.15   0.04852891    5.912    0.831
        16 -12.6593     52.8660    231.9722   8.6680775952e+01   1.8942539379e+01    0.2888327    0.1594095 -62.44  0.001030621    1.918    0.479
        17 -10.1097     86.1441    240.3890   8.0630604649e+01   1.2756195897e+01    0.2037031    0.1396998 -58.43 0.0006242375    1.665    0.399
        18 -12.2738    103.6833    237.4012   7.6615006423e+01   1.0752395396e+01    0.5873717    0.4475512 -63.03   0.00354442    1.480    0.324
        19 -11.4574     46.6831    233.3895   8.8044477199e+01   1.9412107018e+01    0.3437979    0.1678574  53.53  0.001826238    1.761    0.432
        20 -11.6517     47.1378    229.0371   8.7600867059e+01   2.0259060086e+01    0.2769005    0.1608327  63.23  0.001282965    1.558    0.358
        21  -9.8548     71.0000    232.9686   8.3032322806e+01   1.6364861202e+01    0.1718232   0.06882964 -67.28 0.0006255129    2.640    0.621
        22 -12.2697     58.8820    232.2118   8.5471711033e+01   1.8128481737e+01    0.2187889    0.1662822 -71.10 0.0006093128    1.381    0.276
        23  -9.6064     83.4506    223.0004   7.9310351672e+01   1.6691004865e+01     0.183058    0.1251522 -73.36 0.0005130861    1.543    0.352
        24  -9.8668     71.3540    222.6305   8.1909078636e+01   1.8479406235e+01    0.1531474    0.1144477 -65.93 0.0005444857    1.411    0.291
        25 -12.0012     88.0490    219.7112   7.7908052883e+01   1.6715928560e+01    0.4591591    0.3934697  56.47  0.001440343    1.027    0.027
        26  -9.2299     65.3625    217.5359   8.2682923335e+01   2.0392401035e+01    0.1267573    0.1092306  75.77 6.380409e-05    1.042    0.040
        27 -11.0322    104.1859    210.4324   7.3031047494e+01   1.6232009432e+01    0.5855154    0.3121791  63.46  0.002361299    2.640    0.621
        28 -10.2419    211.0014    198.7122   4.7327956852e+01   2.1263920894e-01    0.2218534    0.1817776 -21.90 0.0004820772    1.136    0.119
        29 -10.7370     69.3398    195.9038   7.9315412735e+01   2.4745142632e+01    0.4815691    0.2195404 -64.61  0.002109263    2.130    0.531
        30 -15.0367    237.7903    165.4994   3.5643414217e+01   1.5374425349e+00     2.839949     1.925999 -51.10   0.01481227    1.712    0.416
        31 -13.2038    209.7600    123.9873   3.1546122727e+01   1.4365641393e+01     2.192714     0.883523 -53.35  0.006952155    3.568    0.720
        32 -15.2478    154.9289    216.0295   6.2345444114e+01   6.5754264825e+00     1.381824     1.255696 -57.79  0.008262627    1.280    0.218
        33 -14.0736     68.8905    143.7355   7.1559187969e+01   3.7656817368e+01    0.9349403    0.5642723  61.79  0.002917226    2.157    0.536
        34 -10.4189    180.6176    168.8024   4.7615750839e+01   1.1342297784e+01    0.4727263    0.2531464 -55.31  0.001833947    2.385    0.581
        35 -12.5020     78.3544    133.3263   6.6712415649e+01   3.8898622501e+01    0.4149903    0.3127308  68.68 0.0003443374    1.615    0.381
        36 -11.2471    133.5683    144.3632   5.3507611276e+01   2.6226155018e+01     1.089105    0.2956686 -53.81  0.002681191    4.864    0.794
        37 -14.5723     93.9786    132.0429   6.1755775878e+01   3.6685702207e+01     1.920168      1.03991 -55.99  0.005905376    1.813    0.448
        38 -10.2841    135.3975    130.6342   4.9766150808e+01   2.9037303599e+01    0.2987999    0.2110969 -48.84   0.00132299    1.412    0.292
        39 -11.4928    161.3730    125.7469   4.2062278887e+01   2.4505437403e+01    0.3420688      0.28148 -28.55 0.0008626821    1.266    0.210
        40 -10.0923    113.9288    125.8277   5.4473822650e+01   3.4523114660e+01    0.2466855    0.2141637  -7.57  0.001037412    1.297    0.229
        41 -11.5912    162.0444    119.5742   4.0346794325e+01   2.5671808386e+01    0.3123737    0.3108482  22.40 0.0003890463    1.022    0.021
        42 -12.1628    158.3300    114.2854   3.9856199024e+01   2.7623127379e+01    0.5817596    0.3704723 -72.09   0.00144023    2.644    0.622
        43 -12.9908     77.3582    142.9494   6.8936764458e+01   3.6632758096e+01    0.5200955    0.3117931 -46.67  0.001105302    1.659    0.397
        44  -9.2383    109.4425    115.7867   5.3242066498e+01   3.7758290236e+01    0.2085294    0.1451257 -36.87 0.0003370407    1.484    0.326
        45  -9.5848     82.3066    109.5757   6.0020542925e+01   4.4087908828e+01    0.2618125    0.1653782 -34.54  0.000675554    1.713    0.416
        46 -12.5802     66.0483    105.3332   6.4336633688e+01   4.7556341409e+01    0.6504688    0.4447955 -48.17  0.003227564    1.331    0.248
        47 -11.1547     62.6944     99.0632   6.3929149422e+01   4.9496418723e+01    0.4714264    0.2316552  37.51  0.001084124    2.193    0.544
        48 -11.0334    151.8243    106.4821   3.9346581386e+01   3.0732420146e+01    0.3239466     0.203829 -58.67  0.001300528    1.940    0.484
        49 -10.2015    134.4950    104.9964   4.3327482140e+01   3.4945093752e+01    0.2289277    0.1373193 -65.41 0.0008106477    2.591    0.614
        50  -9.6001    174.5396    180.0068   5.1297646702e+01   1.0215809962e+01    0.2831629    0.1461298 -49.00 0.0006971337    2.076    0.518
        51 -11.5596     72.5092     99.6950   6.0722280406e+01   4.7941458552e+01    0.4512814    0.1747863  40.25  0.001648405    2.779    0.640
        52 -11.8318     88.4269     91.2556   5.3055479776e+01   4.7227421618e+01     0.726532    0.3781114 -32.29  0.002811387    2.294    0.564
        53  -9.9995     73.7978     95.1815   5.9077523487e+01   4.8779809169e+01    0.2044689    0.1633511 -19.27 0.0004885523    1.312    0.238
        54 -11.6835    131.4220     70.1526   3.3917123324e+01   4.2457903857e+01    0.7838061    0.4190351  62.33  0.003025449    2.326    0.570
        55 -11.6924    177.3077     65.6492   2.2777517982e+01   3.2199018826e+01    0.3791906    0.3313471 -62.02 0.0007672324    1.137    0.120
        56  -9.5881     90.3653    246.9868   8.0445450066e+01   1.0878201640e+01    0.1561839    0.1159336 -65.54 0.0004541154    1.524    0.344
        57 -10.1847    121.0411    245.5242   7.3942323005e+01   6.5648963250e+00    0.2599699    0.1655905 -89.33  0.001276945    2.518    0.603
        58 -13.8145    176.9872     79.4550   2.6553889527e+01   2.9974866417e+01     1.933858     1.121079  87.91  0.005278043    3.347    0.701
        59 -12.6656    159.7708     74.0251   2.8510632747e+01   3.5052343705e+01    0.8178067    0.3946719  59.03  0.002662105    2.157    0.536
        60 -13.2414    148.9399     72.1135   3.0318753445e+01   3.7985284636e+01     1.573467    0.5651358  61.77   0.00451556    4.065    0.754
        61  -9.6531    126.3117     88.1154   4.0710845133e+01   4.0252509372e+01    0.2095657    0.1968877 -41.65 0.0003773833    1.085    0.078
        62  -9.9735    172.4092    176.3136   5.1020288851e+01   1.1379908649e+01    0.2762993    0.2207575  48.75 0.0007184698    1.341    0.254
        63 -10.9191    156.8535     86.8714   3.2775366999e+01   3.3440050181e+01    0.2367759    0.2126448  14.67 0.0005996234    1.242    0.195
        64 -11.2185     59.3400     86.1871   6.1719826206e+01   5.2883436909e+01    0.2653394    0.2172572 -58.68 0.0007622691    1.296    0.228
        65  -9.4480    110.6574     75.2959   4.1215567612e+01   4.6140389296e+01    0.1472891    0.1214287  87.91 0.0003686774    1.664    0.399
        66 -11.6845     95.8331    227.2659   7.7098121827e+01   1.3967705400e+01    0.7997811     0.337858 -54.52  0.003524503    2.586    0.613
        67 -10.4528     76.5652     70.9355   5.0868309959e+01   5.3489125870e+01    0.3714657     0.189668  52.00  0.001436945    2.877    0.652
        68 -13.4035    193.7381     53.4789   1.6917230780e+01   3.0110768723e+01     1.144755    0.8973955  42.68  0.004404321    1.487    0.327
        69 -12.1344    200.0257     47.4648   1.4529226939e+01   2.9482786736e+01    0.5282753    0.3700967  47.16  0.001549718    1.638    0.390
        70  -9.8034     95.9544     62.9807   4.1669908068e+01   5.1410185284e+01     0.217884     0.183812 -88.91 0.0007261055    1.711    0.416
        71 -10.9107     65.5144     60.9519   5.1587888377e+01   5.7181480573e+01    0.3029383    0.1656892  16.42  0.001280056    2.431    0.589
        72 -10.9274     57.1088     59.9363   5.4495748804e+01   5.8611617074e+01      0.28227    0.1663411  45.04  0.001022135    2.142    0.533
        73  -9.2732     51.6487     54.2616   5.4730350943e+01   6.0420333571e+01    0.1177759    0.1048073  56.98 0.0006976285    1.612    0.380
        74 -13.0636    107.0676    228.8517   7.4838159791e+01   1.1923635391e+01     1.427609    0.5978708  38.18  0.006209733    2.080    0.519
        75 -11.0307     71.5325     49.4844   4.5231778611e+01   5.8230416761e+01    0.4071865    0.2712225  61.33  0.001674095    2.576    0.612
        76 -10.2235     58.8154     46.1269   4.8853401500e+01   6.0829602488e+01    0.1852124    0.1707706  -4.82 0.0003882583    1.189    0.159
        77 -11.0212     59.8105    245.6286   8.6436829634e+01   1.5314739602e+01    0.1628989    0.1372077 -69.27 0.0006075772    1.385    0.278
        78 -11.2059    164.9226     24.0626   1.3354718377e+01   4.0860878999e+01    0.4438265    0.2901242 -52.21  0.002340846    1.643    0.391
        79 -10.7604     50.9149    246.3454   8.8221705366e+01   1.6298382915e+01    0.1414668    0.1202565  70.26 0.0004112658    1.120    0.107
        80 -11.8691    125.2424    231.6575   7.1244669282e+01   8.4971205845e+00    0.5123111     0.417734  57.29  0.002014367    1.223    0.182
        81 -12.6795     54.6236    239.1636   8.6928270753e+01   1.7256191897e+01    0.3505148    0.2719314  61.78  0.001816256    1.041    0.039
        82 -10.2366     60.8550     21.3089   3.7887527727e+01   6.4109210588e+01    0.1844809    0.1478715  44.22 0.0007077907    1.433    0.302
        83 -11.6875    100.8771    222.6754   7.5417983707e+01   1.4146881494e+01    0.3609983    0.1920572 -54.15  0.001132918    2.060    0.515
