#   1 NUMBER                 Running object number                                     
#   2 MAG_AUTO               Kron-like elliptical aperture magnitude                    [mag]
#   3 X_IMAGE                Object position along x                                    [pixel]
#   4 Y_IMAGE                Object position along y                                    [pixel]
#   5 X_WORLD                Barycenter position along world x axis                     [deg]
#   6 Y_WORLD                Barycenter position along world y axis                     [deg]
#   7 A_WORLD                Profile RMS along major axis (world units)                 [deg]
#   8 B_WORLD                Profile RMS along minor axis (world units)                 [deg]
#   9 THETA_WORLD            Position angle (CCW/world-x)                               [deg]
#  10 FWHM_WORLD             FWHM assuming a gaussian core                              [deg]
#  11 ELONGATION             A_IMAGE/B_IMAGE                                           
#  12 ELLIPTICITY            1 - B_IMAGE/A_IMAGE                                       
         1 -11.9604    210.4631     29.1385   4.6172310425e+01   2.8847227093e+01    0.8948463    0.6895083 -64.32  0.004381048    1.245    0.197
         2 -11.9262    217.5022     22.6488   4.3700467824e+01   2.7905551054e+01     0.601629    0.4346579  26.65  0.001445505    1.972    0.493
         3 -12.6116    231.9951      7.5606   3.8656990370e+01   2.6159901132e+01    0.7584623    0.5934128 -64.47  0.002610053    1.102    0.093
         4  99.0000     96.1340    212.2039   1.1224997630e+02   1.8291347185e+01     1.690439    0.6530771  40.47   0.00753776    2.298    0.565
         5 -10.2699    249.6288    246.1067   8.8254558443e+01  -1.1237996352e+01    0.4855967    0.2072948 -31.23  0.002715872    2.507    0.601
         6 -10.6609    230.4705    248.3202   9.1821389868e+01  -8.8156574784e+00    0.6944285    0.2761621  23.86  0.003037347    3.172    0.685
         7  -9.0705    209.8370    250.1304   9.5663353634e+01  -6.0058891834e+00    0.1654022    0.1123585  18.16 0.0006270052    1.321    0.243
         8 -12.2167    176.6723    218.1803   9.6925019137e+01   3.7324179259e+00     1.202904    0.7347463  18.57  0.005924033    2.109    0.526
         9 -13.4173    176.2616    240.5789   1.0033949374e+02   4.6631157494e-01      1.36509     1.105906  35.10  0.008312731    1.022    0.022
        10 -14.1862      3.1688    132.3135   1.2460840727e+02   4.6763110909e+01     6.273601     1.150032 -78.66   0.01814654    5.987    0.833
        11 -12.7299     18.9735    248.2333   1.2898766242e+02   2.1492111538e+01    0.5181936     0.303641  59.94  0.002203882    1.212    0.175
        12 -14.8253      7.0459    234.0652   1.3024931281e+02   2.5203786937e+01      1.77565    0.8345724 -86.97  0.009730191    1.770    0.435
        13 -10.9833     90.0693    241.7849   1.1646177456e+02   1.3757176117e+01     1.090647    0.5882059  50.59  0.005598269    1.459    0.314
        14 -12.8371     83.9521    221.9243   1.1570640588e+02   1.8229498528e+01     1.114408    0.6828824  52.10  0.004664876    1.349    0.259
        15 -12.2920     96.1127    232.8506   1.1448640340e+02   1.4441973541e+01     1.758872    0.3602886  48.30  0.006063043    4.152    0.759
        16 -12.8125    104.4868    227.6741   1.1234638298e+02   1.4107062344e+01     1.592126    0.7956829  46.37  0.008442371    1.641    0.391
        17 -11.8653    196.0348    237.3075   9.6229646517e+01  -2.2598274581e+00    0.6418777    0.4768716 -46.05  0.004133729    1.766    0.434
        18  -9.8307    224.6608    241.8027   9.1814729820e+01  -7.2288221501e+00    0.3371416    0.1925561  12.86  0.001885472    1.941    0.485
        19  -9.1451     46.9889    242.9488   1.2412373063e+02   1.9250895690e+01    0.2944606    0.1240354  40.18  0.001666586    2.112    0.526
        20  -9.4098     76.5474    240.3298   1.1877197697e+02   1.5905173329e+01    0.2479694     0.139332  62.41  0.001017544    1.543    0.352
        21 -10.9391    230.8587    237.2443   9.0017113341e+01  -7.6078691300e+00    0.3618747    0.2001557 -29.72  0.002143925    1.959    0.489
        22 -12.0125    224.4877    228.3639   8.9685592832e+01  -5.5688264120e+00    0.7963179    0.4681273 -22.05  0.004585945    1.855    0.461
        23 -11.8508    218.0276    224.6488   9.0223340572e+01  -4.0823171345e+00     0.631088    0.4463957  -5.83  0.003889582    1.472    0.321
        24  -8.8413    139.7256    232.1966   1.0609924488e+02   7.7134187210e+00     0.268076    0.1580438 -77.02  0.001287981    2.936    0.659
        25  -9.4277    109.4739    244.2653   1.1316730765e+02   1.0484607671e+01    0.2482984    0.2141714  28.61  0.001567498    1.430    0.301
        26 -11.0899    163.6629    247.9907   1.0365259417e+02   1.4386991123e+00    0.5374555    0.3884219  32.33  0.003072387    1.194    0.162
        27  -9.9812    201.3772    224.9330   9.3314702469e+01  -1.4345252929e+00    0.2766016    0.2682081 -26.18  0.001957898    1.341    0.254
        28 -13.8335     10.9779    206.9066   1.2825424104e+02   2.9972080813e+01     1.308701    0.8427995  73.41  0.004358764    1.154    0.133
        29 -10.3913    248.6571    222.3681   8.4479680956e+01  -8.4522131217e+00    0.3517863    0.2396772 -14.11  0.002279039    1.363    0.266
        30 -10.7337    196.1253    195.5328   8.9237539345e+01   3.9120157273e+00    0.4460042    0.3310699  30.28  0.002503071    1.223    0.182
        31  -9.0965     93.9939    194.5232   1.1053587549e+02   2.2198256541e+01    0.3656572     0.223095  31.53  0.001764205    1.908    0.476
        32  -8.8940     90.1813    193.6054   1.1124001747e+02   2.2978932529e+01    0.2247695    0.1874866  22.71 0.0009425801    1.566    0.361
        33  -9.7458    249.3301    191.8413   7.8776244845e+01  -4.6631542455e+00     0.281213    0.1414002  -9.78  0.001174461    2.979    0.664
        34 -13.7404     30.0910    237.0110   1.2661358293e+02   2.2270643440e+01     1.460348    0.7067707  61.93   0.00708879    1.602    0.376
        35 -10.5367     58.9753    184.0787   1.1688309476e+02   2.9442714149e+01    0.3261434    0.2323956 -43.47  0.001857483    1.953    0.488
        36 -10.6569     64.8182    177.8283   1.1488109928e+02   3.0062894173e+01     0.257766     0.229966 -66.60  0.000793264    1.270    0.212
        37  -9.6511    196.1745    169.9943   8.4234374259e+01   8.2538194743e+00    0.2413494    0.1633891  -6.40  0.001095053    1.977    0.494
        38 -10.2640     74.7578    167.6096   1.1127157717e+02   3.1006523324e+01    0.2704069     0.210243 -62.22 0.0004606415    1.287    0.223
        39 -12.2793     61.7307    164.0287   1.1387793800e+02   3.3612229135e+01    0.4746101    0.2720334 -47.65  0.001368171    2.096    0.523
        40 -11.1114     81.9793    160.3856   1.0847719522e+02   3.1616952209e+01    0.4868212    0.4679683  77.92    0.0010852    1.154    0.133
        41  -9.5059     32.8507    155.1832   1.1969008072e+02   3.9002214635e+01    0.3257258   0.06332682 -68.07  0.001108104    3.862    0.741
        42 -10.4302     72.3174    153.6448   1.0983102991e+02   3.4605661623e+01    0.4828083    0.2451542  75.58  0.001755221    3.418    0.707
        43 -12.2727     67.7872    144.0293   1.0948306210e+02   3.7519523267e+01    0.7294432    0.4854527  69.71  0.002685469    1.672    0.402
        44 -12.4287     57.7805    131.8513   1.1016927047e+02   4.1750661468e+01     1.387645    0.5147489 -77.05  0.003985634    5.087    0.803
        45 -10.2879    238.0000    149.9972   7.2091764613e+01   3.5364259940e+00    0.3909767   0.07287586 -36.07  0.001056971    4.986    0.799
        46  -8.2150    179.7068    148.2988   8.2963289644e+01   1.5699945633e+01    0.1454793    0.1212796 -87.01 0.0003143224    1.566    0.361
        47  -9.5229     96.8650    145.3469   1.0216522282e+02   3.2777548090e+01     0.279306    0.2318067 -47.23 0.0009421491    1.278    0.217
        48  -8.9074     99.6091    142.1457   1.0084166300e+02   3.3066573294e+01     0.243125    0.1643526 -32.28  0.001088677    1.992    0.498
        49 -11.1139     84.8542    144.0570   1.0504088387e+02   3.5025145708e+01    0.2902719    0.2482324 -57.76 0.0004254934    1.164    0.141
        50 -10.5686     16.6101    137.0865   1.2172449383e+02   4.4677462648e+01    0.2506633    0.2380452 -69.60  0.001153424    1.288    0.224
        51 -11.1702     16.1110    132.3196   1.2134059337e+02   4.5826701176e+01     0.358032    0.2599796  73.17  0.001692854    1.325    0.246
        52 -10.5026    107.4285    132.0152   9.6697375730e+01   3.4068316433e+01    0.5107577     0.337462  60.58  0.002289823    1.766    0.434
        53 -10.0545     95.6328    129.3399   9.9298754899e+01   3.6782220259e+01    0.3263006    0.2432612 -36.91 0.0008112679    1.525    0.344
        54 -10.3645    115.1073    127.5527   9.3662179446e+01   3.3672125218e+01    0.3522066    0.1930946 -47.11  0.001452479    1.797    0.443
        55  -9.0463    105.8695    120.8898   9.4610845975e+01   3.6964801577e+01    0.2170841    0.1980993 -24.64 0.0002715101    1.215    0.177
        56  -8.7486    168.0613    113.2234   7.6970665038e+01   2.5377675997e+01    0.2602809    0.1883906  86.09  0.001069902    2.040    0.510
        57  -8.2194    205.3305    110.3354   6.8575728532e+01   1.7252759682e+01    0.1583961    0.1187807   9.07 0.0007052132    1.730    0.422
        58 -12.5737     59.5188    213.4801   1.1963797769e+02   2.3215229104e+01     1.736035     1.098895  16.42  0.008750349    3.169    0.684
        59 -12.7814     30.2913    213.4682   1.2514433829e+02   2.6699268212e+01    0.7336212    0.5255039 -49.52 0.0007459993    2.115    0.527
        60  -9.9373     52.6219     89.7219   1.0337151797e+02   5.2420035837e+01    0.2253102    0.1710494   2.30  0.001022842    1.659    0.397
        61  -9.6226     59.3610     78.7829   9.8275397766e+01   5.4070745800e+01    0.2705488    0.1532661 -45.58  0.001306689    1.550    0.355
        62 -10.4781     33.0226     65.7622   1.0434724251e+02   5.9830716945e+01    0.5203537    0.1425273 -58.02  0.001947972    3.038    0.671
        63  -8.3261     13.3086     60.3073   1.1063798240e+02   6.2512366937e+01     0.126678   0.06889581 -39.87 0.0003411096    1.613    0.380
        64 -10.3462     44.6933     55.9537   9.6924418944e+01   6.0708978078e+01    0.1937304    0.1500005 -41.97  0.001066793    1.093    0.085
        65 -10.4530     67.6494     51.4560   8.6573247628e+01   5.8539065180e+01    0.3343588     0.193312 -34.63  0.001633561    1.612    0.380
        66 -11.5697    203.5027     34.2049   4.8394058933e+01   2.9944384539e+01    0.5492952    0.4479263   6.78  0.002535515    1.585    0.369
        67  -9.1166     73.5998    248.3668   1.1994144349e+02   1.4914448238e+01    0.2208307    0.1000834  47.03  0.001263482    1.689    0.408
        68 -11.1536     69.2327    223.6616   1.1868079006e+02   1.9951720090e+01    0.5024036    0.2599826  38.71  0.001942119    1.863    0.463
        69 -13.9307     41.7940    204.5106   1.2232320032e+02   2.7204008644e+01     3.381697     1.795467  72.01   0.01747176    1.749    0.428
