#   1 NUMBER                 Running object number                                     
#   2 MAG_AUTO               Kron-like elliptical aperture magnitude                    [mag]
#   3 X_IMAGE                Object position along x                                    [pixel]
#   4 Y_IMAGE                Object position along y                                    [pixel]
#   5 X_WORLD                Barycenter position along world x axis                     [deg]
#   6 Y_WORLD                Barycenter position along world y axis                     [deg]
#   7 A_WORLD                Profile RMS along major axis (world units)                 [deg]
#   8 B_WORLD                Profile RMS along minor axis (world units)                 [deg]
#   9 THETA_WORLD            Position angle (CCW/world-x)                               [deg]
#  10 FWHM_WORLD             FWHM assuming a gaussian core                              [deg]
#  11 ELONGATION             A_IMAGE/B_IMAGE                                           
#  12 ELLIPTICITY            1 - B_IMAGE/A_IMAGE                                       
         1 -13.1987     67.6584    144.7289   1.2588712797e+02   3.7881641524e+01     3.249005     1.562127 -84.01  0.005818939    5.710    0.825
         2 -13.6707    193.1478     28.7508   6.6507089519e+01   3.3090015972e+01     2.028992     1.462385  25.60   0.01076246    2.010    0.503
         3 -11.5499    202.1578     17.5953   6.2756342275e+01   3.2223356897e+01    0.4215482    0.3400863  48.25  0.001070526    1.428    0.300
         4 -13.0994    207.7934      9.7703   6.0381848907e+01   3.1746806173e+01    0.9856156    0.7653913 -86.69  0.002949182    1.096    0.087
         5  -9.3368    174.0013      7.9720   6.3867030592e+01   3.9881520902e+01    0.1535732    0.1316113  76.33 0.0003911339    1.032    0.031
         6 -11.0023      4.1775      4.4699   1.1010483144e+02   7.1192671137e+01    0.3729177    0.1918414  18.18   0.00252649    1.842    0.457
         7  -8.2757     68.0480     48.5247   1.0110509826e+02   5.7667542284e+01    0.1638205    0.1117899  59.55 0.0008093079    2.519    0.603
         8 -10.8941    177.7931    247.5974   1.1790320082e+02  -2.4276707237e+00    0.2854404    0.2075447  54.78  0.001658309    1.517    0.341
         9 -11.1214    165.6602    249.8847   1.2061584480e+02  -7.3460319112e-01    0.5768555    0.1733315  36.60  0.002098386    3.195    0.687
        10 -11.6853    148.4235    247.6275   1.2367979890e+02   2.5654668821e+00    0.5001128    0.3905954  15.63  0.002978431    1.543    0.352
        11 -10.1301    121.3631    248.4224   1.2909082085e+02   6.9703345572e+00    0.2659996    0.2230266 -80.55  0.001047259    1.333    0.250
        12  -9.8888     62.4599    250.3150   1.4034594407e+02   1.5553456040e+01    0.4440932    0.1766399  64.31  0.001930194    3.068    0.674
        13 -10.7114     63.1843    246.6036   1.3989023194e+02   1.6152719865e+01    0.4306954    0.1475244  42.96  0.002024726    2.433    0.589
        14 -12.7146     51.8877    237.2693   1.4113016940e+02   1.9459119017e+01     1.025124    0.9256492 -49.67  0.006154711    1.623    0.384
        15 -11.7988     54.6672    230.3632   1.3999566183e+02   2.0468355808e+01    0.5484073    0.4192329 -67.63  0.002839457    1.413    0.292
        16 -13.6827     36.7964    226.7496   1.4301515884e+02   2.3430017436e+01     1.597453     1.420921 -83.20   0.01193044    1.320    0.242
        17 -12.5401     49.7215    217.6689   1.3974969469e+02   2.3711555448e+01    0.5236885     0.404923  75.89  0.001548132    1.059    0.056
        18 -14.9000     57.5550    206.6136   1.3703222198e+02   2.5049143618e+01     7.195205     2.603883  49.31   0.03109911    2.610    0.617
        19  -9.8349    192.1461    194.0294   1.0567919165e+02   4.1708647684e+00    0.9544508    0.4657173 -63.39  0.002382159    7.499    0.867
        20 -11.0841     72.6349    186.7010   1.3128436785e+02   2.7392530173e+01    0.4206095    0.2628021 -44.56  0.001522269    1.965    0.491
        21 -11.0071     76.9344    180.6867   1.2942936042e+02   2.8139431717e+01    0.3185891    0.2443762 -46.88 0.0007295804    1.473    0.321
        22  -8.8077    201.1210    182.9244   1.0161544816e+02   4.4987638540e+00     0.216834     0.203517  88.38  0.001175464    1.296    0.228
        23 -13.5058     11.3052    206.9366   1.4618708889e+02   3.0247883517e+01     0.973882    0.6716406  18.78  0.002670544    2.286    0.562
        24 -11.1437      3.1959    168.1347   1.4463101936e+02   3.9281259570e+01    0.3432813    0.1886814 -69.78  0.001334953    1.439    0.305
        25 -10.0679    134.2415    250.0111   1.2678187237e+02   4.5551411483e+00    0.2392157    0.1601384  43.26  0.001341655    1.245    0.197
        26  -8.7642    166.8577    212.1580   1.1435375898e+02   5.5902773956e+00    0.3346725    0.1904201 -66.84  0.001317645    3.107    0.678
        27  -9.6660    125.1044    173.8830   1.1677593578e+02   2.1513127242e+01    0.2844013    0.2042922  37.69  0.001371754    1.406    0.289
        28  -9.2167     45.6456    174.1827   1.3582547115e+02   3.3795279110e+01     0.311656    0.1651974  41.38  0.001601285    1.938    0.484
        29 -12.5845     73.0657    166.5421   1.2819076113e+02   3.1989570248e+01    0.7244512    0.4058277 -40.27  0.001444249    2.323    0.570
        30 -10.1560    227.5729    171.1442   9.4010907388e+01   1.5686083177e+00    0.3606116    0.2303243 -55.78  0.001666648    2.044    0.511
        31  -9.5833     36.9064    162.3676   1.3637216601e+02   3.7490237747e+01    0.2250341    0.1543557 -82.79  0.001220623    1.328    0.247
        32  -9.0814    110.4931    156.0521   1.1689444986e+02   2.8318433727e+01    0.2069137    0.1941638  55.66  0.000329067    1.064    0.060
        33  -8.4850    176.0786    150.2691   9.9907104877e+01   1.6147618310e+01    0.2090527    0.1895865  41.48  0.000331398    1.091    0.084
        34 -11.4982     47.5903    148.7831   1.3181534111e+02   3.9461468873e+01    0.5240471     0.398499  51.73  0.003100002    1.415    0.293
        35  -8.9684    105.4506    143.0671   1.1551270569e+02   3.2248152080e+01    0.3316761    0.2294754 -24.57  0.001112695    1.996    0.499
        36 -11.4331     91.9054    145.9038   1.1967261048e+02   3.3929833046e+01    0.2879945    0.2592974 -37.59 0.0004343033    1.184    0.155
        37  -8.7077    108.7081    141.0046   1.1421167275e+02   3.2131340593e+01    0.2114026    0.1928654  89.39  0.000240438    1.144    0.126
        38 -10.2947    222.5702    144.5722   8.9225408621e+01   7.3676068570e+00     0.248408    0.2422047 -48.54 0.0006722552    1.075    0.070
        39 -11.9980    249.5059    234.2480   1.0214668792e+02  -1.1911457182e+01    0.2410488    0.1951234   0.17 0.0002879471    1.049    0.047
        40  -9.3058    103.1637    146.8077   1.1689732297e+02   3.1787997542e+01    0.3242654    0.2757431 -10.66 0.0008482391    1.457    0.314
        41  -9.0960    112.4777    134.0347   1.1166132257e+02   3.3026227043e+01    0.2778756    0.2145237  17.48 0.0008056848    1.590    0.371
        42 -10.6452     85.0640    169.9744   1.2580367366e+02   2.9383917934e+01     0.286014    0.2481448 -66.55 0.0003609198    1.110    0.099
        43  -9.9310    162.6317    212.9244   1.1538096811e+02   6.2344724287e+00    0.2419248    0.1954464  39.55 0.0003495933    1.118    0.105
        44 -10.0553    100.1624    130.6504   1.1420778869e+02   3.6059530806e+01    0.2841007    0.2305499 -19.86 0.0004048075    1.467    0.318
        45  -8.8399    118.5277    126.4498   1.0827754191e+02   3.3566992637e+01    0.3901871    0.2510637  -8.61  0.001394626    3.072    0.674
        46 -11.4668     40.2205    125.4428   1.2996368984e+02   4.5671601110e+01    0.3646896    0.2748441 -69.07  0.002177795    1.204    0.169
        47  -9.5516    241.2556    126.1787   8.1963312860e+01   6.9077732761e+00    0.2090188     0.184978  32.75 0.0002774359    1.259    0.206
        48  -8.9483    108.7723    121.9378   1.0981577398e+02   3.6459165438e+01    0.2129497    0.1924223 -21.32 0.0004068876    1.172    0.147
        49 -11.0355     39.5910    116.1764   1.2846175684e+02   4.7840630340e+01    0.3095362    0.1773138 -54.08  0.001634369    1.464    0.317
        50  -9.5434    167.7596    113.1576   9.2843026101e+01   2.5648248948e+01    0.3684336    0.2706584 -80.26   0.00106952    1.883    0.469
        51 -10.2570      4.6786    102.3226   1.3634181351e+02   5.3677143654e+01    0.2151069    0.1589298  65.02  0.001413939    1.722    0.419
        52 -12.3112     90.0117    163.3224   1.2343874317e+02   3.0151792644e+01     2.329541     1.103611  56.98  0.006731062    2.854    0.650
        53 -15.5820      7.2642    240.6315   1.4909226160e+02   2.3951765362e+01     7.410145     1.229307 -70.85    0.0105736    4.476    0.777
        54  -8.6710    180.7671     80.9050   8.1799880207e+01   2.8552384340e+01    0.2069901    0.1951823  25.99 0.0004394311    1.170    0.145
        55  -8.3181    155.2885     78.3500   8.6352394225e+01   3.5118348854e+01    0.1517633     0.117208  13.65 0.0007024687    1.664    0.399
        56  -9.7188      4.0899     75.1984   1.3161611521e+02   5.9344349652e+01    0.1620484    0.1214409  54.73  0.001057279    1.909    0.476
        57 -10.1658    236.4175     70.6490   7.0464748445e+01   1.7224516925e+01    0.2557546    0.2252119 -59.91 0.0002416536    1.058    0.055
        58  -8.0838    122.5037     65.5572   9.0444350611e+01   4.4765296178e+01     0.143587    0.1332176  28.62 0.0001094336    1.008    0.008
        59  -8.7940    231.4904     60.4937   6.8868187445e+01   1.9852893595e+01     0.134082    0.1192839 -76.01 -4.285632e-05    1.025    0.024
        60  -9.9998     73.6099    247.1115   1.3803031058e+02   1.4599576091e+01    0.2666422    0.1408698  62.24 0.0009903433    1.778    0.437
        61  -9.9197     89.1948    244.6307   1.3485801577e+02   1.2771274900e+01    0.2585015    0.1948702  87.37 0.0005757937    1.310    0.237
        62 -10.9225    193.7347    244.1163   1.1425347480e+02  -4.5706151628e+00    0.3515731    0.2104557  10.90  0.001665695    2.387    0.581
        63  -8.7916     62.2797     46.1768   1.0228630377e+02   5.8894271422e+01    0.2073209    0.1597406  57.10 0.0007084392    2.011    0.503
        64 -10.3919    134.0590     42.8309   8.0667108248e+01   4.5512913422e+01     0.212178    0.2032931  13.32 0.0002333857    1.098    0.089
        65  -8.8038     54.5605     43.0794   1.0395891907e+02   6.0456270432e+01     0.215567    0.1592824  42.60  0.000721376    1.684    0.406
        66  -8.1015     47.3635     40.7220   1.0578891754e+02   6.1756714310e+01    0.1042086   0.09706265  55.13 0.0004843335    1.672    0.402
        67  -8.8727    229.0323     22.4741   6.0963030940e+01   2.5490403247e+01    0.2096584    0.1786881 -16.67 0.0009077672    1.638    0.390
        68  -8.7021    164.7836     12.3697   6.6273367887e+01   4.1660825188e+01    0.1872204   0.09874425  58.23 0.0002766243    1.582    0.368
        69  -9.9822     68.9445    244.6533   1.3865890403e+02   1.5725681961e+01    0.2658133    0.1390922 -59.80  0.001468194    2.111    0.526
        70  -8.9844    103.8586    237.9790   1.3125524398e+02   1.1742542831e+01     0.193919    0.1600975  61.10 0.0004851578    1.015    0.015
