#   1 NUMBER                 Running object number                                     
#   2 MAG_AUTO               Kron-like elliptical aperture magnitude                    [mag]
#   3 X_IMAGE                Object position along x                                    [pixel]
#   4 Y_IMAGE                Object position along y                                    [pixel]
#   5 X_WORLD                Barycenter position along world x axis                     [deg]
#   6 Y_WORLD                Barycenter position along world y axis                     [deg]
#   7 A_WORLD                Profile RMS along major axis (world units)                 [deg]
#   8 B_WORLD                Profile RMS along minor axis (world units)                 [deg]
#   9 THETA_WORLD            Position angle (CCW/world-x)                               [deg]
#  10 FWHM_WORLD             FWHM assuming a gaussian core                              [deg]
#  11 ELONGATION             A_IMAGE/B_IMAGE                                           
#  12 ELLIPTICITY            1 - B_IMAGE/A_IMAGE                                       
         1 -12.7270    199.8628     33.6170   6.1396521413e+01   3.1052034122e+01    0.9681484    0.6977671  60.25  0.005333989    1.400    0.286
         2 -13.3637    215.9476     15.1806   5.5303364599e+01   2.9410446701e+01    0.9699955    0.8452287  40.33  0.006259128    1.550    0.355
         3 -12.0336      2.1875      5.3749   1.1072695734e+02   7.4695426121e+01    0.6347274    0.3492048  -6.84  0.003989698    1.744    0.427
         4 -11.3936    198.3869    245.6519   1.0842265559e+02  -4.6259771030e+00    0.4037741    0.2000399  44.89  0.002026117    2.146    0.534
         5 -11.0131    184.2434    249.9254   1.1178464912e+02  -3.0962454572e+00    0.3999963    0.1721778  41.23  0.001895264    2.025    0.506
         6 -10.6558    169.2059    249.1092   1.1461422774e+02  -6.6046253699e-01    0.2521454    0.1961099  -7.94 0.0004294615    1.486    0.327
         7 -10.8291    162.4821    249.9382   1.1606253086e+02   2.6447549611e-01    0.3363054    0.1943223  32.76  0.001129092    1.437    0.304
         8 -11.4519    150.2559    247.4778   1.1818008683e+02   2.5782426846e+00    0.4577229    0.3454287 -34.96  0.002844123    1.637    0.389
         9 -11.6782    143.4643    249.4519   1.1980705667e+02   3.3350246307e+00    0.7593938    0.4274538 -67.64  0.003725903    2.933    0.659
        10 -10.6421    135.8810    225.3540   1.1814291413e+02   8.7555115918e+00    0.3756888    0.2252021 -50.63  0.001247316    1.940    0.484
        11  -9.8625    132.5766    224.1888   1.1869263115e+02   9.5284175397e+00    0.2443182     0.186404  20.78 0.0009392794    1.446    0.308
        12 -11.0637    135.8674    240.8868   1.2025473701e+02   5.9785639387e+00    0.3026915    0.2383348  25.88  0.001070648    1.258    0.205
        13 -12.6764    135.1089    234.3079   1.1954408986e+02   7.2553535350e+00    0.9019694    0.7723857 -89.23  0.005667911    1.417    0.294
        14 -11.6796    122.2741    246.5271   1.2374743866e+02   7.1641186428e+00     0.614931    0.4636501  68.57  0.002618839    1.469    0.319
        15 -11.7425    125.4420    241.9859   1.2254999031e+02   7.4567997906e+00    0.5107263    0.4201528 -84.20  0.001098041    1.475    0.322
        16 -10.5790    115.0498    250.3819   1.2565309642e+02   7.6179097809e+00    0.5595995    0.2841704  33.86    0.0020321    1.789    0.441
        17 -11.3334    109.4551    246.9235   1.2640358453e+02   9.0818253857e+00    0.4922886    0.4276975  66.97   0.00296611    1.162    0.139
        18 -10.9934     99.2896    248.2037   1.2859599049e+02   1.0391911746e+01    0.4453686    0.3143827  61.39  0.002403432    1.307    0.235
        19  -9.8760    102.8105    247.4009   1.2780215439e+02   1.0007225637e+01    0.3105991    0.1721142  47.24  0.001116289    1.454    0.312
        20  -9.7880     90.8122    250.4241   1.3051099791e+02   1.1242997281e+01     0.276982    0.1881834  33.88  0.001209939    1.447    0.309
        21 -11.0460     86.6673    248.1917   1.3112423011e+02   1.2249085587e+01    0.3785291    0.2783723  26.32 0.0007595919    1.612    0.380
        22 -10.1279     81.4981    247.0467   1.3204788372e+02   1.3200590528e+01    0.2595626    0.1941169  81.50  0.001237604    1.347    0.257
        23 -11.0436     60.1108    245.9589   1.3616614956e+02   1.6333457892e+01     0.488362    0.2726786  61.02  0.002648228    1.537    0.349
        24  -9.4419     66.9007    243.8559   1.3466682404e+02   1.5827163535e+01    0.2017965    0.1579037   5.89  0.001082817    2.144    0.533
        25 -11.9145     15.9204    218.3417   1.4296538407e+02   2.7050719386e+01    0.8782285     0.488243  45.48  0.003895544    1.555    0.357
        26 -13.3175      9.7970    209.7319   1.4369466207e+02   2.9462206698e+01     2.197099    0.9902031 -64.91   0.01194093    2.217    0.549
        27 -12.5565     43.4909    208.0990   1.3651166606e+02   2.6193849751e+01     1.771108    0.7313609  72.73  0.007015483    3.272    0.694
        28 -12.8888     28.4939    246.8055   1.4218869485e+02   2.0036653113e+01     1.179211    0.5617749  35.41  0.006779451    2.035    0.509
        29 -13.1887      5.3234    245.2521   1.4624481294e+02   2.2784244824e+01     1.151378    0.5311371  70.44            0    1.730    0.422
        30 -12.6099     13.7518    239.3277   1.4448316077e+02   2.3060963452e+01    0.8822485    0.4048903  76.97  0.005063705    1.921    0.479
        31 -11.6197     19.6134    237.1106   1.4329603069e+02   2.2877009921e+01     0.477575    0.2977716  70.66  0.001021819    1.244    0.196
        32 -12.2993     28.7380    226.3786   1.4092616652e+02   2.4028855941e+01     0.365397    0.2721488 -77.96 0.0007958548    1.369    0.270
        33 -13.7091     35.3451    218.4436   1.3905395523e+02   2.4928347922e+01     1.086523    0.9452735 -64.74  0.007623203    1.450    0.310
        34 -10.1584     73.6931    243.0676   1.3324854820e+02   1.5045040226e+01    0.2807861    0.2744114  72.27  0.001742019    1.358    0.263
        35 -11.8219    178.3105    243.6740   1.1202929288e+02  -1.2670841471e+00    0.4979569    0.2599225  46.88  0.002429003    1.986    0.496
        36 -11.2499    167.8311    242.8212   1.1399364422e+02   5.1821877371e-01    0.3195156    0.2342799   5.08  0.001780004    1.568    0.362
        37 -10.5760    158.4880    242.2067   1.1579301356e+02   2.1102510111e+00     0.399959     0.185565 -59.29  0.001702786    3.595    0.722
        38 -10.0199     84.6506    234.2972   1.3017993750e+02   1.5170855280e+01    0.3593242    0.1934007  66.97  0.001757618    2.124    0.529
        39 -10.4822     84.6381    229.6067   1.2970044372e+02   1.6098498840e+01    0.2738732    0.2129687 -52.12 0.0006549914    1.613    0.380
        40 -11.0506     91.8463    241.2825   1.2940143707e+02   1.2771792021e+01    0.4089324     0.297753  72.42   0.00208823    1.371    0.271
        41 -10.7884     90.0089    238.0261   1.2944699450e+02   1.3660752605e+01     0.390394    0.2700294  58.01  0.001448285    1.251    0.201
        42 -11.5259    103.9755    238.7814   1.2662931967e+02   1.1405553413e+01     0.765143    0.4651545 -29.64  0.003460882    3.360    0.702
        43 -10.3526     97.2065    238.9620   1.2805472889e+02   1.2405097491e+01    0.2459698    0.2320274  71.50  0.001177319    1.204    0.169
        44 -10.4613     93.8305    233.8594   1.2821100041e+02   1.3889774710e+01    0.3954113     0.233056  88.23  0.001777195    2.267    0.559
        45 -11.3663     99.0670    232.4375   1.2694834680e+02   1.3366135564e+01    0.4977342    0.3002057 -75.07  0.002180664    2.005    0.501
        46 -10.9582     98.5877    223.3134   1.2599397475e+02   1.5241168805e+01    0.4267366    0.2707727  37.46     0.001655    1.438    0.304
        47  -9.1902     94.0412    219.2728   1.2651166555e+02   1.6771929898e+01    0.1872487    0.1711442  48.96 0.0003695516    1.148    0.129
        48 -10.8977    109.1050    231.4907   1.2470345748e+02   1.1980368305e+01    0.3015746    0.2481883 -67.50  0.001109044    1.394    0.282
        49 -11.3642    105.6535    227.8671   1.2500691551e+02   1.3226556912e+01    0.4253765    0.3666836  54.82  0.001714655    1.035    0.034
        50 -10.3503     84.3611    240.7263   1.3087656355e+02   1.3974567972e+01    0.3797444    0.2343718  65.78  0.002140447    1.600    0.375
        51  -8.9825     54.1337    240.8489   1.3694239068e+02   1.8088350283e+01    0.1996993    0.1392821  41.82 0.0006287405    1.338    0.253
        52 -11.1051    116.7070    238.4848   1.2393973235e+02   9.4705906595e+00    0.4080467    0.3003677 -20.65  0.002080674    2.149    0.535
        53  -9.1343     66.7383    239.6832   1.3434857083e+02   1.6650232166e+01    0.2475778    0.1501224  67.74  0.001022243    1.543    0.352
        54  -8.7298     61.1474    239.3197   1.3543619344e+02   1.7470820587e+01    0.1780973   0.08297203  46.19 0.0009280637    1.694    0.410
        55  -9.4054    172.7480    236.0204   1.1199737861e+02   7.9864764460e-01    0.1694942    0.1513467  20.05            0    1.093    0.085
        56 -10.8786    128.3105    234.7500   1.2103569034e+02   8.2861372986e+00    0.3665478    0.2339808  65.65  0.001310035    1.980    0.495
        57 -10.7070    248.1436    233.9808   9.7472875480e+01  -1.0077345402e+01    0.2617427    0.1247973 -44.93  0.001277974    3.181    0.686
        58 -10.6582    122.6716    233.5317   1.2207112994e+02   9.4234173929e+00    0.3521158    0.2744991 -57.28  0.001754081    1.515    0.340
        59  -9.0684     54.8187    235.3676   1.3638366531e+02   1.9074961817e+01    0.2068122     0.118243  54.06  0.001193403    1.410    0.291
        60  -9.6183    169.7175    233.0070   1.1215607178e+02   1.7754431481e+00    0.1719745     0.155775  10.75 0.0003503151    1.122    0.108
        61 -10.1399    156.6321    232.1748   1.1473126394e+02   4.0713739059e+00     0.237835    0.2090534 -10.65 0.0005701073    1.281    0.220
        62 -11.8192    134.3625    248.6342   1.2154364090e+02   4.9054004159e+00     1.071076    0.2454586  36.80  0.003601674    3.770    0.735
        63 -10.0087     71.0602    219.9509   1.3162026796e+02   2.0033405642e+01    0.4969581    0.2936207  78.39  0.002559489    1.872    0.466
        64 -10.5158     79.3932    225.9149   1.3043422170e+02   1.7609622775e+01    0.4304176    0.2642301 -76.95  0.001595746    1.773    0.436
        65 -10.1965    117.0059    224.6825   1.2214538622e+02   1.2019266712e+01    0.2962786    0.2523519  40.45 0.0009519985    1.090    0.083
        66  -9.5501     92.4931    225.9783   1.2762616480e+02   1.5646467552e+01    0.1917367    0.1725316  35.92 0.0007452628    1.244    0.196
        67  -9.2650     65.0895    224.5868   1.3334623972e+02   1.9895550619e+01    0.2275568     0.151099 -51.65  0.001232297    1.937    0.484
        68  -8.6762    164.4664    224.0205   1.1185205410e+02   4.1534106829e+00    0.1762113    0.1339022 -44.37 0.0003863318    1.521    0.342
        69  -9.0434     87.5309    223.8740   1.2846445799e+02   1.6823164704e+01    0.2257924    0.1504564  58.67   0.00105033    1.353    0.261
        70  -9.7352    111.0000    221.0054   1.2298221883e+02   1.3722758757e+01    0.3220346    0.1208402 -48.14  0.001250001    3.331    0.700
        71  -8.6253    109.3357    217.6481   1.2291267631e+02   1.4668867002e+01    0.1422108    0.1233504  50.19 0.0002312592    1.029    0.029
        72 -10.6081    142.1443    219.7823   1.1597228579e+02   8.7293099189e+00    0.3493765    0.3075973  81.29  0.001824515    1.334    0.250
        73  -9.2410    246.3302    218.3311   9.5087956139e+01  -7.8118064047e+00    0.1282458   0.07826173   0.69 0.0007051859    1.718    0.418
        74 -11.1176    113.3474    231.0336   1.2374210945e+02   1.1392083166e+01    0.4065912    0.3222648 -53.17  0.001962355    1.503    0.335
        75  -9.2628     77.1833    220.8208   1.3038127296e+02   1.8978217895e+01     0.230852    0.1512747  47.96  0.000490342    1.293    0.227
        76  -9.1543     88.1518    212.8387   1.2705868241e+02   1.9026343017e+01    0.2513172    0.1703693 -88.15 0.0009187163    1.642    0.391
        77 -11.0009     55.3112    208.1529   1.3391605696e+02   2.4702884673e+01    0.7466813    0.3735583  82.78  0.002290791    2.407    0.585
        78  -9.9681     63.1738    209.5110   1.3229950427e+02   2.3360761819e+01    0.5144151    0.3368864 -45.91  0.002683232    2.077    0.518
        79  -8.7260    131.0179    211.2944   1.1715476044e+02   1.2290488346e+01    0.1940449    0.1586323  45.16 0.0003833895    1.080    0.074
        80  -9.8793    156.1922    208.1254   1.1104967158e+02   8.4615130118e+00    0.2161429    0.1930309  32.44 0.0002756705    1.006    0.006
        81  -9.3808    112.4556    208.4574   1.2095420257e+02   1.6045317256e+01    0.2099194    0.1768452 -84.66 5.036382e-05    1.285    0.222
        82  -9.9180    110.7105    205.6707   1.2095969361e+02   1.6925157344e+01    0.2914518    0.1787095 -37.78   0.00133143    2.272    0.560
        83  -8.6495     74.3839    208.2582   1.2964238589e+02   2.2063865565e+01    0.1755416    0.1166294 -87.11 0.0004473268    1.574    0.365
        84  -8.9460     69.8756    208.0583   1.3064156354e+02   2.2750935936e+01    0.1942744    0.1457236  68.39  0.001129571    1.193    0.162
        85  -9.0230    125.8496    207.1276   1.1769448119e+02   1.4030038928e+01    0.2086816    0.1744515  69.44 0.0006293706    1.262    0.208
        86  -9.0126     32.9152    207.0384   1.3871183304e+02   2.7655219251e+01    0.1658739    0.1376592 -53.94 0.0004518174    1.562    0.360
        87  -9.4400     91.5774    204.4576   1.2523283860e+02   2.0302485883e+01    0.3920374    0.2139907  29.06  0.001433282    2.092    0.522
        88 -10.4846      3.2148    179.3052   1.4326262562e+02   3.6743677578e+01    0.3439008     0.232577 -70.63  0.002206747    1.373    0.272
        89 -11.1232      4.3273    186.5745   1.4347488820e+02   3.5012234664e+01    0.3815203    0.2857247  33.27  0.002018992    1.563    0.360
        90 -10.6013      2.9480    193.3553   1.4417437018e+02   3.3623384659e+01    0.5454093    0.2209393  69.42  0.002657505    2.341    0.573
        91 -10.0686     84.1193    201.5456   1.2660082076e+02   2.2099446909e+01    0.2777647    0.2316912 -41.03 0.0003545635    1.530    0.346
        92  -9.5854    250.4827    200.5090   9.1151300125e+01  -5.9326342702e+00    0.2214401     0.100439 -25.29 0.0009977483    2.277    0.561
        93  -9.2077     42.9354    200.1829   1.3594060912e+02   2.8017391560e+01    0.3171948    0.1742419 -48.72  0.001104405    2.440    0.590
        94 -11.3417    102.8303    195.9629   1.2140998762e+02   2.0351980092e+01    0.3278024    0.2732219  27.15 0.0004361245    1.327    0.246
        95 -11.5937     56.7733    194.2525   1.3217396925e+02   2.7636040632e+01    0.4768906    0.3230909 -47.98  0.001065924    1.848    0.459
        96 -10.3032     27.4322    195.0492   1.3897604149e+02   3.0916086393e+01    0.4968098    0.2681047  82.84  0.001334468    1.747    0.428
        97  -9.7966     21.0029    194.1116   1.4032866800e+02   3.1786818833e+01    0.3934383    0.1883856 -80.98  0.002022687    1.846    0.458
        98  -9.7402    112.9531    193.5302   1.1861842889e+02   1.9166124592e+01    0.4562935    0.2489613 -67.50  0.001910478    2.236    0.553
        99  -8.6442     72.4964    192.9751   1.2828962272e+02   2.5766244295e+01    0.1872583    0.1268919 -67.07 0.0003625029    1.476    0.323
       100  -9.1383    191.5107    191.3825   1.0046836577e+02   5.1618237171e+00    0.2351644     0.204207  31.92 0.0006035675    1.115    0.104
       101  -9.0578     40.8243    188.7918   1.3536648526e+02   3.0865858505e+01    0.2403005    0.1542916  85.29 0.0005478697    1.448    0.309
       102  -9.1340     15.3418    191.6609   1.4139860828e+02   3.2887496414e+01    0.2293416    0.1227788 -79.89 0.0009479632    1.599    0.375
       103 -13.0797     39.7038    243.7354   1.3992220397e+02   1.9319119592e+01      1.20746    0.9007325  77.06  0.007512441    1.142    0.124
       104  -9.8678    250.3842    187.6512   8.8743096846e+01  -4.0521790091e+00     0.311814    0.1048133 -32.01  0.001241463    2.912    0.657
       105  -8.6689     77.0195    188.4834   1.2662192497e+02   2.6142195705e+01    0.1936617    0.1282382  39.88 0.0001617115    1.450    0.310
       106  -9.7696      1.8746    202.1847   1.4488232364e+02   3.1796038685e+01    0.2415895    0.1552435 -83.24 0.0006992174    1.317    0.240
       107  -9.8027     83.5931    186.7181   1.2476660387e+02   2.5555891336e+01    0.2411774    0.2024903  72.88  0.000320306    1.106    0.096
       108  -9.8949     72.2627    186.4186   1.2752077591e+02   2.7322188516e+01    0.3966319    0.2773718 -25.84  0.001695686    2.364    0.577
       109 -11.3282     63.6161    186.3793   1.2963705943e+02   2.8548828787e+01    0.2679444    0.2485881 -49.57 0.0007043481    1.318    0.241
       110  -8.9171     24.0171    183.9607   1.3885686421e+02   3.3799675213e+01     0.180796    0.1376897 -50.57 0.0006750742    1.615    0.381
       111  -8.6167     36.3537    182.8584   1.3585527042e+02   3.2756192281e+01    0.1867644   0.09931415 -63.67 0.0009436588    1.779    0.438
       112  -8.7989    127.2081    182.2163   1.1328266234e+02   1.9104788687e+01    0.1960617    0.1628918  71.45 0.0003527109    1.303    0.233
       113  -9.9422    249.9975    193.9122   8.9998723032e+01  -4.9144276281e+00    0.2862821    0.1797735 -21.24  0.001630087    1.457    0.314
       114  -9.6669      2.6661    197.3727   1.4445981571e+02   3.2768155370e+01    0.2434318    0.1602637  70.36  0.001557596    1.205    0.170
       115  -9.3969     29.5434    184.1960   1.3758926074e+02   3.3179106910e+01    0.2763119    0.1801026 -43.02  0.001398551    2.112    0.526
       116  -9.0966     85.9839    180.0701   1.2321435055e+02   2.6741970774e+01    0.1701004    0.1530408  71.52            0    1.003    0.003
       117  -8.8227     27.2407    179.9566   1.3775805310e+02   3.4405634435e+01    0.1774072    0.1385718 -85.04  0.000328237    1.109    0.098
       118  -8.6042     47.2711    179.6557   1.3287576545e+02   3.2247220997e+01    0.1680396    0.1252505  23.44 0.0007370572    1.655    0.396
       119 -11.3217     65.0955    175.4505   1.2788486158e+02   3.0944805280e+01    0.3331763    0.2382642  43.40 8.612198e-05    1.362    0.266
       120 -11.6084     60.3185    172.6037   1.2873696804e+02   3.2282047516e+01     0.413791    0.2538013 -45.78 0.0008639144    1.970    0.493
       121  -9.8793     64.9240    167.0015   1.2677221199e+02   3.3020597240e+01    0.2158687    0.1896235  58.26 0.0003222524    1.109    0.098
       122  -9.0327    103.0153    175.9731   1.1823701554e+02   2.4887766587e+01    0.2152766    0.1999483  67.63   0.00120477    1.007    0.007
       123 -10.6329     19.4741    174.3712   1.3912685088e+02   3.6472266268e+01    0.3684321    0.2025592  77.26  0.001936601    1.735    0.424
       124 -10.4493     74.4969    174.4354   1.2532892440e+02   2.9844073884e+01    0.2972831    0.2411219  60.22 0.0004682878    1.155    0.134
       125 -11.4356    248.0548    172.4338   8.6157396946e+01  -1.3786740589e+00    0.4335134    0.3614778  -0.24  0.002752392    1.115    0.103
       126  -9.7674     46.0906    172.4686   1.3236246341e+02   3.4109934405e+01    0.2314588    0.1686731 -83.86  0.000304275    1.238    0.192
       127  -9.7915     12.5265    172.4797   1.4062904325e+02   3.7538370366e+01    0.2639694    0.1018157 -77.06  0.001215781    2.187    0.543
       128 -10.9337      2.2907    171.5767   1.4296376839e+02   3.8583382751e+01     0.410753    0.2201616  74.32  0.002288572    1.672    0.402
       129  -9.6920     27.7486    171.4651   1.3685383080e+02   3.6359053099e+01    0.3424825    0.1763049 -53.50  0.001257207    2.098    0.523
       130  -9.1095     51.4710    170.9239   1.3080363429e+02   3.3829613275e+01    0.2284538    0.1603755  52.12 0.0007191671    1.363    0.267
       131 -11.2689     82.4487    166.1664   1.2198783375e+02   3.0638345915e+01    0.5673878    0.4607553  24.63  0.002604212    1.426    0.298
       132 -10.8626     14.0524    167.1380   1.3983124670e+02   3.8660137710e+01    0.3487675    0.2576617  37.22  0.001372948    1.493    0.330
       133 -11.0128      7.4510    166.1858   1.4135653749e+02   3.9430210812e+01    0.3489503    0.2534133   0.14  0.002137211    2.068    0.516
       134 -10.2641     45.4555    164.0569   1.3152727597e+02   3.6228510662e+01    0.4606672    0.1689029 -53.50  0.001811335    2.770    0.639
       135 -10.0248     43.2346    161.0112   1.3174082743e+02   3.7231510892e+01    0.2311475    0.1908657  61.95 0.0003708163    1.165    0.142
       136 -11.8282    245.3525    163.2034   8.4744781043e+01   5.1918525332e-01    0.5798469    0.2597015 -36.41  0.002635778    1.989    0.497
       137 -10.3842    249.5713    161.2854   8.3668313922e+01   1.3116528844e-01    0.2976135    0.1975436 -34.94  0.001660037    1.329    0.247
       138 -11.1990    247.2479    157.0147   8.3169942252e+01   1.1986654435e+00    0.7759486    0.4218198  62.90  0.003116537    3.804    0.737
       139  -8.5138     61.0427    164.7644   1.2748853336e+02   3.4097797854e+01     0.166289    0.1125711  38.60 0.0003116448    1.500    0.334
       140  -9.4563     31.2563    163.1733   1.3513073423e+02   3.7996784177e+01    0.2682974    0.2050521  89.34  0.000879109    1.130    0.115
       141  -8.5852     37.2949    162.6575   1.3350358719e+02   3.7488688839e+01    0.1408724   0.08693163  70.55 0.0006632867    1.661    0.398
       142 -11.0485      2.6692    159.9194   1.4204352884e+02   4.1262607556e+01    0.3766041    0.1691572 -70.78   0.00195165    1.803    0.445
       143 -11.8257     10.4005    157.5646   1.3992889584e+02   4.1230519488e+01    0.4387233    0.2229748  75.47  0.001296767    1.986    0.496
       144 -10.1668     84.5381    155.4411   1.1961591098e+02   3.2938812528e+01    0.2204601    0.1813706 -25.27 -2.381388e-05    1.544    0.352
       145  -8.1377    119.2877    158.6837   1.1084812636e+02   2.5990231279e+01    0.1550737    0.1182661  78.16 0.0005028585    1.590    0.371
       146  -8.3939    228.3516    155.2530   8.5981798567e+01   4.7995874791e+00    0.1944398    0.1175863 -44.30 0.0006024796    1.643    0.391
       147 -10.5168     21.6959    149.2186   1.3616455530e+02   4.2298231859e+01    0.2932316    0.2386966  80.84 0.0009248954    1.108    0.098
       148 -11.2328     25.9233    155.0023   1.3565276372e+02   4.0504397250e+01    0.6862407    0.1270111  33.93  0.002408365    4.201    0.762
       149  -8.8684     32.8286    154.0809   1.3369836619e+02   4.0054911606e+01    0.2032719     0.160901 -60.22 0.0005217588    1.256    0.204
       150 -10.7477    249.6171    150.9496   8.1542430619e+01   1.7784569740e+00    0.4653798    0.2340647 -39.29  0.002237662    1.756    0.430
       151 -11.8205    247.4992    142.5797   8.0127740139e+01   3.5039378581e+00    0.5782953    0.4765094  24.58  0.003496048    1.342    0.255
       152 -12.6848    248.0672    134.4806   7.8328352333e+01   4.7335521008e+00     1.239619    0.5630599 -31.21  0.005355055    2.158    0.537
       153  -8.9325     83.0898    149.7248   1.1899579121e+02   3.4585929525e+01    0.1968166    0.1902511  57.11 0.0004511385    1.089    0.082
       154 -10.6692     12.9542    137.0377   1.3727198379e+02   4.5973279416e+01    0.1937559    0.1592243 -81.42 0.0004170025    1.003    0.003
       155 -12.6536      8.6254    143.6216   1.3913292679e+02   4.4701458649e+01    0.6691606    0.4535467  80.09   0.00401622    1.351    0.260
       156 -11.7686     68.4378    144.2699   1.2222292451e+02   3.8169343257e+01    0.6938593    0.4890102  76.91  0.002381215    1.634    0.388
       157  -9.1967     41.4724    147.5107   1.3047811500e+02   4.0765500895e+01    0.2160075    0.1119454  43.13 0.0009637104    1.964    0.491
       158  -9.8749    236.1427    145.9382   8.2665246514e+01   4.9705776500e+00    0.2230266      0.19624  33.81 0.0006246582    1.236    0.191
       159  -9.3566    133.1564    140.5806   1.0332044873e+02   2.7434248822e+01    0.3539045    0.2108522 -57.91 0.0008315559    1.870    0.465
       160 -10.3882     38.7731    141.7098   1.3045174453e+02   4.2499494836e+01    0.3011699    0.2053083  65.36            0    1.559    0.358
       161 -10.4471     16.6194    139.4997   1.3650712066e+02   4.5092078481e+01    0.2656177    0.1359399 -70.26  0.001351592    1.606    0.377
       162  -9.4280    108.4429    136.0231   1.0899966681e+02   3.3488522142e+01    0.4257776    0.2807336 -17.74   0.00161681    2.589    0.614
       163 -11.0113     59.3385    136.2030   1.2350498015e+02   4.1441714194e+01    0.3891989    0.2761473  40.73 0.0003853653    1.471    0.320
       164 -12.3231      2.1187    123.5770   1.3897119474e+02   4.9938755612e+01     1.037195    0.1782539 -76.21  0.002976314    5.500    0.818
       165 -10.0852     47.6592    135.9398   1.2697109411e+02   4.2954374950e+01     0.327766    0.2266774 -51.89  0.001094503    1.406    0.289
       166 -10.1011     95.8272    150.5314   1.1557408352e+02   3.2258794817e+01    0.2898626    0.2712232 -76.14  0.000905445    1.044    0.042
       167 -11.4280     13.4816    127.8300   1.3608123579e+02   4.8171085733e+01    0.3092597    0.2335227 -80.36  0.001916518    1.117    0.105
       168 -10.2231     44.9254    130.5139   1.2692481208e+02   4.4622909849e+01    0.3451484    0.2064901  84.27  0.001114074    2.104    0.525
       169  -8.8128    209.8149    125.7975   8.2737291277e+01   1.3738600802e+01    0.1981926    0.1670267 -62.17  0.000478237    1.296    0.228
       170 -11.3904    245.0940    121.3741   7.5957925585e+01   7.4439157284e+00    0.6130371    0.4302006  85.20   0.00306593    2.217    0.549
       171 -10.1357    249.6849    117.9067   7.4545668990e+01   7.1588778559e+00    0.2670695    0.2211612 -43.55 0.0007377501    1.076    0.070
       172 -11.6150    248.1356    112.8612   7.3674297895e+01   8.2733273371e+00    0.4939319    0.4348575  12.18  0.003031946    1.352    0.260
       173 -11.7589     18.2728    121.9204   1.3388461836e+02   4.9254493842e+01    0.4352553    0.2225111  12.48  0.002106135    2.611    0.617
       174 -11.2961     16.8035    117.4004   1.3373286386e+02   5.0464814363e+01    0.3370897    0.2073411 -15.44  0.001439726    2.265    0.558
       175  -9.8474    231.9738    116.5300   7.6874169655e+01   1.0808249232e+01    0.1940012    0.1398082  53.61  0.000448589    1.544    0.352
       176  -9.6514    167.7213    112.9044   8.8027864792e+01   2.5733172762e+01    0.3168662    0.2588169 -85.67 0.0009055925    1.473    0.321
       177 -11.7232      2.8855    101.5362   1.3612154347e+02   5.5135987731e+01    0.4301795    0.2391116 -56.41  0.002431924    1.458    0.314
       178 -11.6219      9.2914    112.7050   1.3549542099e+02   5.2110666968e+01    0.2559679    0.2233147 -14.11 0.0008911706    1.387    0.279
       179  -8.5873    203.4886    111.5133   8.0482787103e+01   1.7755286875e+01    0.1474333    0.1410363 -31.94 0.0002223896    1.053    0.051
       180  -9.5471     35.0142    107.0599   1.2604266239e+02   5.1446050044e+01    0.1970601    0.1771908 -63.19 0.0003915063    1.032    0.031
       181 -12.6158    247.8168     99.4860   7.0807134924e+01   1.0504715534e+01    0.9845801    0.6495612 -19.42   0.00495481    1.900    0.474
       182 -10.0346     20.8100     93.9574   1.2862608884e+02   5.5796706586e+01    0.1945273     0.177376 -28.67 0.0002873573    1.175    0.149
       183 -10.1021     13.9746     94.0292   1.3111791477e+02   5.6256667320e+01     0.209555    0.1217156 -40.38  0.001130489    1.666    0.400
       184 -10.9811     13.1248    102.6815   1.3281199062e+02   5.4263906754e+01    0.2257742    0.1541556 -79.69 0.0008928803    1.356    0.263
       185 -10.6272      1.7930     88.1005   1.3457871538e+02   5.8321577919e+01    0.2833682    0.1243912 -74.18  0.001377801    2.001    0.500
       186  -8.3283     71.7452     99.9688   1.1174225645e+02   4.8567634063e+01    0.1760722     0.118802 -51.90 0.0002694434    1.394    0.282
       187 -10.3562    192.1136    248.8462   1.1010679280e+02  -4.1322229292e+00    0.1848752    0.1533716  37.55  0.001241636    1.284    0.221
       188  -9.8983      2.0000     37.9754   1.2363271816e+02   6.9055677079e+01    0.1891647   0.05415361 -59.88 0.0008037607    2.952    0.661
       189 -10.8776     18.1279     26.2497   1.1076353400e+02   7.0069174358e+01    0.3301786    0.1574686  38.87  0.001665313    2.909    0.656
       190 -11.0626    205.0129    245.4910   1.0713995638e+02  -5.5841467483e+00    0.3502232    0.1949225  10.90  0.001758764    2.235    0.553
