#   1 NUMBER                 Running object number                                     
#   2 MAG_AUTO               Kron-like elliptical aperture magnitude                    [mag]
#   3 X_IMAGE                Object position along x                                    [pixel]
#   4 Y_IMAGE                Object position along y                                    [pixel]
#   5 X_WORLD                Barycenter position along world x axis                     [deg]
#   6 Y_WORLD                Barycenter position along world y axis                     [deg]
#   7 A_WORLD                Profile RMS along major axis (world units)                 [deg]
#   8 B_WORLD                Profile RMS along minor axis (world units)                 [deg]
#   9 THETA_WORLD            Position angle (CCW/world-x)                               [deg]
#  10 FWHM_WORLD             FWHM assuming a gaussian core                              [deg]
#  11 ELONGATION             A_IMAGE/B_IMAGE                                           
#  12 ELLIPTICITY            1 - B_IMAGE/A_IMAGE                                       
         1 -14.6673     69.4526    146.0542   1.0863200671e+02   3.6540523967e+01     4.430388     2.062713  66.98  0.004446808    4.094    0.756
         2 -16.0196    239.9800    118.7737   6.3758619152e+01   8.6122586665e+00     2.919294     1.674516 -51.79    0.0113556    2.036    0.509
         3 -15.7459    244.7860    100.1494   5.8639516784e+01   1.0719190876e+01     2.856471     1.494402 -41.55  0.008432952    1.697    0.411
         4 -14.9840    195.0816     42.7970   5.1143915767e+01   3.1241085561e+01     3.677413     2.219094  14.60   0.01386309    3.190    0.686
         5 -12.2891    211.5710     25.1325   4.4200801603e+01   2.9456069720e+01    0.4564555    0.3277679  35.18  0.001071114    1.817    0.450
         6 -13.8487    218.2505     17.5821   4.1555667904e+01   2.8737792742e+01    0.8928114    0.8723195  53.78  0.002711561    1.226    0.184
         7 -11.6961      2.4196      3.7502   9.6436181451e+01   7.3798852503e+01    0.4238045    0.2482894 -26.66  0.002874199    1.320    0.242
         8 -10.2157     54.9313      5.3755   7.0828163473e+01   6.7535464118e+01    0.2166313     0.113037  51.44  0.001084349    2.462    0.594
         9  -9.6088     61.5066      1.4464   6.6282691898e+01   6.6864064244e+01    0.1262854   0.09774352  13.51 -0.0002123766    1.065    0.061
        10  -9.9279    155.7680    200.0164   9.7328113902e+01   1.0357170045e+01    0.3255601    0.2408099 -82.46  0.001388674    1.955    0.489
        11 -15.5914     80.8470    246.7622   1.1777275088e+02   1.3745377272e+01     8.818585     2.754827  31.91   0.02362551    6.034    0.834
        12 -13.7070     87.9173    228.0043   1.1477133794e+02   1.6111233247e+01     1.259378    0.6540813  59.17   0.00242479    1.819    0.450
        13 -13.2063      8.4046    189.6151   1.2704733020e+02   3.3255410330e+01    0.8785692    0.3837758 -58.77  0.002004908    2.521    0.603
        14 -15.6151      3.7404    177.2834   1.2721169883e+02   3.6276669258e+01     7.443543    0.5042625 -73.40   0.01970677    6.385    0.843
        15 -15.7869     48.1350    198.8593   1.1986670706e+02   2.7190343225e+01     5.745052     2.342232  70.40   0.02363026    3.287    0.696
        16 -12.0882     65.6719    179.9459   1.1419413524e+02   2.9118590052e+01    0.3998097    0.2872396 -40.31  0.002205074    1.936    0.484
        17 -11.9664     70.5397    174.4762   1.1241661276e+02   2.9702530935e+01    0.3222422    0.2552233 -43.55     0.001671    1.594    0.372
        18  -9.6883     99.5913    180.8440   1.0662172670e+02   2.3948855747e+01     0.210681    0.1821757  38.69 0.0005352653    1.245    0.197
        19 -11.0187    126.0600    173.8016   9.9400878718e+01   2.0981995664e+01    0.4306536    0.2816618  40.67  0.002097302    1.481    0.325
        20 -13.5558     67.2978    160.6874   1.1134921246e+02   3.3339809369e+01    0.4971575    0.3403187 -50.98  0.001444348    1.579    0.367
        21 -13.4570     57.6487    130.4148   1.0924691848e+02   4.1863221700e+01     2.628579    0.8066162 -73.03  0.006539386    6.459    0.845
        22  -9.9801    174.1593    248.7015   1.0095606598e+02  -5.2857168318e-01    0.1729152    0.1608253  55.08 0.0008786714    1.298    0.229
        23 -10.1244    193.5673    166.0883   8.3046066152e+01   9.5304592312e+00    0.2720917    0.2365789  38.71 0.0009887381    1.151    0.131
        24  -8.9888    204.3655    164.2413   8.0490140861e+01   7.7585858278e+00    0.1956828    0.1294693 -47.15 0.0005169425    1.666    0.400
        25  -8.9357    160.3168    163.7309   8.9668204511e+01   1.6591220546e+01    0.1439091    0.1156634  75.58 0.0002077562    1.556    0.357
        26  -8.9585    170.3413    161.7135   8.7034263300e+01   1.4995487403e+01    0.1464869    0.1178567  78.85 0.0007019115    1.640    0.390
        27 -13.3649     39.8521    207.8842   1.2223624630e+02   2.6278567095e+01    0.4305754    0.3918695 -77.12  0.001402926    1.395    0.283
        28 -11.2150    133.6583    143.7453   9.1717079549e+01   2.6224887340e+01     1.161855    0.2708502 -54.45  0.002587642    6.467    0.845
        29 -11.6471     54.5210    148.2921   1.1280353425e+02   3.7911798235e+01    0.4970737    0.2027039 -64.27  0.002154419    2.109    0.526
        30  -9.9674    174.5885    148.4408   8.3222281320e+01   1.6796477910e+01    0.4029304    0.2341783 -59.13  0.001445164    2.339    0.572
        31 -11.4581    193.3237    193.0626   8.8427948057e+01   4.8150408009e+00     0.820917    0.4795093 -53.36   0.00381033    2.302    0.566
        32 -11.2621    169.5867    233.1299   9.9655724618e+01   2.4462825229e+00    0.2557047    0.2078292  83.33  0.001589136    1.775    0.437
        33 -11.1424     49.1829    145.7289   1.1381155052e+02   3.9151156979e+01    0.3286636    0.2139557   1.21  0.001576015    2.745    0.636
        34 -11.5435     28.6984    143.9776   1.1877319155e+02   4.1681090346e+01    0.3016925    0.1987669  48.30   0.00178932    1.595    0.373
        35 -10.2454    100.4559    143.4726   1.0009330175e+02   3.2418746851e+01     0.313757     0.255271 -66.99 0.0008518348    1.182    0.154
        36 -10.1096    102.3176    140.3528   9.8993229704e+01   3.2842783547e+01    0.2950342    0.2337276 -20.38  0.001454197    1.683    0.406
        37 -12.2861     88.3540    142.0280   1.0298874478e+02   3.4741978922e+01    0.2941585    0.2494024 -50.58 0.0005523891    1.210    0.174
        38 -10.6219     83.0818    142.8229   1.0452181692e+02   3.5363311870e+01    0.3820617     0.239001  64.03 0.0006079538    1.913    0.477
        39 -10.9750     34.4720    139.3615   1.1675930059e+02   4.2231620312e+01    0.3406416    0.1688611  56.99  0.001240272    2.290    0.563
        40 -11.3987     26.2465    137.7651   1.1868159755e+02   4.3375902638e+01    0.3326234    0.1527196  36.73  0.001331266    2.343    0.573
        41 -12.5876     86.4814    157.7199   1.0617978512e+02   3.1290592695e+01    0.8061979    0.4880055 -43.10  0.001675602    1.988    0.497
        42 -10.2518    110.6010    131.5475   9.4955789250e+01   3.3459477046e+01    0.3330014    0.2718773   5.06  0.001043156    1.604    0.377
        43 -10.1253    106.1023    130.9023   9.6016958474e+01   3.4426914920e+01    0.3420223    0.2990772  85.93  0.001274565    1.204    0.169
        44 -11.2053    160.2247    128.7191   8.1840134359e+01   2.3980420153e+01    0.5238451    0.3064269 -28.55  0.002024797    2.152    0.535
        45 -11.7077    135.3249    122.2638   8.6315845412e+01   3.0743375613e+01    0.7684441    0.1745976 -49.24  0.001913551    4.673    0.786
        46 -11.0915     97.9724    127.8942   9.7572994556e+01   3.6566474920e+01     0.307386    0.2706902 -23.13 0.0007081903    1.324    0.245
        47 -10.8540     29.0886    128.3294   1.1676871997e+02   4.5376425548e+01    0.1732264    0.1514571 -88.85  0.001013351    1.105    0.095
        48 -10.4874    117.1683    126.4586   9.2057895122e+01   3.3423842418e+01    0.3361659    0.2485723 -73.57  0.001549977    1.583    0.368
        49  -9.9302    125.9881    127.4999   8.9984683042e+01   3.1458170484e+01    0.3151392    0.1930345 -84.95  0.001029669    3.472    0.712
        50  -9.8014    120.3423    121.9806   9.0152785240e+01   3.3849377635e+01    0.2611733    0.1148487 -32.52  0.000705061    4.400    0.773
        51  -9.8931    107.3697    120.0495   9.3211313712e+01   3.6768267350e+01    0.2169225    0.2054502  21.31 0.0003858212    1.156    0.135
        52 -11.8524     79.7394    164.6086   1.0889310160e+02   3.0681408201e+01    0.3236769    0.3073956  53.89 0.0004203841    1.190    0.160
        53 -10.2468    149.4382    189.1015   9.6834782230e+01   1.3571005145e+01    0.4500068    0.2565953 -75.95  0.001604187    3.859    0.741
        54 -10.1904    168.2696    113.1359   7.6043494585e+01   2.5442301027e+01    0.3918833    0.2947773 -72.26  0.001171684    1.738    0.425
        55 -10.1104     75.3348    189.9483   1.1323825675e+02   2.5588909292e+01     0.303976    0.1655866  67.86  0.001082433    2.074    0.518
        56 -16.2216     11.3028    240.8154   1.2916004201e+02   2.3015380008e+01     2.120222     1.688295  64.56   0.01185992    1.274    0.215
        57 -10.1362    205.4131    110.3126   6.7674575574e+01   1.7481214728e+01    0.3414657    0.2477036  34.87  0.001115648    1.538    0.350
        58  -9.1763    114.6487    110.0194   8.8717373260e+01   3.7726268318e+01    0.2655849    0.1149828 -32.01   0.00070472    4.516    0.779
        59 -10.3604    137.3180    170.9772   9.6301125906e+01   1.9521065552e+01     0.201281     0.193834 -64.03 0.0008553442    1.078    0.073
        60 -11.0322     23.2389    109.4834   1.1579874449e+02   5.0377276193e+01    0.2539813    0.1485291 -69.33   0.00139956    1.369    0.270
        61 -10.5177    134.5029    102.9329   8.1473283302e+01   3.5206569741e+01     0.396932     0.151922 -44.57 0.0009531577    2.541    0.606
        62 -10.6779     36.1213    101.4795   1.1053266883e+02   5.1190162985e+01    0.2710399    0.1569057 -82.75  0.001313607    1.950    0.487
        63  -9.2185    121.6900     98.7080   8.3728305563e+01   3.8855695477e+01    0.1541561    0.1229136  -3.81 0.0002407388    1.585    0.369
        64  -9.7597    146.4390    168.4990   9.3747639579e+01   1.8315252196e+01    0.1434493     0.139003  45.74 0.0001461262    1.016    0.016
        65  -8.8987     74.9922     84.9949   9.4001116522e+01   5.0371030951e+01    0.1675322    0.1554425 -37.23 0.0003807547    1.039    0.037
        66  -8.9768     69.8694     81.6252   9.4770672563e+01   5.1881373055e+01    0.1823588     0.129706  47.11 0.0005717296    1.659    0.397
        67  -9.3733     61.8649     71.5007   9.4628695658e+01   5.5222357653e+01    0.1832192    0.1365873  25.79 0.0005180808    1.498    0.332
        68 -15.0332      9.2952    207.7800   1.2790899139e+02   2.9451034877e+01     1.209409     1.083975  67.11  0.007138394    1.390    0.280
        69  -9.8347     71.9404    186.3177   1.1355319315e+02   2.6854570484e+01    0.2344848    0.1562909  86.31 0.0003650198    1.495    0.331
        70 -10.8366     72.1839    230.6023   1.1797568570e+02   1.7804895960e+01    0.2107764    0.1592418  58.81 0.0008101588    1.069    0.065
        71  -8.7974     51.9757     64.2454   9.6071269737e+01   5.8033108933e+01    0.1500005    0.1131608  24.80 0.0002992368    1.489    0.328
        72 -10.3416     13.5158     60.0441   1.0991627292e+02   6.2396403283e+01    0.2311289    0.1711328 -58.30 0.0004750763    1.109    0.098
        73  -8.7697     95.2841    187.7132   1.0856387232e+02   2.3128002269e+01    0.1350292   0.09269715  71.04 0.0002418896    1.527    0.345
        74 -11.2995    143.2203     48.3631   6.2365223336e+01   4.3499981663e+01     0.555147    0.3438549 -80.55  0.002022533    3.079    0.675
        75 -10.3976    145.1316     41.7829   5.9724278105e+01   4.4006759091e+01    0.3677446    0.2457704 -85.46  0.001151265    2.241    0.554
        76  -9.9676      2.0000     36.9557   1.0891297620e+02   6.7819592999e+01     0.196264   0.05106125 -61.22 0.0008116053    3.006    0.667
        77 -10.2471      1.8537     24.1511   1.0500890425e+02   7.0296352072e+01    0.1694106   0.09550995 -37.80  0.001079117    1.336    0.251
        78 -10.1710      1.9927     18.9930   1.0309878148e+02   7.1233857945e+01    0.1421797    0.1001143 -38.82 0.0008595341    1.040    0.038
        79 -10.5433    189.8390     15.3497   4.4092693878e+01   3.5974617376e+01    0.2342014    0.1773621 -46.70 0.0006775461    1.312    0.238
        80  -8.8260    136.5748     13.2820   5.1506462720e+01   4.9606339757e+01    0.1437686    0.1013316 -73.58 0.0002078914    1.842    0.457
        81 -13.7582     44.5889    222.5812   1.2243190853e+02   2.2807150473e+01     1.098158    0.8589621  49.02  0.001545914    1.317    0.240
        82  -9.4214    211.1597    202.2283   8.6661006938e+01   2.2888850937e-01    0.1611454    0.1497847  41.09 0.0002766598    1.307    0.235
