#   1 NUMBER                 Running object number                                     
#   2 MAG_AUTO               Kron-like elliptical aperture magnitude                    [mag]
#   3 X_IMAGE                Object position along x                                    [pixel]
#   4 Y_IMAGE                Object position along y                                    [pixel]
#   5 X_WORLD                Barycenter position along world x axis                     [deg]
#   6 Y_WORLD                Barycenter position along world y axis                     [deg]
#   7 A_WORLD                Profile RMS along major axis (world units)                 [deg]
#   8 B_WORLD                Profile RMS along minor axis (world units)                 [deg]
#   9 THETA_WORLD            Position angle (CCW/world-x)                               [deg]
#  10 FWHM_WORLD             FWHM assuming a gaussian core                              [deg]
#  11 ELONGATION             A_IMAGE/B_IMAGE                                           
#  12 ELLIPTICITY            1 - B_IMAGE/A_IMAGE                                       
         1 -13.9594      2.7770     32.2955   1.1410776520e+02   6.7982996133e+01     1.498747    0.2046674 -48.69  0.005450408    4.965    0.799
         2 -13.9064      6.0436      5.8356   1.0216908143e+02   7.1373689862e+01     1.111159    0.6156478  -3.26  0.007421912    1.648    0.393
         3 -15.4138    198.1288     28.1390   5.9980908470e+01   3.2794324665e+01     1.990047     1.058564 -47.43   0.01060982    1.835    0.455
         4 -12.7888    204.9254     20.1267   5.7516284329e+01   3.2237531937e+01    0.4452069     0.370616 -74.26  0.001136227    1.105    0.095
         5 -15.0732    211.2930     12.1862   5.5262278961e+01   3.1749906319e+01     1.914215     1.076383  85.39  0.008677822    1.564    0.361
         6 -13.9603    180.2498     40.3029   6.5096070146e+01   3.5325279312e+01    0.6843942    0.4571054 -60.37  0.003738202    1.546    0.353
         7 -14.7695     85.9204    239.6725   1.2916327945e+02   1.2222798261e+01     1.384755     1.119422  47.22  0.005365286    1.170    0.145
         8 -13.5428    110.6339    205.1842   1.1886578654e+02   1.5963574677e+01      1.16575     0.893644  37.93  0.005364375    1.312    0.238
         9 -14.4724    122.5600    182.4236   1.1199516721e+02   1.9256470951e+01     2.919972     1.066345 -61.19  0.008708287    3.649    0.726
        10 -14.1542    106.5062    195.0588   1.1818896805e+02   1.9074242987e+01     1.746058     1.161913  15.46  0.007266957    2.231    0.552
        11 -15.1573    106.3329    178.4111   1.1530581656e+02   2.3168397252e+01     2.415524     1.705984  41.49  0.009284063    1.435    0.303
        12 -14.0833     99.1198    229.2811   1.2502957631e+02   1.2411055492e+01     1.102908    0.7404645  41.78  0.004740003    1.394    0.283
        13 -15.4462    133.7481    207.5803   1.1386287347e+02   1.1343649637e+01     2.584481     1.639172  36.01   0.01200405    1.567    0.362
        14 -16.0521    133.7913    231.7947   1.1777590058e+02   6.1268794292e+00     3.178272     1.836922  19.45   0.01322656    2.577    0.612
        15 -15.0673    114.0144    224.8989   1.2111786046e+02   1.0930965900e+01     1.415507       1.1128 -68.07  0.005637214    1.337    0.252
        16 -14.7945      5.5280    169.2120   1.3933194041e+02   3.8480843289e+01     2.581223    0.5139459 -69.41  0.009076819    3.525    0.716
        17 -13.8271     25.3902    144.9897   1.3130920515e+02   4.2687506799e+01     1.526959     1.070479   1.03  0.007247128    1.959    0.490
        18 -15.9525     49.4875    237.8935   1.3644887292e+02   1.7749194043e+01      1.77688     1.168462  77.02  0.008761568    1.387    0.279
        19 -17.7141      8.0714    231.0502   1.4388005722e+02   2.4028465254e+01     2.661004     1.689694 -76.74   0.01362445    1.363    0.267
        20 -15.3445     18.7360    207.7480   1.4000419405e+02   2.8145416040e+01    0.8386597    0.4826275  32.31  0.004259572    2.016    0.504
        21 -16.4901      6.4874    196.1122   1.4157927529e+02   3.2029996484e+01     1.313805    0.9353924  77.47  0.007579836    1.204    0.169
        22 -10.3346     97.5215    214.2007   1.2329504841e+02   1.6058897043e+01    0.2574552    0.1924516  43.33 0.0009542117    1.292    0.226
        23 -11.2922     91.7048    203.9689   1.2314792301e+02   1.9399539124e+01    0.4947242    0.3410196 -56.20  0.002482422    1.461    0.315
        24 -12.7050     87.3678    191.8952   1.2234401028e+02   2.3016399760e+01    0.8495755    0.7173286  30.21  0.004609052    1.337    0.252
        25 -11.7004     83.8650    167.3554   1.1911088924e+02   2.9702574496e+01    0.4265868    0.3141362 -11.31  0.001293889    2.041    0.510
        26 -12.6559     71.2405    164.4091   1.2194665295e+02   3.2365268810e+01    0.5689905    0.3484649 -34.52 0.0009702332    2.179    0.541
        27 -13.2005     76.4595    174.8177   1.2233446597e+02   2.8962403906e+01     1.062734     0.916224 -57.22  0.005856859    1.147    0.128
        28 -12.1096     84.2260    201.5276   1.2455854213e+02   2.1166670111e+01    0.5466946    0.4642142  59.58  0.001970301    1.125    0.111
        29 -12.8720     76.4854    194.2758   1.2535432994e+02   2.4112444985e+01    0.9957618    0.7921984 -70.17  0.005440792    1.179    0.152
        30 -12.3635     51.2109    170.9140   1.2823664689e+02   3.3423902403e+01     0.594758    0.4719273  39.33  0.002256915    1.387    0.279
        31 -12.5896     58.2158    169.2065   1.2616804988e+02   3.2956066731e+01    0.8540184     0.559219  55.08  0.003810161    1.651    0.394
        32 -13.8730     62.5438    196.1454   1.2895358710e+02   2.5660549199e+01     1.471438    0.8959705 -28.78  0.006082817    3.064    0.674
        33 -14.3597     63.1949    183.7957   1.2708503393e+02   2.8621273224e+01     1.423435    0.9051561 -69.47  0.006368762    1.451    0.311
        34 -10.8988     38.6887    195.4886   1.3443227787e+02   2.8858183525e+01    0.4838102    0.2187779  79.22  0.001769711    3.440    0.709
        35 -11.3834     51.3426    186.2314   1.3032691092e+02   2.9583892595e+01    0.4590645    0.2539138 -74.42     0.001573    1.707    0.414
        36 -13.7211    143.3309    178.4032   1.0614483190e+02   1.6267134880e+01     1.706015    0.9736158 -46.71  0.007102039    1.746    0.427
        37 -10.5785     18.7712    183.9930   1.3775618505e+02   3.3759446320e+01    0.2628447    0.2035001 -80.01  0.001072587    1.054    0.051
        38 -11.3674     20.2256    180.6048   1.3706640183e+02   3.4437888022e+01    0.2693263    0.2233619 -64.85 0.0009960766    1.205    0.170
        39 -11.9486    153.9033    176.1774   1.0318208752e+02   1.4714199936e+01    0.5653211    0.3914554 -84.71  0.002303541    2.242    0.554
        40 -10.8604     27.5043    172.5481   1.3441343823e+02   3.5687656680e+01    0.2777576    0.2430536  82.02  0.001714565    1.114    0.102
        41 -11.8935     21.6307    169.3517   1.3547410615e+02   3.7046726181e+01    0.4045708    0.3023215 -59.65   0.00132541    1.251    0.201
        42 -11.5535     40.5735    166.5169   1.3034384440e+02   3.5789066964e+01    0.6127229    0.4224948  79.07  0.002708236    1.553    0.356
        43 -11.5798    177.7992    161.6495   9.4656040526e+01   1.3198274015e+01    0.4323409    0.3727443  15.69  0.002202573    1.313    0.238
        44 -13.8097    159.4545    160.1358   9.8462469628e+01   1.7286226203e+01    0.9308158    0.6007988  27.93  0.003884023    1.910    0.477
        45 -11.7063    111.5662    159.0487   1.1015959976e+02   2.7023966548e+01    0.6232051    0.3819903 -48.68  0.002671938    1.591    0.372
        46 -11.0475     88.9947    161.4386   1.1664791722e+02   3.0369586276e+01    0.2804565    0.1940127 -45.37 0.0004476538    1.477    0.323
        47 -13.4159     53.3074    125.4571   1.1974040435e+02   4.4493007093e+01     1.329243    0.7570345 -65.37  0.006121757    1.741    0.426
        48 -13.5938     47.1998    141.2925   1.2457077688e+02   4.1338969970e+01      1.48289    0.6848394 -62.47   0.00638559    1.896    0.473
        49 -12.2759     90.9780    144.0704   1.1259933032e+02   3.4393186442e+01    0.3979314    0.3559695 -53.09 0.0004174607    1.061    0.058
        50 -14.2553     81.0210    147.3398   1.1607485356e+02   3.5197139498e+01     1.353606    0.8851746 -45.73  0.006278479    1.507    0.336
        51 -14.9984     62.9862    145.8826   1.2089317440e+02   3.8203064071e+01     2.121686     1.402387  -5.14  0.009311733    2.421    0.587
        52  -9.4443     23.2856    184.3123   1.3675079840e+02   3.3238501918e+01    0.2475144     0.140798  11.33 0.0009377751    2.931    0.659
        53 -11.2607    125.5146    152.5521   1.0512558311e+02   2.5953818478e+01    0.4742535    0.3784637  79.56  0.002213867    1.506    0.336
        54 -12.9467    173.0338    150.7273   9.3278903033e+01   1.6595001676e+01    0.6222476    0.3290843 -30.21  0.002203652    2.628    0.619
        55 -13.2185    108.1771    143.9985   1.0782512808e+02   3.1361521463e+01     1.018659    0.7331842  16.84  0.004337014    1.824    0.452
        56 -13.2098    140.7101    134.8763   9.7176278446e+01   2.7037499867e+01      0.65327    0.5827602 -35.10  0.003304581    1.154    0.134
        57 -13.3946    147.8477    139.1686   9.6443288916e+01   2.4539031170e+01      0.86559    0.4163733 -55.73  0.003067265    2.345    0.573
        58 -10.8016      5.0333    146.7251   1.3699470407e+02   4.3919068331e+01    0.2538037    0.1823957 -22.81  0.001519077    1.818    0.450
        59 -11.1879    122.3132    143.0041   1.0381166139e+02   2.8890523446e+01    0.4889114    0.2928878  19.32  0.001757791    2.724    0.633
        60 -12.2063    162.7911    141.6278   9.3497076402e+01   2.0793657367e+01    0.5140314     0.286673 -44.52  0.002071855    1.742    0.426
        61 -12.5491     19.9022    105.3331   1.2628322026e+02   5.2578780880e+01     1.076436    0.5524311   5.28  0.005177536    2.664    0.625
        62 -13.0030     16.8258    124.7262   1.3066111259e+02   4.8309408853e+01     1.122842    0.6639731 -80.65  0.004937448    1.774    0.436
        63 -13.8614      5.5229    130.4169   1.3477743402e+02   4.7773507797e+01     1.096885    0.4028863 -59.25  0.004579112    1.988    0.497
        64 -14.6635      3.5167    113.9699   1.3296683188e+02   5.1737224840e+01     1.625596    0.5791102 -66.69  0.007296199    2.225    0.550
        65 -11.7371    173.5652    135.1404   8.9574694141e+01   1.9909644984e+01    0.2994637    0.2137392   5.85  0.001213234    2.308    0.567
        66 -11.1073    112.0226    132.9764   1.0423561510e+02   3.3299056359e+01    0.2453246    0.2339687 -39.57 0.0008517535    1.048    0.046
        67 -14.8236     62.4426    246.8488   1.3472136309e+02   1.4104794205e+01    0.9029124    0.5626512  52.32  0.003832056    1.382    0.276
        68 -10.3973     99.9622    128.9167   1.0663988601e+02   3.6518784051e+01    0.2919877    0.1902861 -26.41  0.001203866    2.037    0.509
        69 -12.7147     99.5722    118.5373   1.0421996401e+02   3.9025469276e+01     1.300933    0.8680844  80.15   0.00506143    2.677    0.626
        70 -12.8430    103.7424    110.2358   1.0088989974e+02   4.0126894261e+01    0.9022813    0.4827127 -51.72  0.003692766    1.892    0.471
        71 -12.6722     97.3552    104.8343   1.0132197705e+02   4.2504599423e+01    0.6844025    0.5005239  51.62  0.003327677    1.523    0.343
        72 -13.1009     61.8568    114.2331   1.1462742815e+02   4.6055426785e+01    0.8813533    0.6706106  38.77  0.003719047    1.453    0.312
        73 -12.7702     69.7581    106.4735   1.1024523241e+02   4.6718088427e+01     0.769204    0.6162751 -32.50  0.002902335    1.207    0.172
        74 -12.5362    166.4942    113.1505   8.5805595793e+01   2.6146252207e+01    0.4868562    0.4622854  -8.03  0.001903651    1.186    0.157
        75 -14.0391    155.7820    107.0597   8.6644170075e+01   2.9810870246e+01     1.119195     0.562853 -42.10  0.004396288    1.982    0.496
        76 -11.9838     55.4683    101.4225   1.1362516247e+02   4.9812389019e+01    0.7270226    0.3453534 -40.30  0.003129617    2.054    0.513
        77 -13.6527     45.8488     81.5320   1.1174741365e+02   5.5214386526e+01     1.430416    0.7920799 -62.31  0.006644642    2.310    0.567
        78 -13.7082     27.2540     81.4219   1.1844068922e+02   5.7157809506e+01     1.133133    0.6956521 -47.54  0.005555065    1.351    0.260
        79 -14.1768     10.9880     84.7309   1.2510482000e+02   5.7735005911e+01     1.224193     0.767009  27.78  0.007354381    1.900    0.474
        80 -13.0191    130.8519     83.4296   8.6207361630e+01   3.9995200308e+01    0.5870317    0.5295293 -73.47  0.003217749    1.213    0.176
        81 -12.7979     59.1340     78.4850   1.0619772945e+02   5.4124662964e+01    0.8326287    0.5628214 -46.37  0.003970884    1.423    0.297
        82 -12.8538     22.3762     67.5514   1.1662862785e+02   6.0342918145e+01    0.6736047    0.3752271   2.14  0.003370028    2.111    0.526
        83 -13.4757     21.6841     50.7952   1.1194925956e+02   6.3452235480e+01    0.8619989    0.3622792 -31.06  0.004157205    2.368    0.578
        84 -13.3700      9.2531     52.7277   1.1771017593e+02   6.4106344907e+01    0.5642082    0.1683025 -45.89  0.002643089    2.445    0.591
        85 -12.0734     50.0284     47.2669   9.9510883268e+01   6.0829750366e+01    0.6527917    0.3988784  -6.52  0.003470803    1.922    0.480
        86 -13.4233    170.1645    242.6092   1.1169744011e+02  -2.0535539203e+00    0.4402556    0.2726013  15.59  0.002097744    2.037    0.509
        87 -12.0383    193.2536    236.6411   1.0595467925e+02  -4.7049275968e+00    0.2349751    0.1654406 -53.26  0.001270074    1.745    0.427
        88 -13.6749     13.3050     41.2201   1.1239631236e+02   6.5769367782e+01    0.4372762    0.3178251 -21.42   0.00309279    1.065    0.061
        89 -10.9681     42.1427    219.5093   1.3619763307e+02   2.2779658396e+01    0.3319467    0.1851226  39.53  0.001463947    1.800    0.444
        90 -12.0818     46.6259    213.2766   1.3460471232e+02   2.3661454072e+01    0.5077401    0.2243155 -62.67  0.001295052    2.071    0.517
        91 -11.0118     42.0948    205.3985   1.3475567630e+02   2.6077640396e+01    0.3018536    0.2459146 -77.99 0.0009915902    1.120    0.107
        92 -12.2940     12.9827     30.0239   1.0863051720e+02   6.7539425282e+01      0.22048    0.1381283  14.95  0.001482957    1.516    0.340
