#   1 NUMBER                 Running object number                                     
#   2 MAG_AUTO               Kron-like elliptical aperture magnitude                    [mag]
#   3 X_IMAGE                Object position along x                                    [pixel]
#   4 Y_IMAGE                Object position along y                                    [pixel]
#   5 X_WORLD                Barycenter position along world x axis                     [deg]
#   6 Y_WORLD                Barycenter position along world y axis                     [deg]
#   7 A_WORLD                Profile RMS along major axis (world units)                 [deg]
#   8 B_WORLD                Profile RMS along minor axis (world units)                 [deg]
#   9 THETA_WORLD            Position angle (CCW/world-x)                               [deg]
#  10 FWHM_WORLD             FWHM assuming a gaussian core                              [deg]
#  11 ELONGATION             A_IMAGE/B_IMAGE                                           
#  12 ELLIPTICITY            1 - B_IMAGE/A_IMAGE                                       
         1 -12.7406    181.8056      4.5509   5.2169320365e+00   3.9310426986e+01     1.687564    0.5530809 -65.05   0.00724528    3.105    0.678
         2 -10.9750    205.7302     21.9401   7.9031366119e+00   3.2868737417e+01    0.3142807    0.2699772  72.33 0.0005137134    1.436    0.304
         3 -12.6850    200.9043     15.8772   6.8256242912e+00   3.4411962865e+01     0.653385    0.4596076 -83.19  0.000677206    1.342    0.255
         4 -12.1887    222.8212     13.4383   5.1823522672e+00   3.0673263908e+01    0.6415061    0.2788492  59.37  0.001752803    3.075    0.675
         5 -11.3684    212.5832     13.4891   5.6774675781e+00   3.2483160684e+01    0.3711359    0.2225432  71.13  0.001522097    1.892    0.472
         6 -12.3135    219.5337     10.1067   4.6387365298e+00   3.1576844148e+01    0.6496102    0.3955739  48.85   0.00230007    2.625    0.619
         7 -10.2633    120.2123      9.0119   1.1568418708e+01   5.2900582089e+01    0.3379254    0.2742152 -35.93  0.001237279    1.327    0.246
         8  -8.9045     94.0512     10.6637   1.6113281540e+01   5.9272365379e+01    0.1883644    0.1526022  76.44 0.0003838496    1.082    0.076
         9 -10.5890    248.1150      2.7545   2.1621863888e+00   2.7551217734e+01    0.3549528    0.1858317 -76.76  0.002563389    1.807    0.447
        10 -11.1932    211.7596      1.6605   3.1771501479e+00   3.3774397390e+01    0.4584655    0.2167359 -77.13  0.002763217    1.969    0.492
        11 -12.5789    230.0780      4.9765   3.1773186308e+00   3.0256401465e+01    0.8160934    0.3563608  82.29  0.004667123    2.441    0.590
        12  -9.1964     18.2533      2.9852   4.1463670678e+01   7.7680091239e+01    0.1753459    0.1553719   8.71 0.0004789346    1.103    0.093
        13 -10.8232    193.8687     21.1517   8.4772847483e+00   3.5219102363e+01    0.3781206     0.280858  38.51  0.001437148    2.066    0.516
        14 -16.0991    247.5015     94.9613   1.9485927041e+01   1.7229795926e+01     5.871769     1.897625 -51.99   0.01496488    4.484    0.777
        15 -14.6763    170.1180    109.1928   3.2343690552e+01   2.7287845447e+01      3.81837     2.391359 -41.42   0.02008048    1.414    0.293
        16  -8.8639    203.6752    188.1413   4.1918344308e+01   9.3940296533e+00    0.1829701    0.1559539  55.90  0.001254063    2.041    0.510
        17  -9.6511    119.0787    165.9855   5.5437294774e+01   2.4628041892e+01    0.3241713     0.202271  21.27  0.001015255    1.685    0.407
        18  -9.3019    213.8238    162.6353   3.5973030339e+01   1.2031876199e+01    0.3081568    0.2477484  77.83  0.001936314    2.530    0.605
        19  -8.0623     28.5267    159.5322   8.2159106716e+01   3.7958360235e+01    0.1460731    0.1341334  51.12 0.0002041767    1.025    0.024
        20 -13.0861    191.5598    152.5435   3.7654474176e+01   1.6486746765e+01     1.091908    0.6766785 -47.97  0.006173173    1.642    0.391
        21 -10.4543    100.6692    163.8230   5.9960727513e+01   2.7850958711e+01    0.3676862    0.2568698 -72.11  0.001740965    1.803    0.445
        22 -11.3362     68.2806    144.2968   6.6481130695e+01   3.7380360461e+01    0.8015101    0.4354878  53.61  0.003114723    2.223    0.550
        23  -9.0145     43.9924    190.0684   8.0078336622e+01   2.8660855548e+01    0.2011187    0.1857798  23.57            0    1.057    0.054
        24  -8.7028    104.8904    142.1274   5.4692833795e+01   3.2220279859e+01    0.2088429    0.1975795  86.77 0.0004034352    1.171    0.146
        25  -8.3165      4.4747    141.4470   8.9304914184e+01   4.4720048562e+01    0.1398246     0.134556  81.56 0.0001888403    1.039    0.038
        26 -14.7655    195.7372    165.4925   3.9338862391e+01   1.3834952910e+01     4.300767     1.988775  42.84   0.02166044    2.713    0.631
        27  -9.8648    115.4050    130.3508   4.9270938168e+01   3.3093212867e+01    0.3530898    0.2664635  37.60  0.001128453    1.340    0.254
        28 -10.3398     27.5170    130.8258   7.9409067859e+01   4.5928499493e+01    0.2547625    0.2407834  16.26 0.0002730548    1.085    0.078
        29 -16.0200    203.9092    115.1857   2.8390222303e+01   2.0662051701e+01     5.952943      2.36797 -35.85   0.02766834    2.173    0.540
        30 -10.0679    121.0588    127.1464   4.7057520635e+01   3.2781808044e+01    0.2776779    0.2328332  27.66 0.0007663296    1.244    0.196
        31  -9.6334    121.8600    122.2838   4.5729833255e+01   3.3688865340e+01    0.3392401    0.2087003 -50.91 0.0005464997    1.618    0.382
        32  -9.5085    121.9140    117.3492   4.4546276265e+01   3.4739742189e+01     0.281485    0.2068132 -46.08  0.000309671    1.323    0.244
        33 -13.2484     14.9091    110.4094   8.2180731547e+01   5.2735479397e+01     1.649876     1.101482  -0.48  0.005382745    1.656    0.396
        34 -12.2298     71.8215    110.5099   5.8365236105e+01   4.5568670133e+01       1.3942    0.7185495 -59.77  0.005413399    2.031    0.508
        35 -13.6035     57.3500    111.1928   6.4047244174e+01   4.7699618093e+01      1.62452     1.138296  36.27  0.007470388    1.392    0.281
        36  -9.7099    141.3386    112.8737   3.8848040533e+01   3.1953373992e+01    0.2405856    0.1946947  60.32 0.0007121419    1.392    0.282
        37  -8.4824     94.5295    111.4815   5.0884473238e+01   4.1261544333e+01    0.1502095    0.1499971  87.51 0.0001163347    1.005    0.005
        38 -11.1137    120.3325    102.4209   4.1207302928e+01   3.8204701410e+01    0.3639249    0.3478093 -53.75  0.002049054    1.017    0.017
        39  -9.6671    126.9740    109.4855   4.1351051274e+01   3.5416591834e+01    0.2591749    0.1983488 -57.53 0.0007182632    1.352    0.260
        40 -10.7396    124.7040    105.6737   4.0948028454e+01   3.6652450572e+01    0.4652688    0.2768572 -54.50  0.002041111    1.774    0.436
        41 -10.6454    140.2849    104.9689   3.7148558805e+01   3.3699229516e+01    0.3713453     0.332404 -31.57 0.0006196523    1.125    0.111
        42  -9.5693    110.0182    105.2417   4.4698661255e+01   3.9676015533e+01     0.296299    0.1199634  40.28  0.000582231    2.588    0.614
        43 -14.2555    191.7314    190.4246   4.4314196898e+01   1.0390355138e+01     9.147313     6.312406 -78.02   0.03155549    8.060    0.876
        44 -10.1565    146.4933    113.0607   3.7781602427e+01   3.0940119688e+01    0.2550154    0.2092703  47.25 0.0004760808    1.309    0.236
        45 -11.9694     45.0827    110.0956   6.8838806100e+01   4.9714547503e+01    0.5381224    0.4407046  38.43 0.0008896065    1.205    0.170
        46  -9.5463    157.0519     88.6455   2.9727109036e+01   3.3338523531e+01    0.3067135    0.1789279 -38.94 0.0009273022    1.595    0.373
        47 -10.8065    121.6036     94.3278   3.8727318863e+01   3.9598240981e+01    0.4810265    0.3607593 -30.41  0.001406925    1.487    0.327
        48  -9.3201    103.0238    171.0665   6.0541121387e+01   2.5860170262e+01    0.2119181     0.197843   3.66 0.0003221194    1.010    0.010
        49  -9.7347    114.2031     95.0192   4.0820340381e+01   4.1000964180e+01    0.3670597    0.1817614  36.66  0.001387912    2.435    0.589
        50  -9.7859    134.4772     92.7187   3.5273478585e+01   3.7226950593e+01    0.2463969     0.235725 -58.38 0.0005264998    1.017    0.017
        51  -8.4797     85.8421     93.1057   4.8828764388e+01   4.7216771282e+01    0.1963165    0.1771837 -15.79            0    1.243    0.196
        52 -10.5366    155.7852     94.3148   3.1376168626e+01   3.2603701421e+01    0.4514376     0.235088 -33.74  0.001230747    2.008    0.502
        53  -8.1435     10.6890    168.6973   8.8809971451e+01   3.6973204801e+01    0.1402287    0.1004869 -38.00  0.000328946    1.609    0.378
        54  -9.6500    195.7717     88.0693   2.3714924110e+01   2.6144488599e+01    0.3714804    0.2447939 -10.47  0.001904597    2.397    0.583
        55  -8.2849     76.6365     88.1750   5.0656118618e+01   5.0156078721e+01    0.1952251    0.1425159 -41.58  0.000168072    1.443    0.307
        56  -8.7898    127.2581     86.9293   3.5332640920e+01   3.9851453761e+01    0.2026853    0.1758097 -46.53 0.0004168158    1.119    0.107
        57  -8.3084     93.0199     88.9343   4.5259783269e+01   4.6705657549e+01    0.1832874    0.1634325 -52.73 0.0004051955    1.128    0.113
        58  -8.8469    139.2310     79.5470   3.0699748985e+01   3.8632491699e+01    0.1884212    0.1322604  43.32 0.0008472347    1.611    0.379
        59 -10.2499    191.2667     76.2674   2.1625780537e+01   2.8699825319e+01    0.4162142    0.2520479 -13.38  0.001929667    2.861    0.651
        60  -9.8068     88.0216     75.4334   4.2717628645e+01   5.0650763328e+01    0.2712182     0.214976 -47.05 0.0005970437    1.287    0.223
        61  -9.3253    133.0835     73.6130   3.0281801257e+01   4.1012801389e+01    0.2558585    0.1991226 -36.68 0.0005696715    1.313    0.238
        62  -8.9503    128.0710     72.5161   3.1023634984e+01   4.2318779957e+01    0.2154813    0.1820224 -49.05 0.0003115362    1.143    0.125
        63  -8.9254     73.0970     70.6791   4.6438441422e+01   5.4789015515e+01    0.2576827     0.164941 -44.20 0.0006711347    1.626    0.385
        64  -9.2585    180.2524     65.9904   2.0576173852e+01   3.2286123695e+01    0.1824034    0.1451187 -48.86 0.0004409041    1.072    0.067
        65 -10.1739    176.3526     66.3899   2.1175343391e+01   3.2999666645e+01    0.3752333    0.2294137 -18.88  0.001814733    2.318    0.569
        66  -9.9279    173.0256     64.9974   2.1268999700e+01   3.3871247633e+01    0.3289396    0.1795106  58.98  0.001676003    1.995    0.499
        67 -10.1695    153.8235     64.0366   2.3816536842e+01   3.8034646170e+01    0.2639607    0.2073657 -35.54 0.0004090215    1.286    0.222
        68  -8.7241    124.0847     64.8575   2.9582793000e+01   4.4544768133e+01    0.2157114    0.1809071 -70.07 0.0004508851    1.190    0.159
        69  -9.3918    182.6017     61.4103   1.9176642313e+01   3.2475543814e+01    0.2434812     0.203491   7.83  0.001500009    1.710    0.415
        70  -9.2327    134.3753     60.7420   2.6249775510e+01   4.2870994848e+01    0.2480047    0.1815908 -30.22  0.001284216    1.504    0.335
        71 -11.4498    177.2534     58.3822   1.9076904860e+01   3.3963307818e+01    0.4027734    0.3665765  50.32  0.001659816    1.352    0.260
        72  -9.8987    144.0510     59.3355   2.4105383704e+01   4.0906216431e+01    0.3365837    0.2398244 -31.81  0.001404594    1.491    0.329
        73 -10.3441    167.2240     56.9553   1.9984938315e+01   3.6227077399e+01    0.2083501    0.1783407  89.55 0.0003071431    1.171    0.146
        74  -8.4689    113.5168     55.0202   2.8787052811e+01   4.8639838001e+01    0.2037511    0.1396191 -39.48 0.0004040552    1.487    0.327
        75  -8.4916    156.4615     47.7741   1.8956037730e+01   3.9824072886e+01    0.1699148    0.1251984 -23.92  0.000788056    1.591    0.371
        76  -9.5123    100.0927    209.6541   6.6904924380e+01   1.7982473339e+01    0.2116188    0.1789362 -34.50 0.0003693522    1.249    0.200
        77  -8.5011    162.3310     45.0321   1.7447086068e+01   3.8910136186e+01    0.1795074    0.1503506 -56.13 0.0007316059    1.052    0.049
        78 -14.5406    154.9484    153.3062   4.4686088019e+01   2.1718930343e+01     3.410358     3.334286  57.50   0.02188861    1.246    0.198
        79 -10.9908    250.1636     38.8922   8.8064842283e+00   2.3582428036e+01    0.4027714     0.124951 -33.66  0.001330829    2.441    0.590
        80  -9.2431    231.0257    200.3873   3.9662502754e+01   4.9041027878e+00    0.1529549    0.1101267 -27.00 0.0003311762    1.182    0.154
        81 -11.5232    230.8582     29.5037   8.0455387981e+00   2.7639086167e+01    0.4931577    0.2055606 -32.16  0.002463715    2.034    0.508
        82 -11.1835    227.3540     25.8500   7.4982863399e+00   2.8616424584e+01    0.3448533    0.2471825 -15.82 0.0007490339    1.881    0.468
        83  -9.0931    184.8798     35.3356   1.2575947921e+01   3.5404668230e+01    0.2016446    0.1299791 -70.28 0.0009817618    1.468    0.319
        84  -9.3893    250.5606     29.1609   6.9693579910e+00   2.4565104992e+01    0.1906734   0.07491052 -34.44 0.0004632492    1.914    0.478
        85 -10.5308    246.2180     26.5397   6.6828015970e+00   2.5501082878e+01    0.2373159    0.1719318 -76.08  0.001914337    1.382    0.277
        86  -9.9012    170.5202     29.2709   1.2351627657e+01   3.9100982655e+01    0.1994097    0.1695605 -82.35  0.000350093    1.122    0.109
        87 -11.0003    241.2707     23.6486   6.3636113952e+00   2.6574462431e+01    0.3449338    0.2072091  -6.63  0.001885659    3.547    0.718
        88  -9.3457     88.8697     23.0823   2.2522740679e+01   5.9220291624e+01    0.2243982    0.1992955  23.30 0.0006515078    1.338    0.253
        89  -9.2645    248.8234     22.3066   5.7694292159e+00   2.5537925200e+01    0.1633175    0.1241063  -8.94  0.001225984    2.001    0.500
        90 -10.3863    197.1344    249.8475   5.2102997517e+01   1.4808265802e+00    0.2548256   0.06357654  22.46  0.001116466    3.888    0.743
        91  -8.6264      6.8649    248.8674   9.3058696879e+01   1.9025763317e+01    0.1596471     0.142554  12.06 0.0005031309    1.247    0.198
        92  -9.0026    133.3629    247.1818   6.3859139035e+01   7.6951868400e+00    0.1320341    0.1128966 -57.66 0.0003395977    1.669    0.401
        93 -10.9564    201.3324    245.3400   5.0803737703e+01   1.7003999948e+00    0.1980338    0.1853077 -28.53  0.001646227    1.872    0.466
        94 -11.1812    211.1880    241.6710   4.8695534207e+01   1.3440273089e+00    0.2459265    0.1828063  21.64  0.001307081    1.607    0.378
        95  -8.0228    117.2774    227.2668   6.4996815148e+01   1.2688292791e+01    0.1217731   0.08334386  -9.09 0.0001922707    1.481    0.325
        96  -9.7043    250.4262     17.2538   4.7635449938e+00   2.5802391981e+01    0.1916407   0.07998224 -30.26  0.001126602    2.109    0.526
        97  -9.9994    244.7621     15.7019   4.6971561654e+00   2.6831155897e+01    0.1293821    0.1175718 -80.02 0.0007361575    1.414    0.293
        98  -9.1407    150.4951     14.1388   1.0026249739e+01   4.5192343590e+01    0.1802013    0.1154573 -33.83  0.001019201    1.549    0.355
        99 -10.0745    229.1606    221.3068   4.3058598624e+01   2.3879216390e+00    0.2610895    0.1601389  33.47  0.001501022    2.205    0.547
       100 -14.0386    248.2240     79.4506   1.6541857470e+01   1.9100278726e+01     1.099618     0.623706 -26.47  0.007015614    1.768    0.434
       101 -17.1694    244.3374    121.6711   2.4681872229e+01   1.4112772533e+01     4.403995     1.661695 -34.89   0.01837349    2.037    0.509
       102  -8.9026    230.9508    214.6210   4.1818564151e+01   3.0758897094e+00    0.1513558    0.1224607 -29.96 0.0005449631    1.505    0.335
       103 -10.0194    192.8544    213.4177   4.7737089240e+01   6.8156499642e+00    0.1923919    0.1591614 -21.80 0.0004566096    1.254    0.203
       104  -9.8243    174.0297    182.4905   4.6210987677e+01   1.3801896449e+01    0.2509377      0.16698 -53.60 0.0008831922    1.891    0.471
