#   1 NUMBER                 Running object number                                     
#   2 MAG_AUTO               Kron-like elliptical aperture magnitude                    [mag]
#   3 X_IMAGE                Object position along x                                    [pixel]
#   4 Y_IMAGE                Object position along y                                    [pixel]
#   5 X_WORLD                Barycenter position along world x axis                     [deg]
#   6 Y_WORLD                Barycenter position along world y axis                     [deg]
#   7 A_WORLD                Profile RMS along major axis (world units)                 [deg]
#   8 B_WORLD                Profile RMS along minor axis (world units)                 [deg]
#   9 THETA_WORLD            Position angle (CCW/world-x)                               [deg]
#  10 FWHM_WORLD             FWHM assuming a gaussian core                              [deg]
#  11 ELONGATION             A_IMAGE/B_IMAGE                                           
#  12 ELLIPTICITY            1 - B_IMAGE/A_IMAGE                                       
         1 -15.1834      3.6603    125.9032   1.4413072524e+02   4.8910485781e+01     5.313012    0.6259387 -74.80   0.01480548    6.506    0.846
         2 -13.7039    197.8330     28.1459   6.8027252738e+01   3.2346383876e+01     1.383516     1.009198  59.18  0.005350725    1.350    0.259
         3 -13.6528    214.5945      7.5137   6.0670667032e+01   3.0424681001e+01    0.8936477    0.7668243  78.31  0.003464194    1.133    0.118
         4 -10.2433    108.4887    138.0611   1.1800138242e+02   3.3092412940e+01    0.4523632    0.2991566 -21.60  0.001767038    2.710    0.631
         5 -12.8247    246.3270    248.2574   1.0943132900e+02  -1.0245981865e+01    0.6713303    0.3387457  40.02  0.004063632    1.787    0.440
         6 -10.2169     74.8067    250.3797   1.3979618670e+02   1.5452152564e+01    0.1519696   0.09007315  38.23 0.0007894295    1.698    0.411
         7 -10.9993     48.8092    250.1056   1.4416790058e+02   1.8845204001e+01    0.3656034   0.04496254  43.73   0.00146494    3.991    0.749
         8 -13.1075     20.0279    248.1059   1.4871930681e+02   2.2474153022e+01     1.083494    0.2641609  41.58  0.005620213    2.921    0.658
         9 -13.0191      5.3816    247.5870   1.5097462001e+02   2.4063349388e+01    0.6623797     0.591153  73.75  0.006052851    1.574    0.365
        10 -14.8503     34.4810    230.2327   1.4540327668e+02   2.4045028282e+01     1.044829    0.7634087 -74.33  0.007805228    1.523    0.343
        11 -11.7032     98.4774    249.6681   1.3560676801e+02   1.2237205057e+01     0.339024    0.1473001  41.30   0.00181827    1.888    0.470
        12 -13.7625    142.3668    246.6985   1.2740676006e+02   5.9619649392e+00    0.8899089    0.4896624  48.90  0.005149068    1.469    0.319
        13 -13.2261    173.8794    248.3837   1.2192371937e+02   6.7985891689e-01    0.8140295    0.2793453  45.52  0.003693071    2.416    0.586
        14 -13.1479    111.7005    231.7601   1.3140914754e+02   1.3227852482e+01     1.234781    0.1103586  43.03  0.003298464    6.526    0.847
        15 -12.9204     45.9239    216.4145   1.4242931577e+02   2.5308792107e+01    0.8556778     0.415852  52.92  0.004403332    1.650    0.394
        16 -12.1603     89.7451    227.3124   1.3510782575e+02   1.7354092587e+01    0.8355358   0.09031449  44.59  0.002540418    5.282    0.811
        17 -11.4713      3.7006    227.6413   1.5046432204e+02   2.7729982108e+01    0.2428525    0.1623242 -88.77  0.001897284    1.298    0.230
        18  -9.6936    172.6628    222.6717   1.1855829815e+02   4.5599889641e+00    0.1284833   0.09136222  14.24 0.0007051881    1.729    0.422
        19 -10.5583     20.2532    212.0777   1.4685909065e+02   2.9019711798e+01    0.2529423    0.1495826  39.34  0.001679799    1.759    0.432
        20 -12.4214     10.3874    206.9650   1.4835752764e+02   3.0993429627e+01    0.5102763    0.3352748  31.53   0.00293565    1.956    0.489
        21 -12.0636     58.1143    200.5042   1.3874436325e+02   2.6960109923e+01    0.2536482    0.2116064 -87.46 0.0005292283    1.193    0.162
        22 -12.2902     64.8358    191.8631   1.3650534327e+02   2.7872816636e+01    0.2478951    0.2171075  77.72 0.0004171112    1.143    0.125
        23 -13.1236     61.9211    176.9249   1.3550865288e+02   3.1487362377e+01    0.4744023    0.2630148 -49.09  0.001593887    2.307    0.567
        24 -10.9937     75.7413    178.4960   1.3259281853e+02   2.9232241372e+01    0.2289422    0.1999201  88.24 0.0003025742    1.093    0.085
        25 -12.1830     82.9645    169.7358   1.2976788566e+02   3.0105875539e+01    0.6225508    0.4411109 -56.94  0.001765041    1.484    0.326
        26 -13.2959      9.3481    155.6083   1.4529908230e+02   4.1832351304e+01      1.07006    0.3988172 -89.70  0.004891903    2.620    0.618
        27 -11.6219    226.1335    248.7811   1.1286153759e+02  -7.4295028494e+00    0.2826641    0.1447971  24.67  0.001603052    1.818    0.450
        28 -10.6790     95.6363    135.2455   1.2079798664e+02   3.6018736427e+01    0.2346314    0.2266196 -50.34 0.0003264614    1.156    0.135
        29 -11.6151     26.3920    128.9631   1.3848767091e+02   4.6459939549e+01    0.4418778    0.1893042  51.21  0.002082864    2.588    0.614
        30 -11.3153     18.6809    124.9218   1.4006834259e+02   4.8048260496e+01    0.2217429    0.1640323  53.65  0.001169137    1.444    0.307
        31  -9.2342    106.1701    124.1692   1.1563201362e+02   3.6729262241e+01    0.1891309    0.1629241  83.44 0.0002829228    1.215    0.177
        32 -10.8002     96.0420    153.5051   1.2407104926e+02   3.1711302313e+01    0.3087589    0.2865111 -85.23 0.0007177133    1.070    0.066
        33 -10.1794    158.2418     76.4232   8.9350216356e+01   3.5306143206e+01     0.217368    0.1514195  67.28 0.0007413423    1.592    0.372
        34  -9.7667     99.2220    149.0841   1.2249386253e+02   3.2190982516e+01    0.2191654    0.1966128  34.41 0.0004856962    1.263    0.208
        35 -11.6366      2.3010     50.4655   1.3346119364e+02   6.5705327485e+01    0.2507669    0.1681234 -63.33  0.001165872    1.216    0.178
        36 -12.1367     84.8651    152.2422   1.2664824227e+02   3.3803936249e+01    0.3009618     0.246171 -52.77 0.0006847858    1.320    0.242
        37 -10.5249     81.4950    249.0182   1.3853268377e+02   1.4762192330e+01    0.1517424    0.1025629 -77.64  0.001040274    1.613    0.380
        38 -12.1554     67.6003    143.3976   1.2963385686e+02   3.8403122686e+01    0.6190703    0.3740561  63.57  0.001962086    1.842    0.457
        39 -13.4724    128.2487    248.0652   1.3011920087e+02   7.9833361025e+00    0.9464843    0.4062986  34.07   0.00445426    2.527    0.604
