#   1 NUMBER                 Running object number                                     
#   2 MAG_AUTO               Kron-like elliptical aperture magnitude                    [mag]
#   3 X_IMAGE                Object position along x                                    [pixel]
#   4 Y_IMAGE                Object position along y                                    [pixel]
#   5 X_WORLD                Barycenter position along world x axis                     [deg]
#   6 Y_WORLD                Barycenter position along world y axis                     [deg]
#   7 A_WORLD                Profile RMS along major axis (world units)                 [deg]
#   8 B_WORLD                Profile RMS along minor axis (world units)                 [deg]
#   9 THETA_WORLD            Position angle (CCW/world-x)                               [deg]
#  10 FWHM_WORLD             FWHM assuming a gaussian core                              [deg]
#  11 ELONGATION             A_IMAGE/B_IMAGE                                           
#  12 ELLIPTICITY            1 - B_IMAGE/A_IMAGE                                       
         1 -13.9563      3.1721     86.0576   1.3434432323e+02   5.7640514285e+01     2.059782    0.3147616 -63.87  0.006984699    4.452    0.775
         2 -15.1493      8.0531    144.3418   1.4135165948e+02   4.4384941460e+01     5.598356     1.647205 -79.47   0.01966889    4.052    0.753
         3 -13.6011    199.6470     28.4523   6.5498399601e+01   3.2107199380e+01     1.251641     1.208114  78.00  0.006921093    1.214    0.176
         4 -12.1530      3.5609      3.7027   1.1001952945e+02   7.1992554649e+01    0.5401428    0.2544239 -35.41  0.003551583    1.725    0.420
         5 -13.5515    215.6226     10.6386   5.9632190127e+01   3.0411395782e+01    0.9243706    0.7798821  66.28  0.003608917    1.286    0.223
         6 -12.5391      6.1544    248.7331   1.4980396436e+02   2.2274139579e+01       1.0414    0.3522452  39.96  0.005702556    2.772    0.639
         7 -13.6194    242.2655    244.6084   1.0564516136e+02  -1.2759020880e+01      1.44991    0.9108458  18.17  0.008712636    1.481    0.325
         8 -12.7996     44.2511    213.3363   1.4056783535e+02   2.5091288559e+01    0.8696809    0.6313602 -69.79  0.004410205    1.361    0.265
         9 -12.8942     29.0599    230.9624   1.4486825514e+02   2.3226549248e+01    0.3125237    0.2526203 -87.30 0.0007878795    1.240    0.194
        10 -14.0202     34.0951    224.4491   1.4345986508e+02   2.3971936824e+01    0.8173528    0.5705941  68.39  0.002382464    1.151    0.131
        11 -12.3986      9.8885    231.2835   1.4820600589e+02   2.5260494930e+01    0.4523457    0.2010029  86.47  0.002245259    1.972    0.493
        12 -12.1592      5.7922    226.8865   1.4863167642e+02   2.6554120565e+01    0.3735287    0.3223889 -48.71  0.002866899    1.874    0.466
        13 -13.9539    140.3563    248.1794   1.2557992607e+02   3.3241287819e+00     1.760717    0.6832455  36.63   0.00731519    2.543    0.607
        14 -11.5247    111.2977    231.1595   1.2912273211e+02   1.1418085243e+01    0.3724688    0.1478812  44.85  0.001596736    2.167    0.539
        15 -11.5580     87.2052    225.8758   1.3333678288e+02   1.6385043929e+01    0.4795478    0.1480759  52.16   0.00173898    3.309    0.698
        16 -11.8943      4.5412    240.8982   1.4964015843e+02   2.3928418601e+01    0.4508386    0.2512524  53.24  0.002053936    1.513    0.339
        17 -10.5627     65.4231    248.9636   1.3982603261e+02   1.4996838321e+01      0.24991    0.1733821  81.11 0.0008270854    1.251    0.200
        18 -10.7625    171.4354    222.8544   1.1554071868e+02   2.3318128012e+00    0.2374878    0.1540235  35.92 0.0009523287    1.428    0.300
        19 -12.4577     56.1309    211.1394   1.3798362258e+02   2.4036673890e+01      2.13975     0.541178  57.25  0.004339136   12.145    0.918
        20 -10.4127     52.9078    237.7023   1.4111386620e+02   1.8905540940e+01    0.1727606    0.1248374  65.43 0.0005815485    1.102    0.093
        21 -11.6927     57.0625    197.6702   1.3631721618e+02   2.6909052244e+01    0.2921766    0.2285258 -72.40 0.0004908402    1.213    0.176
        22  -9.7460    191.7758    192.6992   1.0584897755e+02   4.1170270600e+00    0.4450264    0.2308793 -66.08  0.001255737    5.629    0.822
        23 -11.1607      7.8298    192.7744   1.4593005549e+02   3.3511699803e+01    0.2554788    0.1773965  71.11 0.0005005022    1.232    0.188
        24 -11.9433     63.7500    189.3163   1.3384853922e+02   2.7914222074e+01    0.2786017    0.2363319 -65.13 0.0004076285    1.247    0.198
        25 -11.9848     11.3692    121.1270   1.3755823555e+02   4.9439684579e+01    0.4085637    0.2283162  54.00  0.001643344    2.255    0.556
        26 -13.2612     61.0652    174.4125   1.3248148693e+02   3.1773534365e+01    0.5456709    0.2811946 -47.22  0.001860106    2.298    0.565
        27 -10.3859     54.5174    204.6480   1.3762699707e+02   2.5680594154e+01    0.3340859    0.1700912  61.89   0.00163464    1.985    0.496
        28 -10.7898     74.6050    176.5013   1.2958705817e+02   2.9367132045e+01     0.250712    0.2214138 -85.20 0.0002786595    1.040    0.038
        29  -9.5382     93.9164    171.1810   1.2409491028e+02   2.7596097200e+01    0.2186667    0.1778987  79.24 0.0003839556    1.224    0.183
        30 -11.7346     81.8805    167.6213   1.2644021106e+02   3.0385207133e+01    0.6356267     0.426467 -55.50  0.002258849    1.444    0.308
        31  -9.0646    152.4814    213.0087   1.1784995858e+02   7.6925611003e+00     0.189738    0.1404824 -53.39 0.0003754346    1.481    0.325
        32 -10.0467     95.5915    152.0764   1.2018750522e+02   3.1899915846e+01    0.2964552    0.2611995 -59.59 0.0008049638    1.100    0.091
        33 -11.9755     84.1393    150.8500   1.2292444914e+02   3.4077529352e+01    0.3098349      0.24938 -46.11 0.0005396567    1.303    0.233
        34  -9.1566     98.8905    147.8146   1.1848407356e+02   3.2356531190e+01    0.2142173    0.1946493 -38.57 0.0004465201    1.207    0.172
        35 -12.2826     67.3052    143.4043   1.2599348699e+02   3.8374481165e+01    0.6719029     0.439787  65.55  0.002552973    1.852    0.460
        36  -9.5276    108.1998    136.9765   1.1372424905e+02   3.3265086399e+01    0.4069135    0.2482168 -22.44  0.001453689    3.066    0.674
        37 -10.4759     95.1573    134.2709   1.1663304088e+02   3.6246539957e+01    0.2539696    0.2161708 -48.43 0.0003823965    1.149    0.130
        38 -10.9644     25.7423    128.4364   1.3471862482e+02   4.6623843007e+01     0.278467    0.1870111  60.36 0.0009377035    1.758    0.431
        39  -8.9689    105.7784    123.5958   1.1128445454e+02   3.6852603827e+01    0.1843137     0.143466  53.74 0.0002441295    1.371    0.271
        40  -9.8557     77.7576    121.7513   1.1874269874e+02   4.2027285519e+01    0.2475068    0.2105201  66.30 0.0006363439    1.318    0.241
        41  -9.3399     64.8424    120.2945   1.2216080632e+02   4.4216741398e+01    0.1956427    0.1741465  81.30 0.0005861116    1.228    0.186
        42  -9.4784    167.8295    112.8655   9.2990074936e+01   2.5850258204e+01    0.2459664    0.1875847 -79.97  0.000873378    1.641    0.390
        43  -9.7939     46.9635     99.5094   1.2303185212e+02   5.1147299259e+01    0.2360866    0.1930994  63.90  0.001407425    1.542    0.351
        44 -11.8318    243.0782     94.6349   7.5001553364e+01   1.2026086794e+01    0.3695492    0.3034434  23.47  0.002017016    1.698    0.411
        45  -9.1964     64.1390     80.0828   1.1247957795e+02   5.3142957657e+01    0.1897238    0.1622899  80.85 0.0006169779    1.634    0.388
        46 -12.6158     35.1166    244.8176   1.4481390015e+02   1.9760170997e+01    0.6163152    0.4548753 -64.02  0.004310507    1.675    0.403
        47 -12.4038      3.2014     50.2786   1.2641505074e+02   6.4706310595e+01    0.3800477    0.3444456  86.33  0.001280626    1.608    0.378
        48 -12.5506      9.8140    206.9220   1.4660757626e+02   3.0280321421e+01    0.6370861    0.4157754  34.33  0.002724912    1.908    0.476
        49 -12.9286     15.7998    241.6805   1.4785318220e+02   2.2591976640e+01     1.417943    0.2675467  50.52   0.00605248    3.658    0.727
        50 -11.7788     46.7827    247.0423   1.4296497567e+02   1.7870828812e+01    0.4388777    0.3104029 -60.37  0.002563941    1.782    0.439
