#   1 NUMBER                 Running object number                                     
#   2 MAG_AUTO               Kron-like elliptical aperture magnitude                    [mag]
#   3 X_IMAGE                Object position along x                                    [pixel]
#   4 Y_IMAGE                Object position along y                                    [pixel]
#   5 X_WORLD                Barycenter position along world x axis                     [deg]
#   6 Y_WORLD                Barycenter position along world y axis                     [deg]
#   7 A_WORLD                Profile RMS along major axis (world units)                 [deg]
#   8 B_WORLD                Profile RMS along minor axis (world units)                 [deg]
#   9 THETA_WORLD            Position angle (CCW/world-x)                               [deg]
#  10 FWHM_WORLD             FWHM assuming a gaussian core                              [deg]
#  11 ELONGATION             A_IMAGE/B_IMAGE                                           
#  12 ELLIPTICITY            1 - B_IMAGE/A_IMAGE                                       
         1  -7.7447    172.4505     49.5821   2.3302925914e+01   3.6010736246e+01    0.1368655     0.121095  78.86 9.060937e-05    1.010    0.010
         2 -10.8012    248.9313    247.7141   5.2280050442e+01  -1.3896568787e+01     1.003922    0.5804381  22.89  0.006009146    1.608    0.378
         3  -9.9097    247.1901    241.0275   5.1439004241e+01  -1.2730621405e+01    0.6020951    0.2209124 -24.61  0.002234374    4.023    0.751
         4  -7.8409    143.7145    249.6626   7.3803286316e+01   1.2271746403e+00    0.1302628    0.1000798  -3.22 0.0007015545    1.630    0.386
         5  -9.3697    109.6801    246.2774   8.0686303405e+01   7.3508657213e+00    0.4104709    0.1937881 -43.71  0.001651148    2.860    0.650
         6 -11.0876     73.2832    248.5748   8.8638786139e+01   1.2359481827e+01    0.5303414     0.318235  26.67  0.002720071    2.044    0.511
         7  -8.3121    156.6992    247.3013   7.0667607045e+01  -4.4335978086e-01     0.264013     0.149671 -26.85  0.001169336    2.571    0.611
         8  -9.3036     94.4005    247.7941   8.4139167713e+01   9.4142954277e+00    0.1709006    0.1200346 -52.76 0.0008906647    1.661    0.398
         9  -9.2346    197.1976    246.9458   6.2117207096e+01  -6.7352899516e+00    0.3631771    0.1591132  35.91  0.001664875    2.069    0.517
        10  -7.8730    149.6053    247.2262   7.2180644550e+01   7.2100380129e-01    0.1725339    0.1239509 -34.22 0.0005778576    1.620    0.383
        11  -7.7709    135.6811    247.6350   7.5245385797e+01   2.9085617827e+00    0.1351479    0.1019462  -4.68 0.0007039723    1.779    0.438
        12  -7.8622    119.2009    246.6311   7.8674648031e+01   5.7650810867e+00    0.1901339    0.1166309  28.69 0.0006571854    1.680    0.405
        13  -8.9065    103.9656    246.2094   8.1908300253e+01   8.2616887606e+00     0.205335    0.1515653   8.28   0.00106907    1.961    0.490
        14  -8.6746    168.2547    243.9037   6.7666474587e+01  -1.7006880742e+00    0.2453615    0.1794555 -19.53  0.001340242    1.571    0.363
        15  -9.9727     88.2658    242.9915   8.4895262678e+01   1.1329174800e+01    0.2391283     0.177426  -8.41   0.00121494    2.329    0.571
        16 -10.2405     61.9408    248.3551   9.0930364159e+01   1.3977149173e+01    0.3894299    0.2261693  16.54  0.001735183    3.242    0.692
        17 -10.4827    177.7498    246.2584   6.6031607284e+01  -3.6273765971e+00    0.7323017    0.3932354  -3.34  0.002392715    4.931    0.797
        18  -8.5808    172.2847    240.0413   6.6182801305e+01  -1.6608295547e+00    0.2452743    0.1772271   9.81  0.001285581    1.491    0.329
        19 -10.3683    187.0295    242.2135   6.3426089858e+01  -4.3908429049e+00     0.460525    0.2034251  24.72  0.001847518    2.670    0.625
        20  -9.2111    159.7824    237.5713   6.8483672079e+01   8.4500641522e-01    0.3950775    0.2954852  -1.19   0.00209982    1.593    0.372
        21 -10.9841    201.1046    228.6866   5.8172328965e+01  -4.2605301766e+00    0.8349093    0.3827771 -55.87  0.003016541    4.040    0.752
        22 -11.5575    196.0443    233.3275   6.0035740984e+01  -4.2733876146e+00    0.5288515    0.4651585 -37.28  0.003270626    1.292    0.226
        23 -12.0980    194.8331    221.2803   5.8140579166e+01  -1.9336718756e+00     1.471266    0.6818917 -23.83  0.005012661    3.851    0.740
        24 -12.1655    197.0539    203.7955   5.4388701133e+01   9.8347083594e-01     2.081373     1.015226 -20.38  0.006451803    4.400    0.773
        25 -10.6940    186.1524    220.7093   5.9877712049e+01  -3.9070159589e-01     0.660494    0.2895989 -32.93  0.002526877    2.825    0.646
        26  -9.4078    186.4400    213.4196   5.8478858083e+01   9.4800633717e-01    0.5157234    0.2975382 -25.06  0.002234153    2.158    0.537
        27 -10.0954    177.2680    237.0359   6.4621638598e+01  -1.9288096426e+00    0.3589211    0.2479185 -66.83  0.001760017    2.305    0.566
        28  -8.3336    146.1507    237.6217   7.1482082338e+01   3.1059393013e+00    0.2551202    0.1722647 -30.63  0.000974267    1.828    0.453
        29  -9.4157    171.0573    234.7860   6.5579919630e+01  -5.0281202325e-01    0.2679635    0.1845135 -25.80  0.001149089    1.652    0.395
        30  -7.7079    140.0000    234.9889   7.2441437275e+01   4.6533890237e+00    0.2116878    0.0803287 -52.55 0.0007472371    2.933    0.659
        31  -8.0860    153.0490    234.0043   6.9391031611e+01   2.6513011206e+00    0.2212226     0.162575  -1.05  0.001118466    1.719    0.418
        32  -7.7598     25.6914    250.3473   9.8111577699e+01   1.8082333754e+01    0.1287608   0.06635244  66.60 0.0007044179    1.705    0.414
        33  -7.9990    241.3536    231.7310   5.0864231368e+01  -1.0594787500e+01    0.1752357   0.09730834 -27.29 0.0009335382    1.651    0.394
        34  -8.0988    158.4901    230.9265   6.7688304692e+01   2.3298601012e+00    0.2005079    0.1380955 -45.58  0.001027137    1.577    0.366
        35  -8.7275    143.9794    229.1689   7.0642170293e+01   5.1474090217e+00    0.3801617    0.2105872 -50.88  0.001746003    1.975    0.494
        36  -9.6764    178.0669    229.1472   6.3109230849e+01  -6.1869596825e-01     0.363923    0.2352072 -27.96  0.001805792    1.734    0.423
        37  -9.6833    180.3116    223.7041   6.1671218221e+01   2.5268133510e-02    0.5093172    0.1684338 -46.32  0.001828789    3.193    0.687
        38  -8.8559    168.5878    225.3520   6.4518303063e+01   1.6946620151e+00    0.5102767    0.2656519 -22.86  0.001823712    3.495    0.714
        39  -8.8052    161.9469    225.7707   6.6059185136e+01   2.7477066364e+00    0.3330997    0.1881022 -36.48  0.001500864    2.013    0.503
        40  -8.0247    213.0000    232.0446   5.6361535308e+01  -6.6511125842e+00    0.2037827   0.07023583 -41.86 0.0007980844    2.912    0.657
        41  -9.6091    175.3508    221.7226   6.2398147952e+01   1.2427520479e+00    0.6636657    0.2200739 -35.69  0.001981186    4.596    0.782
        42  -8.2782    154.3050    224.0597   6.7479330683e+01   4.4042236533e+00    0.1905136    0.1842727 -18.37  0.001131227    1.100    0.091
        43 -11.3458    204.1171    219.6921   5.5922496182e+01  -3.1482243270e+00    0.4481558    0.3663144  -4.64  0.002617125    1.138    0.121
        44  -8.2104    140.4198    220.3009   7.0015407580e+01   7.5947035637e+00    0.2646589    0.1352697 -46.31  0.001121958    2.110    0.526
        45  -9.0585    159.7993    217.9268   6.5186392323e+01   4.6895018837e+00    0.3565623    0.2653458   3.97  0.001519189    1.617    0.382
        46  -8.2378    151.4760    228.3696   6.8829671137e+01   4.0266145810e+00    0.2747395    0.1990438   9.09 0.0009437111    1.670    0.401
        47  -8.4264    135.7503    216.8854   7.0533110810e+01   9.1403737155e+00    0.3221483    0.2032617 -17.35  0.001273542    2.776    0.640
        48  -9.1539    149.0654    219.7977   6.7948223576e+01   6.1882418931e+00    0.5502283    0.2963798 -24.60  0.001936654    3.502    0.714
        49  -9.5622    169.9359    213.5459   6.2125166604e+01   3.7938162410e+00    0.5065644    0.2902524 -36.16   0.00222582    1.903    0.474
        50  -8.3845    154.7867    213.0155   6.5462017689e+01   6.5921335251e+00    0.2639696    0.1958733 -26.31  0.001130251    1.550    0.355
        51  -9.4977    179.3132    208.4451   5.9100379696e+01   3.1643000364e+00    0.6718643    0.4008974 -10.61  0.002568535    2.889    0.654
        52  -9.0795    162.3190    209.3427   6.3076704373e+01   6.0115511633e+00    0.4512991    0.2774938 -15.29  0.001771837    2.663    0.625
        53  -8.3978    146.4361    210.2560   6.6907646639e+01   8.6751516955e+00    0.2579637    0.1408448 -46.04 0.0007033687    1.926    0.481
        54  -7.6744    132.6699    208.6527   6.9875596456e+01   1.1492557302e+01    0.1520708    0.1157211 -10.80 0.0007049525    1.761    0.432
        55 -10.3645    208.0988    202.3804   5.1827360077e+01  -6.2005052391e-01    0.4377773    0.2759068 -36.91  0.002173008    1.509    0.337
        56 -10.9153    211.9715    202.0258   5.0975348875e+01  -1.1968090868e+00    0.7443151    0.3920309 -16.49  0.002714067    3.305    0.697
        57  -8.1878    143.5281    216.0271   6.8582385806e+01   7.9554048338e+00    0.2101556    0.1438294 -49.44 0.0006485271    1.554    0.356
        58  -8.7522    175.6198    202.9738   5.8880692874e+01   4.9330921897e+00    0.3523595    0.2034203 -26.87  0.001242599    2.219    0.549
        59  -7.4518    247.2609    206.3933   4.5134208083e+01  -7.3540561054e+00    0.1359365   0.08421135 -15.49 0.0006971484    1.703    0.413
        60  -8.0864    224.5546    206.4937   4.9361143050e+01  -4.0206058152e+00    0.1352372    0.1164807 -13.30 0.0008080258    1.020    0.020
        61  -9.6254    186.6523    201.8514   5.6235560820e+01   3.1842925595e+00    0.6499578    0.2850566 -43.98  0.002573177    2.272    0.560
        62  -7.9774    190.6498    197.6991   5.4560259723e+01   3.3040220590e+00    0.1516769    0.1088812  -2.08 0.0003219321    1.693    0.409
        63  -8.2395    156.5013    205.9796   6.3796537589e+01   7.7739323840e+00    0.2215434    0.1459355 -47.59  0.001029201    1.579    0.367
        64  -8.1957    139.3114    205.5381   6.7753839567e+01   1.0994353517e+01     0.252231    0.1758007 -29.15  0.001152796    1.767    0.434
        65  -9.7664    124.0219    206.0141   7.1500154372e+01   1.3622765996e+01    0.2078142    0.1965147  49.43            0    1.006    0.006
        66  -8.0006    149.5573    204.9313   6.5223589265e+01   9.2655953959e+00    0.2204344    0.1457149 -48.19  0.001011225    1.573    0.364
        67  -8.1656    250.0442    200.6176   4.3550588388e+01  -6.7845027962e+00    0.2708049    0.1330255 -20.39  0.001130841    2.750    0.636
        68  -8.7511    161.4214    199.8820   6.1516996862e+01   8.1798753041e+00    0.4012577     0.216686 -32.41  0.001570401    2.327    0.570
        69  -8.3421    243.3260    198.6039   4.4353729668e+01  -5.4789672248e+00    0.3099798    0.1025414 -36.97  0.001192764    2.756    0.637
        70  -7.5142    237.4925    199.4409   4.5570890213e+01  -4.7584714838e+00    0.1347894    0.1111182 -14.74 0.0004010402    1.049    0.046
        71  -9.0582    219.3985    199.1487   4.8941084719e+01  -1.8805337824e+00    0.2694196    0.1763324   7.44  0.001293947    1.896    0.473
        72  -9.4770    167.8451    199.9495   6.0054685975e+01   6.9810643337e+00    0.5867002    0.2552239 -38.65  0.002142908    2.576    0.612
        73  -9.3080    178.0867    196.4545   5.7065504419e+01   5.8320995066e+00    0.4495301     0.328162  -0.92  0.001740918    1.699    0.411
        74  -8.6404    156.7986    194.8403   6.1628319513e+01   1.0139033113e+01    0.3865839    0.1868203 -38.41  0.001451912    2.355    0.575
        75  -8.0672    236.4913    193.5383   4.4608173699e+01  -3.5706690144e+00    0.2563299    0.1085835 -31.63  0.001029363    2.468    0.595
        76  -9.5796    186.9818    191.0023   5.4019958474e+01   5.3268583115e+00    0.5907084    0.3544772 -27.46  0.002478973    1.952    0.488
        77  -8.6459    147.4392    193.2075   6.3538482624e+01   1.2262812798e+01    0.3410075    0.2293709   8.03  0.001398651    2.192    0.544
        78  -8.8296    172.7421    189.2259   5.6830557012e+01   8.3548664205e+00    0.4297273    0.2545614 -27.93  0.001748392    2.110    0.526
        79  -8.6392    179.3054    189.4442   5.5397172588e+01   7.0743688991e+00    0.2828255    0.1675789 -35.05  0.001214646    1.776    0.437
        80  -8.2852    242.5244    188.5591   4.2548584808e+01  -3.6138687141e+00     0.244442    0.1068166 -31.19    0.0010092    2.360    0.576
        81  -8.4048    161.9925    191.4119   5.9742309000e+01   9.9141736627e+00    0.3043161     0.200418 -33.10  0.001350949    1.677    0.404
        82  -8.6347    166.8610    184.3307   5.7188255201e+01   1.0540874907e+01    0.4732974    0.1925512 -40.92  0.001641525    2.602    0.616
        83  -8.6437    249.0128    183.3640   4.0402652721e+01  -3.6824457937e+00    0.2775018     0.165076  -4.71  0.001227455    2.651    0.623
        84  -9.5323    211.8637    181.0324   4.6795837495e+01   2.8335037821e+00    0.5705035    0.2680567 -35.85  0.002319813    2.109    0.526
        85  -9.4329    201.6803    181.9594   4.9051640406e+01   4.4773210055e+00    0.5205194    0.3690062   8.99  0.002314352    1.757    0.431
        86  -9.1436    182.9000    181.7115   5.3016811277e+01   8.0309855669e+00    0.4927201    0.2430151 -38.20  0.001661928    2.087    0.521
        87  -8.1378    177.5306    183.0594   5.4491856970e+01   8.7680938828e+00    0.2305567    0.1449308 -42.47  0.001018433    1.567    0.362
        88  -7.5997    173.2576    183.3592   5.5519905153e+01   9.5223877735e+00     0.154932    0.1150553 -15.44 0.0002908206    1.621    0.383
        89  -9.4668    197.9274    192.5764   5.1994535401e+01   3.0294862322e+00     1.076335    0.4642549 -25.73   0.00294246    5.237    0.809
        90  -9.1560    191.1307    177.3534   5.0314772293e+01   7.3830071146e+00    0.4948095    0.3120324 -33.38  0.002095852    1.623    0.384
        91  -8.2643    193.3889    171.7667   4.8651294327e+01   8.1187614317e+00     0.309835    0.2188788 -26.54  0.001451022    1.517    0.341
        92  -7.5892    234.5152    179.5103   4.2187889098e+01  -7.2574914939e-01    0.1390219    0.1179414 -22.28 1.807929e-05    1.041    0.039
        93  -8.4596    176.3470    177.6110   5.3624457056e+01   1.0172374639e+01    0.3456613    0.2279365  -6.44  0.001359704    2.402    0.584
        94  -8.4131    169.9764    177.4750   5.5049370897e+01   1.1446561012e+01    0.3437467    0.1773784 -31.77   0.00124228    2.482    0.597
        95  -8.7140    183.1889    174.8448   5.1513220002e+01   9.4382086878e+00    0.3375813    0.2372819 -31.39  0.001130016    1.475    0.322
        96  -8.6172    189.9927    184.4341   5.2030913421e+01   6.1253445295e+00     0.294367    0.1978975 -26.85  0.001324865    1.621    0.383
        97  -7.9113    205.4671    175.4784   4.6928989753e+01   5.0881052058e+00    0.1479145    0.1325215 -17.81 0.0001998404    1.053    0.051
        98  -7.9473    187.8380    171.6138   4.9808857672e+01   9.2233119025e+00    0.2144326    0.1829551 -27.20 0.0007176333    1.150    0.130
        99  -7.6763    164.3363    172.3237   5.5272852111e+01   1.3710612211e+01    0.1618949    0.1223234  -5.82 0.0003684401    1.715    0.417
       100  -7.8769    201.5198    170.9698   4.6784636547e+01   6.7366848397e+00    0.2216301    0.1210789 -23.71 0.0008102391    2.646    0.622
       101  -8.8513    206.2830    168.9379   4.5385942123e+01   6.2557879971e+00    0.3773316    0.1848978 -44.67  0.001545598    1.925    0.481
       102  -7.9790    197.5097    168.9564   4.7184890344e+01   7.9130705523e+00    0.2142805    0.1234705 -22.63  0.000808466    2.455    0.593
       103  -8.1650    186.3170    167.9693   4.9355866192e+01   1.0297040689e+01    0.2467607    0.1141794 -27.08 0.0006998683    4.070    0.754
       104  -8.3082    191.6440    165.3992   4.7653265764e+01   9.7950939976e+00    0.3125683    0.2145908  -9.80  0.001325115    2.065    0.516
       105  -8.1086    179.0000    166.0302   5.0548665957e+01   1.2170377147e+01    0.2584684   0.08544252 -45.49 0.0008018715    2.939    0.660
       106  -8.4404    212.7640    163.5839   4.2967718206e+01   6.1222669707e+00     0.280978    0.1592861 -34.49  0.001221274    1.739    0.425
       107  -7.9404    172.0000    163.0192   5.1473362010e+01   1.4248440181e+01    0.2612257   0.08688698 -46.02  0.000801657    2.937    0.660
       108  -7.7483    159.6851    163.6734   5.4504098955e+01   1.6614463909e+01    0.1618233    0.1245133  -7.96 0.0007043707    1.670    0.401
       109  -8.4475    183.3800    161.4083   4.8565237838e+01   1.2293279981e+01    0.3838794    0.1803061 -32.09  0.001301835    2.773    0.639
       110  -7.7137    204.7564    155.2413   4.2739348025e+01   9.3361617430e+00    0.2469861    0.1135062 -33.81 0.0008917799    2.452    0.592
       111  -7.9107    207.6369    160.1246   4.3229765880e+01   7.7848455784e+00    0.2215206    0.1274883 -33.31 0.0009433798    1.780    0.438
       112  -8.1954    157.7752    154.0311   5.2807578600e+01   1.9221548042e+01      0.22124     0.129092 -47.36 0.0008827541    1.688    0.408
       113  -7.6365    208.2996    143.3142   3.9420521264e+01   1.1061537303e+01    0.1466534    0.1148421  -7.78 0.0003376839    1.609    0.379
       114  -7.7691    201.2007    143.5943   4.0862892313e+01   1.2436364662e+01    0.2032309    0.1425626  32.85 0.0007254794    1.653    0.395
       115  -9.1727    172.4460    136.0236   4.5176329591e+01   2.0124437223e+01    0.3624538    0.1506132 -44.95  0.001110849    2.334    0.571
       116  -8.0983    210.0000    136.9465   3.7683328818e+01   1.1999384668e+01    0.2459649   0.07837629 -42.59 0.0007581239    2.881    0.653
       117  -8.9525    182.8475    135.2607   4.2718818748e+01   1.8034408209e+01    0.5101876    0.1024273 -45.66  0.001234553    4.880    0.795
       118  -8.7463     24.5105    136.0846   8.6892423597e+01   4.5119135889e+01    0.2002274    0.1128089 -66.54 0.0003153701    1.489    0.328
       119  -8.9489    200.2822    133.5888   3.8776557141e+01   1.4674363555e+01    0.4448397    0.1898733 -45.07  0.001655811    2.193    0.544
       120  -8.2650    164.5117    133.9950   4.6503149558e+01   2.2302046376e+01    0.2439137    0.1532785 -44.94 0.0007169152    1.555    0.357
       121 -10.1314    192.2508    129.3244   3.9379349940e+01   1.7250984206e+01    0.6120964    0.2186826 -47.79  0.002013845    2.794    0.642
       122  -8.4738    230.9268    131.8811   3.2907887768e+01   8.8813915163e+00    0.2165118    0.1848241 -17.40  0.001037349    1.325    0.245
       123  -8.9043    220.9508    128.3051   3.3810342821e+01   1.1500207522e+01     0.489805    0.2885737 -17.75  0.001823216    3.167    0.684
       124  -8.6377    178.5473    130.7858   4.2582425706e+01   1.9920529213e+01    0.3029693    0.1484464 -39.65  0.001133763    2.052    0.513
       125  -8.4879    206.0336    129.6826   3.6790417362e+01   1.4263187382e+01     0.301638    0.2078454 -36.27  0.001169977    1.427    0.299
       126  -9.7010    173.2175    128.8849   4.3291945643e+01   2.1498082904e+01     0.422662    0.2074783 -36.24  0.001540333    2.243    0.554
       127  -9.0650    175.9615    124.0259   4.1513476167e+01   2.1921878628e+01    0.2488432    0.2341835 -39.20  0.001310151    1.063    0.059
       128  -8.1939    186.4160    128.2552   4.0316927523e+01   1.8734672985e+01    0.2960722    0.1444069 -38.69 0.0009431978    2.072    0.517
       129  -8.1636    212.4757    128.0021   3.5231359599e+01   1.3267725598e+01    0.2310827    0.1341872 -42.29  0.001028004    1.580    0.367
       130  -7.8925    201.4979    127.5157   3.7151392470e+01   1.5647425229e+01     0.149228    0.1396406 -45.72 0.0008103013    1.030    0.029
       131  -8.9935    165.3767    125.2783   4.4176887035e+01   2.4013397579e+01    0.4842044    0.1443426 -38.00  0.001271913    4.198    0.762
       132  -9.5443    181.6703    124.8228   4.0488107074e+01   2.0489920851e+01    0.4399659    0.2172784 -35.96  0.001639551    2.206    0.547
       133  -8.9985    212.6210    121.3227   3.3706756970e+01   1.4539376590e+01    0.3799346    0.2557634 -27.14  0.001696286    1.753    0.430
       134  -8.4108    187.6848    122.3041   3.8644195266e+01   1.9684695099e+01    0.2779549     0.236419 -75.66 0.0008530243    1.280    0.219
       135  -8.3833     46.1791    123.1706   7.7937684897e+01   4.6196623537e+01     0.204981    0.1696674 -40.87  0.000357271    1.136    0.119
       136  -9.0368    225.1578    120.9162   3.1490779854e+01   1.2070089584e+01    0.3489508    0.2736129 -43.72  0.001307465    1.149    0.130
       137  -8.0046    170.4135    122.1969   4.2281913418e+01   2.3546232099e+01    0.2274234     0.142647 -55.07 0.0007461047    1.711    0.415
       138  -9.3111    202.3156    119.7467   3.5207731608e+01   1.7019855167e+01    0.3562471    0.1672231 -42.22  0.001406409    1.996    0.499
       139  -9.3057    194.6963    120.2983   3.6780413476e+01   1.8556212845e+01    0.2741691    0.2292479 -70.22  0.001131063    1.268    0.211
       140  -9.6021    231.5123    113.0625   2.8788951276e+01   1.2267356113e+01    0.6466022    0.2536853 -40.48  0.002556053    2.312    0.567
       141  -8.0599    162.3425    117.2414   4.2868480895e+01   2.6411492041e+01    0.2239413     0.141917 -50.87  0.000501417    1.607    0.378
       142  -8.7314    249.3962    114.5886   2.6500091914e+01   8.5995344082e+00    0.3368358    0.1155953 -37.61 0.0009988731    2.876    0.652
       143  -7.6944    241.2976    116.3660   2.8021170188e+01   9.7830970786e+00    0.1330032    0.1041301 -13.50 0.0007031902    1.724    0.420
       144  -9.5372    219.7479    114.3355   3.0933845238e+01   1.4399851881e+01    0.5231276    0.3678145  20.07  0.002389716    2.340    0.573
       145  -9.4141    184.2321    114.7648   3.7530722631e+01   2.1981588353e+01    0.3133867    0.2568691 -49.20  0.001032769    1.172    0.147
       146  -9.7025    210.0433    111.9727   3.2040019835e+01   1.6874651190e+01    0.4571621    0.3349686 -27.31  0.002114533    1.580    0.367
       147  -9.3873    192.9546    112.5301   3.5277287582e+01   2.0481856986e+01    0.3674951    0.2698942  19.12  0.001653967    2.012    0.503
       148  -7.9308    157.6015    112.7607   4.2825603916e+01   2.8429469500e+01    0.2260596    0.1457469 -52.34 0.0009552966    1.615    0.381
       149  -8.1386    146.3991    113.2130   4.5637996268e+01   3.0863828359e+01    0.2293902    0.1470008 -54.11 0.0009535607    1.678    0.404
       150  -8.7102    176.2596    111.9146   3.8475660135e+01   2.4355831267e+01    0.2932315     0.218146 -24.94  0.001347972    1.602    0.376
       151  -8.3387    168.0000    111.0046   4.0022409188e+01   2.6422669941e+01    0.2627341   0.08686502 -42.36 0.0008082524    2.983    0.665
       152  -9.1739    201.0322    109.2332   3.2998711903e+01   1.9342281679e+01    0.3546315    0.2018309 -26.58  0.001394596    2.445    0.591
       153  -7.9649    162.3124    110.3151   4.1115454106e+01   2.7863809369e+01    0.1552193    0.1252773   5.29 0.0007033313    1.639    0.390
       154  -9.2310    242.2382    107.7010   2.6086408640e+01   1.1149278959e+01    0.3987547    0.2696371 -21.22   0.00196367    2.101    0.524
       155  -9.6649    183.2579    107.2271   3.5887468719e+01   2.3700229094e+01    0.4362404    0.2345877 -34.89   0.00174561    2.036    0.509
       156  -8.2612    217.2322    107.8890   2.9912482020e+01   1.6123263018e+01    0.2611479    0.1957684 -27.01  0.001329679    1.555    0.357
       157  -9.1330    190.2740    106.8319   3.4424225647e+01   2.2192238505e+01    0.3683653    0.2775874 -22.08  0.001753552    1.651    0.394
       158  -8.3788    173.5601    106.7825   3.7762324775e+01   2.6001940250e+01    0.2951582    0.1489181 -36.61  0.001125419    2.121    0.529
       159  -7.8814    154.3861    106.7868   4.2030287926e+01   3.0402175617e+01    0.2228928    0.1472073 -31.61 0.0006667603    1.709    0.415
       160  -9.1108    212.3297    103.0114   2.9617756615e+01   1.8062332684e+01    0.3357915     0.240086 -14.31  0.001477358    2.133    0.531
       161  -9.1968    202.7505    103.5376   3.1363678925e+01   2.0044505948e+01    0.2971387    0.2268502 -61.63  0.001461272    1.306    0.234
       162  -9.5427    231.4373    100.7637   2.6168223819e+01   1.4492356938e+01    0.4171917     0.341051   3.20  0.002267347    1.851    0.460
       163  -8.9452    220.2431    102.2724   2.8182769912e+01   1.6521417214e+01    0.2952906    0.2748811  78.10  0.001720017    1.142    0.124
       164  -8.7902    193.9913    100.7439   3.2267718697e+01   2.2517704285e+01    0.3458779    0.1878752 -49.34  0.001466411    1.801    0.445
       165  -8.8049    187.8706    100.7971   3.3418689289e+01   2.3892828012e+01     0.369624    0.2033202 -23.71  0.001320976    3.002    0.667
       166  -9.3523    174.6985     99.7855   3.5762225661e+01   2.7110584562e+01    0.5177872    0.1940873 -34.67  0.001635236    3.297    0.697
       167  -8.9410    160.5703     98.9871   3.8572283762e+01   3.0542149268e+01    0.4401353     0.152317 -37.83  0.001378873    3.168    0.684
       168  -7.9627    225.5584     97.9321   2.6420359606e+01   1.6192554620e+01    0.1855867    0.1212319 -18.64 0.0008070791    2.489    0.598
       169  -8.8932    208.9873     97.9983   2.9024952691e+01   1.9700991874e+01    0.2621005    0.1845562 -29.36  0.001279001    1.651    0.394
       170  -9.4214    209.2621     90.9124   2.7357760617e+01   2.0909468277e+01     0.431676    0.2762845 -24.90  0.001951407    2.128    0.530
       171  -9.1070    203.7025     97.6578   2.9829178700e+01   2.0922882928e+01     0.259061    0.1749025 -32.33  0.001124618    1.641    0.391
       172  -8.4494    242.2609     97.1352   2.3899336146e+01   1.2983365623e+01    0.2103448    0.1843204  51.74  0.001010144    1.385    0.278
       173  -8.9343    198.0707     96.5844   3.0547546210e+01   2.2373676920e+01    0.2883148    0.1968906 -23.22  0.001308717    1.951    0.487
       174  -7.9382    249.6011     96.2390   2.2760129435e+01   1.1732423587e+01     0.179553    0.1124487 -36.34 0.0009386205    1.602    0.376
       175  -8.2040    183.5546     95.2241   3.2870142394e+01   2.5929017816e+01    0.2039202    0.1436717 -29.46 0.0006142611    1.640    0.390
       176  -8.1427    147.9803     94.7813   4.0342649008e+01   3.4277664906e+01    0.2227766    0.1757062 -13.02  0.001043204    1.598    0.374
       177  -8.4071    235.7326     94.1489   2.4160474031e+01   1.4782366921e+01    0.2324736     0.174653  29.48  0.001223978    2.039    0.509
       178  -8.7070    167.9586     99.4468   3.7083280377e+01   2.8737812259e+01    0.3221856    0.2325287 -43.87  0.001521636    1.378    0.274
       179  -8.1260    164.5560     93.2182   3.6193036648e+01   3.0723842852e+01    0.2085605    0.1474384 -27.62 0.0009427754    1.664    0.399
       180  -8.1667    227.2974     92.1646   2.4917367442e+01   1.6841200810e+01    0.1862451    0.1671364  74.11  0.001124992    1.191    0.160
       181  -8.0676    242.8253     91.4147   2.2649355082e+01   1.3845561851e+01    0.1702534    0.1219986  48.54 0.0009454173    1.723    0.420
       182  -8.3626    183.5057     88.4825   3.1207028663e+01   2.7174686882e+01    0.2541939    0.1446089 -28.41  0.001028845    2.264    0.558
       183  -9.0080    216.6851     92.9813   2.6666858368e+01   1.8934540255e+01    0.2020521    0.1733493 -57.42  0.001157206    1.053    0.051
       184  -8.6921    188.2637     92.2331   3.1254588575e+01   2.5396798534e+01    0.2626103     0.182072 -39.53  0.001263154    1.454    0.312
       185  -7.7682    193.2816     87.3839   2.9183408173e+01   2.5118008975e+01    0.1411965    0.1165534   4.22 0.0007007043    1.729    0.422
       186  -8.0943    173.8130     87.3759   3.2781447357e+01   2.9635766848e+01    0.2107862    0.1334587  46.46 0.0005847483    1.645    0.392
       187  -7.7230    150.4842     87.5104   3.7777069249e+01   3.5081305753e+01    0.1494729     0.145234  54.88 0.0001310203    1.030    0.029
       188  -8.1566    226.4776     86.0419   2.3712155014e+01   1.8058361377e+01    0.2076945     0.123393 -41.38 0.0008965875    1.579    0.367
       189  -8.9540    206.2144     84.6785   2.6407525634e+01   2.2669907996e+01    0.2860144    0.1923184 -32.24  0.001171586    1.681    0.405
       190  -8.7243    164.5117     84.9819   3.4038639882e+01   3.2254082302e+01     0.294804    0.1759711  23.38  0.001025475    3.326    0.699
       191  -7.7824    179.3131     83.6582   3.0780771594e+01   2.9010541985e+01    0.1549031    0.1095652 -75.01 4.295267e-05    1.702    0.413
       192  -8.0252    200.3031     82.3484   2.6807821143e+01   2.4396958750e+01    0.1361537    0.1146362  12.17 0.0007040165    1.694    0.410
       193  -8.8170    193.6827     81.2741   2.7643940733e+01   2.6090167561e+01    0.2753347    0.2325739 -16.65  0.001187548    1.517    0.341
       194  -9.7145    219.1504     82.9928   2.4082418342e+01   2.0125869794e+01    0.3138265    0.2349102  25.77  0.001579067    2.143    0.533
       195  -8.4410    157.7999     81.8669   3.4622228012e+01   3.4392511319e+01    0.2936465    0.1851438 -14.93  0.001149627    2.625    0.619
       196  -8.0783    215.4317     78.8016   2.3687107865e+01   2.1631037441e+01    0.1836762    0.1294044 -30.44 0.0009371731    1.677    0.404
       197  -8.9122    180.2023     78.2122   2.9244710189e+01   2.9745058845e+01    0.2332842    0.1574468  17.62 0.0009436834    2.757    0.637
       198  -8.3927    166.8439     77.0348   3.1471632265e+01   3.3097268407e+01     0.231469    0.1759608  -0.90 0.0009080647    1.951    0.488
       199  -8.8796    185.7638     81.9207   2.9170708011e+01   2.7808854400e+01    0.3132179    0.1713879 -36.01  0.001116121    1.946    0.486
       200  -8.2003    211.6786     75.0628   2.3390070610e+01   2.3070032618e+01    0.1959605    0.1660728 -53.27 0.0008785782    1.133    0.118
       201  -7.9590    150.3851     77.7686   3.5118230565e+01   3.6857439973e+01    0.2066456    0.1436995 -26.10 0.0009521202    1.706    0.414
       202  -8.7296    200.9855     75.1973   2.5021630907e+01   2.5443548433e+01    0.2443573    0.1873517 -25.39  0.001279103    1.629    0.386
       203  -8.8302    204.6776     64.9052   2.2087593725e+01   2.6252320483e+01    0.2375241    0.1794842  58.23  0.001318966    1.373    0.271
       204  -7.9854    194.1645     60.8683   2.2683717282e+01   2.9274416179e+01     0.174788    0.1659712  32.10 0.0006555875    1.324    0.245
