#   1 NUMBER                 Running object number                                     
#   2 MAG_AUTO               Kron-like elliptical aperture magnitude                    [mag]
#   3 X_IMAGE                Object position along x                                    [pixel]
#   4 Y_IMAGE                Object position along y                                    [pixel]
#   5 X_WORLD                Barycenter position along world x axis                     [deg]
#   6 Y_WORLD                Barycenter position along world y axis                     [deg]
#   7 A_WORLD                Profile RMS along major axis (world units)                 [deg]
#   8 B_WORLD                Profile RMS along minor axis (world units)                 [deg]
#   9 THETA_WORLD            Position angle (CCW/world-x)                               [deg]
#  10 FWHM_WORLD             FWHM assuming a gaussian core                              [deg]
#  11 ELONGATION             A_IMAGE/B_IMAGE                                           
#  12 ELLIPTICITY            1 - B_IMAGE/A_IMAGE                                       
         1 -10.2967      7.4899     27.8347   9.2074566102e+01   6.9998554550e+01    0.5645981    0.4014513  68.35  0.002845622    3.890    0.743
         2 -10.6367     23.6565     33.8807   8.5730819332e+01   6.7568663308e+01     1.139774    0.5012837 -23.56  0.002504086    2.797    0.643
         3 -10.0628     25.4934     25.5545   8.1334235577e+01   6.8734969237e+01     0.705262    0.2556124 -23.91  0.002159584    6.005    0.833
         4 -10.2203     46.0851     28.2119   7.2503286525e+01   6.5674620476e+01    0.7283137    0.3474853 -37.50  0.001879577    2.130    0.530
         5  -9.5403     52.7833     13.7532   6.3085646257e+01   6.6461926218e+01    0.4519712    0.2127768  31.56  0.001968178    1.983    0.496
         6  -9.5111    198.3714     19.7514   3.4341177763e+01   3.3524403448e+01    0.5330319    0.2358723 -71.93  0.002169495    3.155    0.683
         7  -9.2709     63.2696     20.9339   6.2227246396e+01   6.3801910988e+01    0.3220192    0.2205473 -44.82  0.001555668    2.009    0.502
         8  -9.6569     73.5795     19.1811   5.7818401343e+01   6.2066833102e+01    0.3888808    0.2099788 -41.42 0.0009123057    2.400    0.583
         9  -8.7016     96.0775     15.8411   4.9864616297e+01   5.7739374089e+01    0.3635949    0.1741918 -23.30  0.001686754    2.375    0.579
        10  -9.3777     85.3869     12.8457   5.1562712767e+01   6.0318880334e+01    0.3569247    0.2372824 -60.52  0.001646685    2.563    0.610
        11  -9.6148      2.3755     14.3502   8.9558436580e+01   7.2601831848e+01    0.4432721    0.2008082 -55.97  0.002204822    3.083    0.676
        12 -10.0123      7.0657      4.9843   8.2171030725e+01   7.3607366928e+01    0.4717651    0.2059026  11.61 0.0009630064    2.491    0.599
        13  -9.2358      5.5349      1.5339   8.1338841736e+01   7.4215606587e+01    0.1918266    0.1357222   7.38 0.0005622625    1.194    0.162
        14  -9.0192    125.3439     13.2834   4.2579794915e+01   5.1306968355e+01    0.2506202    0.1967768 -33.03 0.0009918384    1.461    0.316
        15  -9.5674     64.7338     12.9041   5.8141483859e+01   6.4423178694e+01    0.2774135     0.214762  -4.51 0.0003768402    1.281    0.219
        16 -10.5723     37.2915      9.5502   6.7872728104e+01   6.9394001962e+01    0.6202456    0.2319805 -36.59  0.001456142    2.949    0.661
        17  -8.7795    133.4974     11.4960   4.0580134495e+01   4.9547290293e+01    0.2862967    0.1383684 -53.55  0.001249965    2.804    0.643
        18  -8.2713     80.3653     11.2018   5.2336297038e+01   6.1517037086e+01    0.1614253    0.1128931 -32.24 0.0009427661    1.677    0.404
        19  -9.3157     25.3901     10.6775   7.4442522074e+01   7.0870185210e+01     0.295176    0.1568229  21.51  0.001117527    1.720    0.419
        20  -9.1427     29.8045     10.5689   7.2078260174e+01   7.0318282951e+01    0.1987548    0.1853831  -1.14  0.001463646    1.525    0.344
        21  -8.8057    114.2484      9.6178   4.3478852848e+01   5.4215371200e+01    0.2300278    0.1299829  53.08 0.0005808041    1.460    0.315
        22  -8.7962    101.8846      8.7727   4.5807687372e+01   5.7097558262e+01    0.2797405      0.18296 -19.99   0.00098887    1.763    0.433
        23  -8.8354     19.1795      8.9307   7.6973464757e+01   7.1834281996e+01    0.2820889    0.1551607   3.29  0.001587566    1.895    0.472
        24  -9.4574     18.0777      3.6515   7.4856951888e+01   7.2635530723e+01    0.3224147    0.2540406 -45.11  0.001443597    2.072    0.517
        25  -8.8818    127.5015      8.4868   4.0645216424e+01   5.1225742305e+01    0.2491969   0.08104049  54.84 0.0008856587    2.382    0.580
        26  -9.1104     78.2624      3.8225   4.9849560391e+01   6.2594934086e+01    0.3569441    0.2218259  -4.76   0.00203305    1.836    0.455
        27  -8.6950    125.8989      4.8662   3.9755618609e+01   5.1902830765e+01    0.2029792    0.1477193  46.59 0.0009297369    1.277    0.217
        28  -8.7496     89.2365      3.7530   4.6893073242e+01   6.0287874703e+01    0.2753841    0.1809585 -45.92  0.001242862    2.038    0.509
        29  -9.3112    209.9356      3.6339   2.9738152127e+01   3.2669439782e+01    0.1775146    0.1641843 -43.90  0.001064306    1.350    0.259
        30  -9.1433    115.1904      3.7526   4.1283793232e+01   5.4480109456e+01    0.1912452    0.1706536 -51.60 0.0006275245    1.326    0.246
        31  -9.6937     63.4666      2.8091   5.3996589379e+01   6.5613641359e+01    0.3377974    0.2611757  55.13  0.001486903    1.405    0.288
        32  -8.5914     95.8560      2.8117   4.4942302907e+01   5.8918928020e+01     0.156879    0.1436507  87.53 0.0006650667    1.295    0.228
        33  -9.1373    106.2598      1.7538   4.2314724758e+01   5.6673967089e+01    0.3962018     0.142457  62.63  0.001721455    2.276    0.561
        34  -8.2390    136.2711      1.5636   3.7098531252e+01   4.9729868391e+01    0.1873456   0.09377934  58.73 0.0009513465    1.625    0.385
        35 -10.2034    117.2690    125.1427   7.8704883092e+01   3.4034874488e+01    0.5647027    0.3855253  80.59  0.001489192    2.567    0.610
        36 -10.1235      2.5569    239.5728   1.2340662221e+02   2.2290192973e+01    0.6062933    0.2222524 -85.16  0.003062513    2.538    0.606
        37 -12.8406     37.7684    246.7943   1.1705562912e+02   1.7250507426e+01     3.133393    0.6739906  32.42   0.01179987    3.999    0.750
        38  -9.7983     27.4891    122.6074   1.0680070292e+02   4.7684141715e+01    0.5694247    0.2980745  71.17  0.002241559    3.114    0.679
        39 -10.8402    131.7063    119.4513   7.3262068712e+01   3.2396218519e+01    0.8342559    0.5553782  79.93  0.002181034    2.805    0.644
        40  -8.1002    160.7887    128.7747   6.8306830063e+01   2.4173636647e+01    0.2586606    0.1887566 -85.84  0.001071804    2.141    0.533
        41  -7.8849    158.3217    121.6748   6.7130761728e+01   2.6211769935e+01    0.1578776    0.1250775 -84.31 0.0007047286    1.683    0.406
        42  -8.5833    244.6807    119.9696   5.0731080687e+01   9.2127313390e+00    0.2183986    0.0990913 -23.46  0.000704825    4.377    0.772
        43  -9.7463    140.7596    118.1599   7.0552100476e+01   3.0759441150e+01    0.4496213    0.3312958 -88.32  0.001495255    2.069    0.517
        44 -10.0964    109.3503    114.9282   7.8416089693e+01   3.7969303731e+01    0.7538974    0.4973125  87.60  0.002641447    3.150    0.683
        45  -8.1658      1.3497    116.5340   1.1447851953e+02   5.0955187077e+01    0.2547317   0.09963897 -89.20 0.0009444571    3.376    0.704
        46  -9.9459     91.8248    112.6979   8.3242760234e+01   4.1751623734e+01    0.5193258    0.3653092 -82.11  0.001375555    2.177    0.541
        47 -11.1183    133.8499    108.7361   6.9874869430e+01   3.4292271193e+01    0.8840328    0.3647384 -46.64  0.002695302    2.455    0.593
        48 -10.7064    139.4300    104.2108   6.7203687132e+01   3.4030142206e+01    0.8882028    0.4377507 -45.79  0.002116202    2.046    0.511
        49 -10.9318    120.7922    110.7065   7.3978186856e+01   3.6626986365e+01    0.8165703    0.5175102 -64.86   0.00201996    2.173    0.540
        50 -10.9019    108.7634    100.7737   7.4767443620e+01   4.1275732652e+01     0.956342    0.6900938 -78.57  0.003174956    2.142    0.533
        51 -10.5401    121.7791     99.3885   7.0593992863e+01   3.8879686116e+01    0.7089309    0.3556769 -40.57   0.00272854    2.021    0.505
        52  -9.2819     64.0249    101.6844   8.9807227307e+01   4.8788985057e+01    0.5359563    0.2518978 -58.78  0.001853023    2.218    0.549
        53 -10.4538     63.0294     95.4583   8.8556436996e+01   5.0387827310e+01     0.827376    0.4965922 -81.29  0.001644436    3.515    0.715
        54 -10.4546     65.9793    110.8471   9.1364221643e+01   4.6310715389e+01    0.7386424    0.5420434  79.89  0.002569295    1.968    0.492
        55  -8.4496    158.8461    111.7715   6.4493654071e+01   2.8161707805e+01    0.2096309    0.1797352 -68.51 0.0005490312    1.302    0.232
        56  -9.4899     14.2701    111.0630   1.0943222461e+02   5.1551265422e+01    0.3894381    0.2125205  82.71  0.001563744    2.512    0.602
        57  -9.2605     35.8519    110.4988   1.0181997874e+02   4.9959808049e+01    0.2484124    0.1634911 -45.57  0.001092476    1.368    0.269
        58 -10.7761     21.8948    102.0600   1.0522366195e+02   5.3220624313e+01    0.8067083    0.4142228  70.55  0.002745645    4.015    0.751
        59 -10.0973    128.0568    102.3579   6.9689428462e+01   3.6905132471e+01    0.4067402    0.3010271 -60.31 0.0009792896    1.572    0.364
        60  -8.5165    165.9240    103.7143   6.0825119558e+01   2.8199053040e+01    0.2951361    0.2082377 -49.92 0.0006608603    1.435    0.303
        61  -9.9072    149.4405    102.9085   6.4375589379e+01   3.2067478059e+01    0.4268344    0.2819473 -58.29  0.001023583    1.789    0.441
        62 -10.1623     78.3544    112.8388   8.7664799571e+01   4.3973775673e+01    0.5377724     0.361459 -84.42  0.001912163    2.375    0.579
        63  -9.1075      6.4191    103.1442   1.1095430645e+02   5.3951046422e+01    0.2925108     0.199206  77.89 0.0009419926    1.757    0.431
        64  -9.4428    184.7455    101.3252   5.6378528033e+01   2.4455383932e+01    0.3716536    0.2902791 -10.95  0.001370216    1.623    0.384
        65  -9.6415     59.3967    109.1764   9.3252315528e+01   4.7614986830e+01    0.2777425    0.2130451  70.88 0.0005933665    1.738    0.424
        66  -8.4282    159.2002    100.9975   6.1598947433e+01   3.0248568356e+01     0.235416    0.1974392 -64.40 0.0005251677    1.302    0.232
        67  -9.4513     81.4654     99.8311   8.3253409178e+01   4.6534789466e+01    0.3698773    0.2525968 -65.18 0.0008335174    1.802    0.445
        68  -9.0641     94.3421     97.0761   7.8220701853e+01   4.4880197731e+01    0.2765962    0.2519578 -88.24 0.0006642716    1.326    0.246
        69  -8.3610     40.3250    106.2571   9.9374610582e+01   5.0561487620e+01    0.1988249    0.1220003 -69.79 0.0005451714    1.699    0.412
        70  -8.7612    164.4241     94.2013   5.8653136465e+01   3.0368805603e+01    0.2861817    0.2129675 -66.19 0.0008292795    1.595    0.373
        71  -9.8416    139.2754     92.8836   6.4111000269e+01   3.6362961274e+01    0.4616831    0.3350156 -87.04   0.00128015    2.092    0.522
        72 -10.0523    123.1414     91.1954   6.7872470286e+01   4.0281625394e+01    0.5916963    0.4273026  26.16  0.001074972    1.574    0.365
        73 -10.3157     34.4155     89.8601   9.7957215081e+01   5.5073244570e+01     0.594861    0.3174507 -76.19  0.002151698    2.721    0.632
        74  -8.7490     35.0659     81.9427   9.5766877218e+01   5.6831895403e+01    0.3232927    0.1701838 -33.26  0.001111637    1.923    0.480
        75  -8.9578     39.0124     79.3206   9.3481655310e+01   5.7018796980e+01    0.2613992     0.174365   0.05 0.0007597833    1.673    0.402
        76  -9.1742    157.5079     91.6452   5.9470528449e+01   3.2437706977e+01    0.3247253    0.2298857 -70.95  0.001118856    1.886    0.470
        77 -11.0085     44.9751    102.2342   9.6816653133e+01   5.1045871418e+01    0.8370159    0.4732403  68.37  0.003002089    3.826    0.739
        78 -10.7270    149.6015     88.5432   6.0407806860e+01   3.4843213041e+01    0.6194589    0.4379873 -69.55  0.002728036    1.892    0.471
        79 -10.3615    150.3277     82.1404   5.8448327117e+01   3.5858794916e+01    0.6171207    0.2928931 -47.84  0.002108766    2.282    0.562
        80 -10.0033     85.5093     86.3385   7.8019767141e+01   4.8819965624e+01    0.4457783    0.3526372  89.11 0.0009788795    1.930    0.482
        81 -10.1412      4.2906     89.4208   1.0953829301e+02   5.7330797600e+01    0.5241452    0.3099689 -84.34  0.002157843    1.901    0.474
        82  -9.1086    163.3215     86.9770   5.6955107315e+01   3.1961349530e+01     0.213738    0.1922126 -50.43 0.0006753044    1.104    0.094
        83  -8.7355     64.4594     86.0390   8.5436554361e+01   5.2314852317e+01    0.4126832    0.2004339 -21.33  0.001221148    4.581    0.782
        84 -10.2051     47.7599     83.7693   9.1189189342e+01   5.5041163067e+01    0.5399489     0.362406 -78.17  0.001754045    2.267    0.559
        85  -8.7442     49.0001     76.7687   8.8728402435e+01   5.6432997605e+01    0.2293438    0.1449347 -10.79  0.000797263    1.917    0.478
        86  -9.4792    157.8375     83.5708   5.7192217524e+01   3.3851787668e+01    0.2843956    0.2125004 -49.82 0.0007102391    1.371    0.270
        87 -10.1439    104.0228     82.3656   7.0806237285e+01   4.6089703543e+01    0.4765546    0.2949096 -51.72 0.0008767021    1.827    0.453
        88  -9.2786     20.9855     84.3629   1.0201692728e+02   5.7487963893e+01    0.2016713    0.1226785  15.64  0.001044346    1.830    0.454
        89  -8.6422    170.6049     83.2121   5.4470653632e+01   3.0948166152e+01    0.2024409    0.1412053 -27.47 0.0006543022    1.615    0.381
        90  -9.8128    140.4879     82.0379   6.0716989018e+01   3.8156748385e+01    0.5358129    0.2444933 -37.26  0.001557106    2.277    0.561
        91  -9.1406    139.9461     75.4433   5.8924356722e+01   3.9472169040e+01    0.3315272     0.220669 -61.69 0.0007048044    1.948    0.487
        92  -8.5851    119.0238     80.3379   6.5788568151e+01   4.3310387907e+01    0.2707314    0.2051507 -58.33 0.0005736822    1.562    0.360
        93  -8.9833     74.2694     80.1584   8.0087142449e+01   5.2054597777e+01    0.3226973    0.2417021 -64.55 0.0009186533    1.729    0.422
        94 -10.6596     25.8420     77.9735   9.8549403332e+01   5.8562836313e+01    0.5816855    0.3730719  86.01  0.001769342    2.772    0.639
        95  -8.3089     95.8016     90.8178   7.5942327937e+01   4.5966107561e+01     0.267044    0.1655409  -5.75 0.0009561617    2.905    0.656
        96  -9.2721     89.5246     78.3080   7.4195373206e+01   4.9741234741e+01    0.9287826    0.3295128  32.01  0.002804876    3.843    0.740
        97  -7.9908    241.3127     78.3523   4.2474498910e+01   1.6564950840e+01    0.1198931    0.0997593  -1.36 0.0002423073    1.728    0.421
        98  -9.0452    184.5067     77.6157   5.0448627391e+01   2.8703555341e+01    0.2551943    0.2455835  33.29 0.0007711706    1.166    0.142
        99  -8.0111    166.4663     78.5024   5.4027398778e+01   3.2731523793e+01    0.1474354    0.1382049 -78.82 2.508918e-05    1.060    0.056
       100  -9.8917    157.6917     62.9607   5.1469441141e+01   3.7363953115e+01    0.4367948    0.2227977 -40.84  0.001639789    1.984    0.496
       101 -10.1738    156.7680     74.9607   5.5030588643e+01   3.5615471811e+01    0.4232548    0.2842916 -40.41    0.0011361    1.505    0.335
       102 -10.0601    156.6943     70.0009   5.3654390536e+01   3.6467128287e+01    0.4474908    0.3023436 -15.12  0.001345545    2.036    0.509
       103  -9.3062    127.4015     75.0549   6.1925252151e+01   4.2422170478e+01    0.3292222    0.2518891 -68.28 0.0007982822    1.687    0.407
       104  -8.5416    119.9206     75.7280   6.4128816143e+01   4.3974945742e+01    0.2303695    0.1935151  18.25 0.0006477088    1.277    0.217
       105 -10.6527     55.1121     70.8646   8.4489111893e+01   5.6881751756e+01    0.6031484    0.3900641  48.82  0.001431913    2.075    0.518
       106 -10.5064    162.7702     71.3820   5.2817044981e+01   3.4802928382e+01    0.5967337     0.255174 -39.96  0.002027345    2.319    0.569
       107  -9.2108    114.8568     72.8093   6.4629151810e+01   4.5620471500e+01    0.2966816    0.2386788 -45.71  0.000781292    1.323    0.244
       108  -9.2456    105.5711     70.6458   6.6643648430e+01   4.8004203369e+01    0.6523857    0.4048811 -19.95  0.002776064    2.091    0.522
       109  -9.8164     81.3445     72.3346   7.5086180996e+01   5.2422947287e+01     0.426334    0.3928892  -8.88   0.00143656    1.030    0.029
       110  -8.8074    169.2663     71.9271   5.1713582429e+01   3.3183486701e+01    0.3060245    0.1720475 -36.91  0.001347733    1.804    0.446
       111  -9.7277     16.1853     70.0781   1.0070703383e+02   6.1048695021e+01    0.3380682    0.2159738 -67.40  0.001087449    1.650    0.394
       112  -9.7186    147.1099     69.2131   5.5463894189e+01   3.8863060514e+01    0.4190179     0.251593 -51.36 0.0009868814    1.875    0.467
       113 -10.1886    138.2217     66.1596   5.6568939157e+01   4.1459631656e+01    0.4468459     0.294361  42.70   0.00148299    1.520    0.342
       114  -9.4611    131.0834     65.3596   5.8027335028e+01   4.3254950170e+01    0.6112502    0.3708904 -35.50  0.002772871    1.729    0.421
       115  -9.5596     94.8118     68.1707   6.9180367651e+01   5.0660133066e+01    0.3137464    0.2397162 -48.33 0.0007426451    1.458    0.314
       116 -10.5376     31.8028     64.6530   9.2387668647e+01   6.0914464916e+01    0.8116273    0.3133242 -29.64  0.002883106    3.624    0.724
       117  -8.9644    121.3483     66.1594   6.0754384094e+01   4.5347221211e+01    0.2937882    0.2449022 -50.49 0.0007754185    1.319    0.242
       118  -7.6255    175.3349     72.2881   5.0691150793e+01   3.1703673428e+01    0.1422742    0.1118207  25.51 0.0003754151    1.630    0.386
       119  -9.0150    109.7846     63.6380   6.3126075154e+01   4.8337046386e+01    0.2578325    0.2461732  88.27 0.0006537829    1.209    0.173
       120  -9.1643     55.7432     62.7249   8.1587524074e+01   5.8422775555e+01     0.384775    0.2311947  10.85  0.001582594    1.999    0.500
       121  -9.2934     61.5911     60.4363   7.8457158224e+01   5.7993799789e+01    0.2963805    0.2244387  19.82 0.0001872899    1.276    0.217
       122  -9.2392     67.2733     60.4619   7.6250865410e+01   5.7088433897e+01    0.4634932    0.1837903  41.40  0.001816398    2.618    0.618
       123 -10.1069     16.9702     59.6995   9.7641383581e+01   6.3215012980e+01    0.6349493     0.222045 -52.50  0.002825868    2.238    0.553
       124 -10.8519     21.9801     53.4727   9.3459379428e+01   6.4090397014e+01    0.7054731    0.4522347 -84.93  0.002706076    3.596    0.722
       125  -8.8382     84.6839     64.0584   7.1167199738e+01   5.3369571910e+01    0.6219403    0.2837374  26.12   0.00211705    3.348    0.701
       126  -9.1226     97.0662     58.7636   6.5292395871e+01   5.1851568122e+01    0.6306328    0.3462622   0.18  0.001776855    5.570    0.820
       127  -9.7284     73.2283     58.9458   7.3476716070e+01   5.6361248216e+01    0.3920509    0.2448838 -50.25 0.0009760656    1.913    0.477
       128  -8.7457      6.6002     61.3912   1.0284287783e+02   6.3516263485e+01    0.2183702    0.1073787  19.97  0.001141105    2.244    0.554
       129  -7.6920    152.6520     60.3177   5.1719089079e+01   3.8975279703e+01    0.1506515    0.1096092 -77.26 0.0007048294    1.730    0.422
       130  -9.7575     42.8426     55.8684   8.4708685926e+01   6.1455624633e+01    0.5270914    0.2245854 -24.23  0.001745699    4.231    0.764
       131  -9.5671    146.6214     58.4493   5.2414183150e+01   4.0698919736e+01    0.3728577    0.2171784 -29.85  0.001353734    1.914    0.478
       132  -8.7715    147.6399     53.1476   5.0639621790e+01   4.1247656094e+01    0.2941819    0.1721116 -32.47  0.001350178    1.843    0.457
       133  -8.4611    111.3552     58.0738   6.0844933214e+01   4.8914072158e+01    0.4215361    0.2241356  28.56  0.001611535    2.612    0.617
       134  -8.2919     87.6524     58.4659   6.8230183998e+01   5.3787461388e+01    0.2251587    0.1697696 -57.87 0.0007690561    1.773    0.436
       135 -10.3460    156.5865     57.0917   5.0021067258e+01   3.8526504256e+01    0.4123319    0.3057561  89.88  0.001512169    1.580    0.367
       136  -9.2135    130.0900     57.2662   5.5751170283e+01   4.4781769004e+01     0.367386     0.179488 -38.56  0.001420197    2.138    0.532
       137  -9.5183    139.0454     56.7026   5.3521305208e+01   4.2763684566e+01    0.2828974     0.235176 -70.65 0.0007534484    1.380    0.276
       138 -10.2672    141.2861     49.5890   5.0878690164e+01   4.3275885523e+01    0.5899872    0.3626261  16.79  0.001917624    2.831    0.647
       139  -9.4957    118.2062     54.8782   5.7944981674e+01   4.7884648439e+01    0.4214647     0.255549 -38.39  0.001429643    1.748    0.428
       140  -9.8390     50.1346     54.2339   8.0984425141e+01   6.0814917231e+01    0.3320005    0.2905619 -85.81  0.001146525    1.825    0.452
       141 -10.5337    173.3811     51.5939   4.5539844528e+01   3.5326183743e+01    0.8760615    0.4476621  81.81  0.003353837    2.907    0.656
       142  -9.8538    162.7716     53.7922   4.7946082766e+01   3.7534884807e+01     0.266859    0.2069802  -9.55 0.0008396604    1.671    0.401
       143  -9.2745     39.8990     53.2066   8.5094394449e+01   6.2317512103e+01    0.2595267     0.139919 -25.71  0.001226177    1.983    0.496
       144  -8.4774    105.5722     52.8701   6.0721988004e+01   5.1000387000e+01    0.2504072    0.2045793 -68.89  0.000718688    1.640    0.390
       145  -8.4758     79.8097     49.9930   6.7875147378e+01   5.6693182814e+01    0.2678634    0.2289162  58.94  0.001519379    1.469    0.319
       146  -8.9685     75.4239     50.3919   6.9583818191e+01   5.7438305630e+01    0.3561087    0.1902063  20.80  0.001445016    2.563    0.610
       147 -10.2355     85.1829     47.7867   6.5225505383e+01   5.6008934668e+01    0.3745309    0.2932915 -64.46  0.001133691    1.909    0.476
       148  -7.8062    213.5294     49.5866   3.9495241992e+01   2.6460699439e+01     0.127989    0.1118022 -74.49 0.0001459885    1.024    0.023
       149  -8.5759    194.1130     47.4203   4.1419807449e+01   3.1078343846e+01    0.3810195     0.241749   5.28   0.00154299    3.601    0.722
       150  -8.1791    149.8310     47.8340   4.8644488232e+01   4.1478582804e+01    0.1920762    0.1572943 -67.51 0.0004286567    1.332    0.249
       151  -8.8932    130.3172     47.8599   5.2728910917e+01   4.6118040791e+01    0.2503182     0.221963 -89.70 0.0006784769    1.247    0.198
       152  -8.8031    111.7239     47.2209   5.7089979396e+01   5.0486496614e+01      0.30292     0.249131  13.39  0.001035689    1.308    0.236
       153  -9.6407     14.3836     44.5817   9.4322755440e+01   6.6433920568e+01    0.4180827    0.2128758 -19.78  0.001262106    2.038    0.509
       154 -10.2234      5.0737     41.8721   9.8212772351e+01   6.7575307884e+01    0.5854735    0.2819429 -56.77  0.002205975    1.903    0.474
       155  -9.0440      9.9934     47.0300   9.7295859834e+01   6.6265222863e+01    0.2451715    0.2294629  86.13 0.0009452406    1.543    0.352
       156  -8.3624      6.4872     46.5049   9.8892812105e+01   6.6586481741e+01    0.1959636    0.1254295 -37.31 0.0006734194    1.219    0.180
       157  -9.5602      6.9769     32.2870   9.4005535261e+01   6.9246494787e+01    0.3052404    0.1919673  -3.15  0.001067818    1.486    0.327
       158  -8.1162    231.2429    249.3411   7.7620298436e+01  -9.5762437746e+00    0.1513042   0.09324521  30.49   0.00038185    1.599    0.375
       159  -8.7247    121.0836     46.7465   5.4543905743e+01   4.8425471866e+01    0.2251391    0.1994991 -33.59  0.000576158    1.219    0.180
       160  -9.1359     56.1252     43.2330   7.4352158440e+01   6.1855089840e+01    0.5168451    0.2751593  -3.08  0.001923423    3.602    0.722
       161  -9.6654     69.1542     42.6673   6.8973313176e+01   5.9787041123e+01    0.3612567    0.3089816 -11.94  0.001207727    1.121    0.108
       162  -9.2540     30.8488     42.5551   8.5471217736e+01   6.5304092537e+01     0.484504    0.1923295  36.06  0.002149195    2.863    0.651
       163  -9.7220     37.9682     41.9520   8.1866279466e+01   6.4589451883e+01    0.3407064    0.2874292  61.28  0.001319469    1.991    0.498
       164  -9.6134     35.8550     37.6684   8.1191206347e+01   6.5576784355e+01    0.2392418    0.1798051 -27.11 0.0003554001    1.187    0.158
       165  -8.3224    222.8667     42.9470   3.6993788692e+01   2.5363685271e+01    0.1731536    0.1661244  68.59 0.0005321404    1.299    0.230
       166  -9.4403    153.5103     40.5502   4.5845459083e+01   4.1570050120e+01    0.2959005    0.1988962 -57.55 0.0008762623    1.682    0.406
       167  -8.9606    139.6795     40.1615   4.8329677555e+01   4.4935747394e+01    0.2943136    0.1518568 -43.44  0.001049886    2.121    0.529
       168  -8.7903    104.9881     40.5828   5.6601083414e+01   5.2909296982e+01    0.2506477    0.1890967 -54.05 0.0009608674    1.682    0.405
       169  -9.7334     90.7194     37.7872   5.9724689533e+01   5.6340027328e+01    0.7429543    0.2215844  39.42  0.002384835    3.779    0.735
       170  -9.1093     80.6582     38.2400   6.3144527883e+01   5.8301330413e+01    0.2601709      0.21116  72.40 0.0009688179    1.777    0.437
       171  -9.5061     49.3582     36.9071   7.4712392912e+01   6.3886600582e+01    0.5210038    0.2730367  50.17   0.00226528    3.086    0.676
       172 -10.2728    190.8419    236.0313   8.3238751049e+01  -2.2907255994e+00    0.3738536     0.310055  72.41  0.001562163    2.182    0.542
       173 -11.8462     48.7734    224.2233   1.1302913086e+02   2.0666284699e+01     1.276192    0.6094986  56.59  0.006153472    2.048    0.512
       174  -9.1754    144.2060     36.4104   4.6317048942e+01   4.4326560481e+01    0.2491608    0.2047223 -63.32  0.000596079    1.331    0.249
       175  -8.2765    226.1392     36.1767   3.5219453798e+01   2.5554691722e+01    0.1640058    0.1519464 -78.68  0.000389986    1.201    0.167
       176  -8.9090    132.9821     35.3471   4.8183964962e+01   4.7136434298e+01    0.1991419    0.1820861 -28.55 0.0005893125    1.211    0.175
       177 -10.1648    134.0838     30.7387   4.6508739298e+01   4.7424908251e+01    0.2510127    0.2300904  23.51 0.0002219198    1.188    0.158
       178  -9.0862    110.1884     33.6282   5.2784702137e+01   5.2644643927e+01    0.3624782    0.2476006 -24.42  0.001348018    1.626    0.385
       179  -8.4922    118.9634     34.6883   5.1029664336e+01   5.0506674481e+01     0.224078    0.1895027 -23.53 0.0006779907    1.305    0.234
       180  -9.8459     76.0291     32.3194   6.2395599847e+01   6.0002419797e+01    0.3580813    0.3238569   7.30  0.001224363    1.106    0.096
       181  -8.9966     60.4370     33.6388   6.8735733741e+01   6.2630170007e+01    0.3148178    0.2212712 -50.35  0.001183692    2.033    0.508
       182  -7.9340    153.5265     34.4979   4.4097407646e+01   4.2324045405e+01    0.1355453    0.1221442  72.47 1.108508e-05    1.004    0.004
       183  -8.2290     40.4621     34.6599   7.7803709161e+01   6.5484361583e+01    0.2156078     0.107335  29.87  0.001078265    1.927    0.481
       184  -8.9129    101.1153     31.6577   5.4443955487e+01   5.4906618969e+01    0.3426428      0.16855 -39.57  0.001222951    2.328    0.570
       185  -8.8327    238.1643     31.3480   3.3142814491e+01   2.3710686497e+01    0.1803773    0.1505974 -46.05 0.0005408144    1.266    0.210
       186  -9.4953    173.1630     26.3756   3.8910282769e+01   3.8593268477e+01    0.3674244    0.2418054 -62.78  0.001262111    1.601    0.375
       187  -8.6096    173.7741     31.4058   4.0142572639e+01   3.7863978601e+01    0.2669439    0.1892158  55.72  0.001221182    1.385    0.278
       188  -8.9055    178.0211     30.0067   3.9204951113e+01   3.7029795665e+01    0.3018952    0.1973526  84.15  0.001318932    1.511    0.338
       189  -9.5392    191.2860     28.7346   3.7236570314e+01   3.4103607692e+01    0.5445735    0.2563772 -74.95  0.002127637    3.225    0.690
       190  -9.2557    179.7671    230.7064   8.4652949124e+01   2.1442911298e-01    0.3554792    0.2028509  43.23  0.001072944    1.898    0.473
       191  -8.9885    180.8167    226.0755   8.3665361637e+01   8.4817742680e-01     0.212421    0.1809222  10.94 0.0003293011    1.019    0.019
       192  -7.9218    152.3068     29.6653   4.2907640199e+01   4.3188674501e+01     0.138444   0.09610538 -70.66 0.0007040717    1.670    0.401
       193  -7.9153      1.3076     28.3016   9.5739659642e+01   7.0318908832e+01    0.1237636    0.0641866 -27.66 0.0002069932    1.600    0.375
       194  -8.9081     91.6162     26.1353   5.5025823824e+01   5.7610161946e+01    0.2600831    0.2069672 -58.53 0.0008341205    1.732    0.423
       195  -9.1470     74.3648     25.7968   6.0315083645e+01   6.1149270280e+01    0.3281011    0.2302609  46.68  0.001871381    1.363    0.266
       196  -9.0735     78.9909     23.9711   5.8025677634e+01   6.0459277547e+01    0.3995823     0.187073  33.92  0.001437046    2.184    0.542
       197  -9.2290     84.6483     21.2234   5.5149197503e+01   5.9619863839e+01    0.3004924    0.2382477  35.93  0.001095718    1.070    0.065
       198  -9.1246     64.7639     26.6411   6.4121487913e+01   6.2829426162e+01    0.4604606    0.1962009  49.60  0.001778104    2.527    0.604
       199  -8.7997    128.7100     26.1549   4.6110392289e+01   4.9216733333e+01    0.3786468     0.200154 -44.97  0.001649703    2.210    0.548
       200  -8.5053    144.5701     25.3140   4.2925786409e+01   4.5531493075e+01    0.2270178    0.1220841 -36.20 0.0006350953    1.999    0.500
       201  -8.5687    113.1877     23.5719   4.8549712095e+01   5.3114722738e+01    0.4155467     0.249042 -75.72  0.001701265    3.260    0.693
       202  -9.8412     41.9659    122.3571   1.0195609547e+02   4.6380719302e+01    0.6639233    0.3410247 -86.86  0.002419796    3.198    0.687
       203  -9.2873    119.0164     21.2355   4.6470973894e+01   5.2013000967e+01    0.2194789    0.1938986 -41.99 0.0004171215    1.297    0.229
       204  -8.8487    103.2077     21.0890   5.0030138960e+01   5.5635928504e+01    0.2511299     0.168208 -36.67  0.001106374    1.718    0.418
       205  -8.5984    181.7824    221.4906   8.2685706844e+01   1.4976333069e+00    0.2157319    0.1759034 -26.13 0.0003801773    1.226    0.184
       206 -10.3883    148.3287    215.2361   8.8980064481e+01   7.9976319059e+00    0.2485644     0.235342 -16.94 0.0003013816    1.115    0.103
       207  -9.3449     41.1169     19.5130   7.0867875544e+01   6.7600009434e+01    0.2645734    0.1441568 -37.83 0.0008114246    2.007    0.502
       208  -8.8933     10.3939     18.5726   8.6611859297e+01   7.1306080929e+01    0.4142065    0.1755234  -5.52  0.001656366    3.974    0.748
       209  -8.3819    155.4194     17.2131   3.8882518984e+01   4.3786978894e+01    0.1763164    0.1108228 -46.35 0.0009414216    1.705    0.413
       210  -9.0002    132.8072     16.8332   4.2369010056e+01   4.9210532798e+01    0.1748838    0.1425954 -85.99 0.0003461496    1.309    0.236
       211  -8.2586    100.1992    210.2342   9.9537894226e+01   1.6751156552e+01    0.1879614    0.1781684  25.61 0.0003826253    1.101    0.092
       212  -8.8411    112.2391     15.2865   4.5865957851e+01   5.4165588470e+01    0.2277825    0.1704255 -41.04 0.0005874316    1.567    0.362
       213  -9.1327     45.1322     15.6245   6.7222621050e+01   6.7487230639e+01    0.1771426    0.1296039  19.94 0.0007779381    1.130    0.115
       214  -8.4747    189.8142     15.1011   3.4133444970e+01   3.5957828426e+01    0.1958516    0.1459281 -72.43 0.0009983338    1.225    0.184
       215  -8.8665     10.4368    207.2794   1.2007917531e+02   2.8432195769e+01    0.3265853    0.1781086  12.30  0.001659911    2.810    0.644
       216  -8.8717    171.0658    201.0132   8.1370190070e+01   7.0162005826e+00    0.2068697    0.1851923   5.82  0.001188654    1.006    0.006
       217  -9.7696    192.5261    194.6833   7.5550127108e+01   4.6382254711e+00    0.8447214    0.4443076 -62.67  0.002598724    5.358    0.813
       218 -10.3708    211.5519    230.7315   7.8236052810e+01  -4.3714227990e+00    0.2292495    0.1921187  -2.98  0.000422614    1.094    0.086
       219  -8.1199    156.4930    197.9966   8.4116122697e+01   1.0101252064e+01     0.211623    0.1419112 -45.80 0.0006448122    1.555    0.357
       220  -9.0382     32.5996    197.1935   1.1430929632e+02   2.8612257112e+01    0.1907363    0.1878782 -74.11 0.0003206742    1.239    0.193
       221  -8.5531     34.8954    181.7971   1.1226182844e+02   3.2070564976e+01    0.1801595    0.1621063 -66.52 0.0003414282    1.163    0.140
       222 -10.4749    101.0036    176.0029   9.3986030522e+01   2.4602394582e+01    0.2079455    0.2025385  64.30            0    1.009    0.009
       223  -7.4315    130.6833    170.2464   8.5108543037e+01   2.0800375565e+01    0.1486876    0.1177138  64.69 0.0002394623    1.519    0.342
       224  -8.3591    230.3969    168.0116   6.2925013467e+01   3.2854314117e+00    0.3707842    0.1018427 -48.77 0.0009389063    6.493    0.846
       225  -9.0606    133.8973    146.3481   7.9182477676e+01   2.5771277299e+01    0.7902657    0.1890474 -53.70  0.001724868    6.220    0.839
       226  -9.7241    178.2535    148.0599   6.8884411027e+01   1.6506235283e+01    0.2458875    0.2274284  19.23 0.0002295244    1.097    0.088
       227  -7.8110    183.5231    145.4294   6.7153275800e+01   1.6002537631e+01    0.1497022    0.1398633 -16.95 9.791363e-06    1.023    0.022
       228  -8.2242    121.7294    144.9710   8.2139371330e+01   2.8460390822e+01     0.206753    0.1959371 -46.03 0.0002405444    1.050    0.048
       229  -9.5001     66.8600    143.9827   9.7984875115e+01   3.7849057711e+01    0.4542769    0.2739693  64.49  0.001863032    2.312    0.567
       230  -7.7328    183.2962    137.6901   6.5429523189e+01   1.7625715530e+01    0.1466954    0.1198777 -77.83   0.00027566    1.593    0.372
       231  -8.4890    112.2812    133.6839   8.2198836109e+01   3.2969449964e+01    0.3229418    0.2249079  72.64  0.001283781    2.160    0.537
       232  -8.6442     86.5962    134.0000   8.9926886542e+01   3.7430242621e+01    0.4322345    0.2139971  37.25  0.001696869    2.054    0.513
       233  -8.6113     82.3297    130.0170   9.0378507410e+01   3.9112260036e+01    0.3612496    0.2157378 -76.70  0.001373043    2.468    0.595
       234  -9.1504    136.0909    130.9079   7.4967268588e+01   2.8893565579e+01     0.508229    0.1802427 -47.86   0.00160642    2.821    0.646
       235  -7.8002    132.4847    131.5115   7.6070167328e+01   2.9495149367e+01    0.1578771    0.1525706 -88.63 0.0008079213    1.113    0.102
       236  -9.7329     98.5491    128.3432   8.4993393657e+01   3.6791352898e+01    0.5786145    0.3766762  75.94  0.002140853    2.752    0.637
       237 -10.5676     70.9933    125.8692   9.3085551794e+01   4.1872913088e+01    0.5856551    0.5218092  72.97  0.001855074    1.264    0.209
       238 -10.1424     58.5521    124.5127   9.6866936606e+01   4.3910476621e+01     0.658506    0.3990364  73.83  0.002089722    2.790    0.642
