#   1 NUMBER                 Running object number                                     
#   2 MAG_AUTO               Kron-like elliptical aperture magnitude                    [mag]
#   3 X_IMAGE                Object position along x                                    [pixel]
#   4 Y_IMAGE                Object position along y                                    [pixel]
#   5 X_WORLD                Barycenter position along world x axis                     [deg]
#   6 Y_WORLD                Barycenter position along world y axis                     [deg]
#   7 A_WORLD                Profile RMS along major axis (world units)                 [deg]
#   8 B_WORLD                Profile RMS along minor axis (world units)                 [deg]
#   9 THETA_WORLD            Position angle (CCW/world-x)                               [deg]
#  10 FWHM_WORLD             FWHM assuming a gaussian core                              [deg]
#  11 ELONGATION             A_IMAGE/B_IMAGE                                           
#  12 ELLIPTICITY            1 - B_IMAGE/A_IMAGE                                       
         1 -15.1799    242.4595    104.4575   2.6784286115e+01   1.5094414425e+01     3.402159     1.485486 -35.69   0.01852342    1.729    0.422
         2 -14.8173    195.6081    103.3982   3.2321093724e+01   2.2756846634e+01     3.214804     1.931632  67.85   0.01626477    2.319    0.569
         3  -9.8792     95.3360     36.8662   3.1541868163e+01   5.6683033252e+01    0.3982203    0.1802688 -37.31  0.001574961    2.236    0.553
         4 -10.9194     40.9456     13.8101   3.9839141856e+01   7.2986931526e+01    0.2444648    0.2069325  41.27 0.0002413059    1.097    0.088
         5  -9.2807     97.5250     12.4503   2.0347345764e+01   5.9279796357e+01     0.234581    0.1403996  -4.49  0.001031604    2.469    0.595
         6  -8.6034     67.5191      1.3622   2.1117292926e+01   6.8086669387e+01    0.1353384    0.1153219  70.98 6.711729e-05    1.040    0.038
         7  -9.4221     16.7841    238.1309   9.4600690718e+01   2.0606179021e+01    0.2472071    0.0907029  63.06   0.00113961    2.651    0.623
         8 -10.3387     52.5893    249.6653   8.6907162671e+01   1.5083248541e+01    0.2962551    0.1715925  22.51 0.0009196861    1.461    0.315
         9 -10.7209     20.2161    248.9076   9.4168210860e+01   1.8241006952e+01    0.3133278    0.1799036  69.25  0.001915877    1.744    0.427
        10 -10.4629     13.3530    250.2008   9.5735427473e+01   1.8587500657e+01    0.2618582    0.1047269  34.69  0.001409826    1.693    0.409
        11 -10.4159      3.9351    249.3470   9.7794198859e+01   1.9519793436e+01    0.2793642    0.1387559  36.27 0.0007915844    1.410    0.291
        12  -9.5064    249.2782    237.0007   4.7982159910e+01  -2.6457456137e+00    0.1400382   0.09078894 -16.34  0.001169014    1.093    0.085
        13 -10.4295     90.1457    235.4872   7.7256201167e+01   1.3685463716e+01    0.2322677    0.1762253  -9.28  0.001449071    1.504    0.335
        14  -9.9806    231.0748    234.1790   5.0189326634e+01  -8.5041487057e-01    0.1955074    0.1177908 -31.04 0.0008885876    1.483    0.326
        15  -9.7869    237.7116    230.3177   4.8686682408e+01  -9.7032074209e-01    0.1970192     0.123523 -18.31   0.00111097    1.176    0.150
        16 -10.9123     87.7824    227.3911   7.7030726436e+01   1.5451452950e+01    0.4121614    0.1445167  30.01  0.001787232    2.234    0.552
        17 -10.8809    162.3816    225.3840   6.0646484504e+01   7.1094898130e+00    0.3465073    0.2278417   2.98   0.00217148    1.444    0.307
        18  -9.6285    116.5310    227.4760   7.0457264338e+01   1.2074999426e+01    0.1237632    0.1028417  19.85 0.0001138146    1.015    0.014
        19 -11.3978     98.4224    225.1840   7.4315864669e+01   1.4625191576e+01    0.4192128    0.2729745  34.89  0.001750899    1.308    0.235
        20 -10.8297     95.5663    217.6416   7.4172998498e+01   1.6401585060e+01    0.3883749    0.2926828  54.42  0.001571913    1.453    0.312
        21  -9.7524     99.8674    217.1146   7.3090056176e+01   1.5980144610e+01    0.2470235    0.2392037 -85.13  0.001185872    1.232    0.188
        22 -11.2490    126.4072    221.1299   6.7512500059e+01   1.2007983584e+01      0.35211    0.2760951  78.56  0.001116862    2.005    0.501
        23  -8.8746    144.9765    227.7464   6.4423618954e+01   8.7156007567e+00    0.1568403   0.08707117  24.93  0.000556948    1.545    0.353
        24  -9.2560    108.8340    222.1741   7.1578899050e+01   1.3941279718e+01    0.1727985    0.1355874  -2.12 0.0005763322    1.314    0.239
        25  -9.4695     88.5442    222.4990   7.6364075806e+01   1.6298383016e+01    0.1281531    0.1079716  28.05 0.0002161316    1.005    0.005
        26  -9.9730    115.0595    220.9655   7.0019575498e+01   1.3410020277e+01    0.1988842    0.1374841 -11.83 0.0008210223    1.682    0.405
        27  -9.6928     74.8720    219.1848   7.9360062725e+01   1.8549332401e+01    0.2086329    0.1501521  44.16  0.001154595    1.246    0.198
        28  -9.0333    143.5661    216.7735   6.3261896018e+01   1.0678838910e+01     0.149503    0.1204491 -58.96 0.0009509511    1.631    0.387
        29 -10.2940    170.3552    215.2780   5.7698464867e+01   7.7458508769e+00    0.2333354    0.1777883  -2.20 0.0008469677    1.128    0.114
        30  -9.3862    152.2192    216.0305   6.1373590751e+01   9.7601005747e+00    0.2620487    0.1365573   4.28  0.001185597    2.746    0.636
        31  -9.2738    131.5523    214.2014   6.5487152658e+01   1.2596884551e+01    0.1675461    0.1082522 -33.62 0.0008033976    1.664    0.399
        32 -10.2312     76.9461    211.7327   7.8125345294e+01   1.9837303967e+01    0.2795194    0.2269607 -51.25  0.001532821    1.420    0.296
        33  -9.4400    116.4752    210.5121   6.8395435612e+01   1.5168888203e+01    0.1288091    0.1117726  25.51 0.0001411041    1.059    0.056
        34  -9.5064    213.1671    207.4685   4.9059394734e+01   4.1623419967e+00    0.2316797   0.08990625  39.26  0.001155887    3.339    0.701
        35 -10.3188    124.0236    205.9817   6.6058618754e+01   1.5053033835e+01    0.1831423    0.1605804  15.05            0    1.007    0.007
        36  -9.0780     99.0161    205.7716   7.1961213096e+01   1.8330325059e+01    0.2312347    0.1246211  66.36 0.0008847587    3.569    0.720
        37  -9.2277    130.6477    201.4951   6.3926748154e+01   1.5026564414e+01    0.2240826    0.1209186 -51.49  0.001113998    2.016    0.504
        38 -11.9891    177.5145    197.0173   5.3572862113e+01   9.7517845355e+00    0.4992495    0.3710968  -4.00  0.003222752    1.247    0.198
        39 -10.0998    162.4153    194.2454   5.6052429114e+01   1.2131230190e+01    0.2244496    0.1584891  53.45 0.0008564079    2.082    0.520
        40  -9.0274    148.4976    197.9840   5.9504106012e+01   1.3307380889e+01    0.1639602    0.1165945 -79.31 0.0008104123    2.675    0.626
        41  -9.6637    144.1687    198.0284   6.0434708394e+01   1.3871866532e+01    0.2041757    0.1566999 -13.18  0.001219091    1.311    0.237
        42 -10.6941    125.8635    197.0221   6.4370493762e+01   1.6517969054e+01    0.3449164    0.2284756  17.17  0.001236179    1.507    0.336
        43  -9.5911    112.8177    198.0669   6.7598954365e+01   1.8074582827e+01    0.3588826    0.1947571  56.60  0.001509171    2.800    0.643
        44  -9.2652    112.8866    194.1813   6.7039455946e+01   1.8852633871e+01    0.1978673    0.1710424  39.62 0.0004401761    1.147    0.128
        45  -9.4706    105.1649    197.5888   6.9401245371e+01   1.9199740457e+01    0.2563255    0.1602136 -37.53  0.001201608    1.844    0.458
        46  -8.9488     88.0000    197.9774   7.3789311816e+01   2.1384158762e+01    0.2050159   0.07878207 -62.75 0.0006517495    2.926    0.658
        47  -9.5601     66.4703    194.4807   7.9114558944e+01   2.4880652107e+01    0.3297437    0.1612711  57.49  0.001362553    2.410    0.585
        48  -9.4016     15.7777    192.0305   9.3086972835e+01   3.0791371400e+01    0.3412241    0.1568886 -14.81  0.001102273    5.080    0.803
        49 -11.6574    173.1370    195.8186   5.4208121115e+01   1.0492018358e+01     0.361876    0.2538775 -31.54  0.001237439    1.323    0.244
        50 -10.9043    166.5067    196.9882   5.5676653876e+01   1.1140369785e+01    0.3339297    0.1524373 -50.59  0.001573011    2.549    0.608
        51  -9.4725    138.9936    189.4724   6.0241987201e+01   1.6159631822e+01    0.2315482    0.1895942 -70.76  0.000963456    1.623    0.384
        52  -9.0608    104.5088    188.9905   6.8383958173e+01   2.1094800028e+01    0.2176854    0.1671675 -25.52 0.0005591801    1.486    0.327
        53 -10.9440     98.2885    188.3266   6.9883237913e+01   2.2101396002e+01    0.4864514    0.2846898  48.29  0.001238131    1.791    0.442
        54 -11.1437     94.5024    182.8960   7.0120850028e+01   2.3831524563e+01    0.4888621    0.3886791 -74.26  0.002261635    1.436    0.304
        55  -9.4931     21.2258    190.1893   9.1457367320e+01   3.0756992720e+01    0.2011357     0.128057  50.25 0.0006072203    1.329    0.247
        56  -9.7992    204.3021    188.1601   4.7426470817e+01   7.8679561864e+00    0.2179987    0.1311925  53.37  0.001095291    3.413    0.707
        57  -9.3403    129.1660    188.1867   6.2274775743e+01   1.7788390007e+01     0.180717     0.156427  56.03 0.0008688298    1.365    0.268
        58 -11.6362     10.7367    187.0956   9.4300140634e+01   3.2411257204e+01    0.4386975    0.2876882  18.60  0.001339032    1.553    0.356
        59  -8.8307    165.2993    186.6379   5.4238192622e+01   1.3056420559e+01    0.1150796    0.1021662  84.51  0.000703476    1.719    0.418
        60 -10.1669    109.6753    185.0045   6.6501944253e+01   2.1217003431e+01    0.3430041    0.2913089  42.27  0.001959144    1.162    0.140
        61  -9.6756    120.1412    184.2444   6.3802314630e+01   1.9873715276e+01    0.3636707    0.1054245 -59.06  0.001092694    4.866    0.794
        62 -10.3199    174.6997    183.6069   5.1901775475e+01   1.2311802548e+01    0.2535263    0.1939873 -83.33  0.001338898    2.662    0.624
        63 -11.4496      3.3085    178.0125   9.6116405368e+01   3.5239984472e+01     0.432248    0.3251783  28.09  0.001894085    1.286    0.222
        64 -10.3729     20.3486    181.3669   9.1226083942e+01   3.3012473872e+01    0.4142896    0.2221168  83.19  0.001363186    1.892    0.471
        65  -9.1088     44.1980    182.2466   8.4243690953e+01   3.0404982115e+01     0.203379    0.1421175  58.78 0.0006477376    1.350    0.259
        66  -8.7784     83.3193    181.6521   7.2977699680e+01   2.5667797556e+01     0.152089   0.09982396  59.87 0.0006614721    1.733    0.423
        67  -9.9790    147.8622    180.1274   5.6763545822e+01   1.6670721673e+01    0.1988617    0.1793475  57.06  0.001223876    1.375    0.273
        68  -9.4514    138.5385    179.5260   5.8726334023e+01   1.8143746969e+01     0.290391    0.2034218  70.14   0.00137271    2.452    0.592
        69 -10.5635      9.9242    180.1376   9.4244622772e+01   3.4201608940e+01    0.2178328    0.1494075  53.11 0.0002892987    1.231    0.187
        70 -10.3110     14.0182    178.4699   9.2953365000e+01   3.4288400843e+01     0.273138    0.1974763 -87.94    0.0010342    1.365    0.267
        71  -9.7753     88.9505    176.9579   7.0782976766e+01   2.5974478512e+01     0.269701    0.1792257  74.87  0.000933469    2.029    0.507
        72 -10.4561     77.2860    175.6900   7.3879414815e+01   2.7903111039e+01    0.2743053     0.201031  68.34  0.000899663    1.525    0.344
        73  -8.8155    159.4945    175.5116   5.3512063545e+01   1.5846344787e+01    0.1277148    0.1179118  -8.70 0.0008096704    1.067    0.062
        74  -9.9794    148.6029    174.7098   5.5671786111e+01   1.7591962333e+01    0.2443945    0.1579051  19.98 0.0009247387    1.669    0.401
        75  -9.8724    105.6945    174.7471   6.5953571159e+01   2.4036619673e+01    0.2712262    0.1753824 -89.27 0.0009950637    2.487    0.598
        76 -10.0310     24.1795    174.6345   8.9661745388e+01   3.4370477314e+01    0.2423748    0.1715126  70.62  0.001210812    1.324    0.244
        77  -9.4763    134.8566    170.9264   5.8098133159e+01   2.0415447179e+01    0.2438056    0.1919707 -55.59  0.001345293    1.383    0.277
        78 -10.4291    206.5660    168.7518   4.3734902231e+01   1.0511896410e+01    0.2927559   0.09937524 -41.84  0.001298472    2.601    0.615
        79 -10.8920    121.8747    167.9218   6.0692854908e+01   2.3059236930e+01     0.628661     0.315667 -56.10  0.002686956    2.157    0.536
        80 -11.2109    149.6083    163.4257   5.3419824789e+01   1.9621897587e+01    0.4887573    0.3774467  10.80  0.002710225    1.401    0.286
        81  -9.1741     54.8401    168.9980   7.9708393503e+01   3.2500200727e+01    0.2587206    0.1466155  67.32  0.001084576    2.057    0.514
        82  -9.4815     28.5504    169.5079   8.7944655551e+01   3.5279590084e+01    0.1435436    0.1258502  58.06 0.0001947104    1.006    0.006
        83 -10.0499    139.4666    165.0028   5.5973980703e+01   2.0902490647e+01    0.3901351    0.2807192  86.99  0.001690315    2.441    0.590
        84  -9.8576     98.9962    165.4458   6.6256030486e+01   2.7177601163e+01    0.3478102    0.2461866  81.01  0.001585373    1.921    0.479
        85  -9.9697    177.3672    169.5576   4.8938661456e+01   1.4337661263e+01    0.3766769    0.2319057 -42.28  0.002069678    1.527    0.345
        86  -9.4130    220.0723    165.5341   4.1090965633e+01   9.2929028014e+00    0.1512979    0.1100832  30.16 0.0005586883    1.575    0.365
        87  -9.9841    214.5058    164.6173   4.1762046472e+01   1.0124396198e+01    0.2712926     0.203247 -78.45  0.001348915    3.076    0.675
        88  -9.8921     80.1717    164.1675   7.1419492281e+01   3.0306748260e+01    0.3828436    0.2125607  75.07  0.001388062    2.985    0.665
        89  -9.1463     37.6786    164.3341   8.4610850844e+01   3.5699957665e+01    0.1623303   0.09263986  56.82 0.0007049941    1.704    0.413
        90  -9.4061    177.8768    160.7559   4.7221125616e+01   1.5792661312e+01    0.2295396    0.1679572 -66.70  0.001225687    2.059    0.514
        91 -10.5546     92.6266    159.5028   6.7060833425e+01   2.9575891875e+01    0.4554859    0.3172756 -83.76  0.001739262    1.803    0.445
        92 -10.2023    146.8925    159.4069   5.3260149837e+01   2.0846218123e+01    0.2390675    0.1917071 -45.01 0.0003868977    1.231    0.188
        93 -10.4836    142.7720    158.6272   5.4033109851e+01   2.1667990363e+01    0.5502521    0.1975617  40.03  0.002060822    2.808    0.644
        94  -9.0033    128.4971    158.5127   5.7363915216e+01   2.4022128934e+01    0.2494196    0.1394412 -63.26  0.001032395    2.322    0.569
        95  -9.8943    197.6121    158.0989   4.3254496803e+01   1.3392894767e+01    0.1905424    0.1710043  38.51 0.0009729969    1.371    0.271
        96  -9.8937    168.1833    157.6536   4.8484946583e+01   1.7816983135e+01    0.2650973    0.2061691 -73.45  0.001341942    1.903    0.474
        97 -10.0480    105.2138    157.1635   6.3133577809e+01   2.8134011798e+01    0.3332856    0.2516022 -86.22 0.0009167433    1.675    0.403
        98  -9.8603    188.4061    156.7150   4.4559972896e+01   1.4938009371e+01    0.2557459    0.1808715 -47.80  0.001078981    1.458    0.314
        99 -11.3308    205.1874    154.2163   4.1304616243e+01   1.2959065932e+01    0.3039044    0.1911782 -42.82  0.001783904    1.457    0.314
       100  -9.3887    157.7005    155.7740   5.0242333448e+01   1.9821596023e+01    0.2580478    0.1613386 -64.90  0.001153948    2.415    0.586
       101  -8.9377     57.6214    156.7069   7.7325549485e+01   3.5339372697e+01    0.1529016    0.1134471 -23.56 0.0007021044    1.745    0.427
       102  -9.5599    119.3058    154.2741   5.8864855206e+01   2.6473496241e+01    0.3379481     0.224567 -81.23  0.001171226    2.342    0.573
       103 -10.4384     81.5889    153.2928   6.9288152873e+01   3.2814255197e+01    0.5028437    0.2723949 -76.90  0.001559973    2.417    0.586
       104 -10.0119     49.4580    154.6333   7.9725768990e+01   3.6924058114e+01    0.3566777     0.197777  62.81  0.001213549    2.012    0.503
       105  -9.4147     23.4017    160.1600   8.8890906380e+01   3.8238077404e+01      0.21104     0.123825  80.73 0.0009556584    1.704    0.413
       106 -10.4333    133.4328    152.7630   5.5072742966e+01   2.4430475077e+01    0.4964116    0.3410105 -89.60  0.002111259    2.604    0.616
       107  -9.8050    100.0273    153.5372   6.3922599829e+01   2.9834683581e+01     0.223885    0.1414382  35.51 0.0004765384    1.528    0.346
       108 -10.0229    182.6257    141.8122   4.2657070960e+01   1.8388656519e+01    0.2409352    0.2071641 -75.68  0.001171043    1.533    0.348
       109 -11.4562    189.8368    149.9007   4.3004929980e+01   1.5877578501e+01    0.3997366    0.2877937 -46.25  0.001736022    1.366    0.268
       110  -9.6798    183.6324    151.1938   4.4341622910e+01   1.6593767834e+01    0.2459943    0.2058693  84.57  0.001452665    1.820    0.451
       111  -9.0204    162.7935    150.7965   4.8220607105e+01   1.9948445353e+01    0.1778093    0.1599433 -75.42 0.0007658177    1.378    0.274
       112  -9.4422     28.5041    149.1744   8.6246353088e+01   4.0733700386e+01    0.3895105    0.1242755  59.93  0.001087954    4.319    0.768
       113  -9.1673    142.6160    148.7881   5.2143902058e+01   2.3707222920e+01    0.1994948    0.1305809 -57.78 0.0008152305    1.706    0.414
       114 -10.0777    200.2207    148.3990   4.0990720501e+01   1.4594609624e+01     0.195169    0.1660799  48.46  0.001286796    1.488    0.328
       115 -10.5058     56.5519    145.6083   7.6144523481e+01   3.8441768818e+01    0.7097136     0.309293  59.88  0.002276637    3.257    0.693
       116  -9.9919     39.5803    147.4041   8.2211771351e+01   4.0049442038e+01    0.4697793    0.1872038  57.20  0.001561384    2.996    0.666
       117 -10.9444    149.1691    144.6684   4.9844223529e+01   2.3425206347e+01    0.5304311    0.3728421 -73.69  0.002067168    2.116    0.527
       118  -9.1545    176.0121    146.0682   4.4714776775e+01   1.8689158370e+01    0.1982788    0.1619495 -76.24 0.0009276533    1.714    0.417
       119 -10.6996    106.6886    143.2232   6.0097375084e+01   3.1177273442e+01     0.748611    0.3806947 -67.73  0.002713882    2.722    0.633
       120 -10.6101     68.1172    153.2581   7.3476834176e+01   3.4812509904e+01    0.5329245    0.3341694  82.89  0.001993962    2.019    0.505
       121  -9.1019     13.4883    145.9986   9.1254273244e+01   4.2939219762e+01    0.2176031   0.09287494  66.27 0.0006591743    2.419    0.587
       122 -12.2226    196.7783    136.6789   3.9233808821e+01   1.7037231139e+01    0.5418153    0.3907818  48.49  0.003241229    1.681    0.405
       123  -9.5107    247.8435    247.8340   4.9626270786e+01  -3.6775709609e+00    0.1162126   0.08718627 -10.72 0.0005215042    1.313    0.238
       124 -11.4266    166.4762    247.9458   6.2777488116e+01   3.4410392824e+00    0.2908807    0.1372482  20.65  0.001695744    1.801    0.445
       125 -10.3595    153.0748    128.2903   4.5489428619e+01   2.6019484718e+01    0.5158954     0.250438 -52.76    0.0019351    2.204    0.546
       126 -10.7653    102.9901    118.5067   5.5785254165e+01   3.7804585556e+01    0.4156623    0.2639155  41.51  0.001526271    1.583    0.368
       127 -11.0855     98.6271    127.1032   5.9057617019e+01   3.6525939533e+01    0.7303132    0.4467836 -81.78  0.002378939    2.565    0.610
       128 -10.6686     98.3966    120.7985   5.7702522348e+01   3.8121827421e+01    0.3890972    0.3005152 -44.17  0.001628047    1.350    0.259
       129  -9.7673     12.9824    129.0145   9.0186184209e+01   4.7729484835e+01    0.4612851    0.1578189  61.30  0.001464281    3.373    0.704
       130 -10.1203     73.0132    128.5649   6.7612567647e+01   4.0595397192e+01    0.4049624    0.2478508  85.70  0.001540674    2.324    0.570
       131 -11.0946     59.5392    123.8544   7.1503901657e+01   4.3959092332e+01    0.7318667    0.3792577  72.54   0.00236774    3.213    0.689
       132 -11.4175    184.8789    115.0795   3.6585584029e+01   2.2694534732e+01    0.5288236    0.3801489  48.60  0.002985795    1.604    0.377
       133 -10.1921    180.0439    124.0464   3.9376623705e+01   2.1968096713e+01    0.3245514    0.2368555 -63.40  0.001638292    1.652    0.395
       134 -10.4928    181.0279    119.5075   3.8211063057e+01   2.2601324932e+01    0.3980894    0.2354679 -43.14  0.001725632    1.485    0.326
       135 -11.2593     43.9819    122.3289   7.7160632628e+01   4.6519125369e+01    0.8806891    0.4197103  74.39  0.002805406    3.311    0.698
       136  -9.9877    105.0048    123.7227   5.6411549213e+01   3.6160915965e+01    0.2432154     0.214739 -55.42  0.000357945    1.123    0.109
       137 -10.4497     29.6828    123.6904   8.3023463154e+01   4.7765199524e+01    0.4266692    0.2231553  62.74  0.001673852    2.114    0.527
       138  -9.9962     27.0122    119.9548   8.3629411296e+01   4.9097845715e+01    0.2867652    0.2160069 -57.10 0.0008750024    1.346    0.257
       139 -10.0711    158.6033    120.3159   4.2543253376e+01   2.6558793225e+01    0.4035181    0.2386879 -50.88  0.001652816    1.658    0.397
       140  -9.7529    172.8989    120.6402   3.9891631540e+01   2.3852985859e+01    0.2785243     0.183949 -48.85  0.001151579    1.423    0.297
       141 -10.8662    141.6062    117.9079   4.5597540038e+01   3.0323505925e+01    0.7428249      0.29252 -52.37  0.002584819    2.774    0.640
       142 -10.5533     70.7955    118.7533   6.6387306906e+01   4.3575098143e+01    0.5060787    0.2253957 -69.87  0.001672206    2.788    0.641
       143 -10.1155    130.3724    117.4212   4.8124193512e+01   3.2652409964e+01    0.4761769    0.2621742 -61.52  0.001715137    2.278    0.561
       144 -10.0698      2.5122    115.8821   9.3453190436e+01   5.2140082520e+01    0.6506153    0.1940473  70.79  0.001888767    4.147    0.759
       145 -10.4418    124.7412    141.4922   5.4939156850e+01   2.8393271779e+01     0.666245    0.3187034 -60.63  0.002454586    2.661    0.624
       146 -11.2648    108.6669    112.2877   5.2612666895e+01   3.8169613496e+01    0.8556912    0.3377969 -55.85  0.002706196    2.794    0.642
       147  -9.0018     22.6642    115.3526   8.4866420198e+01   5.0824514509e+01    0.1702508   0.09782043  58.47 0.0007044965    1.791    0.442
       148 -10.3913     87.9266    141.5512   6.5273789078e+01   3.4777227047e+01    0.7576477    0.2260234 -58.88  0.002299601    3.418    0.707
       149 -10.7557     92.5604    111.6701   5.7344001574e+01   4.1493059849e+01    0.7674318    0.3818959 -67.20  0.002607774    2.734    0.634
       150 -11.0031     79.1800    112.3922   6.1995962594e+01   4.3803916562e+01    0.6321387    0.3776739  86.20  0.002146928    2.871    0.652
       151 -10.3728     69.1998    140.0119   7.1000271779e+01   3.8143604713e+01    0.4188709    0.2356591  82.40  0.001497334    2.723    0.633
       152 -10.5622    122.1620    110.5400   4.8492193620e+01   3.5826614777e+01    0.6232493    0.2638014 -42.61  0.002219556    2.437    0.590
       153  -9.5575     30.5148    105.4904   8.0047859999e+01   5.2867808215e+01    0.3730525   0.09736363  33.16  0.001157747    3.187    0.686
       154 -10.9231     23.2641    101.9369   8.2783420147e+01   5.4606072255e+01    0.9376472     0.332087  59.48   0.00260577    4.428    0.774
       155 -10.5222     21.2375     92.5723   8.2290575939e+01   5.7452315849e+01    0.6233602    0.1973003 -50.21  0.002010464    3.150    0.683
       156 -11.1436     15.0141    111.7556   8.7739658297e+01   5.2495612502e+01    0.4047444    0.3067483  89.41  0.002052955    1.241    0.194
       157 -11.1903     17.8521    104.0257   8.5564947315e+01   5.4483076376e+01     0.497999    0.3028312 -48.68  0.002231828    1.704    0.413
       158 -10.4299    174.8685    109.8256   3.7076035503e+01   2.5452571008e+01    0.4887462    0.2481488 -50.51   0.00188379    1.949    0.487
       159 -10.0616    159.2417    110.6765   4.0152413534e+01   2.8297024408e+01    0.4116797    0.1837646 -42.15   0.00151318    2.052    0.513
       160 -11.0300     66.1465    109.0700   6.5968333115e+01   4.6940842318e+01    0.6433357     0.303433 -68.93  0.002243083    2.471    0.595
       161  -9.8237    133.2858    108.3246   4.5168628234e+01   3.4015757722e+01    0.4154088    0.2328207 -52.69  0.001600068    1.786    0.440
       162 -10.4575     61.2219    105.6084   6.7082504240e+01   4.8680089290e+01     0.265188    0.2255085 -18.39  0.001057357    1.426    0.299
       163 -11.3556     45.7580    102.2745   7.2744111951e+01   5.1911287415e+01    0.8794693    0.4019705  63.08  0.002635959    3.703    0.730
       164 -10.3363    166.7908    102.0830   3.6658752896e+01   2.8417236821e+01    0.4297813    0.2246046 -37.45   0.00168923    1.808    0.447
       165 -10.4645    149.8977    100.2724   3.9443226650e+01   3.2199079397e+01    0.6499466    0.2189354 -46.27  0.002221416    2.788    0.641
       166 -10.1608    128.5501     99.8036   4.4087385467e+01   3.6818719903e+01    0.5199354    0.2686478 -42.32  0.002090179    1.912    0.477
       167  -9.5251      6.7803    102.6105   9.0517379674e+01   5.5672499361e+01    0.2065362    0.1233603  32.44 0.0003971643    1.664    0.399
       168 -10.6238    108.5937     98.1609   4.8915319188e+01   4.1457197944e+01    0.7084035    0.4643926 -84.81  0.002294146    2.377    0.579
       169  -9.6895    107.3341     92.3285   4.7631323322e+01   4.3046601579e+01    0.3733655    0.2529423  23.04  0.001509982    2.231    0.552
       170 -10.2032     82.0676     99.1823   5.7656816979e+01   4.6644043118e+01    0.5552308    0.2764085 -66.58  0.001904172    2.606    0.616
       171  -9.5547    159.7342     98.9877   3.7189030127e+01   3.0411741233e+01    0.3162282    0.1538338 -41.72    0.0013348    1.869    0.465
       172 -11.2399     63.9159     95.7435   6.3594813008e+01   5.0863813390e+01    0.6563001    0.3932192  81.35  0.002078132    2.741    0.635
       173  -9.7969    172.5647    138.0220   4.3712235014e+01   2.0717728742e+01    0.3213705    0.2203943 -66.16  0.001374439    2.057    0.514
       174 -10.1496     23.3147    137.7597   8.7031587135e+01   4.4399185629e+01    0.4942036    0.2117788  65.87  0.001753937    2.690    0.628
       175 -10.2893     44.0846     91.9657   7.1209632462e+01   5.4988977777e+01    0.3484427    0.2150278  11.80  0.001146592    2.094    0.522
       176  -9.7252    138.4021     90.1791   3.9192783358e+01   3.6645900362e+01    0.3975109    0.2078231 -45.15  0.001653447    1.794    0.443
       177 -10.4315    124.4983     88.3158   4.1892424854e+01   4.0113258007e+01    0.7791537      0.33269 -40.09  0.002795079    2.428    0.588
       178 -10.5286     34.8306     87.3731   7.4557396632e+01   5.7464202322e+01    0.9599873    0.3154725 -67.40  0.003075717    2.992    0.666
       179 -10.1647      4.4566     90.7553   9.0477232991e+01   5.9168872274e+01    0.3450449    0.1453148  59.98  0.001267432    2.663    0.625
       180 -12.4108    187.9688    128.3912   3.8961473769e+01   1.9856519914e+01      1.39079    0.2550399 -41.05   0.00406025    4.713    0.788
       181  -9.6161    162.7453    135.9463   4.5175185129e+01   2.2787209326e+01    0.2575629    0.1820992 -58.35  0.001317124    1.593    0.372
       182 -10.0325    139.3811    102.6368   4.2303809872e+01   3.3929437792e+01    0.4712033    0.2493103 -46.07  0.001802124    1.780    0.438
       183 -10.9532     86.4921     86.2861   5.2422790694e+01   4.8903473457e+01    0.6186627    0.4021423 -86.44  0.002046561    2.398    0.583
       184 -10.3964     63.5222     87.9799   6.1651091476e+01   5.2954552737e+01    0.3187534     0.199215 -10.45  0.001039843    3.500    0.714
       185 -10.6380     95.1625     94.5215   5.1960625569e+01   4.5140953351e+01     0.802788    0.2602999 -45.56  0.002418413    3.222    0.690
       186 -10.9964     48.2344     83.6808   6.7195075320e+01   5.6616363173e+01    0.5957847     0.352962  82.67  0.002174643    2.651    0.623
       187 -10.1830     49.4647     76.8373   6.4664925754e+01   5.8212431883e+01    0.3495257    0.2453938 -13.00  0.001367088    2.079    0.519
       188 -10.7656      7.3162     84.5983   8.8286182953e+01   6.0742819716e+01    0.3891622    0.2142835 -39.78  0.001696839    1.943    0.485
       189  -9.1502    116.5494     83.4377   4.2474340284e+01   4.2920554547e+01    0.2526953    0.1466755 -34.46 0.0006050737    2.026    0.506
       190 -10.5271    104.4933     81.3475   4.5165277622e+01   4.6097540556e+01    0.7600456    0.3178469 -49.67   0.00266703    2.404    0.584
       191  -9.7894    140.6091     81.0205   3.6154649407e+01   3.7922126806e+01    0.3392086    0.1344215 -41.47  0.001235179    2.366    0.577
       192 -10.4894     39.0250    135.9804   8.1017674658e+01   4.3278960690e+01    0.2612747    0.1586616  59.18 0.0006870633    1.689    0.408
       193  -9.8107     74.5405     80.0486   5.4847958867e+01   5.2842658348e+01    0.4206701    0.2531027 -77.86   0.00151469    2.619    0.618
       194 -10.4287     24.4909     79.9876   7.8264472513e+01   6.0658035487e+01    0.5232886    0.2789119  86.18  0.002002402    2.430    0.588
       195 -11.0120     27.5980     71.2354   7.4505132317e+01   6.2700067271e+01    0.8807208    0.3797702 -25.96  0.002276961    5.801    0.828
       196  -9.9606    179.8356    133.1629   4.1365879199e+01   2.0377436083e+01    0.3197705    0.2254699 -59.01  0.001279382    1.667    0.400
       197  -9.5603    112.4793    132.5206   5.6264327694e+01   3.2671590594e+01    0.3131956    0.2387536 -78.28 0.0009637854    1.574    0.365
       198 -10.3274    111.1425    129.0344   5.5866819815e+01   3.3739756929e+01    0.4301728    0.3415432  -6.93   0.00203828    1.661    0.398
       199 -10.5284    116.8159    124.3981   5.3262600410e+01   3.3745406756e+01    0.5339926    0.4314587  85.41  0.002428845    1.482    0.325
       200 -10.1620    117.0064    119.2541   5.2001552514e+01   3.4892277173e+01    0.2799549    0.2339582  42.21  0.001229523    1.229    0.186
       201  -9.4961    127.8554     75.0300   3.7157756703e+01   4.1995266143e+01    0.3753302    0.1883685 -55.58  0.001386443    2.230    0.552
       202  -9.3041    128.1885     70.2209   3.5601061630e+01   4.2825692022e+01    0.3027853    0.2233374 -20.97   0.00140119    1.798    0.444
       203 -10.2826     10.6156     74.2763   8.4939896918e+01   6.3406610794e+01    0.3810228    0.2138676  18.94  0.001305678    1.849    0.459
       204 -10.5671     83.4349    131.4785   6.4725014518e+01   3.8105324931e+01    0.4837238    0.3367482  82.13  0.001613703    1.839    0.456
       205 -10.7499     82.2921     72.2206   4.9368464583e+01   5.3040749232e+01    0.4636534    0.3122983 -72.86  0.001206604    1.896    0.472
       206 -10.8270     82.5141     65.7556   4.7011049802e+01   5.4408241736e+01    0.5602691    0.3453044 -17.42  0.001860742    3.581    0.721
       207 -10.1345     82.9115    124.5003   6.3446883908e+01   4.0000400700e+01    0.6328583    0.1930118 -46.95  0.001795463    3.762    0.734
       208  -9.8001    142.9033    130.9553   4.8307110733e+01   2.7357748964e+01    0.3936602    0.1933694 -52.62  0.001591573    2.118    0.528
       209 -10.0665     94.9679     70.3690   4.4466244491e+01   5.0611015313e+01     0.515493    0.2096626 -53.79   0.00168778    2.868    0.651
       210 -10.0978    105.6318     70.1316   4.1215650086e+01   4.8182854121e+01    0.5036473    0.1832788 -45.11  0.001682412    2.699    0.630
       211 -10.8025     51.2631     68.3834   6.1109593584e+01   6.0043790339e+01    0.6714736    0.2921876 -67.19  0.002133359    3.344    0.701
       212 -10.5101    131.8103    129.8472   5.0664892241e+01   2.9666763743e+01    0.6576726    0.2901468 -53.72   0.00240016    2.412    0.585
       213  -9.9811     62.5969     70.2276   5.6505059145e+01   5.7538638926e+01    0.2256402    0.1418952 -43.70 0.0009585035    1.688    0.407
       214  -9.3389    138.5871    137.3148   5.0688045491e+01   2.6812582082e+01    0.2760237    0.1362499 -52.24  0.001077406    2.075    0.518
       215 -12.7223    193.1906    116.3244   3.5536774099e+01   2.1031529455e+01    0.8190124    0.3274998 -44.78  0.003526695    2.202    0.546
       216 -10.6062    192.8170    129.7842   3.8458711231e+01   1.8821979044e+01    0.3871678    0.1845241 -44.62  0.001765663    1.870    0.465
       217  -9.2963    147.2460     65.7037   3.0424994453e+01   3.9145370940e+01    0.5446705     0.139005 -32.37  0.001325947    5.974    0.833
       218  -8.7519    160.4860    131.4874   4.4667231747e+01   2.4044727376e+01    0.1387336     0.127774 -38.92 2.857307e-05    1.018    0.017
       219 -10.0612     39.5157    131.6426   8.0259262410e+01   4.4438435684e+01    0.2612042    0.1414662  25.64  0.001071225    1.857    0.461
       220  -9.7055    165.9629    143.8517   4.6187795865e+01   2.0737893399e+01    0.2769424    0.2105221 -64.52  0.001183652    1.644    0.392
       221  -9.3958    119.4120     78.2435   4.0161639948e+01   4.3328424751e+01    0.5101485    0.1415819 -43.46   0.00150436    3.462    0.711
       222  -9.9720     17.9650     62.2018   7.7959638870e+01   6.6085529831e+01    0.4056841    0.1322652 -50.26  0.001407153    2.828    0.646
       223  -9.5192    110.0051     63.1864   3.7675651133e+01   4.8500636277e+01    0.3218659    0.1845356 -51.86  0.001345054    1.772    0.436
       224  -9.9534    100.2242     58.0248   3.8509646236e+01   5.1837336055e+01    0.7106701    0.2387114 -45.00  0.002318822    2.954    0.662
       225 -10.4508     73.1717     57.3862   4.7339353731e+01   5.8242940489e+01    0.8623245    0.2583328 -47.18  0.002630573    3.422    0.708
       226  -9.3339     42.4256     72.2174   6.6766312142e+01   6.0493580936e+01    0.2184791    0.1455246 -77.19 0.0009514616    1.728    0.421
       227 -10.0140     39.0252     58.0024   6.3904435251e+01   6.4567513194e+01    0.2495626    0.1786064 -21.20   0.00114552    1.787    0.440
       228 -10.9887      6.9720     56.3875   8.3882842989e+01   6.8460821709e+01    0.4149261    0.2218024 -89.09  0.001793727    2.116    0.528
       229  -9.2113    119.4705     55.9412   3.2887874169e+01   4.7504179090e+01    0.2217364    0.1106941 -58.45 0.0008081934    2.462    0.594
       230  -9.9351     62.7462     54.3846   5.0478191486e+01   6.1095017029e+01    0.2798258    0.1839407 -59.68 0.0008813141    1.694    0.410
       231 -11.7800     45.3715     49.3941   5.6960642478e+01   6.5523215270e+01    0.4779594    0.2774684 -41.55 0.0008263534    1.850    0.459
       232 -10.1682     53.8249     51.0759   5.3273409750e+01   6.3588833144e+01    0.8049809    0.2250182 -51.92  0.002355915    3.957    0.747
       233  -9.3915    105.5950     52.3543   3.4960476475e+01   5.1557149090e+01    0.3947635    0.1543358 -51.49   0.00130109    3.005    0.667
       234  -9.9720     92.3833     49.8566   3.7693901604e+01   5.5243631950e+01    0.4943774    0.2190793 -52.83  0.001745848    2.685    0.628
       235  -9.3632     63.9808     47.1645   4.6858747705e+01   6.2321197347e+01    0.2512889    0.1742977  21.30  0.001088351    2.046    0.511
       236  -9.8062    113.3822     42.6673   2.9498112888e+01   5.1212737500e+01    0.5884242     0.297307 -19.17  0.002022609    3.500    0.714
       237  -9.6141     82.1266     45.9424   3.9359914051e+01   5.8419266793e+01    0.2794413    0.1993152 -42.40  0.001250621    1.447    0.309
       238  -9.5677     83.7529     40.1218   3.6314627619e+01   5.9039237531e+01    0.3905233    0.2567513   8.74  0.001476307    3.094    0.677
       239  -9.3712     23.2693     46.5916   6.9584099402e+01   6.9478309523e+01    0.1966585    0.1345623   9.07 0.0009505103    1.639    0.390
       240  -8.5853      1.3549     46.2479   8.5840518068e+01   7.1394479602e+01    0.1424798   0.08836062 -33.80 0.0003536846    1.595    0.373
       241  -9.7329     25.9765     55.0117   7.0742405236e+01   6.7088548157e+01    0.2579485    0.1498182  -8.80 0.0008169225    2.601    0.616
       242  -9.8989     16.6573     42.5225   7.2886009237e+01   7.1190220430e+01    0.5145171     0.120094 -58.00  0.001683851    3.444    0.710
       243  -9.4587     58.4765     42.4784   4.7193454948e+01   6.4413680773e+01    0.2688195    0.1356408 -55.70  0.001029857    2.452    0.592
       244 -10.5398      5.0114     41.0629   8.1639424204e+01   7.2504267957e+01    0.4272844    0.1909702  89.39  0.001583554    3.263    0.694
       245  -9.1547    123.4302     40.7013   2.6734436119e+01   4.8968540989e+01    0.1915321    0.1434613 -20.46 0.0009418721    1.662    0.398
       246  -9.2697     69.0295     40.9993   4.1965239242e+01   6.2370610168e+01    0.2412647    0.1792693 -81.91  0.001129276    1.731    0.422
       247  -9.2765     36.8308     40.2565   5.7852717361e+01   6.8981937065e+01    0.2381411    0.1544964  75.19 0.0009519185    2.779    0.640
       248 -10.0338     29.9889    243.7241   9.1757797117e+01   1.8345037030e+01     0.173355    0.1258531  37.57 0.0004864974    1.047    0.045
       249  -9.3947     26.4188     36.6913   6.3165862681e+01   7.1356597961e+01     0.254941    0.1373383 -60.48  0.001119673    2.037    0.509
       250  -9.5438    111.5783     33.2390   2.6292550804e+01   5.3070526162e+01    0.3361992    0.1318763 -35.03  0.001270661    2.502    0.600
       251  -9.6735      6.4190     33.7998   7.8153596964e+01   7.4180476187e+01    0.1951256    0.1084538 -53.02 0.0008846382    1.635    0.388
       252  -8.7894     60.6479     32.3339   4.1205863601e+01   6.5786812866e+01    0.1505198    0.1121288 -84.41 0.0007046042    1.784    0.440
       253  -9.1441     12.9934     30.9810   7.1216925163e+01   7.4266487509e+01    0.1655361    0.1474039 -45.81 0.0006078051    1.096    0.088
       254  -9.1062    101.2104     28.2309   2.6475384450e+01   5.6429478438e+01    0.2310642   0.09192827 -42.23 0.0004950478    2.446    0.591
       255 -10.3058    168.8905    128.7855   4.2435305688e+01   2.3063187325e+01    0.3735224    0.2599466 -57.45  0.001373986    1.586    0.369
       256 -10.1283    105.8866     38.4788   2.9583857445e+01   5.3760205206e+01    0.3868152    0.1885822 -29.73  0.001530765    2.359    0.576
       257  -9.2215    110.4230     24.7193   2.3155012467e+01   5.4503353810e+01    0.1816929    0.1422357 -14.65 0.0009428449    1.598    0.374
       258  -9.2760     44.2303     25.2164   4.5346916242e+01   7.0516192894e+01    0.2006309    0.1769931  24.86 0.0005252378    1.154    0.133
       259  -8.6208     84.7039     21.3227   2.7354451047e+01   6.1574044246e+01    0.1477286    0.1022643 -68.52  0.000377064    1.620    0.383
       260  -8.6473    118.5033     24.5075   2.1650130313e+01   5.2439049518e+01     0.142692    0.1268103 -84.21 0.0008104991    1.026    0.025
       261  -9.9800     13.0934     21.0610   6.6096371962e+01   7.6422204537e+01    0.2709348    0.1762392  28.81 0.0007017067    1.493    0.330
       262  -9.0638     30.6701     18.7053   4.9797965638e+01   7.4237035763e+01    0.1364059    0.1017223   7.75 0.0002471163    1.633    0.388
       263 -10.8574    167.6182    242.0901   6.1839086046e+01   4.1272140394e+00    0.1870998    0.1274328  24.89 0.0007265125    1.324    0.245
       264  -9.0499    250.4883    241.5245   4.8426282151e+01  -3.2187228312e+00   0.09555423   0.06373424 -10.21  0.000227807    1.025    0.024
