#   1 NUMBER                 Running object number                                     
#   2 MAG_AUTO               Kron-like elliptical aperture magnitude                    [mag]
#   3 X_IMAGE                Object position along x                                    [pixel]
#   4 Y_IMAGE                Object position along y                                    [pixel]
#   5 X_WORLD                Barycenter position along world x axis                     [deg]
#   6 Y_WORLD                Barycenter position along world y axis                     [deg]
#   7 A_WORLD                Profile RMS along major axis (world units)                 [deg]
#   8 B_WORLD                Profile RMS along minor axis (world units)                 [deg]
#   9 THETA_WORLD            Position angle (CCW/world-x)                               [deg]
#  10 FWHM_WORLD             FWHM assuming a gaussian core                              [deg]
#  11 ELONGATION             A_IMAGE/B_IMAGE                                           
#  12 ELLIPTICITY            1 - B_IMAGE/A_IMAGE                                       
         1 -13.1115    247.2043     45.0834   5.3855669933e+01   1.7633267238e+01     2.728294    0.7973653 -38.79  0.009730515    2.889    0.654
         2 -12.7602    245.8442      5.8255   4.3918152971e+01   2.2304615689e+01     1.117521     1.017604  12.95  0.004568824    1.297    0.229
         3 -12.3838    244.5924     29.3558   5.0062711992e+01   2.0096408063e+01     1.077798     0.502509 -50.20  0.004434073    2.213    0.548
         4 -11.7976    245.3482     20.2488   4.7639607569e+01   2.0928661139e+01      0.66565    0.4802121 -21.83  0.002340698    1.387    0.279
         5 -12.0887    232.0831      4.1993   4.4582835953e+01   2.5785622065e+01    0.9868586    0.5767359 -71.58  0.004307126    1.846    0.458
         6 -11.8712    193.2336     28.2264   5.5792975748e+01   3.3241810392e+01    0.8165721    0.7339253 -19.64  0.004459159    1.149    0.130
         7 -12.1148    213.6404     28.0639   5.3081687928e+01   2.7905461444e+01    0.7501425    0.4228442 -31.00  0.001222201    1.687    0.407
         8 -10.7358    111.2229     19.9440   6.8701522809e+01   5.5430717333e+01    0.3941795    0.3088077 -55.35  0.001439173    1.565    0.361
         9 -11.3848    105.8331     13.6533   6.7393835892e+01   5.7462446467e+01    0.3202108    0.2854363 -41.39  0.000366849    1.255    0.203
        10 -10.3027    215.4600      5.8818   4.6512359623e+01   2.9815147874e+01    0.4131283     0.197434 -41.41 0.0009226957    1.962    0.490
        11 -10.8870    230.0110     17.5106   4.8345213774e+01   2.4939584983e+01    0.4593425    0.1980214 -53.21  0.001787073    2.575    0.612
        12 -12.1395    224.1193     13.0395   4.7690222441e+01   2.6886028114e+01    0.6331182    0.4407817 -70.29  0.001115421    1.498    0.332
        13 -11.4909    161.7254      9.7557   5.4284194135e+01   4.3770616844e+01    0.6467379    0.3522432 -30.86  0.002217924    1.845    0.458
        14 -11.5100    126.6643     10.7636   6.1098549258e+01   5.2817266423e+01    0.4141657    0.3344426  56.37 0.0009438056    1.198    0.165
        15  -9.6909    201.0709     10.0280   4.9207505630e+01   3.3165737242e+01     0.251403    0.1979127 -27.95 0.0005410335    1.291    0.225
        16 -10.0602    186.5519      9.8148   5.0853067444e+01   3.7066678846e+01    0.3571825   0.09065761 -32.88   0.00114683    3.321    0.699
        17  -9.9009    119.0353     10.2108   6.2573021443e+01   5.4756998757e+01    0.2413851    0.1988356 -10.51 0.0005660711    1.218    0.179
        18 -10.4595     56.6161     10.3204   8.2648854743e+01   6.7420915308e+01     0.352947    0.1905841  35.70  0.001358195    1.962    0.490
        19 -10.5472     15.7336      6.6115   1.0130411957e+02   7.2855447516e+01    0.4662207    0.2361917 -62.88  0.002367584    2.621    0.619
        20 -11.2392    110.5260      5.5435   6.2537959192e+01   5.7297149543e+01    0.4269417    0.3501138  39.51  0.001674341    1.130    0.115
        21 -10.1327     73.0273      7.0749   7.4504554457e+01   6.5079255655e+01    0.2150156    0.1809804  29.42 0.0005745472    1.177    0.150
        22  -9.5870    176.2007      6.1293   5.0968017912e+01   4.0220886298e+01    0.2052768     0.162663 -57.48 0.0007187488    1.326    0.246
        23 -11.2584    127.7342      2.0740   5.7244635203e+01   5.3426553400e+01    0.3654375    0.2755263 -87.55  0.001281414    1.613    0.380
        24 -10.5299      7.8794      1.9546   1.0379270855e+02   7.4266958618e+01    0.2447823    0.1553988  16.70  0.001653614    1.830    0.454
        25  -9.7463    185.3898    210.2961   1.0032706657e+02   7.0871800961e+00    0.2173394    0.1870126  47.89  0.001003685    1.221    0.181
        26 -10.1100    126.7525    249.7273   1.1505283418e+02   1.1050317697e+01    0.2017935    0.1373105  53.99 0.0007066035    1.157    0.135
        27 -10.5767    115.8683    249.3083   1.1679704488e+02   1.2636758482e+01    0.2419608    0.1811318  53.71 0.0008695885    1.063    0.059
        28 -10.7419    149.9078    205.1901   1.0605855999e+02   1.3733176931e+01    0.4824774    0.2718676 -57.69  0.002667442    2.342    0.573
        29 -10.2715    145.4227    201.5358   1.0641052015e+02   1.5036128985e+01     0.350804      0.23241  72.95 0.0009758824    2.054    0.513
        30  -9.1798    248.9689    208.4738   8.9397485211e+01  -2.9461223676e+00    0.1721204    0.0907977  38.11 0.0005089276    1.565    0.361
        31  -9.1317    174.3891    208.2235   1.0199091434e+02   9.2032925664e+00    0.1451162    0.1164271 -61.14 0.0009515776    1.708    0.415
        32  -9.7117     26.4484    207.6864   1.2907284220e+02   3.0203272657e+01    0.1815619    0.1449468 -52.80  0.001241282    1.983    0.496
        33 -10.8627    229.0067    205.5072   9.2120244396e+01   4.7566381909e-01    0.2891983    0.1683221 -34.61  0.001610985    2.055    0.513
        34 -10.6557    221.1052    205.1751   9.3378710942e+01   1.7911325595e+00    0.2425624     0.151078 -41.80  0.001443034    2.163    0.538
        35 -10.6299    123.9207    203.3823   1.1072116117e+02   1.8233959370e+01    0.3895175    0.1871275 -51.49  0.001325883    2.541    0.606
        36  -9.7157    126.7657    199.1846   1.0966302377e+02   1.8467785083e+01    0.3044331    0.1860752  82.72  0.001525502    2.548    0.607
        37  -8.5655     98.7503    205.6552   1.1573967740e+02   2.1669843179e+01   0.09597618   0.09066109 -12.05 0.0003378351    1.578    0.366
        38 -10.3314    249.9738    203.0067   8.8332874014e+01  -2.5550803694e+00    0.3668592    0.2577243  58.68  0.002175267    2.425    0.588
        39 -11.1118    249.7901    198.1909   8.7545050093e+01  -2.0368416189e+00    0.8310035    0.3137178 -37.55  0.003923307    3.377    0.704
        40 -11.6529    232.8049    195.1973   8.9772591695e+01   1.0033023670e+00    0.7037796    0.3052908 -30.32  0.003575681    2.540    0.606
        41 -10.8599    237.5592    189.2292   8.7952233984e+01   8.9315241061e-01    0.4584252    0.3413111  47.06  0.001882467    1.521    0.342
        42  -9.7951    213.4656    198.6243   9.3608447906e+01   3.8263889115e+00    0.2314497    0.1981146  84.09  0.001483388    1.957    0.489
        43  -8.5475     76.7136    197.3152   1.1912589751e+02   2.6192576713e+01    0.1188807   0.06966697  67.10 0.0002856966    1.585    0.369
        44  -9.6435    206.6415    190.0365   9.3361468203e+01   6.0739264863e+00    0.2245095    0.2042981  69.59  0.001091069    1.505    0.336
        45 -10.6022    129.7016    189.1902   1.0778561937e+02   1.9662909808e+01    0.3309747    0.2291447  66.85 0.0007059755    1.544    0.352
        46 -10.2007    125.2817    183.6407   1.0791064912e+02   2.1359326008e+01    0.3454724    0.2356574  87.87  0.001899061    1.921    0.479
        47 -10.0264     45.2883    189.1807   1.2450423030e+02   3.1544775510e+01    0.2061419     0.076143 -66.46  0.001078769    2.628    0.619
        48  -9.3382    158.7416    189.1857   1.0209743123e+02   1.4681901321e+01     0.187969    0.1568664  82.92  0.001175731    1.483    0.326
        49  -9.6789    192.1698    186.0392   9.5288672903e+01   9.1799050690e+00    0.3050344    0.1766859 -50.33  0.001335514    2.381    0.580
        50 -10.6195     61.3360    185.8420   1.2109913560e+02   3.0284879695e+01    0.2424094    0.1759308  85.04  0.000574977    1.216    0.178
        51 -10.0660     54.7768    185.2184   1.2234598859e+02   3.1197336697e+01    0.1397594    0.1280443 -87.08  0.001072054    1.344    0.256
        52 -11.3100    233.5277    143.3538   7.9687375572e+01   7.3250207894e+00    0.5008835    0.2954524 -49.41  0.002319954    2.462    0.594
        53 -13.0081    237.6954    133.9412   7.6956204602e+01   7.7864542515e+00     1.187658    0.7242398 -39.03  0.006005993    1.769    0.435
        54 -11.8264    246.0432    163.9579   8.1852747450e+01   2.3999114976e+00     0.854514    0.4174771 -32.19  0.004312743    2.091    0.522
        55 -12.7432    247.0780    150.6701   7.9009399631e+01   3.8418776206e+00     1.041154    0.8351717 -41.69  0.006337108    1.571    0.363
        56  -9.2752    185.9615    183.1308   9.5944350778e+01   1.0716090954e+01    0.1898663    0.1611361  55.30 0.0006103294    1.282    0.220
        57 -10.0944    205.2524    181.2442   9.2081542239e+01   7.4829023435e+00    0.2856742    0.2001514  31.36 0.0009352472    1.237    0.192
        58  -9.1855     11.5159    182.4823   1.3050775053e+02   3.6172352321e+01    0.1068418   0.07379228  72.11 0.0004305251    1.043    0.041
        59  -9.3492    230.0187    177.0391   8.7000281111e+01   3.6143516395e+00    0.1923887    0.1585078  22.08 0.0005723059    1.036    0.035
        60  -8.6226    201.2930    174.6862   9.1618410838e+01   9.1104350265e+00    0.1178929    0.1026888  76.91 0.0007006563    1.595    0.373
        61 -10.5986     70.0738    170.6118   1.1782234233e+02   3.2128264289e+01    0.4818921    0.2430895 -84.39  0.002398741    2.278    0.561
        62 -10.7359     43.6369    172.9781   1.2358761875e+02   3.4842524615e+01    0.2873503    0.2049432  47.64 0.0008306461    1.340    0.254
        63 -10.3115    214.6338    159.0618   8.6213943028e+01   8.7964541061e+00    0.3216601    0.2600452 -76.31  0.001089334    2.056    0.514
        64 -11.8813    229.4289    168.0140   8.5392758952e+01   4.8491057216e+00    0.4136774    0.3101415   6.40 0.0005167857    1.283    0.221
        65 -12.2492    221.5622    166.5365   8.6460532255e+01   6.4756402922e+00    0.6850772    0.6048495 -56.82  0.002609213    1.599    0.374
        66  -8.5715    128.6785    172.3058   1.0556626318e+02   2.2816738076e+01    0.1332148   0.09240083  69.97 0.0004955982    1.638    0.390
        67 -10.6696    164.0398    167.2204   9.7433469828e+01   1.7277511452e+01    0.6108885    0.3444687  67.32  0.001933391    3.192    0.687
        68  -9.5224    150.5374    169.5133   1.0057870848e+02   1.9408030804e+01    0.2327308    0.2026474 -53.71  0.001224726    1.305    0.234
        69  -9.8151    150.2191    166.0232   1.0005046470e+02   2.0076511900e+01    0.2250574    0.1841027 -42.72 0.0007468063    1.395    0.283
        70  -9.7623     88.0465    169.8263   1.1387992437e+02   2.9794875719e+01    0.2066467    0.1666936 -83.01 0.0006206815    1.209    0.173
        71  -9.2600    144.4477    168.9402   1.0174042219e+02   2.0623075349e+01    0.1745822    0.1144735 -81.68 0.0008073182    2.459    0.593
        72  -9.4175    106.7141    168.9734   1.0974691964e+02   2.7105123306e+01    0.1759083    0.1510038  78.73 0.0004610368    1.098    0.090
        73  -9.3869     50.9939    168.4862   1.2166596348e+02   3.4907482035e+01    0.1659073     0.104012  40.63  0.001028287    1.585    0.369
        74  -9.8570    110.5637    166.7209   1.0859503712e+02   2.6916942217e+01    0.2759717    0.1914601  66.79 0.0008600461    1.469    0.319
        75 -10.3459    190.5203    163.9478   9.1628172832e+01   1.2724792953e+01    0.2371856    0.2271425  -2.55 0.0003869444    1.143    0.125
        76  -9.5680    183.7798    163.6334   9.2865928238e+01   1.4076495546e+01    0.2437719    0.2247287 -76.40  0.001075329    1.359    0.264
        77  -9.3790    141.4252    163.2267   1.0141488957e+02   2.2201626672e+01    0.1773292    0.1282915 -67.91 0.0008789877    1.673    0.402
        78  -9.3095    153.4527    161.0744   9.8508177436e+01   2.0342267803e+01    0.2496853    0.1728698  37.07 0.0009772338    1.378    0.275
        79  -9.4588    101.1872    156.1355   1.0911085074e+02   3.0527397201e+01    0.1826457    0.1749672  88.57 0.0006108091    1.166    0.142
        80 -10.1067    227.6594    154.6686   8.3045387201e+01   6.9221895533e+00    0.3019417    0.1964557  13.88  0.001556117    1.714    0.416
        81 -11.1989    247.7198    139.5910   7.6576098617e+01   5.1234912168e+00    0.3467205    0.3350786  66.60  0.001335233    1.401    0.286
        82 -10.0715     49.9368    149.0364   1.1997968355e+02   3.9043268089e+01    0.2804351    0.1833677  73.81  0.000944845    1.408    0.290
        83 -10.4527    181.6988    145.3772   8.9653648884e+01   1.7455772967e+01    0.3546279    0.2514352 -65.67  0.001698135    2.075    0.518
        84  -9.1014    137.3349    144.0399   9.8839452074e+01   2.6582621552e+01    0.1946159    0.1785968 -74.58  0.001143567    1.148    0.129
        85 -11.8014    207.4064    132.1894   8.1826463546e+01   1.4218113066e+01    0.7197118    0.5850841 -34.23  0.001657916    1.288    0.224
        86  -9.3064      4.5473    134.7135   1.2924522948e+02   4.6253232791e+01    0.1940911   0.09549388  54.61  0.001180955    1.853    0.460
        87  -9.3728    139.9866    133.3229   9.6093514915e+01   2.8163521698e+01    0.2359119    0.1968703 -68.19 0.0007634637    1.314    0.239
        88 -11.6231    247.0936     97.1874   6.6975792888e+01   1.0869991192e+01    0.6769506    0.3149554 -40.65   0.00284338    2.181    0.542
        89 -11.5803    250.0837     91.1780   6.5095306245e+01   1.1046209952e+01    0.6598971    0.2652384 -28.00  0.002653992    2.296    0.564
        90 -12.7248    249.9263    114.7715   7.0710008149e+01   7.9365798916e+00     1.946651    0.5570265 -25.80  0.006281685    3.892    0.743
        91 -10.3042    205.5742    121.2882   7.9650469252e+01   1.6314960432e+01    0.6311585    0.2552142 -32.11  0.002370642    2.582    0.613
        92 -11.0956    155.2703    126.9259   9.1247066280e+01   2.6272607086e+01    0.6470903    0.3682707 -52.27  0.002806028    1.993    0.498
        93  -9.0585     24.7179    130.1833   1.2408039382e+02   4.5634701896e+01    0.1907567    0.1164165  80.92 0.0007876075    1.460    0.315
        94 -10.3487     74.4945    125.6919   1.1081566446e+02   4.1036522653e+01    0.3519057    0.2278592 -62.90  0.001029066    1.445    0.308
        95  -9.2003    171.4881    125.9938   8.7513501280e+01   2.2976567523e+01     0.221093    0.1932274  42.92 0.0004914807    1.086    0.079
        96 -11.2039    227.5561    119.5995   7.5379146466e+01   1.1852725830e+01    0.6144135    0.2524876 -36.81  0.002458812    2.396    0.583
        97  -9.6133    140.0364    122.5072   9.3743079320e+01   3.0299652975e+01    0.2818894    0.2068444 -68.37  0.001114028    1.643    0.391
        98  -9.6623    132.3292    122.8521   9.5650908492e+01   3.1784142565e+01    0.2249948    0.1771092 -72.86 0.0009185864    1.452    0.311
        99 -10.4233    119.5735    121.5278   9.8479924242e+01   3.4528808151e+01    0.3812565    0.2626935 -52.68  0.001237041    1.471    0.320
       100  -9.7806     98.4466    122.7397   1.0407897506e+02   3.8023297707e+01    0.3710416    0.2065823  64.57   0.00155548    2.449    0.592
       101 -10.5358    244.8181    111.6708   7.0760810244e+01   9.3813839881e+00    0.5459715     0.233952 -37.59  0.001949347    2.283    0.562
       102  -9.7285     82.4894    121.3315   1.0797465936e+02   4.0852256394e+01    0.2817563     0.185806  80.06 0.0008079916    1.848    0.459
       103 -11.3806    245.9610    179.1066   8.4756079896e+01   6.4459136564e-01    0.6272689    0.5006017 -88.79    0.0031227    2.910    0.656
       104 -10.6523    218.6821    110.4823   7.4711773317e+01   1.5107816312e+01    0.7743261    0.2943917 -39.07  0.002868126    2.639    0.621
       105 -10.1221    215.4669    101.5330   7.3047982968e+01   1.7184442431e+01    0.3175473    0.2125998 -65.99  0.001080402    2.360    0.576
       106 -10.4144    192.6158    111.4896   7.9737379330e+01   2.0796977959e+01    0.3915019    0.3116756 -88.14 0.0009890019    1.740    0.425
       107 -12.8128    183.9390    104.6646   7.9732925465e+01   2.3950532852e+01    0.5794258    0.4732289 -82.14 0.0006029094    1.598    0.374
       108 -10.6864    136.2943    108.4586   9.1343123224e+01   3.3903639370e+01    0.3689801    0.2693186  71.03  0.001089489    1.682    0.405
       109 -11.1276    174.8923    107.1244   8.2224264833e+01   2.5607139821e+01    0.2736673    0.2673028 -22.07 0.0003092775    1.049    0.046
       110 -10.9516    236.7550    104.8604   7.0382848257e+01   1.2003896731e+01    0.5082523    0.3381466  30.71  0.002526564    1.610    0.379
       111  -8.7533    202.1479    107.1613   7.6845947840e+01   1.9336106104e+01    0.1966914    0.1761686 -64.86 0.0005167276    1.317    0.241
       112 -11.0375     47.0074    102.9743   1.1465640259e+02   4.9562232611e+01    0.3718141    0.2413028 -78.16  0.000663886    1.420    0.296
       113  -9.5402     52.1355    102.8832   1.1314614214e+02   4.9016387771e+01    0.2005157    0.1557475  84.87  0.000702102    1.267    0.211
       114  -9.3757     73.4006    102.1293   1.0681451859e+02   4.6480595408e+01    0.2889549    0.1583717  54.43   0.00133395    2.120    0.528
       115  -9.7369    227.1763     98.9182   7.0441439681e+01   1.4941193657e+01    0.3630151    0.2040087 -38.48  0.001291502    1.759    0.431
       116 -10.7534    132.0768     99.1008   9.0025784941e+01   3.6692862462e+01    0.3665669    0.2804821 -86.10 0.0009085768    1.717    0.418
       117 -10.0371    119.0938     99.8481   9.3562999035e+01   3.9195726668e+01    0.2280332    0.1992239  89.78 0.0007116854    1.246    0.197
       118  -9.9338    235.3588     95.0760   6.8201155126e+01   1.3682782471e+01    0.3577186     0.238977 -41.28   0.00127521    1.529    0.346
       119 -10.8896    149.3334     93.8630   8.4414153842e+01   3.3939665694e+01      0.38241    0.2626289 -48.05 0.0005153011    1.509    0.337
       120 -11.2678    213.5755     89.9559   7.0394162846e+01   1.9386527519e+01    0.9122707    0.3061966 -34.28  0.003126382    2.788    0.641
       121 -10.3813    115.4702     94.5006   9.3157449569e+01   4.1037534453e+01    0.2667721    0.2601445  87.44  0.001526657    1.019    0.019
       122  -9.6909    157.9668     91.9089   8.1881597297e+01   3.2318192062e+01    0.3255827    0.2211169 -43.70 0.0008907516    1.499    0.333
       123  -9.9583     15.2546     92.9461   1.2261659447e+02   5.4616934947e+01    0.2158002    0.1721086 -18.23  0.001137674    1.706    0.414
       124  -9.7942    191.4441     90.4511   7.4503780944e+01   2.4579963135e+01    0.3424019    0.2867603  79.93  0.001579215    1.416    0.294
       125 -12.1482    243.1051     81.8876   6.3772460888e+01   1.3800131318e+01    0.9580402    0.2666016 -38.07  0.003162427    3.239    0.691
       126  -9.3860    200.6921     86.3769   7.1686177995e+01   2.3009928676e+01    0.3001862    0.1910642 -42.78 0.0006336026    1.616    0.381
       127 -11.1779    196.3719     82.1601   7.1312904511e+01   2.4730335623e+01    0.5361865    0.3028974 -40.94  0.001338031    1.782    0.439
       128 -11.3112    249.3927     75.9567   6.1437708110e+01   1.3211673389e+01    0.6648535    0.2865809 -31.88  0.001284667    2.047    0.511
       129 -10.9652    120.8470     80.9788   8.7970188042e+01   4.2744720971e+01    0.4880466    0.3945658   7.46  0.002414745    1.560    0.359
       130 -11.0987    146.9395     79.2699   8.0822811119e+01   3.7262273000e+01    0.7536119    0.3323136 -42.07   0.00276759    2.265    0.558
       131 -10.3461    216.3086     74.3399   6.5776924776e+01   2.1066428217e+01    0.4837185    0.3723752  17.57  0.002090597    1.489    0.328
       132 -10.7575    164.4587     78.8502   7.6714499068e+01   3.3136481997e+01    0.5264981    0.3511789 -81.36  0.001961218    2.543    0.607
       133 -11.7115    165.5312     69.9831   7.3828968583e+01   3.4406241653e+01    0.9590578    0.3019644 -33.22  0.002375968    3.262    0.693
       134  -9.3046     16.9228     79.1578   1.2020930825e+02   5.7594735988e+01    0.1755798    0.1365409  86.58 0.0004910183    1.230    0.187
       135  -9.0820    179.0896     77.8374   7.3379591318e+01   2.9703086482e+01    0.2311533    0.2051569 -72.94 0.0004213914    1.272    0.214
       136  -8.4548    154.3115     78.6777   7.8924258941e+01   3.5623483050e+01    0.1569539    0.1220897 -75.02 0.0005903502    1.653    0.395
       137  -9.1594    225.2938     74.4256   6.4418258515e+01   1.8906947933e+01    0.2568125    0.1551208 -46.16 0.0006866826    1.752    0.429
       138 -12.1151    206.6238     68.7668   6.5794212302e+01   2.4259626031e+01    0.5705858    0.4700124 -64.24  0.001414325    1.379    0.275
       139 -10.0782    174.2275     72.1850   7.2694402993e+01   3.1859701941e+01    0.5200922    0.3089522 -15.11  0.002010983    2.264    0.558
       140 -11.0875    183.2517     71.1573   7.0618344204e+01   2.9758475527e+01    0.4876408    0.3661695 -34.26 0.0009633309    1.322    0.244
       141 -10.3897    185.3186     62.7584   6.7732877993e+01   3.0557710172e+01    0.4106858    0.2816155 -16.80 0.0008054419    1.637    0.389
       142 -10.1060    151.0750     71.6928   7.7556004102e+01   3.7663594095e+01    0.3232146    0.2867335  81.50 0.0007590848    1.257    0.204
       143 -10.4890    141.7350     68.3761   7.8735492352e+01   4.0496586746e+01    0.4672876    0.3198301 -51.66  0.001708547    1.603    0.376
       144  -9.9348    238.3957     69.7273   6.1318370347e+01   1.6502399744e+01    0.2789279    0.2119424 -57.52  0.001082775    1.488    0.328
       145 -11.1188    227.7565     65.1915   6.1594353166e+01   1.9609703249e+01    0.7960967    0.3730098 -28.74  0.003244289    2.018    0.504
       146 -11.0324    227.8817     56.9464   5.9353835120e+01   2.0694477278e+01    0.6120991     0.373274 -60.86  0.001975763    2.092    0.522
       147 -10.7300    248.8996     66.2337   5.9058125479e+01   1.4588637187e+01    0.4866364    0.3609943 -84.08 0.0008905854    1.752    0.429
       148 -10.8900     47.6411     63.0155   1.0618001916e+02   5.8505141136e+01    0.3242243    0.2355801 -70.35 0.0006761104    1.371    0.271
       149 -10.8797     50.9534     56.1790   1.0307086420e+02   5.9608679206e+01    0.4904813    0.3418936 -21.26  0.001967401    1.759    0.431
       150 -10.1195    161.6126     61.5184   7.2024329943e+01   3.6807100909e+01    0.3745262    0.2423283 -12.96  0.001048787    1.977    0.494
       151 -10.2645    122.2930     62.0018   8.1660998650e+01   4.6131422030e+01    0.3370623    0.2567632 -65.55 0.0009074181    1.626    0.385
       152  -9.4992      8.9368     62.6908   1.2037006684e+02   6.1750756721e+01    0.1519164    0.1339704 -77.29 0.0006073629    1.141    0.124
       153 -10.9160    171.3240     59.2822   6.9326557627e+01   3.4693562581e+01    0.7027831    0.4101477 -68.53  0.001759151    3.041    0.671
       154 -11.0683    167.2468     50.1610   6.7210302356e+01   3.7157310769e+01    0.5673305    0.2868665 -25.11 0.0007625041    2.146    0.534
       155  -8.8725    112.4510     61.5344   8.4249850741e+01   4.8340704229e+01    0.1458856    0.1408041 -35.52 0.0001375476    1.026    0.025
       156 -10.2947     18.0942     59.1097   1.1630752876e+02   6.1980862247e+01    0.4334145    0.2203052  83.72  0.001962762    3.101    0.678
       157 -10.1687    197.7365     58.6803   6.4355958340e+01   2.7986186440e+01    0.4250191    0.2458915 -33.40  0.001225418    1.673    0.402
       158  -9.0837    135.4662     60.5197   7.7734584094e+01   4.3388644464e+01     0.270629    0.1474289 -37.05 0.0006741423    1.815    0.449
       159  -9.4702    134.4962     57.5005   7.6965568836e+01   4.4149390552e+01    0.2235892    0.1400479 -46.00 0.0007854745    1.669    0.401
       160 -12.0745    107.7957     57.0891   8.4098668727e+01   5.0151973685e+01    0.3188502    0.2829641 -29.02 0.0002997582    1.092    0.084
       161  -9.5047     24.5026     60.0607   1.1408216537e+02   6.1312196687e+01    0.1686738    0.1539071 -57.25 0.0006054019    1.132    0.116
       162 -12.3980    214.9284    239.9499   9.9512512431e+01  -9.3156780413e-01    0.6766109     0.652702  62.74  0.005682939    1.622    0.383
       163 -10.2547    101.0605    245.5414   1.1891470334e+02   1.5186092056e+01    0.1924025    0.1248648  76.60  0.001385736    1.648    0.393
       164 -11.5023    176.5300    240.3983   1.0582957641e+02   4.8184211705e+00     0.360893    0.3252823  86.65  0.001744198    1.567    0.362
       165  -9.9527     79.8190    243.2937   1.2222616664e+02   1.8298553516e+01    0.1695382    0.1131246  73.65 0.0009055554    1.363    0.267
       166 -10.9258    122.3146    241.0522   1.1499289483e+02   1.2840320008e+01    0.2002431    0.1718663  61.91  0.001004239    1.204    0.169
       167  -9.6328     78.0509     57.5343   9.3734587438e+01   5.5543111969e+01    0.2641099    0.1828656 -61.28 0.0007159348    1.610    0.379
       168 -12.3232    177.6777     52.9855   6.6130395932e+01   3.4018103588e+01    0.4704685    0.3551753 -65.25 0.0005943509    1.576    0.365
       169 -11.1253    120.9191     49.1474   7.7584031128e+01   4.8744949994e+01    0.5338293    0.3552247  68.05  0.002355943    1.938    0.484
       170  -8.6331     84.7043     51.3361   8.9372044205e+01   5.5662281227e+01    0.1366891    0.1100833 -76.78 0.0005407158    1.649    0.393
       171  -9.7071     73.4510     50.3161   9.2914225799e+01   5.7733354417e+01    0.2102526    0.1664658  65.96 0.0006979958    1.683    0.406
       172 -10.9551    235.4787     48.4500   5.6094442725e+01   1.9969968477e+01    0.3986079    0.2550884 -56.15  0.001386765    1.734    0.423
       173 -10.9564    226.6197     30.5188   5.2263448568e+01   2.4325208923e+01    0.4879633    0.3157211 -25.54  0.002263448    1.512    0.338
       174 -11.3639    227.5412     44.5581   5.6019372504e+01   2.2386559600e+01    0.8450956    0.3330315 -46.39  0.002580922    2.726    0.633
       175 -10.5535    225.1752     36.9235   5.4203350681e+01   2.3920085925e+01    0.4188296    0.3129687 -29.27  0.001299377    1.284    0.221
       176  -9.8673    202.0140     45.3557   5.9734877594e+01   2.8748537115e+01    0.4019027    0.2384103 -71.42  0.001520051    2.474    0.596
       177 -10.8602    188.7500     44.8235   6.1647815397e+01   3.2288519490e+01    0.3867636    0.2788912 -43.10 0.0003770166    1.400    0.286
       178 -10.4866    188.6903     38.7958   5.9777206542e+01   3.3116900138e+01    0.3188294    0.2859119   2.39 0.0006652221    1.193    0.162
       179 -11.5410    194.0667     37.2510   5.8470402518e+01   3.1896334046e+01    0.6917021    0.3728502 -52.58 0.0008458751    2.169    0.539
       180 -10.0489    108.9750    241.4364   1.1726433273e+02   1.4676211399e+01    0.1526172     0.127146  74.86 0.0008745373    1.263    0.208
       181 -10.0063    194.7435     20.9838   5.3333187908e+01   3.3681493580e+01     0.303883     0.257443 -37.43 0.0006868463    1.177    0.151
       182 -12.4834    146.6822     39.9170   6.7967981368e+01   4.3989449890e+01    0.7320831    0.4668915 -68.80  0.001187321    2.401    0.584
       183  -9.3812    206.6924     42.8077   5.8299419088e+01   2.7874685299e+01    0.3556072    0.1222036 -30.09  0.001218424    2.689    0.628
       184 -11.2183     73.1778     42.5387   9.0211879571e+01   5.9292306182e+01    0.2972356    0.2717436 -30.26 0.0005849868    1.038    0.036
       185 -10.7425    214.5058     41.9724   5.6978785712e+01   2.5978752481e+01    0.4155646    0.2337317 -20.23  0.001485245    1.896    0.473
       186 -10.3769    215.2447     33.9416   5.4578358623e+01   2.6792103868e+01    0.4783275    0.2565902 -27.12  0.001500629    1.813    0.448
       187 -10.1815    100.8902    232.7626   1.1788922697e+02   1.7057045459e+01    0.2179684    0.1068461  53.87 0.0008067288    1.622    0.384
       188 -10.5759    208.2100     27.0989   5.3465924938e+01   2.9426164997e+01    0.3053057    0.2556796  50.93 0.0006040895    1.228    0.186
       189  -9.1207    163.5577     42.3238   6.5330817866e+01   3.9275383877e+01    0.2044739    0.1501069 -11.72 0.0009358831    1.529    0.346
       190  -9.1356    124.0043     41.7021   7.4033247817e+01   4.9272200520e+01    0.2083209    0.1956893  37.44 0.0007203076    1.062    0.058
       191 -11.2612     96.3374     39.3071   8.1070223918e+01   5.5692798295e+01    0.3002546    0.2806313 -29.29 0.0003111192    1.074    0.068
       192  -9.8408     89.6361     38.2557   8.2824320734e+01   5.7181394135e+01    0.2693693    0.2236141 -76.82 0.0007738958    1.661    0.398
       193 -11.8268    180.5654     35.0866   5.9899620908e+01   3.5762365513e+01    0.6256211     0.437901  26.01  0.002842131    1.706    0.414
       194 -10.7831    173.1679     35.7364   6.1359050569e+01   3.7647559579e+01    0.4605625    0.3850389 -28.93   0.00153183    1.210    0.174
       195 -10.4472    162.8864     36.6271   6.3523179301e+01   4.0251816634e+01    0.5075961    0.3538491 -87.31  0.001616531    1.864    0.464
       196 -10.1079    200.3645     35.3293   5.6967425389e+01   3.0482212777e+01    0.2634806    0.2490007  30.90  0.000514042    1.107    0.096
       197 -10.2889    110.0433     30.4833   7.3430239729e+01   5.4212162089e+01    0.4444525    0.2040548 -48.50  0.001619816    2.898    0.655
       198 -10.0387    118.0560     29.6451   7.0918238776e+01   5.2504653894e+01    0.2598633    0.2314242 -47.91 0.0005809927    1.232    0.188
       199  -9.7664    103.5905     28.0814   7.4289773459e+01   5.5992127568e+01    0.2479098    0.2049701  73.92 0.0007062968    1.526    0.345
       200  -8.8662    163.5375     27.5268   6.0259347547e+01   4.1272977383e+01     0.149331    0.1439292  43.77 7.886038e-05    1.015    0.015
       201  -9.6364    177.0061     25.7690   5.7414684044e+01   3.7881776737e+01    0.2271585    0.1953824 -70.53 0.0004987954    1.238    0.192
       202  -9.9663    116.5282     24.9497   6.9407624818e+01   5.3525106623e+01    0.2589784    0.2116718  51.15 0.0003946958    1.224    0.183
       203  -9.9584    127.4766     23.7528   6.6215276985e+01   5.1057569712e+01    0.2796053    0.2637865  29.37 0.0007063576    1.016    0.016
       204  -9.4140    250.5556     22.2224   4.7680146365e+01   1.9496650945e+01    0.3240552    0.1301935 -20.98  0.001282467    2.617    0.618
       205 -10.8629     73.3283     21.4080   8.1369687228e+01   6.2960348437e+01    0.3229198    0.2882679  79.57 0.0004998846    1.583    0.368
       206 -10.2665    183.9079     21.3874   5.4943039366e+01   3.6538836680e+01    0.2559464    0.2157114  -8.75 0.0003533671    1.280    0.219
       207  -9.8488     26.8645    232.9051   1.3016657073e+02   2.5980228070e+01    0.1374859     0.111807  70.05  0.001110402    1.303    0.233
       208 -11.1410    209.3734    223.3070   9.8104322250e+01   1.6459560238e+00    0.4994967     0.349393 -44.92  0.002842784    2.057    0.514
       209  -9.3579    157.4287     20.2280   5.8755382676e+01   4.3782094755e+01    0.2132733    0.1314627 -38.17 0.0008653288    1.664    0.399
       210 -10.1427    123.4786     19.2950   6.5351346593e+01   5.2606248686e+01    0.2830192    0.2412294 -69.91 0.0006774869    1.426    0.299
       211 -10.4688    247.5535    226.2466   9.2419246277e+01  -4.4198757497e+00    0.2103645    0.1910274 -17.61  0.001701439    1.614    0.380
       212 -10.9357    153.2139    225.0142   1.0796695703e+02   1.0367121241e+01    0.4292615    0.2408428  48.78  0.002597067    1.444    0.307
       213 -11.0338    150.3331    220.1006   1.0788322448e+02   1.1499919995e+01    0.5101392     0.312208  45.44  0.003079053    1.269    0.212
       214  -9.5418     23.6191     18.3484   1.0210361274e+02   7.0040329452e+01    0.2297745    0.1687376 -31.32 0.0009349691    1.171    0.146
       215  -9.8621     59.3485     17.2503   8.4920067870e+01   6.5922600458e+01     0.218649    0.1968733   6.23 0.0005172393    1.137    0.120
       216 -10.6377    164.6004     15.9390   5.6022938565e+01   4.2347487437e+01    0.4780189    0.2337866  65.96  0.001492506    1.960    0.490
       217  -9.9461    181.3325    222.9359   1.0280314331e+02   6.1534340904e+00    0.2801228    0.2040148  56.52  0.001128672    1.513    0.339
       218  -9.1255    182.6792     13.3072   5.2484255131e+01   3.7752472288e+01    0.1544444    0.1050409 -61.73 0.0005361023    1.640    0.390
       219  -9.8748    177.0702    219.0286   1.0301712842e+02   7.3332871724e+00    0.1995967    0.1881871 -82.18 0.0007089712    1.423    0.297
       220 -10.9171    249.3566    217.9165   9.0853864116e+01  -3.9124573486e+00    0.4658305     0.189337 -36.83  0.002439525    3.257    0.693
       221  -9.1574    219.1083    221.7933   9.6277303573e+01   2.8725783539e-01    0.1640286    0.1288927  37.16 0.0005905968    1.219    0.180
       222 -10.6468    119.9512    217.9228   1.1310183547e+02   1.6546406722e+01    0.2725041    0.2098312  77.22 0.0006161861    1.374    0.272
       223 -12.0756     35.8072    214.6373   1.2782235519e+02   2.8039986029e+01    0.5087603    0.3637998  70.37  0.002739647    1.051    0.048
       224  -9.9313     61.6684    216.1570   1.2341765063e+02   2.4832620990e+01    0.2306617    0.1129387 -89.84  0.001360571    2.252    0.556
       225  -9.8720     11.1752    216.5523   1.3202664844e+02   3.0164720136e+01    0.2130857    0.1513711  39.85  0.001108174    1.604    0.376
       226 -10.1075    234.6223    212.8538   9.2384386831e+01  -1.1893967380e+00    0.2388623     0.208216  -9.65  0.001180697    1.363    0.266
       227 -10.8761    229.0314    213.2026   9.3345343271e+01  -3.5464801829e-01    0.2449075    0.1549462 -37.61  0.001546716    2.061    0.515
       228  -8.3434     90.5131    214.5403   1.1811648138e+02   2.1352039533e+01    0.1144775   0.08563818  59.41 0.0002282372    1.023    0.022
