#   1 NUMBER                 Running object number                                     
#   2 MAG_AUTO               Kron-like elliptical aperture magnitude                    [mag]
#   3 X_IMAGE                Object position along x                                    [pixel]
#   4 Y_IMAGE                Object position along y                                    [pixel]
#   5 X_WORLD                Barycenter position along world x axis                     [deg]
#   6 Y_WORLD                Barycenter position along world y axis                     [deg]
#   7 A_WORLD                Profile RMS along major axis (world units)                 [deg]
#   8 B_WORLD                Profile RMS along minor axis (world units)                 [deg]
#   9 THETA_WORLD            Position angle (CCW/world-x)                               [deg]
#  10 FWHM_WORLD             FWHM assuming a gaussian core                              [deg]
#  11 ELONGATION             A_IMAGE/B_IMAGE                                           
#  12 ELLIPTICITY            1 - B_IMAGE/A_IMAGE                                       
         1 -13.8545    185.6566     44.2770   5.4296521658e+01   3.2994306526e+01      1.33101     1.016014  14.10 0.0009367116    1.697    0.411
         2 -14.1617    195.5028     36.7159   5.0614873153e+01   3.1467404999e+01     1.558513     1.261511 -14.73  0.004601513    1.426    0.299
         3 -14.7443    205.5109     25.3764   4.6156688693e+01   3.0329554351e+01     2.107658     1.482974  20.60  0.002186499    2.034    0.508
         4 -10.3571     65.0093      9.1783   7.0064355388e+01   6.5501957104e+01    0.1814404    0.1555365  88.79  0.001086708    2.053    0.513
         5 -12.4450    228.9599      2.4309   3.8021950681e+01   2.7111292891e+01    0.7580947    0.3028262  75.03  0.003119827    2.338    0.572
         6 -12.4054     32.0087      3.7853   8.1421258818e+01   7.1102295215e+01    0.3269779    0.2868506  11.04  0.002424748    1.374    0.272
         7 -12.0536     59.9950      2.6515   6.8626270481e+01   6.7086819108e+01    0.4604588     0.183797  38.33  0.002150475    2.315    0.568
         8 -10.3938    198.6356    222.6526   9.4115203311e+01  -5.7398386668e-01    0.2283653    0.1346825  41.45 0.0004999109    1.475    0.322
         9 -15.8132     54.1340    200.2362   1.2007755851e+02   2.6771683655e+01     4.039268     3.552458 -88.00   0.02015826    1.238    0.192
        10 -10.9321    114.3042    200.0819   1.0756907001e+02   1.7930177071e+01    0.2306886    0.1869169  85.65 0.0007449466    1.274    0.215
        11 -10.1851     97.0056    200.7511   1.1130259281e+02   2.0602287560e+01    0.3061669    0.2199747  17.95 0.0009663361    2.129    0.530
        12 -11.4653    192.4108    193.5083   9.0262838782e+01   4.9558799052e+00    0.7155104    0.4072569 -64.12  0.002592355    4.290    0.767
        13 -11.0418    208.8342    197.9040   8.7891580224e+01   1.2778037459e+00     0.275238    0.2326254 -78.85  0.001160181    1.921    0.479
        14 -14.1723     86.6123    228.0043   1.1637492406e+02   1.6930246948e+01     1.744903    0.9795729  46.63  0.005133996    1.464    0.317
        15 -10.3146     96.9920    190.4574   1.0997341152e+02   2.2723676845e+01    0.2616522    0.2541129  26.38  0.001245969    1.304    0.233
        16  -9.3623     99.5230    187.4960   1.0901430451e+02   2.2941677563e+01     0.232293    0.1275278 -59.47 0.0008627764    1.886    0.470
        17 -11.1434    150.2035    188.1620   9.8028473599e+01   1.3854859754e+01    0.3161165    0.2716376 -78.66  0.001438777    1.353    0.261
        18 -15.3700     68.2194    144.2651   1.1005745091e+02   3.7471709216e+01     5.673633     2.888631  68.10   0.02220929    2.980    0.664
        19 -10.3099     99.4946    180.7317   1.0805701064e+02   2.4391946273e+01    0.2478627    0.2202822  60.94 0.0005549318    1.070    0.065
        20 -12.1565     72.5095    176.9535   1.1364939638e+02   2.9328460884e+01    0.3899853    0.2612318 -41.55   0.00203331    2.087    0.521
        21 -12.0302     76.7705    171.9332   1.1201922112e+02   2.9842918235e+01    0.3214335    0.2757741 -41.19 0.0008578381    1.498    0.333
        22 -13.8835     73.1157    157.8911   1.1090952354e+02   3.3582398868e+01    0.5650871    0.5448435 -48.28  0.001580899    1.273    0.215
        23 -11.5244    143.1087    171.8669   9.6663927917e+01   1.8443483397e+01    0.4083721    0.3246305 -47.44  0.002163045    1.347    0.258
        24 -10.3228     53.2603    172.6800   1.1748589422e+02   3.2823172012e+01    0.2469163    0.1781536  79.47 0.0007044659    1.232    0.188
        25  -9.5705    205.0486    167.4584   8.2606686557e+01   6.9123319672e+00    0.3484493     0.220147  26.02  0.001249482    1.736    0.424
        26  -9.7093    162.0915    167.3476   9.1550944642e+01   1.5593779375e+01    0.2483677    0.2030986 -83.84 0.0005442998    1.567    0.362
        27 -10.3213     47.6738    172.5421   1.1872324615e+02   3.3526929889e+01    0.2772078    0.1840634 -54.60 0.0009382493    1.691    0.409
        28 -10.2940    230.2370    165.9872   7.7549163089e+01   2.3165912312e+00    0.1822023    0.1084269 -32.71 0.0004483938    1.624    0.384
        29  -9.8157    192.6398    165.0524   8.4584012547e+01   9.8177793012e+00    0.2361214    0.1988622  47.37 0.0007139252    1.219    0.179
        30  -9.6092    170.9495    162.0188   8.8518104987e+01   1.4832080509e+01    0.2354366    0.1861259  86.91  0.001128974    1.755    0.430
        31  -9.2152    156.5075    160.0202   9.1302786060e+01   1.8203308044e+01    0.2162264     0.148215 -48.90 0.0006979262    1.539    0.350
        32 -12.3078     91.2428    155.5687   1.0607111958e+02   3.1378894527e+01    0.6020423    0.4403175 -27.33  0.001580973    2.028    0.507
        33 -10.2433    188.6823    154.6584   8.3155032448e+01   1.2543881009e+01    0.4297087    0.1329971  44.23  0.001370896    3.138    0.681
        34 -11.3918    133.7241    144.6952   9.3421459372e+01   2.6126076059e+01     1.262005     0.294206 -53.92  0.002902221    6.202    0.839
        35 -15.2087     10.5844    206.4582   1.2880297911e+02   3.0291801481e+01    0.6013041    0.4988617 -75.66  0.002666444    1.451    0.311
        36 -11.0000    174.4254    149.0135   8.4936538592e+01   1.6658985902e+01    0.3905262    0.3071761 -50.98  0.001876634    1.367    0.268
        37 -10.5875    144.3317    146.4204   9.1235388223e+01   2.3578053573e+01    0.3963219    0.2672591 -81.11  0.001599098    2.337    0.572
        38  -9.0986    109.2240    147.4036   1.0008073498e+02   3.0203405932e+01    0.1942156    0.1320372  53.78 0.0002674995    1.499    0.333
        39 -10.4268     87.4535    146.2018   1.0541354028e+02   3.4173755174e+01     0.257984    0.1990934  65.62 0.0009736639    1.325    0.245
        40 -11.2408    104.5200    139.8047   9.9778079563e+01   3.2809952740e+01     0.643215    0.3634788 -34.62  0.002524132    2.556    0.609
        41 -12.3921     91.9106    140.4939   1.0320928721e+02   3.4803787297e+01    0.2817047    0.2486769 -54.77 0.0003946485    1.155    0.134
        42 -10.2054    106.5445    210.0300   1.1048376119e+02   1.7261535062e+01    0.2527508    0.1489045  54.76 0.0006983228    1.527    0.345
        43 -11.6612    135.9529    128.3576   8.9154755153e+01   2.9298740537e+01    0.8922311     0.241799 -49.89  0.002456247    3.964    0.748
        44 -10.4451    112.9198    130.6017   9.5619557929e+01   3.3412052435e+01    0.3361712    0.2718028  18.92 0.0009600707    1.520    0.342
        45 -11.2198    100.0564    127.0604   9.8290025892e+01   3.6594732005e+01    0.3855016    0.2588638 -33.97  0.000960878    1.837    0.456
        46 -16.4553     66.6202    247.3310   1.2160603569e+02   1.6280990359e+01     8.743612     2.606438  32.59   0.02698731    7.529    0.867
        47 -10.4582    160.8258    128.1741   8.3096367015e+01   2.3901428514e+01    0.3549505    0.2406181 -43.77  0.001556845    1.483    0.326
        48 -11.3165    119.2173    124.6633   9.2590652189e+01   3.3561805998e+01    0.7152265    0.4342259 -28.74  0.002790887    2.364    0.577
        49 -10.5390    106.0045    130.8341   9.7507027242e+01   3.4642204564e+01    0.3471602    0.2937356 -67.60  0.001366005    1.161    0.138
        50 -10.1172    108.8675    119.4060   9.4130054609e+01   3.6778063233e+01    0.2241912    0.1989813 -68.84 0.0003774897    1.121    0.108
        51  -8.8329    114.3237    118.3102   9.2376379893e+01   3.5983169298e+01    0.1530268    0.1221949 -10.14 0.0003479431    1.653    0.395
        52 -10.6053    134.5864    104.5582   8.3393836518e+01   3.4828606662e+01    0.6232989    0.1456779 -45.53  0.001603128    4.270    0.766
        53 -10.0416    167.5218    112.4753   7.7547519845e+01   2.5596738612e+01    0.3293622    0.2739769 -76.52  0.001060469    1.446    0.309
        54 -11.9750    118.5244    109.1550   8.8916061619e+01   3.7229922215e+01    0.7167206    0.5192682 -59.75   0.00331148    1.466    0.318
        55 -10.1833    205.5147    110.1662   6.9105021915e+01   1.7093967082e+01    0.3259141    0.2178522  41.91 0.0009898558    1.575    0.365
        56 -16.3254      2.5006    115.1849   1.2367604343e+02   5.0773703247e+01      15.4295    0.8362567 -73.52   0.03085026   12.213    0.918
        57 -10.8061     54.2395     95.7764   1.0494147276e+02   5.0843393587e+01    0.2873538    0.1805209 -53.29  0.001417117    1.365    0.267
        58 -10.6311     53.0747     90.6135   1.0413746915e+02   5.2183273809e+01    0.3413436    0.1750361 -56.78  0.001175948    1.666    0.400
        59 -11.5154     42.2071     91.7181   1.0798467650e+02   5.3120874543e+01    0.2857718    0.2786016  -6.23 0.0008862893    1.200    0.167
        60  -9.6001     36.4803     83.0814   1.0803216162e+02   5.5672591312e+01    0.1959031     0.108736 -60.66  0.000503515    1.507    0.337
        61  -9.5147    156.8052     80.7874   7.1024487489e+01   3.4415397038e+01    0.2161864    0.1871669 -73.00 0.0004934806    1.305    0.234
        62  -8.7430    184.3598     77.2953   6.4207446607e+01   2.8125767027e+01    0.1621485    0.1201593  23.50 0.0007032115    1.703    0.413
        63 -10.3346     62.0070     68.9268   9.5206124301e+01   5.5888463571e+01    0.2942382    0.2363896  62.05 0.0009276401    1.676    0.403
        64 -11.2005    153.0504     56.0691   6.4099106125e+01   3.9671552348e+01    0.4163778    0.2958377 -78.78  0.001792262    1.961    0.490
        65 -17.4381      6.3113    239.5078   1.3106774593e+02   2.4561533245e+01     4.926515     1.248438 -71.89   0.02537832    3.471    0.712
        66 -10.2055    172.1136    240.2939   1.0170745837e+02   1.3425223576e+00    0.3245614    0.2344652 -89.37  0.001800046    2.581    0.613
        67 -10.0789     74.1373    231.2340   1.1899082899e+02   1.8101649104e+01    0.3615295     0.104813  50.26  0.001499996    2.807    0.644
        68  -9.9490    111.6677    217.6429   1.1038502049e+02   1.5007337209e+01    0.1966281    0.1775218  72.88 0.0003344007    1.126    0.112
        69 -11.0424    155.6448     50.2389   6.1645889113e+01   3.9920349055e+01    0.3794939    0.2861918  89.23 0.0008604535    1.631    0.387
        70  -8.6228    115.5386     31.4275   6.4229960041e+01   5.2453940710e+01     0.142086    0.1310615  26.64 0.0001544166    1.015    0.015
        71 -11.7990     34.2656     16.1889   8.6627665391e+01   6.9072600536e+01    0.3180771    0.1279854  33.97  0.001559052    2.677    0.626
        72  -9.9035    189.6463     15.0178   4.5178235898e+01   3.5571181350e+01    0.1913782    0.1759662 -45.45 0.0007094704    1.146    0.127
        73 -10.1533    159.4939     14.4906   4.9168618384e+01   4.3465135959e+01    0.1411991    0.1295134  71.69 0.0008105051    1.020    0.020
        74  -9.9899    130.3760    212.8000   1.0599580423e+02   1.2799849572e+01    0.2104083    0.1712268  69.59 0.0005532482    1.243    0.196
        75 -10.2725     58.0669    226.8666   1.2156893310e+02   2.1038303687e+01    0.1989668    0.1341494  84.70  0.001328916    1.318    0.241
        76 -10.3952     49.9627    224.3059   1.2284665962e+02   2.2535249121e+01    0.2739385    0.1794228  74.50 0.0009783788    1.250    0.200
