#   1 NUMBER                 Running object number                                     
#   2 MAG_AUTO               Kron-like elliptical aperture magnitude                    [mag]
#   3 X_IMAGE                Object position along x                                    [pixel]
#   4 Y_IMAGE                Object position along y                                    [pixel]
#   5 X_WORLD                Barycenter position along world x axis                     [deg]
#   6 Y_WORLD                Barycenter position along world y axis                     [deg]
#   7 A_WORLD                Profile RMS along major axis (world units)                 [deg]
#   8 B_WORLD                Profile RMS along minor axis (world units)                 [deg]
#   9 THETA_WORLD            Position angle (CCW/world-x)                               [deg]
#  10 FWHM_WORLD             FWHM assuming a gaussian core                              [deg]
#  11 ELONGATION             A_IMAGE/B_IMAGE                                           
#  12 ELLIPTICITY            1 - B_IMAGE/A_IMAGE                                       
         1 -15.8357    183.7846     83.9608   6.7034561890e+01   2.7246782740e+01     8.027024     1.908321 -42.93   0.01759104    4.237    0.764
         2 -18.8176    238.4068     27.1044   4.3890598097e+01   2.2353792033e+01     10.12967     7.704087 -23.00   0.05195755    1.489    0.328
         3 -15.3761    197.6668     67.3699   5.9821927618e+01   2.6603595771e+01      2.33098     1.964699 -60.32   0.01204554    1.209    0.173
         4 -15.8866    249.2231     75.7685   5.4372880949e+01   1.3140662726e+01     3.983768     1.105078 -25.59  0.007962359    9.850    0.898
         5 -12.8233    104.6287     19.7875   6.3537533133e+01   5.6403270972e+01    0.5674095    0.1868881 -24.26  0.002005148    3.378    0.704
         6 -10.8695    164.0745     15.9557   4.9892289528e+01   4.2309186265e+01    0.3454357    0.3028492  22.93  0.001068654    1.263    0.208
         7 -10.7985    189.2470     14.2059   4.5886753501e+01   3.5989461954e+01    0.3274139    0.2135786 -54.89  0.001161466    1.583    0.368
         8  99.0000    206.0292      5.2221   4.1566122268e+01   3.2670912643e+01    0.3802395    0.1799573  67.34 0.0005165454    1.902    0.474
         9 -12.4023    207.8405     11.7137   4.3092708577e+01   3.1540915213e+01    0.3441867    0.2813417  22.76  0.001108697    1.584    0.369
        10 -11.7080    209.5223      7.4801   4.1813059615e+01   3.1570296748e+01    0.2542225    0.2425254  13.43 0.0006882918    1.286    0.222
        11 -12.7381     48.3495      8.5587   7.7658804794e+01   6.8158103944e+01    0.3698005    0.2105515  -3.75   0.00192293    2.065    0.516
        12 -11.4551    139.8711      9.0356   5.1577815131e+01   4.9178521861e+01    0.2559631    0.1877416  63.25 0.0008873261    1.247    0.198
        13 -11.2760    114.1615      1.6762   5.3824560521e+01   5.6068265784e+01    0.2750002    0.1803176  83.75 0.0008443383    1.989    0.497
        14 -12.3674    119.4489      8.2312   5.5293300024e+01   5.4238059940e+01    0.2994075    0.2123827 -53.56 0.0009488941    1.794    0.443
        15 -12.2222    119.1022      3.2475   5.3409793050e+01   5.4772038187e+01    0.3016208    0.2688072  12.51 0.0009789355    1.138    0.121
        16 -12.7900    135.8602      4.8129   5.0779085857e+01   5.0565737450e+01    0.6994529    0.3051057  46.52  0.002975806    2.100    0.524
        17 -11.8021    105.1958      2.4698   5.6170224005e+01   5.8055835646e+01    0.2699463    0.2362037 -15.25  0.001687421    1.229    0.186
        18 -11.9028     64.7241      5.0363   6.9369149193e+01   6.5960581046e+01    0.2386608    0.1379152  30.77  0.001301656    1.617    0.382
        19 -11.6434    125.1660      2.2040   5.1794145027e+01   5.3410097756e+01    0.3389226    0.2312441  89.56  0.001716351    1.842    0.457
        20 -12.3647     57.6114      2.7735   7.0903416244e+01   6.7414056374e+01    0.3699415    0.1459253  38.88   0.00173782    2.372    0.578
        21 -10.6080    181.3557      2.6969   4.3508823328e+01   3.9167783794e+01    0.2342033    0.2048413  10.86  0.001112059    1.373    0.272
        22 -12.0910    182.3068    149.0022   8.3853740534e+01   1.5131405674e+01     0.328447    0.2076061  45.44 0.0005247142    1.548    0.354
        23 -11.2083    144.4778    146.2686   9.1744776665e+01   2.3655556286e+01    0.4611915    0.3153764 -83.95  0.001907709    2.270    0.560
        24 -11.2221    169.3294    135.6685   8.3622971611e+01   2.0578973672e+01    0.3359988    0.2308442  72.29  0.001392951    2.077    0.518
        25 -10.4831    166.2910    134.6402   8.4061830320e+01   2.1456559252e+01    0.2416783    0.1558924  49.11 0.0005335578    1.551    0.355
        26 -11.3475    136.0000    129.4623   9.0030552486e+01   2.9081506001e+01    0.8065942    0.1733322 -49.11  0.002015332    4.888    0.795
        27 -11.1592    135.2899    121.5159   8.8305116996e+01   3.0988228493e+01    0.7480361    0.2039597 -48.45  0.002109441    3.750    0.733
        28 -12.1991    134.6226    107.6582   8.4937762072e+01   3.4169141387e+01     1.429551    0.2614925 -46.18   0.00328801    5.513    0.819
        29 -10.9982    132.3855     97.4032   8.2718303026e+01   3.6859321593e+01    0.3849062     0.267048 -43.70 0.0006503341    1.417    0.294
        30 -10.4232    132.9609     93.5146   8.1464202988e+01   3.7551269396e+01    0.2272168    0.1858125  62.57  0.000302029    1.340    0.254
        31  -9.5774     98.0510    133.0074   1.0062652258e+02   3.5495287672e+01    0.1695418    0.1591487 -85.69 0.0003630767    1.013    0.013
        32 -12.2147    160.6702    128.5380   8.3884507014e+01   2.3959593212e+01    0.4840457    0.3615658 -49.88  0.001502027    1.376    0.273
        33 -11.8913      7.3560    129.0354   1.2412024198e+02   4.7139546203e+01    0.1812798    0.1589726  85.83 0.0003318012    1.175    0.149
        34 -14.0728    167.6985    114.3448   7.8718509376e+01   2.5286710821e+01     1.112398    0.9629484 -15.48  0.000995728    1.266    0.210
        35 -11.3684    156.0465    111.9949   8.0793221844e+01   2.8454669973e+01    0.5291283    0.3184327 -65.94  0.001695336    2.583    0.613
        36 -11.7493    178.0422    110.0244   7.5320003139e+01   2.3730039232e+01     0.282086    0.2287039 -39.24 0.0006596094    1.220    0.180
        37 -10.4794     96.7580    222.1636   1.1413781344e+02   1.6577374214e+01    0.2164372    0.1029891  66.81 0.0009487829    2.803    0.643
        38 -14.0529     50.4291    164.6959   1.1754686023e+02   3.4912213260e+01    0.8021315     0.618754 -14.33    0.0014498    2.198    0.545
        39 -10.4314    140.6995    105.0216   8.2681702004e+01   3.3397970935e+01    0.2549922    0.2278853  47.99 0.0004699802    1.131    0.116
        40 -11.0383    112.4221    104.0083   8.9934862027e+01   3.9573043954e+01    0.2976032    0.2145078  60.24  0.001089225    1.612    0.380
        41 -11.3041    122.2701    102.9975   8.6955079135e+01   3.7811156989e+01    0.3218445    0.1999812  18.50  0.001183417    2.705    0.630
        42 -11.2858    145.4349    101.4895   8.0534166945e+01   3.3073553390e+01    0.3372824    0.2716052  29.95 0.0006071316    1.364    0.267
        43  -9.7567    113.4899     95.0037   8.7190814952e+01   4.1355759005e+01    0.2228493    0.1460173 -45.77  0.000330969    1.473    0.321
        44 -11.6981    138.8062     91.2761   7.9309518216e+01   3.6699156753e+01     0.342985    0.3042255 -87.97 0.0008227103    1.285    0.222
        45 -14.6297     57.4614    159.9448   1.1533355741e+02   3.5139666740e+01      1.33945     1.161371  24.76  0.002736022    1.491    0.329
        46 -10.0409    206.9087     91.1437   6.4672857710e+01   2.0334127009e+01    0.2243449    0.1952271 -70.46 0.0002900371    1.252    0.201
        47 -11.0567    200.4909     88.2856   6.5061600954e+01   2.2376818996e+01    0.3249297    0.2576516 -72.17  0.001072393    1.485    0.326
        48 -14.4592      6.8490    189.7196   1.2876415684e+02   3.3954961005e+01     1.857167     0.677075 -87.82  0.009413335    2.414    0.586
        49 -11.1250    124.7813     76.8606   7.8654051271e+01   4.2754492941e+01    0.3142281    0.2619923  53.27 0.0006340498    1.253    0.202
        50 -10.7540     87.5602     76.7821   8.9687767944e+01   5.0133245634e+01    0.2980322    0.1959132 -64.97  0.001150282    1.964    0.491
        51 -11.9140     86.3158     72.6936   8.8830938332e+01   5.1205301173e+01    0.4072638    0.2530103  26.90  0.001473916    1.907    0.476
        52  -9.8990    112.2018     76.2311   8.1985266431e+01   4.5571397877e+01     0.193635    0.1736174 -70.23 0.0003767136    1.267    0.210
        53 -11.4235    152.2447     74.4315   7.0982357050e+01   3.6794022621e+01    0.5529984    0.2809873  55.16  0.002117142    2.020    0.505
        54  -9.9539    158.1372     73.1363   6.9245272870e+01   3.5579038303e+01    0.2094582     0.182138 -75.59 0.0002549755    1.293    0.226
        55 -11.4704     90.1257     67.2028   8.5837723509e+01   5.1657127792e+01    0.4949588    0.1918087  29.25  0.001432547    4.785    0.791
        56 -13.7723     63.5289    154.9815   1.1321940236e+02   3.5509674418e+01    0.6744108    0.4387961  76.61  0.001515439    1.629    0.386
        57 -11.6018    150.3647     64.7966   6.8405963516e+01   3.8975133870e+01    0.2915219    0.2634436 -82.81  0.000581124    1.224    0.183
        58 -10.4190    105.2470     54.1356   7.6624269748e+01   5.1192493310e+01    0.3243321    0.1171642 -40.15  0.001083348    2.705    0.630
        59 -11.9783      7.7612    168.7085   1.2726630825e+02   3.8285707095e+01    0.2853676    0.1435869  80.78 0.0009548176    1.719    0.418
        60  -9.8593     97.6681     36.3052   7.2218826529e+01   5.5662320619e+01    0.1329891     0.112845 -73.99 0.0007038048    1.660    0.398
        61 -10.8256    102.7843     34.3736   6.9931463332e+01   5.4882023831e+01      0.19816    0.1211086  39.79 0.0004526745    1.592    0.372
        62 -11.4119    159.8880     29.9149   5.5109229058e+01   4.1776081259e+01    0.4279023    0.2711559 -23.31  0.001080017    1.725    0.420
        63 -10.9442     93.9954     30.0103   7.0815460773e+01   5.7325970010e+01    0.2031851    0.1674753 -58.87 0.0005814348    1.632    0.387
        64 -14.9489     23.4600    181.7253   1.2498655620e+02   3.4077374622e+01    0.8700708    0.7251607  73.57  0.003701268    1.161    0.139
        65 -10.0717    169.5809     21.4672   5.0787935278e+01   4.0275639086e+01    0.2849683     0.140354 -26.09  0.001197869    2.176    0.540
        66 -10.9478    159.9021     21.0279   5.2202685559e+01   4.2830682016e+01     0.211491    0.2019673  -7.49  0.000341489    1.136    0.120
        67 -12.9910    192.8027    194.7499   9.0919324731e+01   4.8841781156e+00      1.02458    0.5714794 -65.93  0.003288257    5.704    0.825
        68  -9.5491    143.6496    181.3380   9.8729519967e+01   1.6533636067e+01     0.148117    0.1059513  74.24 0.0007045416    1.792    0.442
        69 -11.5679    203.1548    191.3393   8.8277335489e+01   3.5382872899e+00    0.3134315    0.1494983  32.81  0.001353115    2.136    0.532
        70 -10.1092    177.0410     14.2922   4.7494786997e+01   3.9129210372e+01    0.1795777    0.1577833 -87.10 0.0002396624    1.091    0.084
        71 -14.1717    158.9995     88.5731   7.3637687427e+01   3.2481539615e+01      2.15844     1.428074  46.52  0.003996183    1.522    0.343
        72 -13.8508    165.8540     72.7421   6.7445447706e+01   3.3725918393e+01    0.7861374    0.5892563 -10.05  0.001847627    1.654    0.395
        73 -10.5762    202.1561    248.1688   9.7781927682e+01  -4.2458358584e+00    0.1743957    0.1273523  22.93 0.0003761451    1.158    0.136
        74 -11.4219    109.8780    223.8761   1.1179308463e+02   1.4255530719e+01     0.183798    0.1616152  42.65  0.001248705    1.236    0.191
        75 -11.8814    246.6703    163.3904   7.4750656935e+01  -2.1176175994e-02      0.54261    0.3026272   6.69   0.00221736    2.938    0.660
        76 -12.0262    199.9972    163.6795   8.3401255633e+01   8.7745432326e+00     0.528527    0.3189792 -71.21  0.001642894    5.099    0.804
        77 -12.3025    192.3695    153.1230   8.2669539186e+01   1.2236193071e+01    0.3822825    0.2131226 -41.60  0.001651832    1.834    0.455
        78 -12.3336    189.6994    148.6695   8.2231783131e+01   1.3627215199e+01     0.352609    0.2565362 -68.26   0.00119896    1.969    0.492
        79 -14.1256     69.5350    145.3502   1.1030582220e+02   3.6959219887e+01     1.430379     1.039869  80.99  0.003732756    1.417    0.294
        80 -11.9642    172.3384    149.5494   8.6120307180e+01   1.7139652375e+01    0.3374492    0.2784733  67.23  0.001702189    1.393    0.282
        81 -11.5926    133.6695    145.3738   9.4141986883e+01   2.6035595249e+01     1.014093    0.2659453 -55.55   0.00242359    5.922    0.831
        82 -12.8289    218.1816    148.6262   7.6621607106e+01   7.7253655472e+00    0.7215798    0.2615781  52.17   0.00245773    3.342    0.701
        83 -12.8039    209.4007    145.0565   7.7482697406e+01   1.0144519255e+01    0.5523874    0.3239577  66.35  0.002115742    2.908    0.656
