#   1 NUMBER                 Running object number                                     
#   2 MAG_AUTO               Kron-like elliptical aperture magnitude                    [mag]
#   3 X_IMAGE                Object position along x                                    [pixel]
#   4 Y_IMAGE                Object position along y                                    [pixel]
#   5 X_WORLD                Barycenter position along world x axis                     [deg]
#   6 Y_WORLD                Barycenter position along world y axis                     [deg]
#   7 A_WORLD                Profile RMS along major axis (world units)                 [deg]
#   8 B_WORLD                Profile RMS along minor axis (world units)                 [deg]
#   9 THETA_WORLD            Position angle (CCW/world-x)                               [deg]
#  10 FWHM_WORLD             FWHM assuming a gaussian core                              [deg]
#  11 ELONGATION             A_IMAGE/B_IMAGE                                           
#  12 ELLIPTICITY            1 - B_IMAGE/A_IMAGE                                       
         1 -13.9382     68.8914    144.5082   9.5507176707e+01   3.7586588776e+01     3.866082      1.98462  68.34   0.00295721    4.669    0.786
         2 -13.5181    205.6502     42.7815   3.7527492212e+01   2.9463975896e+01     1.581554     1.275656  22.91  0.007784614    1.876    0.467
         3 -13.3893    218.1059     31.8118   3.3828128123e+01   2.8208308627e+01    0.9023551    0.7609487  40.08  0.005089173    1.661    0.398
         4 -12.4036    246.4389      7.2573   2.6857070535e+01   2.5409127962e+01    0.6153558    0.5681589 -85.40  0.004989687    1.394    0.283
         5 -11.4217    242.1784      3.5889   2.6446667984e+01   2.6594289344e+01    0.4418771     0.306635  46.89  0.002938362    2.271    0.560
         6 -10.3535      2.1229      8.8878   8.4237780245e+01   7.3541908313e+01    0.3775207   0.05406712 -45.19   0.00128199    5.798    0.828
         7  -9.6123     47.2071      2.3572   5.7412162112e+01   6.8404281109e+01    0.2252936    0.1521341  54.26 0.0009679226    1.736    0.424
         8  -9.8495     51.3944      3.8870   5.6535595638e+01   6.7537930607e+01    0.2265327     0.154885  48.73 0.0007064752    1.455    0.312
         9  -8.0455    224.2478    206.6716   6.9800069503e+01  -1.9435162117e+00    0.1130138   0.09842551 -48.91 0.0002247636    1.543    0.352
        10  -9.7129    139.9821    250.0277   9.4257061253e+01   2.7747300209e+00    0.2055676    0.1472056  57.42  0.001141141    1.763    0.433
        11 -11.1715    102.1476    249.8451   1.0237764904e+02   8.2093758664e+00    0.5253101    0.2153857  33.56  0.002107159    2.117    0.528
        12 -11.3024    101.4160    243.6765   1.0182400148e+02   9.5044626316e+00    0.4483452    0.2392439 -65.18  0.002082719    2.238    0.553
        13 -15.0887      7.5334    145.4601   1.1417123856e+02   4.3617148349e+01     6.615975     2.336075 -84.03   0.02421695    3.201    0.688
        14  -9.3630     99.3267    180.9228   9.3401961287e+01   2.3766118558e+01    0.2611105    0.2192834  21.62 0.0005966392    1.262    0.207
        15  -9.7207     84.8382    174.1793   9.6163953882e+01   2.7687542308e+01    0.3133098    0.2859873 -14.20  0.001054901    1.224    0.183
        16  -9.5575     88.2967    172.6754   9.4961682402e+01   2.7537695752e+01    0.2573599    0.1820067 -74.35 0.0005231918    1.559    0.358
        17 -11.3988     63.4287    172.0485   1.0172630792e+02   3.1243614058e+01    0.4716757    0.2966574 -34.10  0.002112003    2.034    0.508
        18 -11.3779     68.2423    167.2262   9.9641514434e+01   3.1831642536e+01     0.391374    0.3215716  -0.43 0.0008892085    1.479    0.324
        19  -9.0115    186.0172    173.2924   7.0841978573e+01   1.0212837425e+01    0.2067076    0.1888623  14.34  0.001167254    1.104    0.094
        20 -12.7375     77.2735    158.1389   9.5520830561e+01   3.2882453262e+01     2.170926    0.7809533  53.26  0.001615914    6.046    0.835
        21 -12.7423     65.1040    154.2110   9.8397703045e+01   3.5601466104e+01    0.5281008    0.3972033 -23.59  0.000958988    1.617    0.382
        22 -10.5248    191.5211    192.0153   7.3439496436e+01   5.6083489958e+00    0.6261722    0.3316125 -62.32  0.002072539    4.446    0.775
        23  -9.0307    174.8734    149.3081   6.8069040567e+01   1.7229403035e+01    0.2281989    0.1928288  64.80 0.0005676895    1.438    0.305
        24 -11.1479     22.9993    147.1278   1.0985762886e+02   4.2027296500e+01    0.4247359     0.269435  69.85  0.001404954    1.800    0.445
        25 -10.9794    240.4416    169.7749   5.9906188695e+01   1.9704195443e+00    0.2299556    0.2018166 -57.93  0.001305351    1.465    0.317
        26 -10.1647     32.5821    144.0379   1.0657012167e+02   4.1963716419e+01     0.460371     0.315758  21.79  0.002420004    1.669    0.401
        27  -8.2360     89.6501    142.2571   8.8756740740e+01   3.5007240108e+01    0.1542116    0.1174403  65.14 0.0002110916    1.601    0.375
        28 -10.0699    100.2479    138.3787   8.4759006248e+01   3.4174916958e+01     0.586569    0.3558785 -23.99  0.002200284    2.452    0.592
        29 -11.6101     87.0878    137.7968   8.8574199834e+01   3.6548683773e+01    0.3037958    0.2703902 -36.64 0.0003905663    1.113    0.101
        30  -8.6963    110.6984    167.3351   8.7870619692e+01   2.5196322811e+01    0.2763351    0.1873795 -67.70   0.00121131    1.701    0.412
        31  -9.7064    105.8569    130.8586   8.1365607841e+01   3.5004558479e+01    0.3756757    0.3106359 -64.18  0.001534937    1.296    0.228
        32  -9.5754    109.8023    129.4127   7.9867226446e+01   3.4617376099e+01    0.3612217    0.2671199   7.75  0.001077575    1.734    0.423
        33  -9.8371    135.6893    129.6759   7.2801785958e+01   2.9446541886e+01    0.4516805    0.1389986 -44.97  0.001340464    3.176    0.685
        34  -9.7901     45.4079    166.3844   1.0593750796e+02   3.4880895079e+01      0.27974    0.2080795  71.41 0.0006370224    1.420    0.296
        35  -9.1362    123.2885    200.4417   9.0606346504e+01   1.5293221605e+01    0.2388785    0.1803765 -84.46 0.0007415115    1.768    0.435
        36  -9.7773     97.1124    124.9538   8.2561395514e+01   3.8018859390e+01    0.3285051    0.2518062   2.80  0.001457164    1.606    0.377
        37  -8.8070    116.2142    123.6091   7.6592372742e+01   3.4755308884e+01    0.2215563    0.1495426  26.53 0.0006262263    1.685    0.406
        38  -8.6161    163.1697    120.9852   6.3979957627e+01   2.5571805495e+01    0.2524527    0.1711818 -67.31 0.0005238694    2.000    0.500
        39 -13.9491     36.6540    196.0228   1.1164496747e+02   2.8445424684e+01     1.759536    0.9727347  65.38  0.007416298    1.945    0.486
        40  -9.0908    106.9168    118.3215   7.7950823179e+01   3.7788898305e+01    0.2079382    0.1901966  26.37 0.0002889317    1.113    0.101
        41 -10.0058    231.2881    113.8327   4.9858553557e+01   1.3229617571e+01    0.2545431    0.2346096 -36.77 0.0008123033    1.104    0.095
        42 -11.3645     84.9702    152.3156   9.2187309496e+01   3.3205310712e+01    0.6250774    0.4445272 -20.15  0.001983994    1.835    0.455
        43  -9.0198    135.0000    112.0232   6.8477069651e+01   3.3501453406e+01    0.2655635   0.08746734 -44.36 0.0008088175    2.987    0.665
        44 -10.6454     52.8564    111.1115   9.3877290298e+01   4.8155049149e+01    0.3338057     0.246569 -79.91  0.001554771    1.640    0.390
        45 -10.9418    243.9941    109.1132   4.7104415906e+01   1.1763277979e+01    0.4134965    0.1043122 -39.79  0.001447788    3.288    0.696
        46  -9.1374    205.5665    110.2101   5.3096322791e+01   1.8806338499e+01    0.2364762    0.2013164  56.66  0.000662483    1.294    0.227
        47 -10.4515    133.7671    144.8821   7.6921337925e+01   2.6327524635e+01     1.103398    0.2787507 -53.03  0.002645025    5.134    0.805
        48  -8.1577    134.6849    105.6675   6.6860104475e+01   3.4920529959e+01     0.159141    0.1229786  -0.81 0.0007046308    1.685    0.406
        49 -10.2549    249.7157    101.5890   4.4843350289e+01   1.1998030406e+01    0.2380321    0.1260945 -53.47  0.001198844    1.806    0.446
        50 -10.5223    248.3465     96.2637   4.3936541521e+01   1.3087785141e+01    0.2100644    0.1582617  43.36  0.001280945    1.717    0.418
        51  -9.0484     31.4470     95.4728   9.8232900791e+01   5.4248789595e+01    0.2296473    0.1146629  34.92  0.001038236    2.255    0.557
        52  -9.3174     52.8286     90.8618   8.8905816982e+01   5.2971944285e+01    0.1837832    0.1709683 -85.20 0.0005686655    1.312    0.238
        53  -9.7603     17.9696     90.2937   1.0235292203e+02   5.6575417614e+01    0.1795636    0.1566859 -33.20 0.0004150126    1.091    0.083
        54  -8.3644    160.5001     83.5226   5.4843223344e+01   3.3433747486e+01    0.1447868    0.1408549 -79.16 -4.332476e-05    1.002    0.002
        55  -8.8410     71.9133     82.9735   7.9550073567e+01   5.1935885401e+01    0.2123398    0.1785084  71.14 0.0006748129    1.650    0.394
        56 -13.6720     46.1796    186.8022   1.0827492876e+02   2.9644642845e+01     1.707884    0.9760119  39.70   0.00841538    1.716    0.417
        57  -8.9938     47.9221     62.2223   8.2264653413e+01   5.9677441286e+01    0.1832279    0.1716683   2.50  0.000379266    1.190    0.159
        58 -10.4014     13.4765     60.1109   9.7007453031e+01   6.3597460114e+01    0.2751265    0.1850193 -47.55 0.0004424822    1.248    0.199
        59 -12.2739    196.0298     49.6146   4.0280513253e+01   3.0654190203e+01    0.7256076    0.4852966  48.68  0.001002422    1.729    0.422
        60 -11.3443    119.3678    244.4052   9.7976627979e+01   6.7900235675e+00    0.3380975    0.2056696  46.77  0.001216771    1.591    0.371
        61 -15.0843      9.9204    208.8570   1.1886600743e+02   2.8038882761e+01     1.831788     1.207276 -85.97  0.004201386    1.307    0.235
        62  -8.0999     42.6654     40.3201   7.6539040332e+01   6.4293267696e+01    0.1129349    0.1045232  64.83 0.0003736136    1.702    0.412
        63 -10.2654      2.2984     24.5369   9.1027119584e+01   7.1076060410e+01    0.2659481   0.08761582 -50.80   0.00114161    2.726    0.633
        64  -8.7791    197.9645     23.6660   3.4016278381e+01   3.3467728576e+01    0.1876878     0.165267 -31.33  0.000657877    1.380    0.275
        65  -8.8670    189.5127     14.9546   3.2867952658e+01   3.6274673139e+01    0.1706145    0.1142041 -37.84 0.0007413504    1.568    0.362
        66  -9.8550    111.1511    204.0547   9.4168823137e+01   1.6437399196e+01    0.2152522    0.1891671 -10.47 0.0005809467    1.271    0.213
        67 -10.8827    119.8033    212.6536   9.3409337162e+01   1.3170160101e+01     0.328128    0.2753506 -79.88  0.001436995    1.407    0.289
        68 -10.6984    197.8870    203.3860   7.4297526441e+01   2.4856010693e+00    0.2763511    0.1844946 -30.18  0.001125962    1.406    0.289
        69 -16.6666     15.2679    241.7351   1.1976075762e+02   2.0413636464e+01     6.890212     2.714166  20.40   0.02929533    4.032    0.752
