#   1 NUMBER                 Running object number                                     
#   2 MAG_AUTO               Kron-like elliptical aperture magnitude                    [mag]
#   3 X_IMAGE                Object position along x                                    [pixel]
#   4 Y_IMAGE                Object position along y                                    [pixel]
#   5 X_WORLD                Barycenter position along world x axis                     [deg]
#   6 Y_WORLD                Barycenter position along world y axis                     [deg]
#   7 A_WORLD                Profile RMS along major axis (world units)                 [deg]
#   8 B_WORLD                Profile RMS along minor axis (world units)                 [deg]
#   9 THETA_WORLD            Position angle (CCW/world-x)                               [deg]
#  10 FWHM_WORLD             FWHM assuming a gaussian core                              [deg]
#  11 ELONGATION             A_IMAGE/B_IMAGE                                           
#  12 ELLIPTICITY            1 - B_IMAGE/A_IMAGE                                       
         1 -15.6001     12.0096     12.7295   3.8638679665e+01   7.6742093921e+01     2.174284     1.568157 -18.53   0.01298972    1.388    0.280
         2 -12.3452    175.8677     15.7804   3.5011851993e+02   3.9911863825e+01    0.3460874    0.2392572 -63.18 0.0008316628    1.207    0.172
         3 -12.8502    167.9890     15.8036   3.5079378976e+02   4.1665926487e+01     0.382494    0.2452316  79.19  0.001095896    1.477    0.323
         4 -12.9145     35.6598      9.2177   1.8694268531e+01   7.3514291881e+01    0.5267427    0.3559287  -6.81  0.002829307    1.854    0.461
         5 -12.7653     65.0403      6.1756   4.0983609257e+00   6.7516385392e+01     0.404106    0.3274471  60.91 0.0008045228    1.094    0.086
         6 -12.6982     59.2884      6.8433   6.3869875607e+00   6.8778341937e+01    0.5748405    0.4553782 -73.91  0.003350492    1.539    0.350
         7 -11.8143     81.6541      6.5526   3.5979066305e+02   6.3505108950e+01    0.3503817    0.2512312   9.26  0.001905485    1.814    0.449
         8 -13.1998    153.3676      3.6271   3.4858741462e+02   4.6251914658e+01    0.3661493    0.2447317 -87.24   0.00133225    1.312    0.238
         9 -10.8258    186.2495    193.6595   2.8677670154e+01   8.9671401916e+00    0.2232178    0.1412408 -48.57  0.001258181    1.744    0.427
        10 -11.3950     68.2228    175.5317   5.4227470817e+01   2.9143740310e+01    0.2724162    0.2484308  57.31 0.0006718235    1.058    0.055
        11 -11.7887    219.6203    174.1518   1.9627458301e+01   7.9747413577e+00    0.2574952    0.1864169 -53.03  0.001620901    1.779    0.438
        12 -12.8487     15.4952    163.5667   6.9251248614e+01   3.7854273672e+01    0.6335179    0.2442191  23.27  0.002518144    2.467    0.595
        13 -12.1563      2.5913    146.2370   7.2382993665e+01   4.3433715200e+01    0.4717655    0.2845513  74.08  0.002287602    1.561    0.359
        14 -12.6221     23.9657    147.4629   6.5136887343e+01   4.1516561739e+01    0.4419793    0.1990373  88.27  0.001590406    2.490    0.598
        15 -12.6821      9.9354    143.0131   6.9637793316e+01   4.3842779613e+01    0.5012354    0.3397027  60.97  0.002531037    1.409    0.290
        16 -10.5289    174.2457    139.9918   2.0930414062e+01   2.0371241639e+01    0.1859441    0.1051823 -42.99 0.0008202431    1.587    0.370
        17 -11.3175     35.0023    135.9890   5.9927022026e+01   4.3648328698e+01    0.1831437    0.1715467  83.76 0.0006744356    1.005    0.005
        18 -10.8199     30.4992    136.4857   6.1633007413e+01   4.3959941184e+01    0.1485883    0.1372854  77.09  0.000119933    1.019    0.019
        19 -11.1933    216.0000    134.9970   1.2915404105e+01   1.4678247933e+01     0.209875   0.05837098 -40.25 0.0007990156    2.919    0.657
        20 -10.2727    237.4878    132.4521   9.5120809918e+00   1.2061464247e+01    0.1180087   0.09047535 -34.37 0.0004312918    1.005    0.005
        21 -10.4777    165.5958    127.8396   2.0008026163e+01   2.4211206795e+01    0.2062789    0.1222428 -52.77 0.0009478393    1.719    0.418
        22 -10.4699     68.6616    128.6841   4.6627023694e+01   4.1365458560e+01    0.1614862    0.1184099 -25.52 0.0007048035    1.701    0.412
        23 -10.2581     39.2295    125.9758   5.6937213572e+01   4.5989158649e+01    0.1978602    0.1212701 -71.42 0.0003745203    1.579    0.367
        24 -11.4459     19.0923    124.1529   6.4507805392e+01   4.8422934761e+01    0.2397975    0.1912316 -45.34  0.001250339    1.312    0.238
        25 -10.3721     60.4712    122.4998   4.8345973098e+01   4.4236983714e+01     0.155189    0.1466532  77.75 9.071369e-05    1.044    0.042
        26 -11.9155     67.8275    120.2750   4.5221883190e+01   4.3739021970e+01    0.2849159    0.2535883  84.69 0.0003846413    1.160    0.138
        27 -12.3626    208.0067    114.7117   9.9593480905e+00   1.9234028813e+01    0.6190509    0.1860983 -33.79  0.002087185    3.890    0.743
        28 -11.1462     80.3247    117.9976   4.0341863036e+01   4.2305198920e+01    0.2166763    0.1987119 -63.63 0.0004041824    1.075    0.070
        29 -11.0700     53.5138    117.7716   5.0034733309e+01   4.6496140527e+01    0.2650601    0.2086286  31.22 0.0004835902    1.293    0.226
        30 -12.3665     23.6906    115.5874   6.1597961589e+01   5.0445342005e+01    0.3273945    0.2657716  46.36 0.0004278708    1.248    0.199
        31 -12.1893    222.5685    113.0118   7.6331656783e+00   1.7190187198e+01    0.2866289    0.1986507  -4.76  0.001596308    2.173    0.540
        32 -12.5392     38.8067    105.2718   5.3559426434e+01   5.1785359609e+01    0.5615245    0.4081386  88.87   0.00186691    1.509    0.337
        33 -10.6252    188.3526    110.1977   1.1971082402e+01   2.3374367959e+01    0.2029747    0.1063515 -47.58 0.0009510024    1.720    0.418
        34 -12.2571    136.5827    108.5693   2.1740722712e+01   3.3708556557e+01    0.2637941    0.2522626 -32.83 0.0003784311    1.086    0.079
        35 -11.4955     39.2650    112.5272   5.4707885108e+01   4.9729032025e+01    0.3740478    0.2684664  54.50 0.0009341686    1.472    0.321
        36 -10.4095    111.2613    107.0108   2.7914598923e+01   3.9193378172e+01    0.1921798    0.1307518 -49.62 0.0002218816    1.435    0.303
        37 -10.9096     86.1820    101.8795   3.4379411004e+01   4.5318664541e+01    0.2418587    0.2087068  77.57 0.0005547168    1.265    0.209
        38 -10.9960    160.0000     96.9976   1.3826577041e+01   3.1221845323e+01    0.2396986   0.07521702 -41.54 0.0007988716    2.918    0.657
        39 -12.2226     24.6587     92.0720   5.7417446242e+01   5.6882145171e+01    0.4204672    0.2951591 -71.00  0.001521589    1.363    0.266
        40 -11.0065    240.3229     91.6789   1.3219815888e+00   1.7651817265e+01    0.1198141   0.07207239 -57.38 -0.0001541599    1.676    0.403
        41 -12.0633    144.9746     90.5087   1.5164381335e+01   3.5600853794e+01    0.3123146    0.2122002 -45.33   0.00151165    1.379    0.275
        42 -11.2816     47.4985     90.0061   4.6400998466e+01   5.4782172747e+01    0.2352023    0.2110714  28.94  0.000888156    1.141    0.124
        43 -11.5843      2.6884     87.0095   6.7368925907e+01   5.9792097520e+01    0.3335216    0.1986623 -47.85 0.0007782598    1.584    0.369
        44 -10.5443     63.1866     82.2227   3.7491593535e+01   5.4300028887e+01    0.2598026    0.1600659 -19.81 0.0009450013    2.778    0.640
        45 -11.8628    138.4086     79.6531   1.3574672860e+01   3.9097184201e+01    0.2826059    0.2500884 -70.58 0.0006236223    1.087    0.080
        46 -10.8508    107.4359     80.0168   2.1372159527e+01   4.5926623639e+01    0.2216107     0.203683  59.80 0.0004692008    1.087    0.080
        47 -12.5268     10.7946     76.6740   6.1619220089e+01   6.2123703690e+01    0.3939345    0.2669429 -54.24 0.0005382875    1.342    0.255
        48 -11.3501    225.0061     75.6940   3.5962652912e+02   2.2402538098e+01    0.2961724    0.1488023 -38.91  0.001612109    1.574    0.365
        49 -11.4353     34.4862     75.6126   4.8859757531e+01   6.0200855161e+01    0.3899128    0.2504612 -36.39  0.001787272    1.675    0.403
        50 -10.4504    168.4766     76.5130   7.1058026019e+00   3.3099864910e+01    0.1395906    0.1220967 -58.81 0.0004416732    1.009    0.009
        51 -10.2536     80.9692     76.7561   2.8866413593e+01   5.2239520411e+01    0.1981835    0.1280188  42.42 0.0004962024    1.546    0.353
        52 -11.5863      2.0078     69.9070   6.5366547973e+01   6.4392696560e+01    0.3601266     0.168658 -64.09  0.001600174    1.828    0.453
        53 -11.2296     25.6027     68.6170   5.1706154562e+01   6.2977330429e+01    0.2624684    0.2242458  -5.51 0.0008277947    1.212    0.175
        54 -10.7397     96.9968     67.2573   2.0347336332e+01   5.0827812237e+01    0.2019911    0.1884698  63.32 0.0002913237    1.049    0.047
        55 -11.3779    203.3304     65.1729   3.5962310235e+02   2.7834551387e+01    0.2525011    0.1093136 -29.89  0.001085214    2.572    0.611
        56 -12.0069     17.2250     63.0404   5.5051537720e+01   6.5177954348e+01    0.3778356    0.2021647  21.76 0.0009325778    1.897    0.473
        57 -11.3113    197.8811     53.9098   3.5758317946e+02   3.0500767180e+01    0.1752202    0.1577148 -44.26 0.0002765374    1.209    0.173
        58 -10.6307     62.0494     55.3185   2.8778864463e+01   6.0577274109e+01    0.2095232    0.1856483  45.06 0.0005745702    1.109    0.098
        59 -11.8887     14.7905     53.1161   5.3872632233e+01   6.7835929872e+01    0.5696605    0.2856349 -29.09  0.002408843    2.321    0.569
        60 -11.2621     16.1586     46.8337   5.1024823162e+01   6.9208800718e+01    0.1979586    0.1891418  65.65 0.0007765592    1.204    0.169
        61 -11.8292     84.5359     52.5511   1.9048574768e+01   5.6412688410e+01    0.5284381    0.2962905  32.29  0.001402756    2.470    0.595
        62 -11.2896     90.2155     50.6529   1.6482289541e+01   5.5468821736e+01      0.28557    0.2053466  57.79 0.0008555123    1.353    0.261
        63 -13.3302     73.8238     45.1773   1.9892191216e+01   6.0099161078e+01     1.027153     0.648046  39.52  0.004608504    1.637    0.389
        64 -12.7520     76.7010     33.0022   1.3597403106e+01   6.1453428271e+01    0.5215262    0.4400507   3.52  0.002889774    1.430    0.301
        65 -11.4500    174.8470     45.1958   3.5799982607e+02   3.6518171011e+01    0.3590062    0.1552054 -40.97   0.00163462    1.971    0.493
        66 -11.6685    189.6996     43.4602   3.5590750864e+02   3.3587816682e+01    0.2855296    0.1102858 -45.87  0.001285796    2.108    0.526
        67 -11.6117     28.5080     43.0360   4.1501640311e+01   6.8677983286e+01    0.3667227    0.2469354  51.96  0.001816225    1.847    0.459
        68 -11.7345     32.2406     39.8834   3.7827165572e+01   6.8829151638e+01    0.3406703    0.2300376  -8.51  0.001642057    1.906    0.475
        69 -12.3622     54.4929     45.0005   2.7980174111e+01   6.4072712844e+01    0.5117066    0.3966146  14.38  0.001994737    1.504    0.335
        70 -10.7761    183.4117    245.6137   3.6959659309e+01   1.3028773119e+00     0.139889     0.122695  23.20 0.0007325042    1.496    0.331
        71 -11.8398     34.0093     27.0510   3.0476322567e+01   7.1029907414e+01    0.3443299    0.2708236   1.59  0.001440478    1.377    0.274
        72 -10.3325    220.6756     26.6824   3.4947488569e+02   2.9565736852e+01   0.09791294   0.08983833  18.68 0.0007044466    1.671    0.402
        73 -11.9373    107.5777     21.8383   8.1794443822e-01   5.5501636656e+01    0.2409455    0.2059902  79.53 0.0003077347    1.056    0.053
        74 -11.4312    155.1280     20.3334   3.5334040837e+02   4.4119953971e+01    0.1992213    0.1817837 -23.03 0.0009668627    1.352    0.261
        75 -11.0818     81.0041    238.7929   5.7713793198e+01   1.3580446281e+01     0.200552    0.1901868 -67.97   0.00140649    1.259    0.206
        76 -12.5857    238.4350    232.1122   2.5932027772e+01  -2.0027957646e+00    0.2998531    0.2201494  20.32  0.002405917    1.566    0.361
        77 -11.1223    149.2417     15.9724   3.5267601000e+02   4.5984768362e+01    0.1661585    0.1028225 -34.37 0.0008530993    1.616    0.381
        78 -11.2027    246.5119    226.4676   2.3932069443e+01  -1.9947771104e+00    0.2083563   0.07809001 -37.13  0.001215433    2.184    0.542
        79 -12.6370    136.6526    218.6760   4.2670801137e+01   1.0800412893e+01    0.4553539    0.2506671 -70.16  0.001943108    3.593    0.722
        80 -10.6287     63.1217    217.1732   6.0109110301e+01   1.9974224117e+01    0.1879596    0.1344102  49.63 0.0004869685    1.307    0.235
        81 -10.9536     82.3203    202.6571   5.3669846295e+01   2.0910978029e+01    0.1458393   0.09492944  57.02 0.0007049885    1.723    0.420
