#   1 NUMBER                 Running object number                                     
#   2 MAG_AUTO               Kron-like elliptical aperture magnitude                    [mag]
#   3 X_IMAGE                Object position along x                                    [pixel]
#   4 Y_IMAGE                Object position along y                                    [pixel]
#   5 X_WORLD                Barycenter position along world x axis                     [deg]
#   6 Y_WORLD                Barycenter position along world y axis                     [deg]
#   7 A_WORLD                Profile RMS along major axis (world units)                 [deg]
#   8 B_WORLD                Profile RMS along minor axis (world units)                 [deg]
#   9 THETA_WORLD            Position angle (CCW/world-x)                               [deg]
#  10 FWHM_WORLD             FWHM assuming a gaussian core                              [deg]
#  11 ELONGATION             A_IMAGE/B_IMAGE                                           
#  12 ELLIPTICITY            1 - B_IMAGE/A_IMAGE                                       
         1 -13.1895    159.9620     81.7090   3.4298601659e+01   3.3480650932e+01     2.381769     1.045236 -43.67  0.009615144    2.066    0.516
         2 -13.1388    169.0098     96.1779   3.6426681101e+01   2.8980533384e+01     2.405905    0.7976991 -33.13  0.007463906    3.895    0.743
         3 -12.8467    179.5196     77.1311   2.9915423539e+01   3.0042129370e+01     1.725313    0.6500676 -47.89  0.006688911    2.506    0.601
         4 -10.1072    215.4827      8.2946   9.5057254308e+00   3.1602530707e+01    0.3509678    0.1574993 -44.04 0.0008664625    1.596    0.373
         5  -7.9102     95.9881     10.7199   2.1679735809e+01   6.0174290239e+01    0.1940466     0.161392  85.56 0.0002455378    1.076    0.071
         6  -9.4063      1.9049      3.7037   7.2874747090e+01   8.1141627393e+01    0.4253121    0.2694685 -83.96  0.002171848    2.447    0.591
         7  -8.1158    231.4756      5.4899   8.2285216460e+00   2.8835046611e+01     0.114141   0.08312142 -52.44 0.0002354453    1.038    0.036
         8  -7.9796    206.3158      5.3140   9.2202325830e+00   3.3751794166e+01    0.1023233     0.091488  39.38 0.0007035427    1.644    0.392
         9  -8.2586    222.0000      2.9964   8.0348222513e+00   3.0864862665e+01    0.1863439   0.05316689 -28.94  0.000807593    2.978    0.664
        10 -12.4738     64.2044    178.4599   7.9921659586e+01   2.9163114401e+01    0.8575923    0.6930366 -81.02  0.004719723    1.332    0.249
        11 -12.7647     52.3855    183.5492   8.3890836116e+01   2.9371753799e+01     2.768314    0.4368639 -55.31  0.007393219    6.066    0.835
        12  -8.8410     69.3689    207.9453   8.1507390023e+01   2.1818203822e+01    0.2554025    0.1733574  22.34 0.0009514773    1.360    0.264
        13 -11.5696     40.1417    214.2337   8.9563049934e+01   2.3694748520e+01     1.231601    0.4593485 -47.03  0.004610462    4.242    0.764
        14 -11.8153     36.3613    205.8874   9.0050935419e+01   2.5904138103e+01     1.061243    0.4308742  81.80  0.004248338    3.202    0.688
        15  -9.6589    121.2903    196.1240   6.7062204166e+01   1.7492085289e+01     0.236403    0.2117912  -8.16 0.0002862902    1.126    0.112
        16  -7.0384     14.4152    213.2884   9.6119380069e+01   2.6305434221e+01    0.1207266   0.09106333 -22.33 0.0002573339    1.832    0.454
        17 -11.3893     50.4363    172.5390   8.3405973149e+01   3.2313377329e+01    0.7198553    0.3067296 -75.86  0.002815968    2.587    0.613
        18  -7.6494    127.0801    193.7738   6.5354454308e+01   1.7143439756e+01    0.1871074     0.152412  22.25 0.0004662852    1.098    0.089
        19  -7.6361    127.0803    187.4596   6.4403483232e+01   1.8376734771e+01    0.2161121    0.1224491  29.23  0.001039919    1.631    0.387
        20  -9.3325     28.1544    208.9605   9.2387793425e+01   2.6020412255e+01    0.3273446    0.1424565  31.07  0.001547898    1.792    0.442
        21  -8.2352    104.2903    181.3288   6.9158904011e+01   2.2965056095e+01    0.1402116    0.1052591 -16.55  0.000587601    1.621    0.383
        22 -11.5764     76.8308    177.2734   7.6125755719e+01   2.7783609439e+01      0.66483    0.3511698  32.61  0.002954277    1.671    0.402
        23  -7.8307    209.3216    175.1023   4.5921652635e+01   9.1086689836e+00    0.1594484    0.1254276 -24.69 0.0003244501    1.094    0.086
        24 -10.4586     40.6076    173.2307   8.6480001311e+01   3.3249897391e+01    0.4243444    0.2251765 -87.45  0.001861137    2.069    0.517
        25  -7.8933    116.0157    174.5005   6.5079512750e+01   2.2688862392e+01    0.2153811     0.102147  50.68    0.0001899    2.698    0.629
        26 -11.5742     77.4718    158.2890   7.3310853998e+01   3.2328126070e+01    0.6975449    0.4859348  75.30  0.002813516    1.712    0.416
        27  -8.5952    109.8109    161.2160   6.4476332706e+01   2.6594881018e+01    0.2481853    0.1499717  68.54 0.0008649116    2.796    0.642
        28 -11.9336     59.6024    164.9537   7.9741867737e+01   3.3105342941e+01    0.8399718    0.5441409 -87.75  0.003915707    1.736    0.424
        29 -10.1672     99.8513    159.2594   6.6881980530e+01   2.8647786457e+01    0.3750152    0.2254478 -65.76  0.001648244    1.908    0.476
        30 -12.2275     83.1488    168.6933   7.3145102336e+01   2.8945513236e+01    0.8150908    0.5896596  68.83  0.003998051    1.591    0.371
        31  -9.7516    136.4626    151.1702   5.5815148170e+01   2.4327386210e+01    0.4421452    0.2910152 -36.21  0.001382951    1.604    0.376
        32  -8.0445     30.4676    162.7401   8.8805391944e+01   3.7006124163e+01    0.2482936    0.1861572  26.86 0.0006415191    1.299    0.230
        33  -8.0154     87.2938    140.6608   6.7305912266e+01   3.5239846619e+01    0.1605006    0.1149881  69.32 0.0003281932    1.651    0.394
        34 -10.2332    115.3546    135.2043   5.7952181650e+01   3.1619730248e+01    0.4122066    0.3091184 -46.41  0.001583744    1.357    0.263
        35  -8.1208     21.8893    136.7637   8.9628356226e+01   4.4843458550e+01    0.1952266    0.1910813 -59.85 0.0003189364    1.149    0.129
        36  -8.4879     56.8227    136.1464   7.6740165419e+01   4.1083402476e+01    0.2061571    0.1805833 -29.31 0.0003508388    1.329    0.247
        37  -8.3570    120.2307    129.6161   5.5415132072e+01   3.1989300245e+01    0.2046173    0.1434557  29.53 0.0003092402    1.565    0.361
        38  -9.0601    139.8364    126.1443   4.9698970937e+01   2.8983919848e+01     0.205513    0.1747778 -12.36 0.0004545159    1.350    0.259
        39  -8.2373    103.6804    126.6877   5.9435388220e+01   3.5807420286e+01    0.1554636    0.1234409 -12.95 0.0007036985    1.648    0.393
        40  -6.9374     55.3016    126.6863   7.5770033030e+01   4.3881898241e+01      0.16495    0.1099098  62.69 0.0002078656    1.612    0.380
        41 -10.2152     43.9159    123.9187   7.9677004092e+01   4.6141562899e+01    0.2678903    0.2411973  40.76 0.0002811011    1.098    0.089
        42  -8.0584     95.9466    115.4764   5.9238501185e+01   4.0019478526e+01    0.2331141     0.153486  39.14 0.0003763132    1.510    0.338
        43 -10.3015    159.3164    113.8106   4.2558302785e+01   2.7658519244e+01    0.4258195    0.2068112  48.61  0.001414191    2.213    0.548
        44  -9.4028    138.1749    112.1903   4.6777774600e+01   3.2245384052e+01    0.3968844    0.1068625 -47.59  0.001150276    3.700    0.730
        45 -10.3406    243.9903    245.6532   5.1312694314e+01  -3.1907070541e+00    0.3155543    0.1324997 -27.42  0.002133082    1.943    0.485
        46 -12.9428    180.0844     97.5334   3.4875956990e+01   2.6518572973e+01     1.145655     0.892193 -15.25  0.006266268    1.556    0.357
        47  -8.7861    106.3028    246.6786   7.6422689078e+01   1.0285645242e+01    0.1970821    0.1601878  11.67 0.0003475354    1.130    0.115
        48  -8.7641    203.0884     94.8141   3.0833507116e+01   2.2615697122e+01    0.1975276    0.1505553 -56.37 0.0004485925    1.281    0.219
        49  -8.0140    117.5001     91.9188   4.6624374117e+01   4.1015666031e+01    0.2309604    0.2040546  59.01 0.0003777886    1.130    0.115
        50  -8.4348    127.8482     91.1571   4.3726194107e+01   3.8862245497e+01    0.1971009     0.183128   6.27  0.001032143    1.285    0.222
        51  -6.9446     85.9903     89.2261   5.5654552075e+01   4.8451969668e+01    0.1931587    0.1292334  43.78 0.0002339102    1.477    0.323
        52 -11.8791    190.1042     96.1194   3.2975813131e+01   2.4817214992e+01    0.7397472     0.396728 -49.01  0.001069081    1.745    0.427
        53  -8.3578    123.7967     95.2291   4.5888983929e+01   3.8907251957e+01    0.2011032    0.1842383   2.99 0.0003761066    1.313    0.238
        54  -8.3462     89.2949     77.0561   5.0723267423e+01   5.0598744494e+01    0.2654672    0.2145347  60.29 0.0003494272    1.235    0.190
        55  -8.1864    196.6416     71.2784   2.6161521597e+01   2.7451181929e+01     0.135925   0.08753921 -64.86 0.0003874833    1.661    0.398
        56  -7.7388     92.2895    241.3662   7.9027457990e+01   1.2730941357e+01    0.1769823    0.1129294 -66.36   0.00105911    2.043    0.510
        57  -7.0931     12.6973    104.7033   9.0422682147e+01   5.4609602618e+01    0.1495862    0.1021815 -43.34 0.0003228324    1.580    0.367
        58  -7.9882    139.4027     57.1969   3.0952118937e+01   4.2500898413e+01    0.2200396    0.1952317  64.00 0.0007753173    1.186    0.157
        59  -9.2854    146.4681    106.9806   4.3594301043e+01   3.1599612570e+01    0.2360807    0.1390455 -43.75  0.001039944    1.617    0.382
        60  -8.3159    177.5480     38.5045   1.9904100243e+01   3.6183550321e+01    0.2213248    0.1895144 -62.67  0.001361986    1.044    0.042
        61  -7.9449    201.4674     26.5235   1.4674188460e+01   3.2455292284e+01    0.1259896   0.09998047 -56.01 0.0001682432    1.029    0.028
        62  -7.2053     79.9538     15.7666   2.7958740281e+01   6.3813791008e+01     0.178337    0.1086405  64.16            0    1.477    0.323
        63  -8.1079     31.7562    241.6954   9.2990682995e+01   1.8964617991e+01    0.1566043    0.1514167  70.71  0.001182718    1.303    0.233
        64  -7.0651    131.2612    228.6636   6.9076552474e+01   1.0370221619e+01    0.1108254   0.08734102  50.53 0.0004881473    1.581    0.367
        65 -10.5711     51.8477    220.3942   8.6984376934e+01   2.1179209663e+01    0.3784601    0.2650675 -76.07  0.002248422    1.668    0.400
        66  -9.3563     58.3939    216.7034   8.5065075579e+01   2.1232922330e+01    0.3991895    0.0869222 -63.62  0.001414113    4.454    0.775
        67 -10.2103     32.8797    217.0291   9.1576414910e+01   2.3816958367e+01    0.4143138    0.2119418  55.12  0.001481392    1.740    0.425
