#   1 NUMBER                 Running object number                                     
#   2 MAG_AUTO               Kron-like elliptical aperture magnitude                    [mag]
#   3 X_IMAGE                Object position along x                                    [pixel]
#   4 Y_IMAGE                Object position along y                                    [pixel]
#   5 X_WORLD                Barycenter position along world x axis                     [deg]
#   6 Y_WORLD                Barycenter position along world y axis                     [deg]
#   7 A_WORLD                Profile RMS along major axis (world units)                 [deg]
#   8 B_WORLD                Profile RMS along minor axis (world units)                 [deg]
#   9 THETA_WORLD            Position angle (CCW/world-x)                               [deg]
#  10 FWHM_WORLD             FWHM assuming a gaussian core                              [deg]
#  11 ELONGATION             A_IMAGE/B_IMAGE                                           
#  12 ELLIPTICITY            1 - B_IMAGE/A_IMAGE                                       
         1 -19.0679    216.2308    124.3052   4.4766396796e+01   1.2796179372e+01      6.71677     5.341271  40.11   0.02148299    1.218    0.179
         2 -11.6696    200.6270     27.6722   2.0652267144e+01   3.1063252595e+01     1.038203    0.5582754  46.30  0.002901644    1.905    0.475
         3 -12.4271    217.6247     28.0297   1.8485492997e+01   2.6587239351e+01     1.818701     0.949955 -41.32    0.0078399    1.879    0.468
         4 -14.3395    229.2735      8.9211   1.1912352922e+01   2.5718265641e+01     5.469872     1.919019  71.29    0.0204741    2.805    0.643
         5 -11.5911    183.7957     28.0842   2.3306431247e+01   3.5460183198e+01    0.7385576    0.4149486 -33.76   0.00314219    1.774    0.436
         6 -10.0054    116.5035     12.5136   3.0839217185e+01   5.4078783965e+01    0.2756373    0.2394148  40.89  0.001155598    1.130    0.115
         7 -11.0012    120.1287      9.2288   2.8644973196e+01   5.3604939804e+01     0.576048    0.4050379  44.54  0.001907149    1.307    0.235
         8  -9.4342    127.0549     38.4079   3.8324825823e+01   4.8327601396e+01    0.2735589    0.1957863  -4.04 0.0005776336    1.557    0.358
         9 -14.0135    225.4574    244.1088   6.5759391462e+01  -4.5518502449e+00       4.0465    0.9671841  44.13   0.01711874    3.184    0.686
        10 -11.3171    175.7289    245.9971   7.3959519416e+01   3.1270131041e+00    0.4492981    0.2866079   1.65  0.002459848    3.204    0.688
        11  -7.7155     56.6875    151.7216   8.4372386936e+01   3.7173391127e+01     0.106122   0.08832084 -45.37 0.0004068352    1.564    0.361
        12 -12.1617     68.2397    143.9261   8.0824739394e+01   3.7374636127e+01    0.7417209    0.4419926 -82.10   0.00263676    1.745    0.427
        13  -9.8176    166.7021    182.3337   6.6381168451e+01   1.3584951786e+01    0.3292475    0.2269047  74.54  0.001305839    2.076    0.518
        14 -10.3829    108.5482    132.4217   6.9608204645e+01   3.3766412073e+01    0.2434087    0.2270539 -74.92 0.0006403071    1.041    0.040
        15  -8.6698    101.0336    127.4500   7.0419295684e+01   3.6084006926e+01    0.2229164     0.166055 -58.73 0.0008209703    1.278    0.217
        16  -8.2205     45.1404    127.8067   8.3876025039e+01   4.3541753528e+01    0.1542059    0.1204391 -59.22 0.0004150978    1.267    0.211
        17  -9.5821    164.1201    179.1587   6.6335542649e+01   1.4593407930e+01    0.2767572    0.2165751  68.02 0.0006985481    1.432    0.302
        18 -13.4150     50.9019    103.8019   7.8667306000e+01   4.8154164830e+01     1.296825     1.098949  68.01  0.006510182    1.280    0.219
        19 -10.6989     65.5704    112.1218   7.6330550762e+01   4.4597982745e+01    0.2715101    0.2192871 -57.51 0.0001550537    1.141    0.123
        20 -13.5153     79.4520    107.6758   7.1845891640e+01   4.3700433976e+01      1.53133     1.083079  50.06  0.006229318    1.544    0.352
        21 -11.9184     67.8179    105.3119   7.4440981336e+01   4.5804356336e+01    0.5490337    0.4933124 -81.76 0.0007867505    1.082    0.076
        22 -10.7211    103.3929    109.4869   6.6040656227e+01   3.9535196475e+01    0.4142439    0.2681016  34.17  0.001493345    1.774    0.436
        23 -12.7753     21.2108     98.8267   8.5772070975e+01   5.1991341694e+01    0.4127382    0.2573098  38.41  0.001296166    1.918    0.479
        24 -11.0670      3.3456     94.8054   8.9936151974e+01   5.4061049027e+01    0.6269824    0.4497915  76.20  0.003653917    1.426    0.299
        25  -8.6434     64.5402    205.4739   8.8360974117e+01   2.5843425781e+01    0.1088664   0.08446828  72.90 1.209417e-05    1.037    0.036
        26 -10.2550    126.6966    181.5429   7.4042570947e+01   2.0948645081e+01    0.2352353    0.1868219  87.21 0.0009095985    1.343    0.255
        27 -10.3747    163.3492    197.4151   6.9453519863e+01   1.1808980154e+01    0.3189367    0.2155541  68.48 0.0006884859    1.867    0.464
        28 -10.9028    127.0309    175.7334   7.3098957137e+01   2.1951161810e+01    0.2369261    0.1937806 -53.56 0.0008386138    1.358    0.264
        29  -8.8100      1.4237    191.0452   9.7944069720e+01   3.5052511474e+01    0.1358906   0.07131191 -84.43 7.811772e-05    1.466    0.318
        30 -10.9246    223.1995    208.0470   6.0559321653e+01  -3.3700464370e-01    0.5068585    0.1444238  44.95  0.001489246    2.936    0.659
        31 -10.6360    122.0049    172.9902   7.3689074068e+01   2.3325940098e+01    0.2882977    0.1859919 -68.03  0.001070062    1.748    0.428
        32  -9.3215    135.0371     71.9904   4.7726575680e+01   4.0898254042e+01    0.2251034    0.2112998 -15.73 0.0003374693    1.032    0.031
        33 -10.6357    111.1017    168.2610   7.5195322313e+01   2.6056749494e+01     0.355405    0.2503233  67.19 0.0008091201    1.432    0.302
        34 -10.1358    129.5199     64.6342   4.6780009408e+01   4.3454229947e+01    0.3479378    0.2574342 -38.80 0.0009515794    1.317    0.240
        35 -10.8243    173.7219     50.6316   3.2306584749e+01   3.5072891529e+01    0.6226775    0.4040422 -86.68  0.002433324    2.457    0.593
        36  -9.9204    187.0046     60.1140   3.2752260143e+01   3.0226876883e+01    0.4495047    0.3545847 -22.42  0.002185472    1.286    0.222
        37  -9.3805    188.7984     54.9134   3.0844780885e+01   3.0542565864e+01    0.2635942    0.2045869  40.91 0.0005421802    1.302    0.232
        38 -10.4519    182.6826     56.1236   3.2332889484e+01   3.1944111191e+01    0.4492622    0.2490061 -39.84  0.001582377    1.821    0.451
        39 -11.1826    181.6923     52.0833   3.1262280242e+01   3.2800020329e+01    0.5764346    0.4454359  56.92  0.001772368    1.287    0.223
        40 -11.1693    116.2201    166.0103   7.3790294539e+01   2.5639937957e+01    0.4628125    0.2358254 -63.78  0.002154592    2.250    0.556
        41  -8.8244    218.4469     59.5715   2.7302241741e+01   2.2259438860e+01     0.259644    0.1738105  57.21 0.0006455408    1.510    0.338
        42  -8.9889    105.0861     60.3405   5.1960016969e+01   4.9255353938e+01    0.1889028    0.1779781  23.30 0.0003221488    1.115    0.103
        43 -10.3560    119.1952    162.0459   7.2532564052e+01   2.5903069726e+01    0.3391227     0.196858 -61.39  0.001054437    1.852    0.460
        44  -9.6539    195.6093     56.3697   3.0087812159e+01   2.8565445583e+01    0.4115888    0.2785458  24.18 0.0009623246    1.818    0.450
        45  -9.4428    198.7044     51.6513   2.8153971592e+01   2.8442445170e+01    0.5637053    0.2385575  45.21   0.00162268    2.505    0.601
        46  -8.5352    207.5114     54.0691   2.7436587906e+01   2.5823659573e+01     0.222661    0.1465588 -28.66 0.0004790613    1.497    0.332
        47 -10.0895    221.4898     51.3111   2.4534399875e+01   2.2637782268e+01    0.4300306    0.2637393  74.30  0.001049909    1.904    0.475
        48 -10.0101    227.8586     49.4048   2.3111474392e+01   2.1293588984e+01    0.4713266    0.3979952 -58.94  0.001867148    1.240    0.194
        49  -9.2806     92.0327    165.9666   7.8800811131e+01   2.9504231491e+01    0.1835392    0.1567571  78.35   0.00120412    1.010    0.010
        50 -11.2396    186.1354     44.2673   2.8027362691e+01   3.2753829150e+01    0.5707136    0.4483614  45.34  0.001653648    1.257    0.205
        51  -9.3400    201.8879     43.3865   2.5175509942e+01   2.8749904423e+01    0.3212889    0.2615554  45.99 0.0008662469    1.231    0.188
        52 -11.7831    200.3328     36.9834   2.3496274475e+01   2.9993576291e+01     1.982352    0.1902476  50.50  0.004128408    7.403    0.865
        53  -9.1301    146.2396    248.1870   7.8937088849e+01   7.4893832204e+00    0.1577738     0.120268  41.81 0.0005512536    1.192    0.161
        54  -9.9953    248.3414    227.2220   5.9591617760e+01  -6.4946844234e+00    0.2223763    0.1594582  29.70 0.0002606081    1.087    0.080
        55 -10.2865    113.2155    239.0017   8.3302144824e+01   1.3725375013e+01    0.1904532    0.1620913  78.47 0.0004502768    1.223    0.182
        56  -9.2223    189.3590     36.8362   2.5169104922e+01   3.2899061933e+01    0.2506678    0.2090134  77.91  0.000678554    1.271    0.213
        57  -9.0523    172.1547     36.9915   2.8180439990e+01   3.7392680586e+01    0.2565619    0.2178352  57.75  0.000530255    1.160    0.138
        58  -8.7953    152.8028     35.0152   3.1265853405e+01   4.2619674329e+01    0.2038653     0.184641 -15.28 0.0003270515    1.103    0.093
        59  -9.1308    129.8211    186.5085   7.4161077177e+01   1.9528414871e+01    0.1981508    0.1546078  77.68 0.0006214419    1.342    0.255
        60  -9.4834    164.7392     32.0642   2.7907295009e+01   3.9960458989e+01    0.3679405    0.2272346  67.83  0.001603014    1.745    0.427
        61  -9.4708    179.1049     30.1121   2.4722727426e+01   3.6450942740e+01    0.2843864    0.2132574  68.23  0.000382318    1.355    0.262
        62  -8.6536     64.3664    229.0341   9.0254046779e+01   2.1904338108e+01    0.1378027    0.1017928  80.36 0.0004266196    1.148    0.129
        63  -9.8685    153.3314     30.2221   2.9480138635e+01   4.3116013411e+01     0.340819    0.2035867  34.67  0.001462107    1.810    0.447
        64  -9.6962    127.9162     23.1543   3.2368656127e+01   5.0209134205e+01    0.2185086    0.1995504 -63.26  0.001227834    1.335    0.251
        65  -9.8687    187.7687     27.3965   2.2465906312e+01   3.4492099619e+01    0.2796043    0.2373054  47.89  0.000771615    1.147    0.128
        66  -9.5037    225.7319    226.7378   6.3146717490e+01  -2.8424845082e+00    0.2151222    0.1436904  16.27  0.000724633    1.471    0.320
        67  -9.2867    137.1560    227.0660   7.8088201364e+01   1.1794648897e+01    0.1690935    0.1327538  55.56 0.0003358643    1.031    0.030
