#   1 NUMBER                 Running object number                                     
#   2 MAG_AUTO               Kron-like elliptical aperture magnitude                    [mag]
#   3 X_IMAGE                Object position along x                                    [pixel]
#   4 Y_IMAGE                Object position along y                                    [pixel]
#   5 X_WORLD                Barycenter position along world x axis                     [deg]
#   6 Y_WORLD                Barycenter position along world y axis                     [deg]
#   7 A_WORLD                Profile RMS along major axis (world units)                 [deg]
#   8 B_WORLD                Profile RMS along minor axis (world units)                 [deg]
#   9 THETA_WORLD            Position angle (CCW/world-x)                               [deg]
#  10 FWHM_WORLD             FWHM assuming a gaussian core                              [deg]
#  11 ELONGATION             A_IMAGE/B_IMAGE                                           
#  12 ELLIPTICITY            1 - B_IMAGE/A_IMAGE                                       
         1  -7.8790    246.0463      9.9152   3.2712705733e+01   2.4180818504e+01    0.1672261    0.1440485 -71.14  0.001198651    1.098    0.090
         2  -7.0179    196.9913      8.2214   3.6428300615e+01   3.5136783186e+01    0.1660457   0.09352047  74.16 0.0004379532    1.616    0.381
         3  -7.0501    139.3670      5.3144   4.2852716506e+01   4.9231506332e+01    0.1442156   0.08254566  40.10 0.0007038111    1.771    0.435
         4  -7.6631    194.8472      1.8535   3.5044718637e+01   3.6236684882e+01    0.1791356    0.1511667  61.95 0.0003599216    1.223    0.183
         5  -7.7482    100.1765    241.9641   1.0934883364e+02   1.1440491123e+01    0.1832828    0.1383583  58.59  0.000566669    1.218    0.179
         6 -11.8227     56.2847    239.7544   1.1770714736e+02   1.7607796099e+01     1.283989    0.8189051  28.95  0.001539952    1.792    0.442
         7  -7.5389     92.1174    215.1811   1.0800877094e+02   1.7750705182e+01    0.1830337    0.1383097  64.27 0.0004827081    1.291    0.226
         8 -10.2876    230.1435    212.7344   7.8856710299e+01  -3.6284997717e+00     0.225636    0.1912172 -10.79 0.0004011299    1.174    0.148
         9  -8.6791    200.2316    204.4064   8.3061833886e+01   2.2981211211e+00    0.2374546    0.2050429   1.04  0.000286007    1.034    0.033
        10  -8.8756    198.6309    213.7972   8.5078815173e+01   1.0246963832e+00    0.3126783    0.1973031  36.18   0.00116072    1.490    0.329
        11  -8.9743    199.8143    209.1248   8.4007209564e+01   1.5907401954e+00    0.2327194    0.2063928  11.34 0.0003871728    1.107    0.097
        12  -7.5078    121.9724    210.0201   1.0075811038e+02   1.4265743906e+01    0.1971886    0.1602832 -10.25 0.0006130229    1.562    0.360
        13 -12.7946     19.5108    250.4145   1.2497987785e+02   1.9683190847e+01       1.8255    0.6715121  25.08  0.007425251    4.853    0.794
        14  -7.2576     64.6490    203.8233   1.1273166715e+02   2.3883149620e+01    0.1772568    0.1089389 -84.90 0.0004416569    1.703    0.413
        15  -8.2559    211.6474    236.7752   8.6468912940e+01  -4.3717249511e+00    0.2042341    0.1605321  20.61 0.0004412207    1.121    0.108
        16 -14.6365      3.5078    247.0427   1.2749737152e+02   2.1828867167e+01     2.553746     1.112054 -66.27   0.01568476    2.442    0.590
        17  -7.6718    227.0210    200.9892   7.7249300072e+01  -1.4055235893e+00    0.1951186    0.1606973  -2.78 0.0003626144    1.018    0.018
        18  -9.3274     51.2661    199.5943   1.1524259248e+02   2.6441294192e+01    0.2630401    0.2186774  75.96  0.000824102    1.031    0.030
        19 -10.0474    167.7094    199.2747   8.8902395028e+01   8.6902853995e+00    0.2559098    0.2356998  23.62 0.0003643077    1.069    0.064
        20  -9.4106      7.8152    197.5967   1.2424470607e+02   3.1235748877e+01    0.2402035    0.1789864  55.95 0.0008265796    1.251    0.201
        21  -8.5904    119.9356    197.0630   9.9263925589e+01   1.7260280478e+01     0.199371    0.1889535  46.12 0.0003154373    1.014    0.014
        22  -7.2246    213.9603    195.9806   7.8768108438e+01   1.4487409052e+00    0.1581228    0.1299629 -14.56 0.0009353455    1.100    0.091
        23  -9.0220     53.7029    231.2414   1.1753443558e+02   1.9556015128e+01    0.2534812    0.1919217  63.02  0.001726923    1.085    0.078
        24  -7.9960    249.8441    230.7423   7.8542567222e+01  -8.7679951776e+00    0.1771368    0.1437513 -41.61 0.0006967206    1.901    0.474
        25  -8.2155     66.2973    183.3326   1.0999054240e+02   2.8276301033e+01      0.20181    0.1355077  31.02 0.0003462133    1.614    0.380
        26  -9.3837     61.1264    189.0774   1.1189904557e+02   2.7610859131e+01    0.4015218    0.2727902 -44.32  0.002174335    1.797    0.443
        27  -9.3143     52.1666    189.1312   1.1397385374e+02   2.8679811016e+01    0.2171546    0.1981347  35.09 0.0003276253    1.277    0.217
        28  -9.1273    210.3628    219.2247   8.3740785007e+01  -1.6418870305e+00    0.2647131    0.2457799 -89.21 0.0008763492    1.794    0.443
        29  -8.7482    189.3611    184.0485   8.1384747244e+01   7.7104391719e+00    0.2417215    0.1903207  31.35 0.0002229403    1.225    0.184
        30  -7.2543    175.1844    181.4050   8.3892115267e+01   1.0764365042e+01    0.1926643    0.1316077  48.00 0.0004590403    1.602    0.376
        31  -9.0384    100.5766    175.9514   1.0051963508e+02   2.5063291016e+01    0.3295883    0.1883719  37.91 -0.0001541599    1.717    0.418
        32  -6.8643    242.0042    176.0000   6.9627253809e+01   1.6598975824e-01     0.196773   0.07284718  40.55  0.000741535    2.903    0.656
        33  -7.0483    217.6221    174.2353   7.3712308200e+01   4.4852397995e+00    0.1237895     0.110661  68.31 0.0003860458    1.621    0.383
        34  -7.8029    116.9992    174.0819   9.6119669112e+01   2.2788696538e+01    0.2096898    0.2020334  39.75 0.0003428978    1.029    0.028
        35  -8.8183     53.6575    173.2926   1.1181521849e+02   3.2186972070e+01     0.217196    0.1948076 -67.08  0.000335943    1.145    0.127
        36  -7.4460     54.7310    222.3622   1.1659566871e+02   2.1205704544e+01    0.1267176   0.07499191  68.88 0.0006995083    1.650    0.394
        37  -6.9604     73.7399    173.6794   1.0688074065e+02   2.9553415069e+01    0.1322134    0.1012525 -38.66 0.0003283597    1.548    0.354
        38  -8.0793      4.2076    171.9890   1.2332564553e+02   3.7182613537e+01    0.1930418    0.1019033 -56.42 0.0008375254    1.916    0.478
        39  -7.4165    122.4228    170.0499   9.4035763571e+01   2.2764265541e+01    0.2102162    0.1420771 -51.49 0.0004164174    1.497    0.332
        40  -7.3205     78.4573    168.4697   1.0491961710e+02   3.0140642392e+01    0.1373314    0.1291944 -77.74 0.0003069362    1.047    0.045
        41  -7.1297     88.4656    165.5366   1.0187574385e+02   2.9384354231e+01    0.1397745    0.1343397 -70.46 8.279164e-05    1.052    0.050
        42  -7.2061    209.4790    160.6142   7.2394264391e+01   8.3445160072e+00    0.1424883    0.1271605  -4.61 9.137268e-05    1.027    0.026
        43  -6.8715     86.2901    159.6887   1.0146097889e+02   3.1115287092e+01     0.145051    0.1071562  74.83 0.0001809714    1.584    0.369
        44  -7.3723    157.1872    158.0340   8.3120933763e+01   1.8931821925e+01    0.2063957    0.1152058 -44.35 0.0007924315    1.788    0.441
        45  -9.1357     74.7946    154.9204   1.0372962315e+02   3.3930589273e+01    0.3827868    0.2418052 -41.06  0.001224828    1.791    0.442
        46  -7.4077    147.9424    154.9658   8.4665902579e+01   2.1399304151e+01    0.1809739    0.1691129 -31.55  0.000353005    1.059    0.056
        47  -8.3063     69.9838    144.3692   1.0326269564e+02   3.7181857861e+01    0.4000234    0.2311646  69.84  0.001606822    2.641    0.621
        48  -7.8741     93.0677    138.4620   9.5599688428e+01   3.5227887758e+01    0.2510505    0.1898058 -44.11 0.0004639024    1.306    0.234
        49  -7.4797    238.2344    131.5915   6.0776262199e+01   8.1334342274e+00    0.2418776     0.155341 -17.03 0.0009609411    1.751    0.429
        50  -9.6535    193.8682    130.4273   6.8593675831e+01   1.7093409766e+01    0.2691324    0.2472237  -8.40 0.0002929267    1.056    0.053
        51  -8.7480    137.2632    130.7474   8.1756091845e+01   2.8921400394e+01    0.2642893    0.2437494   3.22 0.0002944924    1.119    0.106
        52  -8.2536    199.0083    127.2236   6.6792520912e+01   1.6633747676e+01    0.2937499    0.2278977 -15.31 0.0008807007    1.380    0.275
        53  -8.1944    100.1766    124.8418   9.0547973099e+01   3.7333612951e+01    0.3717536    0.2026459 -52.96 0.0008157595    1.768    0.434
        54  -7.6775    197.3864    120.3960   6.5445675005e+01   1.8266893533e+01    0.2250654    0.1742896   7.66 0.0007358426    1.560    0.359
        55  -6.8581    222.2553    116.0444   5.9858301450e+01   1.3888586950e+01    0.1825242    0.1134482 -35.01 0.0004336977    1.455    0.313
        56  -7.0450    141.4333    104.7826   7.3905946114e+01   3.3710997828e+01    0.2029172    0.1482913 -29.17 0.0003162019    1.430    0.301
        57  -8.6413     84.0536    102.9979   9.0072161048e+01   4.5200747993e+01    0.2165976    0.2000745 -36.67  0.001195338    1.006    0.006
        58  -8.5725    247.9509     98.6824   5.1927446847e+01   1.1732299648e+01    0.3693285    0.1596126  55.72  0.001598935    2.719    0.632
        59  -7.8229    117.6660     90.4465   7.6222165725e+01   4.1783162770e+01    0.3070041    0.1925799 -13.25  0.001154477    2.483    0.597
        60  -9.1966    197.0664     83.3558   5.6050165119e+01   2.5020186561e+01    0.3924429    0.2915403 -29.67 0.0009519964    1.348    0.258
        61 -10.2362    101.0086     83.5906   7.9125140653e+01   4.6522527983e+01    0.2604835    0.2359234 -32.54 0.0002589678    1.068    0.064
        62  -7.4905    112.5435     82.0866   7.5162378700e+01   4.4545870031e+01     0.223293    0.1455337 -39.19 0.0004063168    1.497    0.332
        63  -7.0496     65.4632     77.5582   8.9308124714e+01   5.3733320888e+01    0.1423881    0.1244481 -26.78 0.0001367324    1.014    0.014
        64  -7.3473    172.4453     72.4802   5.7619599373e+01   3.2636932957e+01    0.1468048     0.143665   1.04 0.0001498623    1.048    0.046
        65  -7.3619    148.1832     58.9944   5.8610307287e+01   4.0653189215e+01    0.1967424    0.1850618 -15.52            0    1.083    0.077
        66  -7.6018    182.4134     49.7695   4.9399350703e+01   3.3718505883e+01    0.1977401      0.13838 -16.30 0.0007717866    1.721    0.419
        67  -7.3344    208.7032     39.7245   4.3035469181e+01   2.8835910661e+01    0.1250036    0.1014768  34.28 0.0002250139    1.530    0.346
        68  -7.6752    129.8475     37.4669   5.5619829345e+01   4.8116333131e+01    0.2126228    0.1601768 -16.35 0.0001640792    1.436    0.303
        69  -8.9584    202.2433     31.0254   4.1618756404e+01   3.1422364269e+01    0.3769239    0.2905033 -87.31  0.001811602    1.271    0.213
        70  -7.4989    168.8021     31.1690   4.6226481848e+01   3.9447242586e+01     0.185502    0.1549459  33.63 0.0005781421    1.319    0.242
        71  -7.5081    132.3649     31.2910   5.2935252390e+01   4.8291765126e+01     0.150733   0.09618867  32.31 0.0007026573    1.705    0.414
        72  -8.2943    160.9597     29.9215   4.7112157331e+01   4.1515136996e+01    0.1968328     0.184531  54.35  0.001183921    1.052    0.049
        73  -8.9933    128.8930     25.1802   5.1553298951e+01   4.9822237718e+01    0.2973413    0.2019328 -35.31 0.0003551973    1.595    0.373
        74  -8.4632    234.2515     15.3359   3.4750359067e+01   2.6051965760e+01    0.1885968    0.1686987 -60.93 0.0002738079    1.131    0.116
        75  -8.7041    240.8064    247.4769   8.2916697203e+01  -9.6797000380e+00    0.1855632    0.1318527 -14.97  0.000518112    1.269    0.212
        76  -7.3140    121.4409     10.5218   4.7865953023e+01   5.3045190770e+01    0.1326237    0.1155833  45.25 0.0001230688    1.010    0.010
        77  -7.0629    224.3383    248.6935   8.6044500303e+01  -7.6950609186e+00    0.1029087   0.08884526  39.68 0.0003447869    1.678    0.404
        78  -7.7219     80.4936    244.4657   1.1346174544e+02   1.3674194072e+01    0.2107021    0.1128031 -67.74  0.001183886    2.071    0.517
