#   1 NUMBER                 Running object number                                     
#   2 MAG_AUTO               Kron-like elliptical aperture magnitude                    [mag]
#   3 X_IMAGE                Object position along x                                    [pixel]
#   4 Y_IMAGE                Object position along y                                    [pixel]
#   5 X_WORLD                Barycenter position along world x axis                     [deg]
#   6 Y_WORLD                Barycenter position along world y axis                     [deg]
#   7 A_WORLD                Profile RMS along major axis (world units)                 [deg]
#   8 B_WORLD                Profile RMS along minor axis (world units)                 [deg]
#   9 THETA_WORLD            Position angle (CCW/world-x)                               [deg]
#  10 FWHM_WORLD             FWHM assuming a gaussian core                              [deg]
#  11 ELONGATION             A_IMAGE/B_IMAGE                                           
#  12 ELLIPTICITY            1 - B_IMAGE/A_IMAGE                                       
         1 -14.8708    164.8542     42.4214   7.6864210710e+01   3.8992604213e+01     1.319803     1.089105 -10.15  0.003976549    1.394    0.282
         2 -14.8178    181.5770      9.0417   6.4112580530e+01   3.8556865710e+01     1.835175    0.9507076  62.92  0.006464033    1.707    0.414
         3 -11.1660    133.8566    246.1890   1.2842525605e+02   7.3816822331e+00    0.1625445    0.1386149  52.51 0.0003366557    1.107    0.097
         4 -20.1870     69.2948    178.1879   1.3360801100e+02   3.0221593680e+01     16.70054     6.102215 -67.71   0.06944182    2.713    0.631
         5 -10.7541    153.4867    202.0789   1.1863448870e+02   1.1371350298e+01    0.2298709      0.13592 -55.81  0.001046897    2.041    0.510
         6 -12.6408    153.7286    194.9293   1.1742404797e+02   1.2618053511e+01    0.4016032    0.3954788  51.48  0.002554863    1.117    0.105
         7 -13.3881    162.7289    201.7204   1.1668294203e+02   9.7474570012e+00    0.7929696     0.439884 -69.88  0.003011989    3.928    0.745
         8 -11.8541    157.5242    199.5248   1.1739102239e+02   1.1087956419e+01    0.3545155    0.2232847  53.26  0.000645488    1.568    0.362
         9 -10.7143    139.8219    200.3269   1.2120107990e+02   1.4159440253e+01     0.345435    0.2203468  40.20 0.0008744602    1.408    0.290
        10 -11.3711    112.6762    196.1381   1.2635816487e+02   1.9705495987e+01     0.511093    0.3421135   6.71  0.002160343    3.333    0.700
        11 -13.8886    180.3885    193.5798   1.1170968795e+02   7.8668091582e+00    0.7736616    0.4393084  35.61  0.003540712    1.649    0.394
        12 -12.4634    169.9415    195.4899   1.1416310372e+02   9.4953051267e+00    0.2813255    0.2581706  36.11  0.001124342    1.042    0.041
        13 -13.9953    165.6693    188.6190   1.1384282477e+02   1.1520296666e+01    0.7272741    0.4552392  48.92   0.00359686    1.503    0.335
        14 -13.2731    173.2867    189.4344   1.1241137294e+02   9.9238613307e+00    0.4621857    0.3711559 -58.44  0.002005635    1.501    0.334
        15 -13.5633    175.1228    185.5818   1.1133327882e+02   1.0253132579e+01    0.7238978    0.3608264 -58.67     0.002766    3.279    0.695
        16 -12.1830    151.8343    182.5097   1.1569851768e+02   1.5307730415e+01    0.3258832    0.2118226 -65.61  0.001532276    2.009    0.502
        17 -10.2639    138.5300    246.0255   1.2754767555e+02   6.6656190313e+00    0.2499924    0.1608235  77.18  0.001387806    2.286    0.563
        18 -13.7922    203.5187    174.5033   1.0349780880e+02   6.6573281460e+00     1.956788    0.5588374 -49.45  0.004586459    8.128    0.877
        19 -12.3832    202.4701    170.4603   1.0288395193e+02   7.5405447843e+00    0.3978774    0.2746421 -46.21   0.00123172    1.628    0.386
        20 -12.3577    205.2669    169.0092   1.0204331959e+02   7.2361044245e+00    0.8641141    0.4009187 -54.30  0.002975821    3.867    0.741
        21 -11.8207     16.3873    249.7463   1.4908913507e+02   2.2558231014e+01    0.1785984    0.1191014  69.82 0.0005884223    1.037    0.035
        22 -12.4302    199.1866    178.8932   1.0521405596e+02   6.7616319457e+00    0.5536758     0.350742 -68.26  0.002200517    3.385    0.705
        23 -13.3591    195.2436    168.7168   1.0395429547e+02   9.2719575314e+00     0.509969    0.4621507 -45.20 0.0007228574    1.229    0.186
        24 -12.3382    192.6131    164.1739   1.0354391590e+02   1.0603259427e+01    0.4028738    0.3226625  19.01  0.001617438    1.307    0.235
        25 -12.9671    170.2966    183.1515   1.1188684203e+02   1.1621976230e+01    0.4117532    0.3183001  44.92   0.00127805    1.187    0.157
        26 -13.5803    205.7498    178.2182   1.0380659617e+02   5.6162593048e+00    0.6050749     0.470442  18.43  0.003359412    1.281    0.220
        27 -11.3154     10.9574    174.4140   1.4603087158e+02   3.7598781313e+01    0.1976988    0.1381843 -73.45 0.0004502308    1.330    0.248
        28 -13.9224    138.1115    171.5146   1.1676360602e+02   2.0136550517e+01     1.098171    0.5453511  51.98  0.004529748    2.052    0.513
        29 -13.9661    143.5842    167.6941   1.1481297762e+02   1.9858531317e+01     1.060714    0.6262209  75.07  0.003799409    3.329    0.700
        30 -12.7662    177.1376    170.4450   1.0801297776e+02   1.2599539276e+01    0.4393277    0.2447296 -52.99  0.001889436    2.187    0.543
        31 -11.7176    125.7122    172.0034   1.1968463681e+02   2.2375524403e+01    0.3157274    0.2617698 -83.48  0.001163403    1.292    0.226
        32 -12.0523    125.0564    243.9585   1.2979786346e+02   9.1147182146e+00    0.2042324    0.1580264 -64.20 0.0008048929    1.590    0.371
        33 -11.7287    164.8987    171.6267   1.1084998328e+02   1.4837322721e+01    0.3070197    0.2265731  88.35  0.001334097    2.028    0.507
        34 -12.2075    230.2180    166.8947   9.6973924907e+01   2.8042333894e+00    0.2887616    0.1784886 -43.96  0.001434307    1.812    0.448
        35 -10.8842     25.1593    165.0762   1.4222892314e+02   3.8329411301e+01    0.2165829    0.1848775   6.37  0.001486779    1.757    0.431
        36 -10.4214     13.5825    163.0779   1.4464550778e+02   3.9826482378e+01    0.1641457    0.1162326 -83.76 0.0005771134    1.135    0.119
        37 -11.7324    115.4424    161.5680   1.2025936005e+02   2.6516253988e+01    0.5785006    0.2533223  53.38  0.002163185    2.565    0.610
        38 -11.6416    189.3678    158.3741   1.0297969119e+02   1.2316653509e+01    0.3005677    0.2223445  29.77  0.001201174    1.384    0.277
        39 -13.9462    133.4476    145.6172   1.1278146919e+02   2.6572926642e+01     1.278154    0.4456201 -56.04   0.00392626    3.636    0.725
        40 -12.5586    128.5576    143.5199   1.1353715897e+02   2.8015033877e+01    0.4657536    0.2628316  56.74  0.001611983    2.003    0.501
        41 -12.3245    167.9839    243.2737   1.2178605327e+02   2.3212890321e+00    0.2339603     0.185107 -51.97 0.0007532761    1.647    0.393
        42 -10.0244    176.8629    154.8611   1.0484039591e+02   1.5594007626e+01    0.1948507    0.1742006  81.58 0.0004506011    1.302    0.232
        43 -12.3042    161.7244    153.4388   1.0784369986e+02   1.9067779664e+01    0.3395778    0.2792357  57.62  0.001095703    1.239    0.193
        44  -9.6587      7.9323    238.3444   1.4995590729e+02   2.5385272993e+01     0.292921    0.1046146  47.03  0.001790541    2.022    0.506
        45 -11.7521    174.3918    148.4567   1.0397256021e+02   1.7360362930e+01    0.3669371    0.2912359 -63.62  0.001173329    1.494    0.331
        46 -13.8218    144.2256    145.4536   1.1015670001e+02   2.4396927208e+01    0.9803069    0.5037798 -64.22  0.003396261    3.059    0.673
        47 -10.7604     12.4928    244.4113   1.4947905055e+02   2.3871597797e+01    0.1643945    0.1099696  63.53 0.0005742804    1.077    0.072
        48 -12.5762    134.7050    112.3770   1.0466445408e+02   3.3593116392e+01     0.527077     0.187774 -48.94  0.001677661    2.931    0.659
        49 -13.8285    135.6451    127.4447   1.0816484067e+02   3.0105850373e+01     1.494313     0.323456 -49.95  0.003640429    5.229    0.809
        50 -11.6781     13.7535    239.7673   1.4907858535e+02   2.4551628390e+01    0.2942263    0.1320784 -89.58  0.001873021    1.931    0.482
        51  -9.9429    150.7506    243.7101   1.2501743524e+02   5.0520328692e+00    0.1073509   0.08487687  18.69 0.0002509867    1.476    0.323
        52 -10.7143     23.0879    138.0971   1.4008370117e+02   4.4632803342e+01    0.2012551    0.1718946 -13.10  0.001034019    1.659    0.397
        53 -12.1012    160.4534    127.8289   1.0229541153e+02   2.4583964313e+01    0.4205358     0.296695 -54.93  0.001583912    1.541    0.351
        54 -11.2341      4.7796    137.5716   1.4461682120e+02   4.6189848770e+01    0.2209605    0.1606961 -81.30 0.0005592419    1.072    0.067
        55  -9.9768     17.1892    243.3703   1.4868384076e+02   2.3568159088e+01   0.08708908   0.06307512 -77.25 0.0006714002    1.559    0.359
        56 -11.1982    131.2312    237.1874   1.2787577183e+02   9.2144805086e+00     0.253148    0.1583031 -61.21   0.00149341    1.990    0.497
        57 -10.7835     13.3463    233.9331   1.4888548746e+02   2.5628497265e+01     0.154135   0.09342429  74.16 0.0007029871    1.199    0.166
        58 -10.8969    167.6830    112.6677   9.6837757151e+01   2.5996940335e+01     0.325802     0.231648 -83.16  0.001331665    2.113    0.527
        59 -10.8348    140.1114    230.0355   1.2530393804e+02   8.9216307480e+00    0.3493992    0.2314212 -87.76  0.001865601    2.341    0.573
        60 -10.9730    205.3374    110.2553   8.8555479535e+01   1.7587538446e+01    0.3156384    0.2097972  46.75  0.001020428    1.540    0.351
        61 -10.2962    133.4063    229.3211   1.2650708160e+02   1.0148373345e+01    0.1871582    0.1524045 -89.63 0.0009680433    1.433    0.302
        62 -10.8451    139.0887    250.0881   1.2791053867e+02   5.9691471935e+00     0.240305     0.212324   2.52  0.001731492    1.515    0.340
        63 -11.1052    130.8075    213.5627   1.2497046550e+02   1.3312405757e+01    0.2173851    0.1679069 -85.62 0.0007365163    1.533    0.348
        64 -11.0139      8.5054    101.9413   1.3982334693e+02   5.4046387744e+01    0.2372363    0.1961084  68.24  0.001671663    1.311    0.237
        65 -10.6505    116.5462    213.4148   1.2784591814e+02   1.5730538487e+01    0.1888283     0.162207  72.36 0.0001197792    1.118    0.105
        66 -10.7955    115.9637    210.0203   1.2753026614e+02   1.6460933750e+01    0.2167014    0.1542394  50.75 0.0004628022    1.187    0.157
        67 -14.5041    153.3912     57.0237   8.3804915452e+01   3.9767826361e+01     1.346665     1.145033  38.74  0.001001533    1.204    0.169
        68 -14.0511     11.7367    205.9553   1.4778491431e+02   3.1048765855e+01    0.4839119    0.3581241  35.14  0.002573706    1.688    0.408
        69 -12.9355    169.2323     34.1319   7.3491436749e+01   3.8954225508e+01    0.4087559    0.3872517 -13.64 0.0008250031    1.161    0.139
        70 -11.0660     13.5000     59.9467   1.3074113164e+02   6.3073153694e+01    0.1785929    0.1610867  56.56  0.000428873    1.409    0.290
        71 -10.7818    140.3207     32.4422   7.8329037153e+01   4.6632229248e+01    0.3681185    0.2062974  76.83  0.001474206    2.329    0.571
