#   1 NUMBER                 Running object number                                     
#   2 MAG_AUTO               Kron-like elliptical aperture magnitude                    [mag]
#   3 X_IMAGE                Object position along x                                    [pixel]
#   4 Y_IMAGE                Object position along y                                    [pixel]
#   5 X_WORLD                Barycenter position along world x axis                     [deg]
#   6 Y_WORLD                Barycenter position along world y axis                     [deg]
#   7 A_WORLD                Profile RMS along major axis (world units)                 [deg]
#   8 B_WORLD                Profile RMS along minor axis (world units)                 [deg]
#   9 THETA_WORLD            Position angle (CCW/world-x)                               [deg]
#  10 FWHM_WORLD             FWHM assuming a gaussian core                              [deg]
#  11 ELONGATION             A_IMAGE/B_IMAGE                                           
#  12 ELLIPTICITY            1 - B_IMAGE/A_IMAGE                                       
         1 -13.5109    169.9188     56.1618   6.1123390544e+01   3.5358750091e+01      2.09582     1.303352  22.14  0.006242685    2.468    0.595
         2 -13.3166    184.8110     41.4759   5.4057134747e+01   3.3688285406e+01    0.9752336    0.9210751 -37.78  0.003240714    1.093    0.085
         3 -13.8971    207.1861     10.6957   4.2486748790e+01   3.1722485025e+01     1.166674      1.03047  24.56  0.005349699    1.402    0.287
         4 -12.3818    236.6622      2.9702   3.7969613992e+01   2.5469198816e+01      1.44955    0.3244823  73.22  0.004937518    4.165    0.760
         5 -11.7942     63.2184    221.3526   1.2015727731e+02   2.1280837821e+01    0.3969043    0.1916608  74.11   0.00127194    2.355    0.575
         6 -13.3648    247.2778    244.2121   8.9262844807e+01  -1.0504719013e+01     1.234226    0.6865268 -28.97  0.007836316    1.944    0.486
         7 -19.4189     34.5485    145.9992   1.1878643174e+02   4.0828866368e+01     19.13863     5.191483 -73.47   0.06779485    3.631    0.725
         8 -12.9235     10.1515    206.3834   1.2877893654e+02   3.0168258667e+01    0.4409041    0.2132981  39.30  0.002768433    2.039    0.510
         9 -11.5006    151.0413    180.0299   9.6599692589e+01   1.5269987143e+01    0.4318525    0.2941295 -73.28  0.002018227    2.069    0.517
        10 -11.5183    145.0977    180.7065   9.8012539252e+01   1.6258774040e+01    0.3779612    0.2567011  39.00  0.001146547    1.400    0.286
        11 -12.1146    141.7821    175.3753   9.7790339270e+01   1.7953696220e+01    0.5566279    0.4176325  86.68  0.002217248    1.737    0.424
        12 -10.6690    188.9797    176.9158   8.8031891228e+01   8.5181688371e+00     0.536627    0.3626016 -57.01  0.002526673    1.954    0.488
        13 -10.8402     90.7039    174.8382   1.0927154380e+02   2.6956084611e+01    0.4090676    0.2226367 -88.84  0.001679619    2.742    0.635
        14 -12.5384     75.2129    248.8961   1.2025051711e+02   1.4778902503e+01    0.3244985    0.1504565 -61.53  0.001567765    2.507    0.601
        15  -8.8568    194.4963    172.5042   8.6035557270e+01   8.2194540089e+00    0.1428033     0.129169  15.05 -0.0001798683    1.027    0.026
        16 -11.7284     61.3399    204.4883   1.1901638766e+02   2.4832178250e+01    0.2532689    0.2022275 -63.66  0.001102286    1.456    0.313
        17 -10.9092    193.6657    196.3420   9.0782234203e+01   4.3630997592e+00     1.090424     0.549605 -61.84  0.003090682    7.203    0.861
        18  -9.5101     87.6291    202.7038   1.1353132995e+02   2.1533759125e+01    0.2076454    0.1931443   3.54 0.0009955572    1.534    0.348
        19 -10.0212      2.7202    162.3482   1.2752357336e+02   3.9941298800e+01    0.1665019    0.1352387  52.62 0.0006196485    1.369    0.270
        20 -10.5280     16.4965    201.1516   1.2733331348e+02   3.0597534787e+01    0.1138107   0.08422226  84.34 -9.070196e-05    1.081    0.075
        21 -10.9181     94.0672    156.9261   1.0569357614e+02   3.0461250831e+01     0.268806    0.2482143 -89.39 0.0003683416    1.040    0.038
        22  -9.1320    149.4374    156.2008   9.2351460535e+01   2.0421684291e+01    0.2089807    0.1421826 -61.95 0.0009439387    1.723    0.420
        23 -11.9396     58.0462    214.5496   1.2055016246e+02   2.3255933264e+01    0.2457096    0.1572503  57.69  0.001076103    1.281    0.219
        24 -11.0151    133.9020    146.0711   9.3883564222e+01   2.5717031545e+01     1.356427    0.3220692 -54.68  0.003054029    6.619    0.849
        25  -9.9824    187.7374    152.0638   8.3076332558e+01   1.3308602176e+01    0.3763715    0.2527558 -85.39  0.001385807    3.281    0.695
        26 -12.1217     99.5678    150.5188   1.0322019788e+02   3.1031302808e+01    0.6084906    0.4840904 -26.87  0.003152706    1.672    0.402
        27 -10.2030    113.4769    151.4775   9.9956727503e+01   2.8384298118e+01    0.3266156    0.2086061  79.09  0.001351819    2.332    0.571
        28  -9.7007    174.8624    149.0842   8.5142891024e+01   1.6595321506e+01    0.2261435    0.2073559  89.55 0.0005171965    1.260    0.207
        29  -9.6585     91.9400    146.7699   1.0446237486e+02   3.3159350221e+01    0.2693447     0.186162  58.55   0.00134317    1.516    0.340
        30 -11.5948     70.6515    207.1298   1.1742878861e+02   2.3061522246e+01    0.4705878    0.2865335  24.67  0.001575018    2.484    0.597
        31 -11.6734    109.5685    137.6596   9.8186852831e+01   3.2262997180e+01    0.6415149    0.3449074 -41.05  0.002613618    2.148    0.534
        32 -10.3729     80.4715    194.6684   1.1408505150e+02   2.4229665333e+01     0.489066    0.2037677  53.38  0.001803024    2.344    0.573
        33 -11.7358     98.3411    136.5843   1.0088286013e+02   3.4488003951e+01    0.3007728     0.274647 -46.18  0.001692229    1.167    0.143
        34 -11.0770    105.8237    130.7700   9.7706961495e+01   3.4541197282e+01    0.3943613    0.3391835 -77.50  0.001144521    1.174    0.148
        35  -9.9031    135.8449    129.6089   8.9726794703e+01   2.8968481086e+01    0.3062026    0.1076646 -45.38 0.0009832989    2.847    0.649
        36  -9.9183    161.6476    128.4028   8.3263402332e+01   2.3668352868e+01     0.461461    0.3004705  74.47  0.001763586    2.479    0.597
        37 -10.3014    116.3653    128.4999   9.4435609085e+01   3.3111498846e+01    0.2988364    0.2602007 -13.66 0.0007610244    1.388    0.279
        38 -10.5575    104.2251    124.0806   9.6662786373e+01   3.6390368080e+01    0.3036185     0.245785 -33.98 0.0007850511    1.377    0.274
        39  -9.8736    120.5034    123.4341   9.2179633297e+01   3.3467254352e+01    0.2726733     0.137616 -39.47   0.00100695    2.225    0.551
        40  -9.8659    135.0000    120.4376   8.7719566103e+01   3.1176767196e+01    0.3402173   0.08725669 -46.26 0.0009238854    3.848    0.740
        41  -9.5707    152.3598    119.5006   8.3218214114e+01   2.7605744838e+01    0.3061435    0.1874815 -46.62 0.0007302476    1.634    0.388
        42  -9.4157    111.0151    118.0001   9.3410499024e+01   3.6547657415e+01    0.2208309    0.2133612 -63.32 0.0003316022    1.016    0.016
        43  -9.7243    231.2769    113.7875   6.5853218652e+01   1.0875313207e+01    0.2458218      0.23103  24.01 0.0007490921    1.122    0.108
        44 -10.0045    167.5661    112.4359   7.7868227616e+01   2.5606772613e+01    0.3495829    0.2490186 -74.40  0.001445536    2.026    0.506
        45 -10.4417    134.5510    105.2549   8.3891899289e+01   3.4595303194e+01    0.4748574    0.1500953 -45.75  0.001432703    3.123    0.680
        46 -11.4676    119.4970    110.5530   8.9263530039e+01   3.6586294662e+01    0.5802056    0.3831112  69.16  0.002381102    2.161    0.537
        47  -9.8274    205.4221    110.1920   6.9508959386e+01   1.7230263024e+01    0.3345537    0.2170471  41.72  0.001265472    1.635    0.388
        48 -11.4694     65.8033    194.2225   1.1709621080e+02   2.6361293810e+01    0.3420547    0.2209137 -48.40  0.001428026    2.053    0.513
        49  -9.9870    186.5488     86.6287   6.6836393236e+01   2.5999337603e+01    0.3019498     0.277172 -73.66  0.001196901    1.153    0.133
        50  -9.5206     74.8041     73.9533   9.2472058722e+01   5.2712471228e+01    0.2161553    0.1974329  16.93 0.0002984022    1.177    0.150
        51 -10.7995     71.5158    243.2405   1.2044690896e+02   1.6229966604e+01    0.2162564    0.1335908  88.40 0.0006517042    1.629    0.386
        52  -8.8154     85.7893    239.8539   1.1764893651e+02   1.4860239134e+01    0.1460612    0.1267998  56.53  0.000313651    1.230    0.187
        53 -12.6619    189.7330     35.1061   5.1435736137e+01   3.3274506011e+01    0.5751034    0.5687345 -24.94  0.001294032    1.101    0.092
        54  -8.6575     96.2944     63.6479   8.2130997997e+01   5.1100611790e+01     0.143098    0.1159864 -73.86 0.0007031997    1.682    0.406
        55  -9.0831    167.5533    229.0227   1.0114030589e+02   3.8005062301e+00    0.1571293    0.1251525 -44.54  0.000528265    1.522    0.343
        56 -11.2662    191.3964     15.4133   4.5543493962e+01   3.5198132044e+01    0.5619219    0.2408266  72.66  0.002271315    2.278    0.561
        57 -11.9015    149.7572    188.1252   9.8298951633e+01   1.3945703570e+01    0.3997085    0.2981303  45.04  0.001629485    1.219    0.180
