#   1 NUMBER                 Running object number                                     
#   2 MAG_AUTO               Kron-like elliptical aperture magnitude                    [mag]
#   3 X_IMAGE                Object position along x                                    [pixel]
#   4 Y_IMAGE                Object position along y                                    [pixel]
#   5 X_WORLD                Barycenter position along world x axis                     [deg]
#   6 Y_WORLD                Barycenter position along world y axis                     [deg]
#   7 A_WORLD                Profile RMS along major axis (world units)                 [deg]
#   8 B_WORLD                Profile RMS along minor axis (world units)                 [deg]
#   9 THETA_WORLD            Position angle (CCW/world-x)                               [deg]
#  10 FWHM_WORLD             FWHM assuming a gaussian core                              [deg]
#  11 ELONGATION             A_IMAGE/B_IMAGE                                           
#  12 ELLIPTICITY            1 - B_IMAGE/A_IMAGE                                       
         1 -12.7229    178.8249     42.3164   5.9529400727e+01   3.4632711851e+01     1.143161    0.9838869   8.45  0.003955724    1.271    0.213
         2 -12.9781    199.0493     11.2190   4.7061356563e+01   3.2889953305e+01     1.082619     1.029441  -1.45  0.004308306    1.134    0.118
         3  99.0000     12.1150    242.2153   1.3092301001e+02   2.5761261850e+01    0.2600355    0.1316382  56.84  0.002015113    1.311    0.237
         4 -12.1311    247.6409    245.7285   9.1410812431e+01  -3.4091591431e+00    0.5059641    0.3523913 -12.00  0.004325657    1.542    0.351
         5  -9.4079      8.8625    211.2746   1.3076050530e+02   3.0974008170e+01   0.08869505   0.04780468  69.00 0.0006137077    1.437    0.304
         6 -19.4501     41.3536    153.0653   1.2081562171e+02   3.9034139444e+01      17.5407      3.57229 -75.81   0.05670672    5.351    0.813
         7  -9.6162     12.0204    204.7414   1.2998353598e+02   3.1821307160e+01    0.2614282    0.1700555 -72.83  0.001952109    1.800    0.444
         8  -9.4453     87.6115    203.1991   1.1469240681e+02   2.3702318534e+01    0.2601295    0.2256554  86.03  0.001948942    1.288    0.223
         9  -9.8829    193.0099    194.9209   9.2957758255e+01   8.9956796139e+00    0.5321853    0.2900632 -58.61  0.001995305    6.336    0.842
        10 -10.1532    150.8559    196.0475   1.0105133241e+02   1.5516188779e+01    0.2093783    0.1508474 -45.96  0.001332903    1.739    0.425
        11  -9.7605     81.9087    195.1482   1.1514910790e+02   2.5845524334e+01     0.269603    0.2487246  14.07  0.001986281    1.430    0.301
        12  -9.0176     65.7046    193.0382   1.1841267977e+02   2.8289247654e+01    0.2421242    0.1758801  57.57 0.0008736948    1.097    0.088
        13  -9.6002     68.4667    196.5579   1.1810663373e+02   2.7316248224e+01    0.1772927    0.1285253  61.79 0.0001824398    1.159    0.138
        14 -11.2107     72.2396    193.1727   1.1702997594e+02   2.7449907644e+01    0.3702857    0.2609711 -41.37  0.001440402    2.170    0.539
        15  -8.7155    156.7819    190.1580   9.9050484061e+01   1.5430408800e+01    0.1615051    0.1270933  15.37 0.0003846288    1.317    0.240
        16 -10.7572    127.6259    185.1744   1.0430274479e+02   2.0891298440e+01    0.3392577    0.1252747 -55.89  0.001455998    3.480    0.713
        17  -8.4755    167.4566    226.9907   1.0194114025e+02   8.9505413854e+00    0.1312041    0.1106214 -32.21  0.001019218    1.564    0.361
        18  -9.6757    146.0141    182.5325   1.0009794445e+02   1.8346783793e+01    0.2042023    0.1050103  39.39 0.0008839837    1.604    0.377
        19 -10.7868     98.6272    181.1812   1.1007732034e+02   2.6021065014e+01    0.4208093    0.2405591  25.59  0.001662973    2.093    0.522
        20  -9.5803    189.4735    178.5722   9.0951904337e+01   1.1659483136e+01    0.2864506    0.2165211  48.98  0.001293988    1.473    0.321
        21  -9.5214    187.8724    173.7199   9.0419395754e+01   1.2584887564e+01    0.2978123    0.1807681 -54.73  0.001471243    2.788    0.641
        22  -8.9425     73.5213    218.6596   1.1874082291e+02   2.2959841129e+01    0.1528092    0.1011212 -65.09 0.0007668805    1.891    0.471
        23 -11.2262    104.0510    172.2538   1.0776145964e+02   2.6852938196e+01    0.3923089    0.3515354 -28.91  0.001806641    1.444    0.308
        24 -10.6331    143.5360    172.3832   9.9069799150e+01   2.0402061979e+01    0.2892681    0.1855875  42.17  0.001097994    1.322    0.243
        25 -10.8006    125.1299    171.3140   1.0289733820e+02   2.3669700793e+01    0.4389048    0.2612944  68.45  0.002021099    2.583    0.613
        26  -8.7137    186.6870    165.4327   8.9173722182e+01   1.3944694898e+01    0.2091849    0.1165599 -35.21  0.001073744    1.992    0.498
        27 -10.6058     97.7356    156.4606   1.0710704426e+02   3.0885662171e+01    0.3175065    0.2499804 -49.22 0.0002343517    1.497    0.332
        28 -11.3029    102.0581    150.5289   1.0517278950e+02   3.1397644037e+01    0.5382915    0.3898663 -31.81  0.001810617    1.933    0.483
        29  -9.2294     13.9412    159.9857   1.2794714247e+02   4.0163743609e+01    0.1663306    0.1314179  70.28  0.001216374    1.054    0.052
        30  -4.4855     22.4329    216.4014   1.2837956443e+02   2.8881995896e+01    0.1026332   0.07121696  55.72 0.0003119117    1.017    0.017
        31 -11.8753     87.0813    150.4248   1.0890259951e+02   3.3745941382e+01     0.362959    0.3169963   3.10 0.0009199049    1.513    0.339
        32  -9.9414    134.3451    148.8791   9.7155326069e+01   2.6154601016e+01    0.4143429    0.1417045 -53.95  0.001452112    3.760    0.734
        33  -8.1486    143.6702    147.6940   9.4809207482e+01   2.4657006686e+01    0.1380699    0.1044631  10.05 0.0007037788    1.657    0.397
        34  -8.3587    158.8430    146.2120   9.1182925829e+01   2.2059233930e+01     0.221513    0.1515692  81.25 0.0009423626    2.861    0.650
        35 -10.4736    111.3743    137.5867   1.0068682698e+02   3.2480206574e+01    0.4826697    0.2813848 -33.23  0.002064747    2.613    0.617
        36 -10.6567    100.9153    136.1268   1.0312449995e+02   3.4574306956e+01    0.2654698    0.2401511  37.26 0.0003566018    1.146    0.128
        37 -10.3264    105.9914    130.8129   1.0084278715e+02   3.4836003672e+01    0.3613745    0.3135885 -86.50  0.001234692    1.209    0.173
        38  -8.9487    117.3206    128.5286   9.7455831295e+01   3.3281834174e+01    0.2251721    0.1737875 -25.34 0.0009233198    1.681    0.405
        39  -8.6142    161.3074    128.3180   8.6936682755e+01   2.4675508854e+01    0.1451566    0.1084261   9.96 0.0007030654    1.634    0.388
        40  -9.4947    105.6838    123.9044   9.9605830638e+01   3.6367368446e+01    0.2432014    0.2170864  19.93 0.0005734618    1.275    0.216
        41  -8.1452    112.2604    117.9779   9.6618184384e+01   3.6440445815e+01    0.1725623    0.1254636 -54.87 0.0003532844    1.439    0.305
        42  -9.0002    231.2872    113.8581   7.0672045883e+01   1.2705431639e+01    0.2013419    0.1822416  41.92 0.0007569669    1.267    0.211
        43  -8.9510    168.0532    113.0324   8.1946065647e+01   2.5930503928e+01    0.2263852    0.1840826 -82.22  0.001125205    1.704    0.413
        44  -8.9368    205.2901    110.4173   7.4108142721e+01   1.8380396259e+01    0.2596312    0.1255437  45.45 0.0007513124    2.017    0.504
        45 -11.6921     73.4482    209.9442   1.1811952433e+02   2.4391776110e+01    0.4401263    0.3387573 -25.80  0.002931332    2.266    0.559
        46  -9.9601     81.8604     76.0365   9.5657339486e+01   5.1382221697e+01    0.2501159    0.2090513  43.25 0.0004483641    1.234    0.190
        47 -12.3058    164.9058     56.9672   6.6744872229e+01   3.6150514620e+01     1.597065    0.8967863  34.98  0.005182991    2.218    0.549
        48  -8.4061    168.0000    248.8971   1.0432929453e+02   6.4295126035e+00    0.1228162   0.06086403 -42.83 0.0007890016    2.850    0.649
        49 -11.7003    183.9550     35.5282   5.6559996929e+01   3.4160253878e+01    0.6105652    0.4688068  22.38  0.001542846    1.513    0.339
        50  -9.8181    163.5199    210.9925   1.0064291157e+02   1.1506379222e+01    0.2358488    0.1309534  28.19  0.001357342    1.631    0.387
