#   1 NUMBER                 Running object number                                     
#   2 MAG_AUTO               Kron-like elliptical aperture magnitude                    [mag]
#   3 X_IMAGE                Object position along x                                    [pixel]
#   4 Y_IMAGE                Object position along y                                    [pixel]
#   5 X_WORLD                Barycenter position along world x axis                     [deg]
#   6 Y_WORLD                Barycenter position along world y axis                     [deg]
#   7 A_WORLD                Profile RMS along major axis (world units)                 [deg]
#   8 B_WORLD                Profile RMS along minor axis (world units)                 [deg]
#   9 THETA_WORLD            Position angle (CCW/world-x)                               [deg]
#  10 FWHM_WORLD             FWHM assuming a gaussian core                              [deg]
#  11 ELONGATION             A_IMAGE/B_IMAGE                                           
#  12 ELLIPTICITY            1 - B_IMAGE/A_IMAGE                                       
         1 -15.3310    163.9250    113.4031   3.1869604972e+01   2.7536076950e+01     3.628201     1.403047 -48.73   0.01436472    2.549    0.608
         2 -13.8469    220.5994     26.0581   6.6384538276e+00   2.9742782662e+01     1.484575    0.2765212 -44.81  0.006746165    3.136    0.681
         3 -14.0234    244.3418     58.8652   1.1081603774e+01   2.2168318635e+01     1.016198    0.6644952 -40.69  0.007560556    1.272    0.214
         4 -13.5273    247.5853     36.6385   6.9888594408e+00   2.4271158785e+01     1.208042    0.1335671 -46.73   0.00505627    4.036    0.752
         5 -15.2237    244.6348     14.1721   3.2672092124e+00   2.7094674093e+01     1.376699    0.7235352 -44.08  0.009232407    1.402    0.287
         6 -14.3820    222.3427      5.3425   2.6581102051e+00   3.1565958739e+01     1.065087    0.4347118 -69.78  0.006077752    2.204    0.546
         7 -13.7254    152.0030     25.3716   1.2108879634e+01   4.3206794543e+01    0.6045586    0.3320311  81.24  0.003265302    1.729    0.422
         8 -12.8878    200.8726      8.7805   4.3812796748e+00   3.5034061239e+01    0.6005667    0.2597493 -59.60   0.00350897    1.897    0.473
         9 -13.5268     42.7855    234.8503   8.2813655126e+01   1.8263399328e+01     1.148103    0.4014421 -66.35  0.004803676    3.061    0.673
        10 -12.0422     95.9187    250.1751   7.1007805345e+01   9.8074596469e+00     0.445889    0.1558396  22.97  0.001571882    2.377    0.579
        11 -12.3936      3.2606    249.7056   9.3396505069e+01   1.8476851556e+01    0.4623743    0.1931226  28.64    0.0023475    1.829    0.453
        12 -13.3464      6.0606    187.3297   8.9844067641e+01   3.2642029119e+01    0.9353054     0.379956 -58.93  0.003845942    2.465    0.594
        13 -14.5970      3.1488    142.2959   8.7670760816e+01   4.4854145330e+01     3.101325    0.4911125 -76.92   0.00768207    5.722    0.825
        14 -15.3662     24.4924    205.7450   8.5640388009e+01   2.6600821236e+01     3.910259    0.8145742  44.69   0.01168978    4.343    0.770
        15 -14.2325      5.8163    202.8573   9.0767897196e+01   2.8781040419e+01     1.085149    0.8414686 -52.49  0.006271646    1.431    0.301
        16 -15.0572     30.5328    161.3262   7.9723369098e+01   3.7521838966e+01     2.036343     1.103051  39.40   0.00876492    1.774    0.436
        17 -14.1304     12.6528    228.6039   9.0213895125e+01   2.2252779652e+01     2.182903     0.985591  80.95  0.009829251    2.618    0.618
        18 -13.4826      2.4409    217.7758   9.2386008514e+01   2.5476862744e+01     0.901103    0.2851841 -74.75  0.003603549    3.170    0.685
        19 -14.0258      4.9730    170.0081   8.9101949738e+01   3.7231610891e+01    0.7518517     0.660742 -46.60  0.002759637    1.203    0.169
        20 -14.5704     14.3150    165.2612   8.5645955361e+01   3.7842464389e+01     1.349891     0.727291  50.82  0.005194513    1.892    0.471
        21 -15.1494     40.0210    198.9804   8.0583205046e+01   2.6819142469e+01     1.606119    0.8049113  38.19  0.005912043    1.791    0.442
        22 -16.4730     30.5515    179.3526   8.1608858868e+01   3.2721937902e+01     4.555809       1.5905  28.45   0.01094016    2.441    0.590
        23 -13.8100      4.6225    240.3364   9.2733079997e+01   2.0319253454e+01    0.7557467    0.2629401  50.17  0.002774287    2.474    0.596
        24 -13.9527    115.8745    233.9986   6.4396722290e+01   1.0679501068e+01     1.034961     0.554684  39.24  0.005132278    1.972    0.493
        25 -11.0887     60.7129    209.8588   7.5746463573e+01   2.2043519896e+01    0.3923349     0.238557  28.57  0.001919249    1.445    0.308
        26 -13.7997     73.0334    220.2254   7.3514235880e+01   1.8337229413e+01      1.05314    0.7068433  40.18  0.003692125    1.427    0.299
        27 -12.6289     62.7801    215.2660   7.5747275034e+01   2.0574699807e+01    0.6715257    0.3189207  35.69  0.002847973    1.842    0.457
        28 -13.9952     88.2291    230.9526   7.0779069283e+01   1.4371651772e+01     1.011722    0.6835519  39.55   0.00477158    1.460    0.315
        29 -12.8070     83.5447    225.1481   7.1312306888e+01   1.6100167943e+01    0.4939057    0.3703778  46.57  0.001770139    1.432    0.302
        30 -13.3738    130.9184    228.9701   6.0239808192e+01   9.9234106697e+00     1.014509    0.3903083  38.52  0.004212748    2.856    0.650
        31 -12.0323     59.1913    223.3300   7.7525160615e+01   1.9147760581e+01    0.4371477    0.2889075  64.67  0.001693432    1.849    0.459
        32 -11.0398    159.3677    229.0054   5.4060733155e+01   6.7670406569e+00    0.2531354     0.105395  34.16  0.001187259    2.469    0.595
        33 -12.0570    110.3668    208.9118   6.2342698531e+01   1.6328493587e+01    0.3452943    0.2698528   2.05  0.001393261    1.208    0.172
        34 -12.8710    106.1220    215.9511   6.4395413796e+01   1.5384858557e+01    0.7135705    0.4314919 -63.01    0.0034122    2.051    0.512
        35 -11.4538    105.8462    209.3268   6.3547928621e+01   1.6806209839e+01    0.3079841     0.290171 -34.16  0.001303715    1.174    0.148
        36 -13.6202    116.6975    215.8954   6.1769545205e+01   1.4113212716e+01    0.5294684    0.3934307  28.85  0.002755828    1.275    0.216
        37 -12.2713     89.2374    208.5814   6.7784617585e+01   1.9018293344e+01    0.5286766    0.4225482  -2.73  0.002029597    1.238    0.192
        38 -11.6709    115.9302    207.6487   6.0767735631e+01   1.5891343694e+01    0.2714239    0.2157345 -20.15  0.001000023    1.225    0.184
        39 -12.6847     99.1602    194.7214   6.3172914101e+01   2.0856632722e+01    0.5855104    0.4485919 -19.29  0.003077029    1.368    0.269
        40 -13.0414    185.5037    161.7050   3.7735529038e+01   1.5358138829e+01    0.7369139    0.4686506 -41.68  0.004175908    1.380    0.275
        41 -12.3538     54.3412    158.7354   7.1238100763e+01   3.5614148531e+01    0.5417042    0.2962989  37.99  0.001922235    1.755    0.430
        42 -13.9964     54.3595    150.1342   6.9895920154e+01   3.7896911497e+01     1.419851      1.20655  65.70  0.006310593    1.286    0.223
        43 -11.8945     39.7089    145.6032   7.4428317758e+01   4.0855417869e+01    0.4656637    0.2600641  -4.54  0.001458347    2.407    0.585
        44 -13.4222    215.8048    148.4404   3.0442640994e+01   1.3486101066e+01    0.6222795    0.4786119 -22.87  0.002673073    1.212    0.175
        45 -13.2254    205.4153    183.3847   3.8158352913e+01   9.1741680508e+00      2.00759     1.046656   3.04  0.008895284    3.518    0.716
        46 -11.4593     71.4337    132.2167   6.0641369383e+01   4.0185680962e+01    0.2856597    0.2277468 -16.60 0.0007578924    1.417    0.294
        47 -10.8066     23.6711    132.5339   7.8680482470e+01   4.6045305832e+01     0.269374    0.1361354 -71.28  0.001082106    1.970    0.492
        48 -11.6917    202.5039    137.6261   3.0405931469e+01   1.7052572119e+01    0.3157841    0.1968062 -40.47  0.001853398    1.331    0.249
        49 -12.3010    139.3960    123.1112   3.9075629928e+01   3.0199358278e+01    0.4088718    0.3969392 -65.45  0.002099814    1.065    0.061
        50 -12.1391    246.7843    122.3410   2.1978641647e+01   1.3431650949e+01    0.3172604    0.1884776 -29.82  0.001814195    1.567    0.362
        51 -10.5076     86.5010    122.4482   5.3420192051e+01   4.0118959880e+01    0.1531095    0.1474992   4.61 6.125635e-05    1.031    0.030
        52 -11.5260     65.5673    108.2560   5.7375077479e+01   4.7157695928e+01    0.3168316    0.2609221   6.72   0.00156085    1.316    0.240
        53 -12.1498    249.9189     86.3318   1.5454022745e+01   1.7910242389e+01    0.5907124    0.1633342 -34.86  0.002525517    3.619    0.724
        54 -12.3646    235.6039     89.1085   1.7241060788e+01   1.9546167971e+01    0.5496044    0.1941103 -40.99  0.002852545    2.121    0.529
        55 -14.0088    234.6850     79.3669   1.5550525411e+01   2.0991517120e+01     1.146652    0.6386829 -23.35  0.006305809    2.650    0.623
        56 -14.0323      6.8411     83.5025   7.8670943328e+01   6.0549721810e+01    0.6502178    0.5048909 -39.29  0.003524534    1.196    0.164
        57 -12.8923     58.4240     80.8174   5.2742495690e+01   5.4840510786e+01    0.5479124    0.4518855 -66.49   0.00253758    1.397    0.284
        58 -15.0453    245.3050    147.2825   2.6378027962e+01   1.0069678379e+01     1.475079     1.137845 -44.04  0.008717613    1.217    0.179
        59 -15.4137    246.7536    176.6207   3.0997306440e+01   5.7456645929e+00     2.276916     1.091615 -50.30   0.01265912    2.526    0.604
        60 -15.7365    246.8322    219.6298   3.7565082449e+01  -1.2361182091e-01     2.386918    0.7132575 -39.43   0.01210281    2.546    0.607
        61 -16.1073    231.7401    198.6200   3.6550842729e+01   4.0815957862e+00     2.868043     1.044169 -39.67   0.01529015    2.146    0.534
        62 -12.3388    159.1751     58.6624   1.9704880270e+01   3.7437230176e+01    0.4412482    0.2737839 -66.32  0.002315081    1.738    0.425
        63 -13.0996    126.0039     53.9187   2.3951299426e+01   4.5395146825e+01    0.7862303    0.4908114 -82.83   0.00364693    2.131    0.531
        64 -14.8186     69.3635    237.8192   7.6265594783e+01   1.4993034403e+01     1.784121    0.7215264  42.33  0.007159919    2.415    0.586
        65 -11.6772    169.5268     25.5148   1.0358022266e+01   3.9451859926e+01     0.280737    0.1645535 -51.78  0.001667865    1.485    0.327
        66 -11.9535     35.8134    239.0908   8.4893245332e+01   1.8003072261e+01     1.402926    0.7361324  64.34  0.006779151    2.272    0.560
