#   1 NUMBER                 Running object number                                     
#   2 MAG_AUTO               Kron-like elliptical aperture magnitude                    [mag]
#   3 X_IMAGE                Object position along x                                    [pixel]
#   4 Y_IMAGE                Object position along y                                    [pixel]
#   5 X_WORLD                Barycenter position along world x axis                     [deg]
#   6 Y_WORLD                Barycenter position along world y axis                     [deg]
#   7 A_WORLD                Profile RMS along major axis (world units)                 [deg]
#   8 B_WORLD                Profile RMS along minor axis (world units)                 [deg]
#   9 THETA_WORLD            Position angle (CCW/world-x)                               [deg]
#  10 FWHM_WORLD             FWHM assuming a gaussian core                              [deg]
#  11 ELONGATION             A_IMAGE/B_IMAGE                                           
#  12 ELLIPTICITY            1 - B_IMAGE/A_IMAGE                                       
         1 -13.7391    244.5342      9.6882   3.4778447786e+02   2.5480915623e+01     5.940344     2.984814 -11.09   0.02635192    4.451    0.775
         2 -12.3794    229.3938    127.9610   1.3804055992e+01   1.2578217516e+01     7.032267     2.502503 -52.33   0.01858005    8.228    0.878
         3 -12.0048    231.7468    115.4704   1.0964835572e+01   1.4079341783e+01     3.826718     1.057459 -49.13   0.01014745    7.483    0.866
         4 -11.2009    148.0606     58.4395   9.5230514230e+00   4.0058531988e+01    0.6682614    0.3634903 -43.79  0.002943536    1.746    0.427
         5 -12.8963    247.3797    142.1661   1.4178640685e+01   7.9892954665e+00     2.597267    0.9081739 -30.91   0.01099278    2.585    0.613
         6 -14.1238    244.4968     86.7300   3.6264459467e+00   1.6161342490e+01     4.684837     1.670709 -35.62   0.02219408    2.166    0.538
         7  -8.5912    228.1298     10.0015   3.4858977147e+02   2.8473238200e+01    0.2571999      0.13953 -34.51  0.001248796    1.580    0.367
         8  -8.7853     54.9906     10.0441   1.4058339820e+01   6.9624121733e+01    0.1948841    0.1747653  41.46  0.001194676    1.015    0.015
         9 -10.1510    240.0282    206.6585   2.6425182486e+01   1.8599646428e-01    0.2132573    0.1802799  47.34  0.001250922    2.217    0.549
        10  -9.7214    229.7900    201.1270   2.7104645454e+01   1.9986530949e+00    0.2174591    0.1514438  -6.38  0.001517241    1.185    0.156
        11  -8.2285      9.1439    201.7943   7.7487229625e+01   2.9428369672e+01    0.1961157    0.1337429  53.61 0.0004648767    1.200    0.166
        12  -8.7407    225.4913    194.0750   2.6616356592e+01   3.4412038826e+00    0.1745156   0.09352285 -32.72  0.001031232    1.587    0.370
        13  -9.9262    231.1434    187.8180   2.4674185933e+01   3.6422964889e+00    0.2539683    0.1814282 -23.47 0.0008921753    1.126    0.112
        14  -7.2052     84.2964    188.3769   5.6228126962e+01   2.4209672495e+01    0.1436477    0.1046115 -23.92 0.0001179409    1.749    0.428
        15  -9.6914    224.6815    184.1808   2.5057470214e+01   4.9214901385e+00    0.1908066     0.185701  66.62   0.00101062    1.715    0.417
        16 -12.9569    232.4187    164.1788   2.0312454142e+01   6.8115475515e+00     2.001041     1.112262 -33.04   0.01183253    1.465    0.317
        17  -7.5585     64.4354    229.0367   6.5478143805e+01   1.8038497055e+01    0.1633603    0.1237357 -73.28 0.0008114648    1.555    0.357
        18  -7.9811    200.9970    184.0005   2.8997791640e+01   7.9827164932e+00    0.1682426    0.1572536 -71.08  0.001081437    1.676    0.403
        19 -10.7345    246.5366    169.4366   1.9237705182e+01   4.3400972245e+00    0.5178155    0.4192571 -70.40  0.003381011    2.510    0.602
        20  -8.3420    210.8008    183.2725   2.7170190143e+01   6.8010105371e+00    0.1687974    0.1554853  29.16  0.001195226    1.450    0.310
        21  -9.1371    219.8954    179.1391   2.4938101768e+01   6.2444840508e+00    0.2025243    0.1697132  43.31 0.0008962728    1.673    0.402
        22 -10.7559    218.2421    174.6906   2.4410583903e+01   7.1137938280e+00    0.3722477    0.3210739   0.01  0.002001609    1.162    0.139
        23  -8.2121    211.4379    176.2219   2.5806693694e+01   7.7822928503e+00    0.1637972    0.1038258 -43.07 0.0009413689    1.641    0.391
        24  -8.4348    206.2027    170.3073   2.5613096678e+01   9.4125016995e+00    0.2495544     0.151297 -42.86 0.0009604638    1.645    0.392
        25 -10.5778    237.3321    195.8575   2.5079594799e+01   1.8622301707e+00    0.3749136    0.1787778 -41.11  0.002130209    2.132    0.531
        26 -11.6928    246.1450    194.2074   2.3507719722e+01   1.1239564553e+00     1.122912    0.4606554 -44.06  0.005655678    2.994    0.666
        27  -7.8029    208.4092    144.1969   2.0200477851e+01   1.3262219264e+01    0.1822225    0.1052507 -45.96 0.0009367978    1.725    0.420
        28  -8.0025    223.9436    143.1595   1.7591218869e+01   1.1087959343e+01       0.1851    0.1449233 -40.31 0.0009346777    1.236    0.191
        29  -7.3622    214.3123    141.6218   1.8745610414e+01   1.2764931158e+01    0.1244474   0.09291017 -59.63 0.0007027531    1.797    0.443
        30  -8.0785    215.8383    135.7782   1.7332428321e+01   1.3452750569e+01    0.2471822    0.1318477 -42.59  0.001038512    1.677    0.404
        31  -8.4041    219.8241    138.6554   1.7311698660e+01   1.2391701875e+01    0.3519551    0.1571132 -47.82   0.00159105    2.462    0.594
        32  -8.1820    219.1802    133.9774   1.6466569115e+01   1.3217229145e+01    0.2312116    0.1624555 -47.91  0.001002969    1.458    0.314
        33 -12.2606    248.5562     91.4822   4.1812663193e+00   1.4876083850e+01     2.343755     0.143747 -36.43   0.00594737    7.632    0.869
        34  -8.5013    224.6537    134.1806   1.5711188554e+01   1.2351600688e+01    0.2552762    0.1587073 -42.07 0.0008347674    1.428    0.300
        35  -9.4487    220.4742    128.7745   1.5218859665e+01   1.3824679542e+01    0.5242165    0.3109483 -62.43  0.002409918    2.994    0.666
        36  -7.7096    206.9032    131.4477   1.7826256353e+01   1.5576082015e+01    0.1653193    0.1164552  79.71 0.0008065699    2.661    0.624
        37  -7.9966    212.9327    129.9196   1.6571702192e+01   1.4842235620e+01    0.1854466     0.148333 -66.01 0.0009563245    1.650    0.394
        38  -7.7484    193.1365    130.3811   1.9878352528e+01   1.8082004337e+01    0.1720259    0.1281968  62.00 0.0009282595    1.774    0.436
        39  -6.9853    182.2957    126.2996   2.0912176196e+01   2.0735507382e+01    0.1358514    0.1037666  -5.28 0.0004527722    1.572    0.364
        40  -8.0412    167.4962    125.9989   2.3697054875e+01   2.3560627829e+01    0.2783461    0.1823365  87.47  0.001035378    3.476    0.712
        41  -8.5019    212.8887    123.4525   1.5225845129e+01   1.5881003270e+01    0.2351128    0.1927119 -65.13 0.0009038363    1.514    0.339
        42  -7.4767    207.3509    123.6935   1.6116861498e+01   1.6766480359e+01    0.1272152   0.09713931 -65.76 0.0005455208    1.709    0.415
        43  -7.4172    171.0398    123.0176   2.2304564468e+01   2.3446997540e+01    0.2143118    0.1701237 -75.42  0.001043548    1.655    0.396
        44  -8.2261    203.0048    121.5087   1.6325441210e+01   1.7867939005e+01    0.2585331    0.1624537 -51.33  0.001335019    1.679    0.404
        45  -8.4781    195.5783    121.8627   1.7605598071e+01   1.9112385767e+01    0.2450773    0.2007448 -71.79  0.001403482    1.556    0.357
        46  -7.6786    182.2069    120.2031   1.9551806753e+01   2.1846018587e+01    0.2030491    0.1102848  59.00  0.000865102    2.484    0.597
        47  -7.5501    162.3473    118.6958   2.3042738992e+01   2.5965640449e+01    0.1450798    0.1144549 -81.83 0.0007041019    1.694    0.410
        48  -9.5435    210.5895    114.6982   1.3694950326e+01   1.7665982719e+01    0.3593997    0.2702979 -68.10   0.00138912    1.729    0.422
        49  -7.7233    203.9670    115.9964   1.4972350346e+01   1.8607807320e+01    0.1902238    0.1503724 -68.22 0.0006582268    1.577    0.366
        50  -8.2150    185.3466    116.1877   1.8073825643e+01   2.1969181768e+01    0.2506337     0.179193  85.62  0.001199252    2.237    0.553
        51  -8.5533    193.7110    114.2922   1.6223098930e+01   2.0739267894e+01    0.2902723     0.222558 -85.75  0.001549059    1.862    0.463
        52  -8.0993    152.8662    114.7354   2.4101711913e+01   2.8656896507e+01    0.2818694    0.1849991 -65.68  0.001203898    2.059    0.514
        53  -7.7672    158.1431    114.1272   2.2817865855e+01   2.7698693819e+01     0.198448    0.1714949 -71.72 0.0005418943    1.302    0.232
        54  -7.8666    146.9917    114.0570   2.5247624934e+01   3.0003457534e+01    0.2363583    0.1840313 -79.47  0.001123156    1.666    0.400
        55  -8.1740    168.6785    112.3204   2.0242356211e+01   2.5913802124e+01    0.2613429    0.1629208 -51.75 0.0009138013    1.655    0.396
        56  -9.1331    217.8181    109.6712   1.1588758118e+01   1.7222426580e+01    0.3249011    0.2085441 -51.92  0.001158792    1.589    0.371
        57  -8.7377    200.6667    109.9853   1.4145247183e+01   2.0187071424e+01    0.4267647    0.2149624 -57.57  0.001721503    2.923    0.658
        58  -8.1424    162.5131    111.0389   2.1156612048e+01   2.7403508780e+01    0.2779995    0.1778703 -87.19 0.0008251321    3.291    0.696
        59  -8.6850    182.8094    108.7809   1.6792167375e+01   2.3759690189e+01    0.3982631    0.2955029 -84.82  0.002002291    1.924    0.480
        60  -8.7412    190.0870    108.3805   1.5464905479e+01   2.2426870894e+01    0.3048884    0.2268578 -46.74  0.001396923    1.243    0.195
        61  -8.6424    173.7230    108.5519   1.8372070154e+01   2.5597413277e+01    0.3253446     0.214426 -53.48  0.001573889    1.583    0.368
        62  -8.1364    154.6969    108.3793   2.2122555543e+01   2.9533660494e+01    0.2294219    0.1764443 -83.47  0.001093383    1.722    0.419
        63  -7.8717    160.4408    106.7147   2.0505339654e+01   2.8656134400e+01    0.2038051     0.135791 -31.74 0.0009450452    1.560    0.359
        64  -8.8942    204.5968    105.2633   1.2492665061e+01   2.0242007229e+01    0.3448443    0.2312351 -79.86   0.00152041    2.442    0.591
        65  -8.8544    212.3930    104.6423   1.1242209072e+01   1.8943906556e+01    0.2855802    0.1975644 -54.64 0.0008459729    1.498    0.332
        66  -8.4924    208.8544     99.6528   1.0623873407e+01   2.0361329821e+01    0.2770395    0.1851235 -47.13  0.001320899    1.343    0.255
        67  -8.2346    141.3071    104.6579   2.4159644199e+01   3.3120887487e+01    0.1556136    0.1186126 -78.98 0.0007042874    1.689    0.408
        68  -8.5835    194.2917    102.2773   1.3369864858e+01   2.2654620218e+01    0.2876536    0.1820261 -67.60  0.001327476    2.281    0.562
        69  -9.0365    150.1378    102.4520   2.1587006623e+01   3.1662316051e+01    0.3246781    0.2258429 -74.80   0.00141638    2.023    0.506
        70  -8.7909    186.6077    102.0659   1.4554169399e+01   2.4181278043e+01    0.5002324     0.204336  53.46  0.002023349    2.761    0.638
        71  -8.1254    174.5835    102.2337   1.6673124329e+01   2.6563975857e+01    0.2475712     0.204333  59.28 0.0008132964    1.335    0.251
        72  -8.6937    168.1813    100.6467   1.7461071755e+01   2.8173501302e+01    0.3582737    0.2235205 -56.24  0.001016284    1.773    0.436
        73  -8.4606    165.1543     94.7484   1.6529090815e+01   2.9887838132e+01    0.3763799    0.2056133 -56.02  0.001550672    2.146    0.534
        74  -9.3214    160.4985    100.3783   1.8886012840e+01   2.9843176690e+01    0.3365622    0.2486049 -56.59  0.001307992    1.403    0.287
        75  -8.3940    197.6478     98.1313   1.1890571866e+01   2.2695987577e+01    0.2324308    0.1866798 -83.35 0.0007343053    1.522    0.343
        76  -8.4922    193.3407     96.0515   1.2053172555e+01   2.3870105603e+01    0.2673326     0.211567  53.40  0.001084924    1.429    0.300
        77  -9.0562    188.5593     93.8585   1.2268901334e+01   2.5180092231e+01    0.5086911    0.2232973 -44.74  0.002082794    2.061    0.515
        78  -8.8628    183.7818     96.6170   1.3707424458e+01   2.5676303673e+01    0.2740665    0.1998742 -52.56 0.0007986681    1.329    0.248
        79  -9.8108    170.4679     83.1530   1.2542318220e+01   3.0780029205e+01    0.4452342    0.2570643 -37.94  0.001664042    1.617    0.382
        80  -8.1426    175.0401     97.4958   1.5417704273e+01   2.7312345892e+01     0.205545    0.1412677  53.36 0.0007844883    1.584    0.369
        81  -8.4006    171.0574     95.0626   1.5517834309e+01   2.8575903556e+01    0.3008734    0.2123643 -69.45  0.001446385    1.762    0.432
        82  -9.1262    168.4088     90.1933   1.4746388765e+01   3.0003797663e+01     0.378468    0.2098568 -58.52  0.001309679    2.228    0.551
        83  -8.8476    148.9498     95.5503   2.0017478652e+01   3.3264224671e+01    0.3104116    0.2438413  87.72  0.001516866    1.558    0.358
        84  -8.3120    106.9561     95.5103   3.0771909624e+01   4.2532170636e+01    0.2289697    0.1538566  45.70 0.0003652277    1.487    0.327
        85  -9.9458    176.6529     92.9226   1.3991699149e+01   2.7776494006e+01     0.449989    0.3095923  88.64  0.002118866    2.069    0.517
        86  -8.4457    132.0444     93.8417   2.3447039559e+01   3.7363153906e+01    0.2568446    0.1783712  80.93 0.0008518891    2.040    0.510
        87  -8.8962    158.5474     91.3813   1.6920982863e+01   3.1936555695e+01    0.3129706    0.2441518 -75.41  0.001571975    1.495    0.331
        88  -9.3567    142.9257     90.7787   2.0035538956e+01   3.5528540910e+01    0.3875356    0.2572641 -78.09  0.001582775    2.281    0.562
        89  -8.6049    183.2211     89.5053   1.2048532425e+01   2.6993478448e+01     0.298981    0.1965578 -53.40 0.0008790043    1.506    0.336
        90  -9.1121    151.5428     88.7279   1.7616950412e+01   3.3982135470e+01    0.4128007    0.2708033 -82.23  0.001691483    2.379    0.580
        91 -11.0635    143.0036     81.5127   1.7392239000e+01   3.7270639496e+01    0.9087335    0.5072176  75.28   0.00330188    2.888    0.654
        92  -8.0535    188.4707     86.9315   1.0594064431e+01   2.6340266176e+01    0.2122665    0.1211596 -39.08 0.0008475806    1.550    0.355
        93  -8.4289    130.5034     87.5115   2.2016952190e+01   3.8989633260e+01    0.2810099    0.1473632  62.41 0.0009627884    2.393    0.582
        94  -8.0983    122.2200     87.4158   2.4096845732e+01   4.0895998585e+01    0.2186434    0.1469606  61.85 0.0009463501    1.645    0.392
        95  -8.6988    180.0211     79.2454   9.9617707854e+00   2.9363421259e+01    0.2859786    0.1832475 -46.53  0.001047584    1.413    0.292
        96  -9.0550    174.2821     76.1415   1.0060185676e+01   3.1116378756e+01     0.380895    0.1788888 -39.64  0.001009988    1.917    0.478
        97  -9.5934    178.9996     84.3343   1.1426178208e+01   2.8742306431e+01    0.3480105    0.2369538 -60.46  0.001740707    1.577    0.366
        98  -8.5015    175.4907     80.9977   1.1136732214e+01   3.0050896114e+01    0.2864926     0.119535 -42.23 0.0007241734    2.141    0.533
        99  -9.6360    158.8201     83.4581   1.4731568670e+01   3.3308313141e+01    0.4644822    0.2720721 -56.88  0.002003187    1.918    0.479
       100  -8.0086    179.6660     73.5102   8.5333404889e+00   3.0363720364e+01    0.2825761    0.1397873 -46.11  0.001242094    1.843    0.457
       101  -9.4723    185.4108     82.2201   9.8890303351e+00   2.7738887646e+01    0.4165648    0.2221314 -38.12   0.00115452    1.677    0.404
       102  -9.4478    188.9050     76.2562   7.8823593651e+00   2.7958195389e+01    0.4020419    0.2262334 -26.36  0.001324782    2.017    0.504
       103  -9.8204    184.3457     75.2076   8.2750797941e+00   2.9086701209e+01    0.4041498     0.226122 -40.23  0.001937213    1.581    0.367
       104  -9.1045    193.4752     81.6965   8.5786136615e+00   2.6160045226e+01     0.332278      0.28474 -59.42  0.001256456    1.105    0.095
       105  -8.9165    193.6499     77.2251   7.4595647953e+00   2.6823525263e+01    0.3064955    0.1888038 -19.91  0.001362191    2.103    0.525
       106  -8.6889    163.9984     86.0107   1.4451155954e+01   3.1703948672e+01    0.2275901    0.2099378 -45.70  0.001013653    1.046    0.044
       107  -8.7082    206.3726     78.3928   6.0701281318e+00   2.4101968512e+01    0.3463773    0.1662328 -25.71  0.001476535    2.514    0.602
       108  -9.1190    150.5476     79.0225   1.5109325145e+01   3.5982548646e+01    0.4005571    0.2399624 -54.44  0.001749471    1.771    0.435
       109  -9.5111    167.1090     77.6830   1.1663219303e+01   3.2450550282e+01    0.3514968    0.2212957 -43.42   0.00168888    1.460    0.315
       110  -8.7340    157.8974     75.6799   1.2753238723e+01   3.4877935836e+01    0.2986839    0.2026718 -48.29  0.001449596    1.396    0.284
       111  -9.1128    174.3277     87.9889   1.3136760483e+01   2.9118345034e+01    0.2549427    0.2108095  76.93 0.0007419889    1.341    0.254
       112  -9.2493    140.3044     74.8138   1.6009195644e+01   3.9130310894e+01    0.4157284    0.2467338  74.46  0.001670581    2.254    0.556
       113  -8.1332    151.6958     72.5894   1.3040289654e+01   3.6846149525e+01    0.2656785    0.1633437 -56.40  0.001175089    1.743    0.426
       114 -10.3334    133.3239     70.7806   1.6320726329e+01   4.1518199218e+01    0.6016537    0.1938708 -44.05  0.001938466    3.035    0.670
       115  -9.3383    141.8223     62.7283   1.2024807424e+01   4.0870327996e+01    0.3334046     0.205125 -72.80  0.001364711    2.240    0.554
       116 -10.0526    146.0278     68.7023   1.3003116203e+01   3.8850852535e+01    0.6236282    0.2295781 -43.78  0.002212991    2.589    0.614
       117 -10.5186    244.2877    201.5300   2.4970466608e+01   3.9006366552e-01    0.3786797    0.3038646 -66.41  0.002344907    3.309    0.698
       118  -8.4610    193.5748     67.7234   5.1185720259e+00   2.8283745655e+01    0.2743022    0.1175849 -35.99  0.001072922    2.058    0.514
       119  -8.9348    195.0901     72.1636   6.0210512128e+00   2.7302146345e+01    0.3234384    0.1892736 -45.46  0.001148008    1.484    0.326
       120  -8.2925    139.6852     68.1220   1.4118888853e+01   4.0465961942e+01    0.2511799    0.1774939 -57.99  0.001009893    1.473    0.321
       121 -10.0409    237.7533    188.7946   2.3837951783e+01   2.7506646711e+00    0.2465798    0.2093213  -9.24  0.001188134    1.243    0.195
       122  -9.1950    162.6319     70.5687   1.0481090215e+01   3.4651408417e+01    0.2955135    0.1656397 -41.94  0.001331593    1.648    0.393
       123  -9.7618    158.6002     61.8741   8.6978768232e+00   3.6995236296e+01    0.3553106    0.2014269 -57.24  0.001546722    1.923    0.480
       124  -7.4465    193.5138     61.5182   3.5747836367e+00   2.9207509770e+01    0.1336417     0.115469 -53.85 0.0008101945    1.017    0.016
       125  -8.8048    201.3707     59.2889   2.0980889801e+00   2.7883043361e+01    0.3502076    0.1676882 -21.49  0.001406606    3.044    0.671
       126  -9.0933    214.7875     69.4382   3.0027567065e+00   2.3783719811e+01     0.229514    0.1683903 -38.34  0.001010105    1.174    0.148
       127  -8.9059    169.3996     54.7538   4.9886849871e+00   3.5554116925e+01    0.2481059    0.1786862 -26.20 0.0006636167    1.537    0.350
       128 -10.0551    162.9714     52.8520   5.3951401868e+00   3.7340495189e+01    0.4817234    0.1640856 -37.33   0.00178647    2.617    0.618
       129 -10.0452    157.6662     53.5201   6.4118598195e+00   3.8504184095e+01    0.4540825    0.1537585 -41.27  0.001654387    2.634    0.620
       130  -9.3749    199.3929     68.3185   4.5316602296e+00   2.6991502403e+01    0.3093373    0.1657616 -40.81  0.001535126    1.578    0.366
       131 -11.1898    241.1198    130.2079   1.2702637208e+01   1.0535876981e+01     1.277885    0.2985818 -42.25  0.004698817    3.762    0.734
       132  -8.7861    139.1395     57.8493   1.1032734863e+01   4.2325969693e+01    0.2362886    0.1947389 -72.00 0.0007313553    1.224    0.183
       133  -8.0188    178.4536     49.9713   2.4490368702e+00   3.4160574203e+01    0.2092392    0.1238028 -35.04  0.001029011    1.594    0.373
       134  -8.7955    197.7878     64.0000   3.6706459515e+00   2.7952354177e+01    0.2542952    0.1703962 -40.73  0.001091209    1.290    0.225
       135  -9.3162    150.9603     47.6202   5.7149498054e+00   4.0997454465e+01    0.2865053    0.1971522 -46.77  0.001349066    1.374    0.272
       136  -8.9331    180.3762     45.0513   8.8614870270e-01   3.4399378968e+01     0.399097    0.1518311 -58.19  0.001383171    3.515    0.716
       137  -8.5190     53.0254     46.2472   3.4123632650e+01   6.4214056587e+01    0.1976555    0.1191212  38.56 0.0008167909    1.619    0.382
       138  -9.5410    162.4692     44.5985   3.0723257038e+00   3.8639347706e+01    0.3816794     0.188138 -70.46  0.001427367    2.975    0.664
       139  -9.3159    132.9855     42.7204   7.2736109319e+00   4.6175693957e+01    0.2789295      0.16839 -49.27  0.001195231    1.661    0.398
       140 -11.7635    248.2325    119.3446   9.7245962377e+00   1.1068256503e+01      1.26245    0.3776918 -44.76  0.005196705    3.205    0.688
       141  -9.1385    169.9876     70.0034   9.1052026989e+00   3.3069054377e+01    0.3561987    0.1812061 -45.11  0.001032694    1.803    0.445
       142  -8.8202    122.0275     46.2755   1.0727700821e+01   4.8408647798e+01    0.2838744    0.1375508 -63.53 0.0009067919    3.600    0.722
       143  -9.6274    249.6674    186.1123   2.1662883244e+01   1.7849343201e+00    0.2767628    0.1944013 -35.09  0.001179184    1.419    0.295
       144  -7.5368     83.5348     28.5215   1.3585065713e+01   6.0602755393e+01    0.1424996    0.1328937  69.15 9.156293e-05    1.050    0.047
       145 -11.1028    243.9684    182.3467   2.1834968065e+01   2.9071874476e+00    0.5574027    0.4302084 -42.03  0.004007276    1.623    0.384
