#   1 NUMBER                 Running object number                                     
#   2 MAG_AUTO               Kron-like elliptical aperture magnitude                    [mag]
#   3 X_IMAGE                Object position along x                                    [pixel]
#   4 Y_IMAGE                Object position along y                                    [pixel]
#   5 X_WORLD                Barycenter position along world x axis                     [deg]
#   6 Y_WORLD                Barycenter position along world y axis                     [deg]
#   7 A_WORLD                Profile RMS along major axis (world units)                 [deg]
#   8 B_WORLD                Profile RMS along minor axis (world units)                 [deg]
#   9 THETA_WORLD            Position angle (CCW/world-x)                               [deg]
#  10 FWHM_WORLD             FWHM assuming a gaussian core                              [deg]
#  11 ELONGATION             A_IMAGE/B_IMAGE                                           
#  12 ELLIPTICITY            1 - B_IMAGE/A_IMAGE                                       
         1 -14.6941    105.9983    104.6712   3.8236440499e+01   4.0550665588e+01     1.513348     1.437611 -71.80  0.008615788    1.060    0.057
         2 -14.4726    101.0843     50.0394   2.4460335946e+01   5.1620585930e+01     1.179825    0.8503853  40.22  0.004845858    1.530    0.346
         3 -14.0790     64.6100     53.2144   3.6802009462e+01   5.8796151248e+01     2.687847     1.300906 -24.72  0.008628974    4.933    0.797
         4 -15.0057      6.9150     71.1944   7.0258546778e+01   6.3135307159e+01     1.187363    0.8796686 -54.07  0.004860193    1.306    0.235
         5 -14.1384     41.4845      5.1639   2.6297930570e+01   6.9976433529e+01    0.9136016    0.5883532  18.93   0.00436811    1.959    0.489
         6 -13.3532      8.8176      2.8936   4.3882053437e+01   7.5817227568e+01    0.6909686     0.463785  41.13  0.003004815    1.509    0.337
         7 -15.9672     12.1284     21.9860   5.1286807894e+01   7.2560453252e+01     1.857931     1.205448 -13.93  0.008516927    1.718    0.418
         8 -14.2777     26.6261     12.9210   3.7635777520e+01   7.1787233315e+01    0.8209313    0.5196428  16.66  0.004574139    1.824    0.452
         9 -14.9575    217.7271     16.3006   1.1900961006e+00   3.1876184332e+01     1.508061    0.6728418 -43.04  0.009568335    1.841    0.457
        10 -12.5791    230.3567      2.3486   3.5810772701e+02   3.1202104884e+01    0.6207012    0.1854025  74.11  0.003495877    3.166    0.684
        11 -14.7187    189.1716     20.5852   3.9749911237e+00   3.6590328722e+01     1.389354    0.5875479 -50.15  0.007866714    1.941    0.485
        12 -14.1515    122.3305     36.7298   1.5999222822e+01   4.8725021691e+01    0.9097977    0.4739325  44.50  0.002633104    2.391    0.582
        13 -14.4941    166.8710     29.5056   7.9528992700e+00   3.9990782231e+01     0.892145    0.6331529  89.41  0.003769898    1.213    0.175
        14 -15.3575     98.7811     12.3122   1.2883178755e+01   5.6834620795e+01     1.594084    0.6928395  62.23  0.004771604    1.845    0.458
        15 -14.5521    147.5768     29.5767   1.0236112738e+01   4.4044404064e+01     1.209761    0.5504023  71.11  0.005018435    1.993    0.498
        16 -11.7693     71.0939     16.3216   2.0849465938e+01   6.2624137797e+01    0.2976202    0.2278723 -10.56  0.001681489    1.728    0.421
        17 -11.6760     74.1828     10.4843   1.7706261575e+01   6.2550313604e+01    0.2781143    0.2343842 -11.79  0.001847375    1.517    0.341
        18 -11.8678     46.6964     12.8812   2.7824599437e+01   6.8110049796e+01    0.3542837    0.2328707  63.48  0.001604767    1.620    0.383
        19 -10.8939    142.5010     11.8547   6.3751624400e+00   4.7088824661e+01    0.2277307    0.1109731 -81.66  0.001000157    2.223    0.550
        20 -12.0859    152.7201      8.8455   4.5650690412e+00   4.5194674674e+01    0.2312757    0.2179214 -41.57  0.001769311    1.425    0.298
        21 -12.6287    120.4162     26.3864   1.3376432757e+01   5.0419068449e+01    0.5576035     0.366619  58.38  0.003243049    1.417    0.294
        22 -12.3869    119.9945      3.1307   6.7070108037e+00   5.2891929365e+01    0.4736585    0.2127962 -88.02  0.002197278    2.505    0.601
        23 -10.6803    192.8874      2.6693   1.2450700882e-01   3.7754114310e+01    0.1499247     0.105575 -78.09 0.0005944641    1.078    0.072
        24 -11.1467     67.6504      2.8576   1.6363326319e+01   6.4703233320e+01    0.2777676    0.1429926  45.42   0.00147081    1.818    0.450
        25 -11.8976     80.6887      1.7271   1.2790717996e+01   6.1899137763e+01    0.6117011   0.08267261  61.43  0.002024349    4.110    0.757
        26 -12.1403     60.4794     15.8183   2.3972283539e+01   6.4957723133e+01    0.4384464    0.3163244  35.57   0.00250809    1.400    0.286
        27 -11.8674     61.3022      1.4787   1.7547031735e+01   6.6208874416e+01    0.4457925   0.09882408  61.72  0.001574271    3.627    0.724
        28 -15.4898     15.3432    174.9987   8.0563853978e+01   3.5349036438e+01     2.643548     1.232988  56.42   0.01055998    2.349    0.574
        29 -13.0521    107.8727    246.0535   6.2301848040e+01   8.6275921963e+00     0.665625    0.5686927 -77.33    0.0041951    1.551    0.355
        30 -14.7020     95.5217    234.5283   6.3946039759e+01   1.2329406701e+01     1.379175    0.9281921  60.24  0.007046535    2.000    0.500
        31 -13.1031     57.3455    246.6741   7.4730751840e+01   1.3944159595e+01    0.6448184    0.3755216  17.69  0.003101889    1.576    0.366
        32 -11.4970     41.5011    249.9930   7.8924416707e+01   1.4815996896e+01    0.2707479    0.1609252  31.62  0.001463182    1.378    0.274
        33 -11.3380     41.0000    245.9407   7.8765109649e+01   1.5725435147e+01    0.2850084    0.1769792 -79.17  0.001534072    1.875    0.467
        34 -13.3322     28.1785    246.5124   8.1996632971e+01   1.6802325123e+01    0.6712212    0.5392641  -1.43  0.004143291    1.382    0.276
        35 -12.1137      2.8168    249.4539   8.8301638094e+01   1.8317301165e+01    0.4038668     0.261413  38.99  0.001854087    1.251    0.201
        36 -14.0208      9.3173    245.5318   8.6578480510e+01   1.8638954327e+01     1.015557    0.4481807  43.01  0.003501445    1.828    0.453
        37 -12.8613    164.2799    194.8937   4.2292492416e+01   1.1804636714e+01     0.548286    0.3356394 -69.30  0.002453656    2.922    0.658
        38 -11.8855    200.9970    191.3345   3.4834108784e+01   7.9402076680e+00    0.2718734    0.2038055 -15.75   0.00132889    1.270    0.213
        39 -10.7349     81.0581    192.5592   6.2429116688e+01   2.3606648246e+01    0.2341416     0.135601  26.90  0.001035031    1.619    0.383
        40 -12.2608     98.2659    186.6268   5.6747148434e+01   2.2696383041e+01    0.4908643     0.286255 -18.53  0.001919679    2.589    0.614
        41 -12.4559     48.4920    181.6418   7.0716943422e+01   3.0371821097e+01    0.5478264    0.3425654 -40.19  0.002311416    1.796    0.443
        42 -11.1801    109.3327    183.3235   5.3241187500e+01   2.1891698154e+01    0.1531781    0.1075346 -18.12 0.0007050499    1.706    0.414
        43 -12.8767    198.1174    180.4305   3.3537285797e+01   1.0159573708e+01    0.4387699    0.3089429 -73.20  0.002370307    2.488    0.598
        44 -10.8968    122.7228    181.7089   4.9525214757e+01   2.0306599359e+01     0.274501    0.1822387 -83.35  0.001168273    2.520    0.603
        45 -12.2826     84.0000    178.0187   5.9441249474e+01   2.6781791520e+01    0.2768556    0.1917059 -70.34  0.001291962    1.633    0.387
        46 -12.8924    124.3191    166.5336   4.6455315953e+01   2.3462106364e+01    0.6736612    0.4297112 -68.24  0.003016155    2.015    0.504
        47 -12.4671    239.4444    159.3654   2.3929395520e+01   8.7138423799e+00    0.3139163    0.1044246  37.05  0.001500899    4.161    0.760
        48 -14.4018     22.2896    180.9649   7.8870585156e+01   3.3184322247e+01     1.163895     0.566254 -49.42  0.004759783    2.187    0.543
        49 -12.5067     77.2894    156.9647   5.8024245536e+01   3.3046444774e+01    0.6206383    0.3836935  25.30  0.001509925    1.627    0.385
        50 -13.4087     74.0009    153.4865   5.8462469131e+01   3.4417187881e+01    0.7843645    0.5571178  23.48   0.00233721    1.418    0.295
        51 -12.2431    111.9446    155.8560   4.7686429999e+01   2.7890914170e+01    0.5834873    0.3617354  69.48  0.002233848    2.817    0.645
        52 -12.6652    208.6410    154.3822   2.7407175065e+01   1.3295611328e+01     0.499182      0.33166  32.51  0.003085524    1.841    0.457
        53 -12.0119     55.2318    155.7280   6.5007129685e+01   3.6400601815e+01    0.5608897    0.3309348 -14.63  0.002144603    2.496    0.599
        54 -12.0717     85.5723    152.8823   5.4726532670e+01   3.2829377954e+01    0.5754812    0.3165462 -38.03  0.002277286    2.156    0.536
        55 -12.9280      9.0010    149.5159   8.0461047856e+01   4.2692392245e+01    0.7506472    0.5014428  51.64  0.003677599    1.536    0.349
        56 -11.7438    103.6242    149.6166   4.8783120767e+01   3.0730220294e+01    0.3889647    0.2878679 -18.88  0.001362466    1.681    0.405
        57 -12.1138     59.8293    148.8530   6.2347862034e+01   3.7614792833e+01    0.2424032    0.2094383 -22.91  0.001239125    1.241    0.195
        58 -11.5094     38.0924    145.7149   6.9488599674e+01   4.1118024104e+01    0.2110501     0.193802   6.27 0.0005801768    1.108    0.098
        59 -12.6555     42.5400    138.9146   6.6836298299e+01   4.2442479833e+01     0.359008    0.2859943   3.56  0.001610981    1.342    0.255
        60 -12.8051    246.4625    133.9354   1.8985468278e+01   1.1746912170e+01    0.3671234    0.2502442 -58.45  0.002609803    1.469    0.319
        61 -14.0168    234.5329    127.0964   1.9235172304e+01   1.4281537409e+01    0.7088315    0.2988352 -52.54  0.003676509    2.246    0.555
        62 -10.3999     10.9847    134.0090   7.8132158209e+01   4.6761133069e+01    0.1697574      0.15875  11.54 0.0003939014    1.096    0.088
        63 -11.9392    136.8001    131.8203   3.6577194262e+01   2.8950899769e+01    0.6712368     0.267725  38.18   0.00250869    2.755    0.637
        64 -12.9094    223.4001    127.8475   2.0731030678e+01   1.5659811816e+01    0.3722714    0.2629096 -74.69  0.002363784    1.855    0.461
        65 -10.9024     34.2979    129.6779   6.8472800105e+01   4.5843227815e+01    0.1552928    0.1086591  59.12 0.0001795361    1.623    0.384
        66 -11.1454      5.2635    128.8596   7.9804164732e+01   4.8534298560e+01    0.2982253     0.156909 -29.93  0.001255267    2.142    0.533
        67 -14.0835    170.4688    242.0378   4.8137921149e+01   2.6569808553e+00    0.8843043    0.5688099   5.39  0.005424097    1.435    0.303
        68 -13.0969     28.8463    121.8193   6.9366311918e+01   4.8506674645e+01    0.6024063    0.3834547 -49.36  0.002447144    1.540    0.350
        69 -10.6811     59.0233    125.0009   5.8262508616e+01   4.3936030399e+01    0.1835456    0.1704686 -58.52 0.0003831369    1.101    0.092
        70 -13.3656     32.2787    112.1647   6.6275142644e+01   5.0680025338e+01    0.7525959    0.3915134 -50.58  0.003185738    1.862    0.463
        71 -11.4639     47.3803    132.9859   6.4058248123e+01   4.3432246770e+01    0.4886558     0.221685 -76.49  0.001657022    3.004    0.667
        72 -11.6742    180.9212    120.1923   2.5484143875e+01   2.3453731195e+01    0.1973782    0.1640747 -70.11  0.000937558    1.233    0.189
        73 -12.9944      4.9405    118.8590   7.8815605651e+01   5.1234235230e+01    0.7594516    0.5068834 -33.50  0.003436782    1.529    0.346
        74 -13.1533     21.1195     86.2781   6.6152795176e+01   5.8342972989e+01    0.8442913    0.4946593   7.92  0.002224211    1.806    0.446
        75 -14.4017     18.3168    110.9893   7.2033553288e+01   5.2344750777e+01     1.004634    0.7939032 -16.39  0.003356032    1.305    0.234
        76 -14.2094     10.8075    102.7840   7.4075985831e+01   5.5069322255e+01    0.8933129    0.7906832  37.89  0.004457048    1.192    0.161
        77 -13.7594      2.4129     97.0428   7.7107061843e+01   5.7083900671e+01     1.024621    0.4130646 -72.69  0.003386248    2.442    0.590
        78 -14.6156     25.1801     93.9642   6.5845738086e+01   5.6053017142e+01     1.751674    0.9682803   4.27  0.007444121    2.107    0.525
        79 -12.4492     79.1509    111.1292   4.8099784523e+01   4.4119905603e+01    0.3361593    0.2837715 -63.36  0.001086001    1.251    0.201
        80 -11.7054     88.5094    110.0012   4.4761010905e+01   4.2702339943e+01     0.576242    0.2592784 -60.62    0.0020426    2.777    0.640
        81 -12.3638     36.7890     92.8228   6.0299417786e+01   5.5007312536e+01    0.5172975    0.3202953   7.05  0.001535937    1.876    0.467
        82 -10.6718    194.6868    113.3125   2.1996139403e+01   2.2362269584e+01    0.1237287   0.08707197 -71.54 0.0004950698    1.634    0.388
        83 -11.3231     45.9258    110.2153   6.0260530485e+01   4.9522537636e+01     0.330793    0.2211243 -32.80  0.001498858    1.686    0.407
        84 -10.6598     42.9496    107.4458   6.0892132766e+01   5.0611392225e+01    0.2107555     0.189896  24.43 0.0005698105    1.081    0.075
        85 -12.1321    121.3537    111.7010   3.5846421662e+01   3.6070474437e+01    0.3648194     0.239587  63.18  0.001196764    1.821    0.451
        86 -11.9829     62.5936    109.0482   5.3508398114e+01   4.7381262211e+01    0.8947517    0.3971514 -65.37  0.003128562    2.881    0.653
        87 -10.6629     64.6688    101.7124   5.0987713555e+01   4.8800523950e+01    0.2196451    0.1995526  -5.99 0.0002609783    1.167    0.143
        88 -12.0198     61.3896     97.9441   5.1301237462e+01   5.0219920007e+01    0.4978914    0.3741111  65.04  0.001796095    1.625    0.384
        89 -10.9954    222.9573    109.0000   1.7478262970e+01   1.8673436091e+01    0.1564281   0.06543154  53.82 0.0008028067    2.945    0.660
        90 -12.7043    135.1797    102.7251   3.0483433540e+01   3.5161048077e+01    0.8144346    0.3120408  50.13   0.00272618    2.674    0.626
        91 -13.2389    120.1832    102.1741   3.3878656991e+01   3.8257807169e+01    0.5635208     0.326616  39.53  0.002519357    1.853    0.460
        92 -12.0271     48.9850     93.3363   5.5139017364e+01   5.3222574317e+01    0.8687097    0.5072041 -37.58  0.002938347    1.948    0.487
        93 -11.1014     48.5092    101.0012   5.7173610465e+01   5.1454130498e+01    0.2623339    0.2239495  28.45  0.001063763    1.130    0.115
        94 -12.3738     52.2775     98.0182   5.4926819409e+01   5.1624978714e+01    0.8108361    0.4101339  11.53  0.002762378    3.214    0.689
        95 -12.2218    249.3607     98.9528   1.2978732095e+01   1.6459931499e+01    0.2556929   0.09096593 -49.59  0.001357917    2.205    0.546
        96  -9.9459     75.2885    100.6720   4.6878405823e+01   4.7220836772e+01    0.1499632    0.1159806  74.40 0.0005114294    1.616    0.381
        97 -12.3424    163.8044     97.3560   2.3648040585e+01   3.0575661391e+01    0.3205181    0.2404825  56.92 0.0008514167    1.405    0.288
        98 -12.8836    137.2769     95.1046   2.8234750076e+01   3.6190992827e+01    0.4392447    0.3348327  72.39  0.001185769    1.407    0.289
        99 -11.5543     90.4081     96.6907   4.0841114604e+01   4.5291700195e+01    0.2937649    0.2675466  11.68   0.00160589    1.220    0.180
       100 -11.7846     42.9169     90.3486   5.6996593354e+01   5.4790894683e+01    0.3710338    0.2453914 -60.45  0.001025466    1.611    0.379
       101 -10.1353     74.9827     95.3524   4.5623167565e+01   4.8472569711e+01    0.2487666    0.1258731  17.26 0.0007045402    4.545    0.780
       102 -13.7295    106.6621    123.6129   4.2487521335e+01   3.6261219903e+01     1.618036    0.8411632  27.75  0.006163159    2.477    0.596
       103 -13.2895    188.5480     84.0867   1.7073655350e+01   2.8184669642e+01    0.5629433    0.3088911  46.32  0.002137817    2.363    0.577
       104 -12.1270    158.9655     65.1192   1.7187135500e+01   3.6820057390e+01      0.63692    0.2163285 -49.67  0.002543249    2.920    0.658
       105 -12.8440    152.4180     83.0709   2.2444318668e+01   3.5271424610e+01    0.8260893    0.3064707  40.75  0.002548615    5.326    0.812
       106 -13.4629    164.9231     71.0523   1.7637876226e+01   3.4707465367e+01     1.041771    0.4227167  52.83  0.004251753    2.617    0.618
       107 -13.4360    160.4951     80.8758   2.0553606635e+01   3.4020822452e+01    0.7664324    0.5281053  21.16  0.002606054    2.953    0.661
       108 -14.2155    169.5286     76.9803   1.8263670757e+01   3.2871426069e+01     1.214654    0.4302309  56.23  0.005144828    2.894    0.654
       109 -12.8636    242.2909     83.5817   1.1076687930e+01   1.9578225802e+01    0.3407381    0.1847577  68.31  0.002224564    2.300    0.565
       110 -13.1024    237.7341     79.8204   1.0850150383e+01   2.0757916289e+01    0.3426687    0.2337151  86.97  0.002315375    1.679    0.404
       111 -13.0667     84.9454    115.0636   4.7102124939e+01   4.2174934366e+01    0.8557597    0.3926265  32.34  0.002382647    2.298    0.565
       112 -13.3606     79.8011     58.8157   3.3321947429e+01   5.4780773614e+01     1.453065     1.039266  21.51  0.007226748    1.852    0.460
       113 -12.8483    147.6791    238.7798   5.2381801296e+01   5.5996727393e+00    0.4100143    0.3055772  59.96  0.002312308    2.241    0.554
       114 -12.3466    144.6112    233.2259   5.2284848334e+01   6.9450341185e+00    0.4660636    0.2030619 -45.37  0.002207595    2.230    0.552
       115 -13.7560     73.5618     74.1199   4.0200026508e+01   5.3200455129e+01     1.413978    0.7031229  24.63  0.004731892    3.636    0.725
       116 -13.5240     87.3814     65.2694   3.2940889244e+01   5.2080594393e+01    0.8056691    0.5670896   0.63  0.003021859    2.520    0.603
       117 -13.2463     55.5265     80.6502   4.9047791031e+01   5.5079024447e+01    0.5765665    0.4433639 -23.77  0.001656654    1.505    0.336
       118 -13.8304     61.1414     75.6968   4.5343036321e+01   5.5172239350e+01    0.7344751    0.5384423 -36.20  0.001894393    1.513    0.339
       119 -13.4671    214.3027     78.2793   1.2873054998e+01   2.4621487338e+01    0.7903026    0.5163887  83.77  0.005093457    1.747    0.428
       120 -11.8259    214.4539     71.5025   1.1597936182e+01   2.5562877715e+01    0.2358704    0.1711494 -74.31 0.0006622031    1.277    0.217
       121 -11.9651    114.2687     80.0952   2.9750046408e+01   4.3733968964e+01    0.4143577    0.3003365 -55.27  0.001339239    1.431    0.301
       122 -12.8742    135.2399     79.1993   2.4796480876e+01   3.9470654999e+01    0.7298122    0.3391605  57.54  0.003060749    2.167    0.539
       123 -13.3355    101.4633    118.5629   4.2830660857e+01   3.8363886906e+01     1.218598    0.5448959  29.36  0.004165453    3.003    0.667
       124 -12.9428     24.8019    216.9744   8.0964530158e+01   2.3846579061e+01    0.8579594    0.3726444  42.61  0.003734943    2.022    0.506
       125 -14.1844      5.8018     63.6935   6.9209499159e+01   6.4936996397e+01     0.867743    0.5642172  10.47  0.004428367    1.462    0.316
       126 -12.0100     42.2613     77.6140   5.3952840720e+01   5.7798357738e+01     0.493276     0.265499 -63.92  0.001725137    2.281    0.562
       127 -13.9351    197.8800     70.3751   1.3165758957e+01   2.8575714182e+01    0.9350003    0.6473766  36.62  0.005450925    2.442    0.590
       128 -11.5136     27.4429     76.3274   6.0683190133e+01   6.0017563848e+01    0.2955137    0.2525652  73.83  0.001121207    1.449    0.310
       129 -11.4817    241.0089     70.5064   8.9822009042e+00   2.1536377246e+01    0.1431755   0.07461501 -78.90 0.0008106079    2.582    0.613
       130 -12.8058    134.6218     65.5490   2.1472214012e+01   4.1867354093e+01    0.6005162    0.5003928  62.96  0.002688115    1.169    0.144
       131 -11.9762    100.3718     64.3301   2.8931282789e+01   4.9486756457e+01    0.3231988    0.3052848  -9.70  0.001628141    1.269    0.212
       132 -13.7376    177.9087     56.9516   1.2757596632e+01   3.4221363134e+01    0.7264552     0.435179 -57.99  0.002527161    1.510    0.338
       133 -11.7578     38.8214     59.9940   5.0291408462e+01   6.2021280343e+01    0.3737709     0.269054  71.30  0.001821808    2.161    0.537
       134 -11.6668     34.6137     60.3893   5.2503996124e+01   6.2552700007e+01    0.4384709    0.2524798 -39.36  0.002093127    1.874    0.466
       135 -12.1448     35.1775     54.9031   5.0424285783e+01   6.3565554913e+01    0.3660445    0.2519178   8.79 0.0009869074    1.612    0.380
       136 -11.9906     24.8143     59.4534   5.7339251108e+01   6.4027238948e+01    0.4371044    0.2613702 -40.96  0.001751069    1.711    0.415
       137 -11.7081    109.9786     53.7414   2.3432976610e+01   4.9094466797e+01    0.3153403    0.2599345 -42.04  0.001609301    1.351    0.260
       138 -14.5965    119.7864     54.5541   2.1508654935e+01   4.6804319408e+01    0.8337223    0.5535398  49.12  0.001777209    1.537    0.350
       139 -12.7399    136.1046     50.7256   1.7368475315e+01   4.3780652160e+01    0.5196061    0.4279227 -43.39  0.001748698    1.338    0.252
       140 -12.5678    248.2896     52.3158   5.4005696160e+00   2.2794742314e+01    0.5095654     0.214232 -40.57  0.003120439    1.975    0.494
       141 -10.8184     47.2978     56.2983   4.5068063398e+01   6.1392331535e+01    0.2815799    0.1487789  53.88  0.001164993    2.492    0.599
       142 -11.2799     17.5135     54.8958   6.0045172863e+01   6.5806688265e+01    0.2880448    0.2169083 -64.84  0.001628091    1.572    0.364
       143 -11.4844    231.3333     55.2208   7.1430953047e+00   2.5013990294e+01    0.2103326    0.1324376  78.85  0.001490937    1.702    0.413
       144 -10.4218     23.5230     49.9755   5.5023688370e+01   6.6110655259e+01    0.1780924    0.1283429 -48.17 0.0004378848    1.476    0.322
       145 -12.6830     39.5476     67.4654   5.2278893263e+01   6.0382311443e+01     2.356043    0.4665188  31.00  0.006340884    5.026    0.801
       146 -12.3800    154.5321     46.5086   1.3443714624e+01   4.0410172828e+01    0.4038211    0.2114738  62.52  0.002122535    1.806    0.446
       147 -12.9595    158.7916     43.0942   1.2055517433e+01   3.9971040388e+01    0.4642193    0.3956537 -85.65  0.002015188    1.059    0.056
       148 -10.9381     29.8812     45.8706   5.0050280645e+01   6.6047697772e+01    0.2121352    0.1685216  -6.22  0.001237083    1.296    0.229
       149 -14.3074     26.6411    225.8754   8.1079186171e+01   2.1571562938e+01     1.571143    0.3941933 -58.03  0.005489866    3.888    0.743
       150 -13.3799      6.3111     43.1827   6.3329300114e+01   6.9283038626e+01     1.247993     0.540399   8.35  0.004379184    2.516    0.603
       151 -14.0572     20.7509    224.2919   8.2541860501e+01   2.2467144860e+01    0.7698185    0.6109725  34.12  0.004002833    1.115    0.103
       152 -12.8009      3.1200     34.4227   6.2615591624e+01   7.1275139364e+01    0.3183459    0.2448173 -67.33 0.0009301131    1.653    0.395
       153 -11.5617     27.9033    235.3577   8.1373392470e+01   1.9283437920e+01    0.2248853    0.1677815  64.36  0.001011639    1.345    0.257
       154 -12.1351    236.1952    229.3922   3.4969273021e+01  -1.4153188752e+00    0.1268267   0.09063699  26.01 0.0009593882    1.722    0.419
       155 -13.5220     57.3226    202.6997   7.0503001156e+01   2.4025126152e+01      2.00105    0.5733073 -64.15   0.00674123    3.412    0.707
       156 -14.1269     66.2606    222.7142   7.0182326563e+01   1.8257169071e+01    0.9469771    0.7049732  16.87  0.005153851    1.261    0.207
       157 -14.4417    212.2093     40.7871   6.0682039726e+00   3.0006828969e+01     1.574567    0.4992261  76.25  0.006976209    3.978    0.749
       158 -13.0797     59.5329    212.6704   7.0959278241e+01   2.1358441944e+01    0.4977209    0.2775705 -36.59  0.001459976    2.205    0.547
       159 -13.0551    113.4927     37.8203   1.7992038544e+01   5.0566621255e+01     0.393735    0.2798916  72.44  0.001390873    1.262    0.207
       160 -11.1891    249.2052    225.3763   3.2525915376e+01  -1.8970337051e+00    0.1195832   0.08849085  24.02 0.0009580989    1.706    0.414
       161 -12.9912    131.4386     33.3472   1.3525350778e+01   4.7120680684e+01    0.4375183    0.3808029  33.75  0.001618194    1.546    0.353
       162 -12.6450     46.0700     33.4065   3.7069775483e+01   6.5502981386e+01    0.4917843    0.3906618  -3.57  0.002927832    1.480    0.324
       163 -12.3568     36.7443     34.2062   4.1890012817e+01   6.7007031319e+01    0.5729001    0.2366272  27.26  0.002105681    3.363    0.703
       164 -12.3627     40.4943     40.3236   4.2463611207e+01   6.5378056798e+01    0.5931159    0.2622322  40.23  0.002649138    1.997    0.499
       165 -12.8710     32.8345     40.3892   4.6402479016e+01   6.6597351491e+01    0.3798612    0.3091967  13.32  0.001187983    1.153    0.132
       166 -13.1776     74.8692     37.0194   2.7501957125e+01   5.9226899969e+01    0.6680521    0.2802784  55.42  0.001814218    2.152    0.535
       167 -13.1582    242.8788     35.4190   2.9672996762e+00   2.5633786152e+01    0.4654621    0.3461757 -85.98  0.002751111    1.310    0.237
       168 -11.6277    104.5548     36.7824   1.9554073813e+01   5.2712730782e+01    0.2862614    0.1241029 -38.85  0.001283588    2.517    0.603
       169 -12.8191    140.4001     21.4469   9.0928339326e+00   4.6535132543e+01     0.588098    0.2745515  71.22  0.001513798    1.865    0.464
       170 -13.9541     64.0791    214.5282   6.9902743117e+01   2.0404230126e+01    0.5824618     0.465486  20.00  0.002492808    1.164    0.141
       171 -13.1799     56.4352     27.1547   3.0157896647e+01   6.4400704011e+01    0.7457373    0.2923156  49.69  0.001924694    2.156    0.536
       172 -11.7832     64.5625     25.2298   2.6434622047e+01   6.2979722960e+01    0.3732913    0.2220239 -31.75  0.001983976    2.030    0.507
       173 -12.2065     30.7613     25.4491   4.1296405574e+01   6.9348037229e+01    0.4101381    0.2094954  32.96   0.00163234    1.760    0.432
       174 -11.5379     35.9441     23.2315   3.7556818835e+01   6.8798783504e+01    0.2797568    0.2377013   0.17  0.001610608    1.248    0.199
       175 -13.2785     94.8419    218.3298   6.2138207807e+01   1.5877263124e+01     0.539808    0.2934627  20.13  0.002469068    1.765    0.433
       176 -10.6656      5.5861    219.2530   8.6289739573e+01   2.4904787917e+01    0.1760466    0.1158501 -66.48 0.0008598826    1.619    0.382
       177 -11.9256     85.5391    215.3683   6.4199232174e+01   1.7675064486e+01    0.2687057    0.2130631  31.33   0.00128485    1.162    0.139
       178 -12.7955      4.8619    211.2705   8.6079558012e+01   2.6880466471e+01    0.5109276    0.2582893 -68.66  0.002430524    2.010    0.502
       179 -10.9333    136.5084    210.9824   5.0891030676e+01   1.2199577222e+01    0.1975273    0.1278501 -49.96  0.001030581    1.585    0.369
       180 -11.9295    135.1570     39.6570   1.4620711036e+01   4.5498004361e+01    0.5018265    0.2584184  81.35  0.001856058    2.234    0.552
       181 -11.6078     39.5835    210.6511   7.6352042773e+01   2.3972897683e+01    0.4382856    0.1865286  31.03  0.001830987    1.993    0.498
       182 -12.9358     46.6684    208.8607   7.4183457031e+01   2.3680637346e+01    0.5472891    0.2715994  67.81  0.002110726    2.841    0.648
       183 -11.9369     48.4028     19.8890   3.0291104688e+01   6.6934324322e+01    0.6726789    0.2026782  51.85  0.002568522    2.961    0.662
       184 -11.3235     80.8441    208.3091   6.4578359094e+01   1.9875631400e+01    0.2400373    0.1606313  42.23  0.001179863    1.470    0.320
       185 -12.8029     72.1407    206.6732   6.6773415778e+01   2.1323201200e+01    0.3406717    0.3006608  47.54  0.001934488    1.143    0.125
       186 -13.6780     16.2653    197.2355   8.1992438027e+01   2.9477532518e+01     1.098197    0.3253891 -50.34  0.003623964    3.853    0.740
       187 -13.7933     39.6674    194.9964   7.4864298995e+01   2.7875356560e+01    0.8375075    0.4509457  42.61  0.003393308    1.748    0.428
       188 -14.8872     30.1307    168.8037   7.5144625538e+01   3.5701932410e+01     2.213614      1.14256 -35.76  0.003011594    2.399    0.583
       189 -12.6689    110.0067     41.9883   1.9954669407e+01   5.0790284674e+01    0.4686888     0.205189  57.84  0.001004671    2.003    0.501
       190 -15.4377      8.4034    183.1287   8.3364246462e+01   3.3738042329e+01     1.447996     1.268941 -68.14  0.008464946    1.165    0.142
