#   1 NUMBER                 Running object number                                     
#   2 MAG_AUTO               Kron-like elliptical aperture magnitude                    [mag]
#   3 X_IMAGE                Object position along x                                    [pixel]
#   4 Y_IMAGE                Object position along y                                    [pixel]
#   5 X_WORLD                Barycenter position along world x axis                     [deg]
#   6 Y_WORLD                Barycenter position along world y axis                     [deg]
#   7 A_WORLD                Profile RMS along major axis (world units)                 [deg]
#   8 B_WORLD                Profile RMS along minor axis (world units)                 [deg]
#   9 THETA_WORLD            Position angle (CCW/world-x)                               [deg]
#  10 FWHM_WORLD             FWHM assuming a gaussian core                              [deg]
#  11 ELONGATION             A_IMAGE/B_IMAGE                                           
#  12 ELLIPTICITY            1 - B_IMAGE/A_IMAGE                                       
         1 -15.7539    217.9303    108.2931   1.5713752907e+01   1.6180304705e+01     5.421617     2.810905 -19.36   0.02343786    2.627    0.619
         2 -15.8979    246.5663     94.0862   9.1507682103e+00   1.3229958816e+01     3.152917    0.9364046 -38.51   0.01362613    2.574    0.611
         3 -15.2932    245.9249    137.8500   1.7956774231e+01   7.4406043919e+00     3.241034     1.634313  -1.53   0.01055245    6.548    0.847
         4 -15.7988    235.4647    127.6697   1.7354847421e+01   1.0404431855e+01     2.791677      1.01713  50.35   0.01248796    3.343    0.701
         5 -12.9649    247.3184     20.9403   3.5380763516e+02   2.1994799475e+01     3.288949    0.9636075 -58.22   0.01377937    3.424    0.708
         6 -10.8677    248.3253      5.6426   3.5062145262e+02   2.3370623184e+01    0.9408602    0.5045673 -58.37  0.005958103    1.451    0.311
         7 -10.7565    225.7487     18.9308   3.5457899677e+02   2.6419679404e+01    0.3051028    0.2134111 -16.37  0.001815006    1.796    0.443
         8 -10.9890    221.8290     15.1733   3.5395668249e+02   2.7629661683e+01     0.426346     0.231792  43.26  0.002081837    3.069    0.674
         9  -9.2745    223.5651     30.2452   3.5729861622e+02   2.5616771847e+01    0.1634092    0.1114918 -22.87 0.0009504507    1.637    0.389
        10 -13.7689    232.1421     93.3296   1.0618203113e+01   1.5794756735e+01    0.5968196    0.3802306 -45.49  0.002704294    1.404    0.288
        11 -14.8911    230.4631    113.0736   1.5028449838e+01   1.3289254360e+01     0.770674     0.530825 -30.11   0.00295205    1.249    0.199
        12 -14.4973    226.8162    138.5794   2.0767113022e+01   1.0202271717e+01     1.325244    0.6329765  54.00   0.00625883    2.957    0.662
        13  -8.3938    159.5838    239.7822   5.0339333497e+01   4.9824143651e+00    0.1331119    0.1178837 -50.93 0.0009516356    1.668    0.400
        14 -14.4640    239.2699    106.6586   1.2578606055e+01   1.2725759691e+01    0.7934817    0.4076028  58.74  0.004176141    2.523    0.604
        15  -7.5926    194.3160    239.2948   4.3619321786e+01   7.6923797769e-01    0.1160621   0.06889856   3.41  0.000353138    1.603    0.376
        16 -14.8583    240.0767    136.1592   1.8410737676e+01   8.5220187990e+00      1.13049    0.5180994 -16.74  0.004524414    3.651    0.726
        17  -8.1507    183.3712    230.8475   4.4470126025e+01   3.1829884553e+00    0.1578634   0.09425619 -22.18  0.000654945    1.769    0.435
        18 -14.1873    249.1268    123.5463   1.4776213649e+01   8.8899071469e+00    0.3753744    0.2496815 -38.05    0.0014074    1.292    0.226
        19 -14.9237    247.2471    116.6463   1.3642391148e+01   1.0098043447e+01    0.6440184    0.4086314 -40.90  0.003051183    1.383    0.277
        20  -8.6040    205.5430    218.5289   3.8563622651e+01   2.0330810717e+00    0.1161742   0.08901139   5.60 3.775632e-05    1.028    0.027
        21 -14.4392    221.6588    162.5398   2.6213260494e+01   7.5324414271e+00      2.29548      1.14743  37.84   0.01053705    2.103    0.525
        22  -9.6810    221.9881    216.2047   3.5373879181e+01   3.4760196228e-01    0.1668416    0.1336438 -32.37 0.0006192292    1.613    0.380
        23  -9.8889    216.0260    214.7403   3.6150664089e+01   1.2363170445e+00    0.2208826    0.1441961  17.31 0.0007309651    1.280    0.219
        24 -13.7831    220.6060    153.7345   2.4702139764e+01   8.9593331526e+00     1.545645     1.139135 -84.08   0.00380671    3.431    0.709
        25  -8.1520    144.1272    216.4570   5.0455372381e+01   1.0615634135e+01    0.2015693    0.1572928 -87.65  0.001134167    2.260    0.558
        26  -8.9741    169.4733    215.3416   4.4941482443e+01   7.2131360059e+00    0.2480795    0.2036872 -56.47  0.001584541    1.820    0.450
        27  -9.8694    195.8231    213.5398   3.9553441776e+01   3.9252499026e+00    0.3223155    0.1992596   9.24 0.0008050328    1.537    0.349
        28  -8.2350    184.1112    213.2415   4.1721331707e+01   5.5187045949e+00     0.206749    0.1284616  16.36   0.00120076    1.447    0.309
        29 -14.3914    245.8244    182.3388   2.6069567667e+01   1.6831240696e+00      1.66005      1.51892 -74.49   0.01211008    2.169    0.539
        30  -7.8936    147.0106    212.0072   4.9191208359e+01   1.0934353498e+01    0.1858582    0.1506891  58.23  0.001108364    1.665    0.399
        31  -8.3944    178.5580    210.3070   4.2352048883e+01   6.7046552535e+00    0.2514012    0.1362298  27.67  0.001355588    1.591    0.371
        32  -7.9708    172.5886    206.7668   4.2994330050e+01   8.0776321764e+00    0.1577234    0.1211984 -48.45 0.0009579473    1.713    0.416
        33  -9.9143    197.6209    204.2797   3.7747450998e+01   4.9679919750e+00    0.3639162    0.2451339 -42.89  0.002214611    1.829    0.453
        34  -8.8202    186.5323    202.0273   3.9473100088e+01   6.8164960233e+00    0.2755412    0.2377603  83.61  0.001362767    2.221    0.550
        35  -7.7632    175.3020    203.6900   4.1957755137e+01   8.1618795962e+00    0.1126944    0.0974007  51.14 0.0003396505    1.605    0.377
        36  -8.8750    167.4881    201.5672   4.3217432694e+01   9.6322972758e+00    0.3613453     0.124362 -44.20  0.001482968    3.220    0.689
        37  -8.7369    161.2548    201.0566   4.4447557100e+01   1.0640688994e+01    0.2905256    0.1910143 -25.86  0.001598688    1.669    0.401
        38  -8.2739    177.5804    197.7604   4.0535047287e+01   8.7485629143e+00    0.1574441    0.1211976 -46.63 0.0009435622    1.645    0.392
        39 -10.3953    186.9574    192.1164   3.7736628589e+01   8.2449926575e+00    0.4467702    0.3470287  12.90  0.002821469    1.104    0.094
        40  -7.9382    156.5446    195.7134   4.4604886355e+01   1.2249737880e+01    0.1615685    0.1315851 -55.27 0.0009471313    1.611    0.379
        41  -7.6293    147.3000    194.6474   4.6485279206e+01   1.3870674241e+01    0.1285958    0.1030919  61.78 0.0007037431    1.697    0.411
        42  -7.8516    167.6425    192.2210   4.1651982753e+01   1.1128423413e+01    0.1751157    0.1136869 -28.36   0.00085061    1.635    0.388
        43  -8.2095    150.5285    200.5401   4.6694254273e+01   1.2345205505e+01     0.200922    0.1326203 -60.62   0.00102614    2.238    0.553
        44  -8.7937    194.7078    189.0818   3.5737795965e+01   7.5747978527e+00    0.3108928    0.1304072 -32.53  0.001382328    2.473    0.596
        45 -13.6414    229.6074    148.0628   2.2217135337e+01   8.4188625921e+00    0.7873462    0.4521118 -33.70  0.002156277    1.508    0.337
        46  -8.5854    177.3305    184.5668   3.8334898598e+01   1.0887813303e+01    0.3010643    0.1114726 -37.61  0.001226038    2.853    0.649
        47 -13.6765    248.2565    172.1116   2.3942543984e+01   2.6618728405e+00    0.4690095    0.3929913 -39.29 0.0008304726    1.569    0.363
        48  -9.7130    182.8230    181.3025   3.6654949762e+01   1.0562954843e+01    0.3507027    0.1977136 -40.19  0.001409127    1.843    0.458
        49  -9.4062    183.1728    176.4460   3.5706017897e+01   1.1293257236e+01    0.3308098    0.2518462 -31.94  0.001188367    1.318    0.241
        50  -8.5131    169.2459    177.6242   3.8765863751e+01   1.3336454768e+01    0.3503703    0.1832237 -56.63  0.001435399    3.148    0.682
        51  -9.5377    150.3960    178.7590   4.3110558226e+01   1.6250906606e+01    0.2492397    0.1759474  32.31 0.0005074316    1.272    0.214
        52  -8.9335    163.8276    175.3732   3.9513651957e+01   1.4621789310e+01    0.3701794    0.1724619 -39.67   0.00150904    2.260    0.558
        53  -8.0646    138.1269    179.1887   4.6057508175e+01   1.8225102923e+01     0.185426    0.1638725  59.01  0.000875653    1.331    0.248
        54  -9.0169    143.0982    170.3575   4.3303661681e+01   1.9091146625e+01    0.2375633    0.1914281 -27.10 0.0008262713    1.328    0.247
        55  -8.1319    177.1926    170.2196   3.5749294521e+01   1.3295260399e+01    0.1680819    0.1622753  52.60 0.0006566904    1.328    0.247
        56  -7.8160    128.6338    168.2243   4.6471547235e+01   2.2048908615e+01    0.1992351    0.1334073 -38.20 0.0009476494    1.671    0.402
        57  -8.3796    179.5417    166.2946   3.4527615064e+01   1.3569777633e+01    0.2367725    0.1271086 -44.63   0.00111156    2.003    0.501
        58  -8.4984    159.7999    164.5584   3.8367962591e+01   1.7266954328e+01    0.2500685    0.1882412 -38.26 0.0006125214    1.382    0.276
        59 -14.7084    247.0662    159.4048   2.1834728146e+01   4.4372307413e+00     2.793742     1.455451   4.79   0.01276446    3.428    0.708
        60 -10.3236    181.5821    160.1157   3.2918150862e+01   1.4273955704e+01    0.4741035    0.3547389 -82.80  0.002243179    2.699    0.629
        61  -9.2913    168.1773    159.2272   3.5502073645e+01   1.6762395875e+01    0.3293128    0.1821807 -45.87  0.001514064    1.942    0.485
        62  -9.6034    173.2274    158.9865   3.4391883116e+01   1.5915460275e+01    0.3029775    0.2164276 -60.28  0.001368864    1.973    0.493
        63  -8.6356    159.3242    159.4516   3.7476901312e+01   1.8301367708e+01    0.2631986    0.1806245 -46.73  0.001190176    1.583    0.368
        64  -8.2003    130.6139    158.7703   4.4211935035e+01   2.3665620817e+01    0.1879993    0.1446508 -61.74 0.0002878022    1.546    0.353
        65 -10.8726    177.0885    153.0854   3.2412061953e+01   1.6272497282e+01    0.6063641    0.4453896 -25.98  0.003278778    1.362    0.266
        66 -10.8153    171.7173    146.9833   3.2254465113e+01   1.8336177333e+01    0.5983075     0.462939  30.81  0.001386473    1.267    0.210
        67  -8.7228    153.1917    156.2035   3.8219459346e+01   2.0033823450e+01    0.1896975    0.1744478  88.28  0.000807388    1.369    0.269
        68  -8.5468    165.0275    153.9404   3.5116304971e+01   1.8293211486e+01    0.2252874    0.1645645   2.04  0.001120448    1.628    0.386
        69  -7.9295    157.5318    153.4949   3.6682426525e+01   1.9753452662e+01    0.1426676    0.1323263  13.31 0.0001511872    1.011    0.011
        70  -9.3602    162.3029    148.3133   3.4548916744e+01   1.9846188300e+01    0.4885891    0.2402522 -43.81   0.00206569    2.091    0.522
        71  -9.2531    133.4504    147.5263   4.1243880248e+01   2.5507560664e+01    0.2627599    0.2510914  -7.89 0.0007265942    1.076    0.071
        72 -13.8964    224.3830    122.3720   1.7810178731e+01   1.2962453582e+01     1.810998     1.143238 -86.07  0.002988532    4.953    0.798
        73  -7.7608     98.5104    145.5201   5.0564905489e+01   3.2495802498e+01    0.1541689    0.1440312  35.85 0.0001292533    1.040    0.038
        74  -7.8187    155.2680    144.6509   3.5350934960e+01   2.1885228266e+01    0.1393321    0.1170175 -85.34 0.0002613685    1.620    0.383
        75  -9.8894    159.1883    139.0129   3.3244684455e+01   2.2214935109e+01    0.4096201    0.2596424 -43.94  0.001217678    1.615    0.381
        76  -9.2063    155.2563    140.7246   3.4506822017e+01   2.2653489545e+01    0.3021769    0.2162068 -28.80 0.0004606383    1.511    0.338
        77  -8.1996    141.0000    141.9376   3.8160963077e+01   2.5210946038e+01    0.2426615   0.08581823 -46.48 0.0008048602    2.959    0.662
        78  -7.9016    124.7510    141.9569   4.2361422364e+01   2.8392868871e+01    0.1924571    0.1319839 -47.87 0.0007868482    1.546    0.353
        79  -7.8173    108.4754    140.4808   4.6615820605e+01   3.1854863914e+01    0.1550052    0.1456999  31.92   8.4363e-05    1.043    0.041
        80 -10.3349    166.5609    137.9153   3.1394361893e+01   2.0982977600e+01     0.435084    0.3001461  10.85    0.0012427    1.924    0.480
        81  -7.7216    122.3569    133.3288   4.1136914715e+01   3.0781296377e+01     0.161782    0.1225507  -1.10 0.0001052122    1.783    0.439
        82  -9.7425    153.3604    129.0543   3.2320795633e+01   2.5330929567e+01     0.351517     0.223481 -35.23   0.00158481    1.659    0.397
        83 -15.0295    239.7501    116.7157   1.4580391346e+01   1.1257376336e+01    0.7685973    0.5059252 -22.10  0.003032624    1.428    0.300
        84  -9.8422    160.1162    127.1153   3.0351391377e+01   2.4319403841e+01    0.4988106    0.2126207 -40.04  0.001880128    2.378    0.580
        85  -8.4584    141.6509    128.0792   3.4886714862e+01   2.7954913247e+01    0.2896866    0.1410409 -52.17  0.001063505    2.346    0.574
        86  -7.8609    136.7598    125.9387   3.5610958099e+01   2.9426288688e+01     0.200113    0.1300596 -43.73 0.0008754365    1.592    0.372
        87  -9.0110    164.1653    121.4305   2.8140896363e+01   2.4563875541e+01    0.2117165    0.1856989 -50.90 0.0007394975    1.188    0.158
        88  -8.2133    132.4351    124.0751   3.6284433579e+01   3.0734207379e+01    0.2191094    0.1336855 -22.75 0.0008067971    2.541    0.606
        89  -9.0185    170.7899    120.9191   2.6643384849e+01   2.3285936529e+01    0.3747931     0.190548 -29.93  0.001486231    2.304    0.566
        90  -8.8967    157.3693    120.6589   2.9434079782e+01   2.6139329857e+01    0.3506177    0.1785188 -34.31  0.001380163    2.170    0.539
        91  -8.8930    152.5775    120.4364   3.0462626711e+01   2.7200510121e+01     0.286936    0.2093824  -0.10 0.0006687832    1.931    0.482
        92  -9.4048    162.9151    115.8641   2.7069281399e+01   2.5877845990e+01    0.4514592    0.2790835  20.27  0.001776114    2.573    0.611
        93  -9.4906    140.7656    116.3514   3.2274701838e+01   3.0575344987e+01    0.3133803    0.2118929 -32.87  0.001388246    1.643    0.391
        94  -9.6997    146.8754    112.8072   2.9906566669e+01   2.9957694110e+01      0.37116     0.224191 -39.19 0.0009497752    1.705    0.413
        95 -10.4605    160.0230    110.7802   2.6433007725e+01   2.7464432192e+01    0.4946929    0.3500671  22.03  0.001646616    1.836    0.455
        96 -10.0647    169.6371    107.8900   2.3726451330e+01   2.5908930169e+01      0.59641    0.3807146  -9.54  0.002391085    2.594    0.614
        97  -9.4927    174.2734    101.4333   2.1217412562e+01   2.6054882454e+01    0.4821286    0.2535459 -28.25  0.001491689    2.233    0.552
        98  -9.2729    154.9864    106.4436   2.6430089510e+01   2.9406154710e+01    0.3065942    0.2270966 -36.54 0.0009156928    1.372    0.271
        99  -9.4391    161.1036     99.6935   2.3372957302e+01   2.9300860307e+01     0.279337    0.2351345 -46.31 0.0004048049    1.173    0.148
       100  -9.2391    181.0311     96.4742   1.8744888079e+01   2.5437890296e+01    0.3593431     0.280168   8.26  0.001313841    1.682    0.406
       101  -9.0287    164.9279     93.3214   2.0926432031e+01   2.9587326951e+01    0.2767515    0.2185561 -30.27 0.0008578836    1.318    0.241
       102 -10.3631    180.2212     87.9460   1.6721899991e+01   2.7047358679e+01    0.4992474    0.4207194 -43.89  0.001318473    1.121    0.108
       103  -8.5449    142.7401     89.0782   2.4510886075e+01   3.5588800220e+01    0.3295051     0.207729 -31.67 0.0009895196    1.785    0.440
       104 -13.8969    231.8678    100.7010   1.2231667955e+01   1.4808550678e+01    0.5676984    0.4452607  17.29  0.002154514    1.591    0.371
       105  -8.2783    151.2783     87.0056   2.2013485773e+01   3.3934060134e+01    0.2175155    0.1958059 -41.82 0.0006469458    1.122    0.108
       106  -9.1186    185.1707     81.8465   1.4342681250e+01   2.6934903358e+01    0.2820998    0.2210233  51.40  0.001069242    1.367    0.268
       107  -9.1111    185.6853     78.3473   1.3361926121e+01   2.7374678613e+01    0.3109478    0.2258236 -75.79 0.0009944134    1.626    0.385
       108  -8.7479    158.2209     80.9527   1.8877767592e+01   3.3355440904e+01    0.3534127     0.235942  15.24  0.001396163    2.627    0.619
       109  -8.3490    164.1594     80.1624   1.7514042226e+01   3.2070219642e+01    0.1995853    0.1648358 -70.10 0.0003153131    1.276    0.216
       110  -9.0050    197.5291     77.1908   1.1330645344e+01   2.4943176528e+01    0.2213233    0.2116512  17.22 0.0003144438    1.209    0.173
       111  -8.7217    201.6170     74.1834   1.0033985977e+01   2.4513834406e+01    0.2043601      0.17251 -15.82 0.0005844774    1.343    0.255
       112  -8.0802    167.0400     76.5023   1.5973633943e+01   3.2000569967e+01    0.2185443    0.1437267  60.75 0.0008497763    1.548    0.354
       113 -10.2400    189.5929     73.9395   1.1641185385e+01   2.7181555052e+01    0.2418878    0.2241974 -47.95 0.0004186232    1.049    0.047
       114  -8.5069    175.1746     75.1967   1.4213884159e+01   3.0289949968e+01    0.2066464    0.1954757  -9.24 0.0007065577    1.194    0.163
       115  -8.2131    157.6450     74.8337   1.7251332474e+01   3.4552995719e+01     0.221352    0.1293943 -46.59 0.0009466622    1.700    0.412
       116  -7.6328    133.4746     75.4922   2.2674862530e+01   4.0429345160e+01    0.1549682    0.1494514  57.45 0.0002601838    1.063    0.059
       117  -7.6717    122.6701     75.7137   2.5488628481e+01   4.3072595325e+01    0.1577077    0.1242242  21.68  0.000701157    1.615    0.381
       118  -8.6451    206.8850     72.7759   9.0131000734e+00   2.3604493190e+01    0.2328011    0.1782821 -17.63 0.0005334595    1.495    0.331
       119  -7.8889    209.6008     69.7060   7.9415916300e+00   2.3475340269e+01    0.1816369    0.1283403 -20.12 0.0003438226    1.607    0.378
       120  -8.3089    181.0054     71.4896   1.2287928940e+01   2.9516964774e+01     0.273995    0.1722175  14.15  0.001033936    3.311    0.698
       121  -7.8049    170.3612     69.8632   1.3556305450e+01   3.2287007741e+01    0.1951555    0.1369499 -24.78 0.0003924488    1.615    0.381
       122  -7.4901     86.5007     68.5200   3.4464678834e+01   5.3139392633e+01    0.1570098    0.1499683  44.14 0.0001579181    1.022    0.022
       123  -7.9472    211.4151     66.2501   6.9012024174e+00   2.3581877998e+01    0.1807953      0.10456 -44.28 0.0003626147    1.499    0.333
       124  -7.6288    182.6246     66.6860   1.0764053482e+01   2.9876961959e+01    0.1430196    0.1084869  26.28 0.0007030449    1.794    0.442
       125  -8.1948    204.5168     65.0576   7.4262187237e+00   2.5207520766e+01    0.1949766    0.1206481 -34.10 0.0004373424    1.492    0.330
       126  -8.4529    217.5292     63.9408   5.6738812618e+00   2.2640996665e+01    0.2119144    0.1905127  -8.66  0.001362848    1.329    0.248
       127  -8.2888    215.2774     61.7141   5.3930325273e+00   2.3402971911e+01    0.2012333    0.1580374 -55.50 0.0004608757    1.135    0.119
       128  -8.1745    191.4543     63.5689   8.7078043436e+00   2.8307468237e+01    0.1820858    0.1251685  55.20 0.0001041001    1.572    0.364
       129 -10.2637    188.2983     60.5132   8.3314438100e+00   2.9472409137e+01    0.2631998    0.2390675 -33.78 0.0002651997    1.166    0.142
       130 -14.9255    248.2644    148.1211   1.9590109908e+01   5.7502311907e+00    0.7801842    0.5556493  12.52  0.005213496    1.510    0.338
       131  -8.5112    171.5202     62.0834   1.1193139031e+01   3.3220115515e+01    0.2068609     0.188117  81.67 0.0003768815    1.085    0.079
       132  -7.3759    194.6534     58.7075   7.0412148946e+00   2.8277103443e+01    0.1312177    0.1049118  28.49 0.0005011556    1.665    0.400
       133  -7.8055    113.2394     56.9879   2.1698489693e+01   4.8925452974e+01    0.1918498    0.1329545 -39.03  0.000438573    1.523    0.343
       134  -8.2977    205.1188     55.3406   4.9625568889e+00   2.6416835350e+01    0.2195318      0.16838 -27.56 0.0006822911    1.359    0.264
       135  -9.3590    227.8909     55.0651   2.6008101183e+00   2.1735393472e+01    0.1742157    0.1475595  11.45 0.0005029846    1.612    0.380
       136  -8.2591    193.2029     53.9547   5.9913751151e+00   2.9268334216e+01    0.1894408    0.1782401  -5.74 0.0006274105    1.285    0.222
       137  -8.6126    218.6683     51.8537   2.7269834494e+00   2.4002787300e+01    0.1918033    0.1524616 -19.68 0.0006575572    1.440    0.305
       138  -7.7067    183.2528     51.9799   6.7159886720e+00   3.1866101102e+01    0.1737234    0.1120257 -36.62 0.0002902578    1.473    0.321
       139 -10.2377    225.0690     48.1558   1.2839731039e+00   2.3167415915e+01    0.3082533    0.2494026  -6.08  0.001729142    1.623    0.384
       140 -10.4030    222.1385     44.8654   7.8261526733e-01   2.4170264612e+01     0.433016    0.1477218 -40.62  0.001391503    2.254    0.556
       141 -10.2317    247.8784     45.0866   3.5880859608e+02   1.9189122422e+01    0.3901719    0.2302403 -70.99  0.002322859    1.821    0.451
       142  -8.2322    182.9247     45.8712   5.0930029578e+00   3.2779060322e+01    0.1926324    0.1843418  44.80 0.0003992862    1.251    0.201
       143  -9.4816    229.2280     39.0080   3.5886778092e+02   2.3447276824e+01     0.216672    0.1595141  58.13 0.0007931109    1.651    0.394
       144 -10.6362    233.8915     41.4770   3.5906169285e+02   2.2236346069e+01    0.3396137    0.2994998 -16.31 0.0007114462    1.390    0.281
       145 -10.6715    238.5484     40.6776   3.5854057545e+02   2.1435806651e+01    0.4968307    0.2008361 -60.22  0.001936422    2.754    0.637
       146 -11.0270    241.7813     35.4149   3.5718296159e+02   2.1434250787e+01    0.4728715    0.2095113 -50.02  0.001868629    1.821    0.451
       147  -8.0536    207.7527    223.5739   3.8939704013e+01   1.1244611801e+00    0.1465202   0.09174644  32.57 0.0009352285    1.579    0.367
       148  -7.2560    140.3016    221.3153   5.1958158452e+01   1.0363025936e+01     0.127173   0.08771295   1.25 0.0006961918    1.616    0.381
       149 -13.8234    233.7713    209.7655   3.2446540981e+01  -2.3922416363e-01     2.192619     1.510332  35.00  0.007330395    1.753    0.430
       150  -7.8453    172.4876    240.0020   4.7819615998e+01   3.3246346989e+00     0.153874    0.1096181 -31.75 0.0008976791    1.602    0.376
