#   1 NUMBER                 Running object number                                     
#   2 MAG_AUTO               Kron-like elliptical aperture magnitude                    [mag]
#   3 X_IMAGE                Object position along x                                    [pixel]
#   4 Y_IMAGE                Object position along y                                    [pixel]
#   5 X_WORLD                Barycenter position along world x axis                     [deg]
#   6 Y_WORLD                Barycenter position along world y axis                     [deg]
#   7 A_WORLD                Profile RMS along major axis (world units)                 [deg]
#   8 B_WORLD                Profile RMS along minor axis (world units)                 [deg]
#   9 THETA_WORLD            Position angle (CCW/world-x)                               [deg]
#  10 FWHM_WORLD             FWHM assuming a gaussian core                              [deg]
#  11 ELONGATION             A_IMAGE/B_IMAGE                                           
#  12 ELLIPTICITY            1 - B_IMAGE/A_IMAGE                                       
         1 -10.4737     83.9539     46.8630   9.3293036834e+01   5.5893510544e+01    0.7651373    0.5302157 -45.97  0.004190957    1.716    0.417
         2  -9.9391     51.2845     36.6870   1.0087038230e+02   6.2515687889e+01    0.6380584    0.4440602 -53.20   0.00367979    2.162    0.537
         3  -8.9176     39.2536      7.2881   9.3594240463e+01   6.7803463871e+01    0.3808328    0.2402422   4.41  0.001657431    1.442    0.307
         4 -10.6593     39.1062     29.7633   1.0298718549e+02   6.5058564031e+01    0.7560574    0.3231061 -41.10  0.003687318    2.321    0.569
         5 -11.6997     44.3348     21.1341   9.7468466933e+01   6.5539997423e+01    0.9387399    0.8788885  85.88  0.006705201    1.999    0.500
         6  -9.5406     66.5745     31.3489   9.3345104502e+01   6.0984195456e+01    0.6570283    0.2141728 -32.05   0.00271455    3.162    0.684
         7 -11.1704    129.2222     14.9691   7.1033428737e+01   5.0330608209e+01    0.9992257    0.7449731  32.79  0.005459451    1.381    0.276
         8 -10.5997    120.9182      3.8581   6.9103717293e+01   5.3150200979e+01    0.6032228    0.3764295  65.87  0.002267322    1.440    0.306
         9 -11.5678    110.3919      4.3655   7.1358246518e+01   5.5393268887e+01     1.855202    0.5332628  57.62  0.007677172    2.664    0.625
        10 -13.7885    166.1403     10.9293   6.3880685954e+01   4.2119231623e+01     3.107478     1.681925  68.87    0.0159544    1.565    0.361
        11 -11.2599     84.1588      3.9992   7.7401588046e+01   6.0740394290e+01    0.8332052    0.3900861  47.26  0.003934953    1.715    0.417
        12 -10.1000     71.2701      5.5511   8.1656551146e+01   6.2979224320e+01    0.5005538    0.3210319  43.88  0.002466293    1.346    0.257
        13 -10.9979     76.5821     19.0673   8.5371173574e+01   6.0733399666e+01    0.9805719    0.4269322 -19.87  0.004569703    2.718    0.632
        14  -9.6651     78.6635     12.3018   8.2130069582e+01   6.1037659255e+01    0.4599952    0.3005266  59.18  0.002690755    1.790    0.441
        15 -11.0576    131.7799      3.1782   6.6943469315e+01   5.0780924457e+01     1.192478    0.3384617  65.75  0.004524002    3.113    0.679
        16 -10.0016    116.7576     16.5809   7.4082423268e+01   5.2948314769e+01    0.6761162    0.3639047 -33.00  0.003511996    2.090    0.521
        17  -9.0558    111.0000     16.0204   7.5163489943e+01   5.4245686372e+01     0.314832    0.2051059  44.28  0.001140911    1.317    0.241
        18  -9.5058     94.0081     17.6959   7.9895984834e+01   5.7588605868e+01    0.3634332    0.3243986 -34.22  0.001945594    1.356    0.263
        19 -10.4095    249.1309     15.5773   5.6262026648e+01   2.2753389844e+01    0.3844516    0.2174256 -43.42  0.002269395    1.675    0.403
        20  -9.1533     64.4244     16.5978   8.8299563215e+01   6.3076211295e+01     0.234603    0.2120008 -27.35  0.001684229    1.428    0.300
        21  -8.2743     20.2403     14.5314   1.0489445478e+02   6.9176330226e+01     0.390371    0.1941259 -19.80   0.00228182    1.961    0.490
        22  -8.8105     69.8736     13.8392   8.5414229699e+01   6.2447283193e+01    0.2584794    0.2235399 -19.30  0.001831042    1.327    0.246
        23 -10.6352    249.9155      5.6800   5.4358033729e+01   2.3746755604e+01    0.4811128     0.442445 -29.97  0.003591189    1.628    0.386
        24 -10.2316    245.2736      2.7208   5.4145852572e+01   2.5039265378e+01    0.5860377    0.3682536 -13.71  0.003084983    3.324    0.699
        25  -9.7467    200.5062      7.6973   5.9018624663e+01   3.4378033019e+01    0.2370379    0.1728559  67.05  0.000642729    1.268    0.212
        26  -9.5529    203.7482      4.1641   5.7911846598e+01   3.3993997620e+01    0.2730745    0.1695418  85.83  0.001348425    1.379    0.275
        27  -8.6949     54.9676      7.5343   8.7798058167e+01   6.5506591055e+01     0.263611    0.1829477  64.44  0.001511252    2.678    0.627
        28  -9.0733    229.7993      6.1610   5.5999768471e+01   2.7957932176e+01    0.1566108    0.1283427  71.32  0.001005754    1.328    0.247
        29  -9.8997    221.9580      3.1703   5.6053524454e+01   2.9999382828e+01    0.4478837    0.1868718 -49.33  0.002265645    2.200    0.545
        30 -11.6150    156.1044     20.3344   6.7909631709e+01   4.3549403578e+01     1.025676    0.4497624  55.15  0.003895912    1.937    0.484
        31  -9.6433     60.2906      2.5936   8.3890043802e+01   6.5107044995e+01    0.4898057    0.2675714  37.87    0.0029776    1.507    0.336
        32  -7.9923     49.7251      6.4333   8.9207403014e+01   6.6410872913e+01    0.1589051   0.08538629  30.61 0.0009427487    1.604    0.377
        33  -8.5198     51.9335      2.2444   8.6589826249e+01   6.6468625777e+01    0.2433213    0.1584093   1.69  0.001193174    1.430    0.301
        34  -9.8586    214.0691      4.4910   5.7016072156e+01   3.1619542053e+01     0.289813    0.1966453  66.66  0.001794834    1.390    0.280
        35  -8.2993     26.4317      2.8080   9.6941366093e+01   6.9884308572e+01    0.1776861    0.1317116 -11.02  0.001248094    1.175    0.149
        36  -8.6748     16.5304      1.8021   1.0097028708e+02   7.1083020763e+01    0.2004934     0.125815  21.32  0.001271968    1.431    0.301
        37  -8.2555     40.8198      1.5370   9.0403714159e+01   6.8163991155e+01    0.1985105   0.08710992  36.70  0.001002035    1.971    0.493
        38  -9.2001    198.6915     54.9929   7.0384802920e+01   2.8858032149e+01    0.2449904    0.2219035  69.17 0.0003815592    1.143    0.125
        39  -9.2305     66.3372     53.7744   1.0151476800e+02   5.7723444271e+01    0.4353363    0.1588679 -47.07  0.001701359    3.182    0.686
        40  -8.0980      9.4255     56.1823   1.2385187872e+02   6.3386774908e+01    0.1539225   0.09717485 -61.61 0.0007273582    1.651    0.394
        41  -8.4853     36.9435     53.0945   1.1211526848e+02   6.1616968023e+01    0.2999544    0.1355365  39.86  0.001438963    2.857    0.650
        42  -7.6589     23.2780     52.6646   1.1734868428e+02   6.2997679716e+01    0.1009966   0.09117229 -75.50 0.0004586892    1.610    0.379
        43  -8.7360    188.5088    247.9848   1.1419189359e+02  -5.2053056262e+00    0.1737129    0.1044369 -15.96 0.0008104341    2.554    0.608
        44  -8.2112    111.3446     46.1700   8.5190899396e+01   5.0637948101e+01    0.2461518    0.1700703  38.84  0.001297514    1.360    0.265
        45  -8.2503     97.4780     43.9535   8.8232858866e+01   5.3772692832e+01    0.1798021    0.1102773 -55.43 0.0008096012    2.554    0.608
        46 -10.2353      3.4600     39.7789   1.2162171708e+02   6.6686140326e+01    0.4083808     0.319996 -35.70  0.002449435    1.121    0.108
        47  -9.1808    171.5102    246.0413   1.1724414472e+02  -2.0588853810e+00    0.1796457    0.1304215 -46.36  0.001035684    1.600    0.375
        48 -10.1895    161.8734    242.6394   1.1865911620e+02   1.6182506952e-01    0.4398254    0.2621392  70.11  0.001819856    3.230    0.690
        49 -10.2063    175.3048    242.7907   1.1598652916e+02  -2.1596110564e+00     0.334547     0.153766  50.67  0.001428389    2.441    0.590
        50  -9.4366    193.8071    241.4152   1.1210012595e+02  -5.0384565075e+00    0.1876762    0.1086095  28.99 0.0005800697    1.656    0.396
        51  -8.2882     69.9875     37.5255   9.4494924400e+01   5.9607292770e+01    0.2736982    0.1693074 -19.88  0.001497516    1.666    0.400
        52 -10.7180    205.3629    227.1728   1.0740931647e+02  -4.6528550028e+00     0.415655    0.2468933 -33.36   0.00202292    1.794    0.443
        53  -8.3995     27.0929     35.8208   1.1020414586e+02   6.5470690994e+01    0.1609639    0.1425329  -6.32 0.0006351657    1.268    0.211
        54  -8.9704     12.2481     33.8899   1.1589407280e+02   6.7065115404e+01    0.3657326    0.1778233 -52.39  0.002073537    2.158    0.537
        55  -9.7686     86.3406     31.2460   8.6987812878e+01   5.7563950454e+01    0.2476772    0.2222318 -19.17  0.001635424    1.220    0.180
        56 -10.4686    225.0211     28.9105   6.1126673951e+01   2.6324881158e+01    0.4327644    0.3620349  81.96  0.001634781    1.151    0.131
        57  -9.8949    123.9985    206.0021   1.2100722434e+02   1.4122106566e+01    0.2021964    0.1843374  65.09            0    1.002    0.002
        58  -8.8648    238.8349    202.4943   9.6463961800e+01  -6.1044065509e+00    0.2322628    0.1510269 -56.58 0.0009123244    2.270    0.559
        59 -11.7679     10.5764    140.8146   1.3895656302e+02   4.5036986042e+01    0.7342934     0.426642 -79.91  0.004156791    1.483    0.326
        60 -12.6862    240.7537    132.8993   8.1781004221e+01   5.9401123848e+00     1.494657     1.270979  62.43   0.00518751    1.334    0.250
        61  -8.5389    125.3633     28.8436   7.6200620886e+01   4.9761914523e+01    0.2716957    0.2118099  -9.08  0.001577879    1.482    0.325
        62  -8.7746     97.5432     27.4484   8.2453150814e+01   5.5845072164e+01    0.3760039    0.2066751 -14.81  0.001835431    2.237    0.553
        63  -9.4035     40.8696    141.9455   1.3117120831e+02   4.2010258568e+01    0.3184715    0.2036826  53.15  0.001685031    1.774    0.436
        64 -10.2071     11.3282    129.3233   1.3728217947e+02   4.7648977623e+01     0.204944    0.1863496 -76.63  0.001463637    1.154    0.134
        65 -10.3832     13.5174    120.0052   1.3534778406e+02   4.9637683618e+01    0.2963507    0.1991699  52.92  0.001775944    1.808    0.447
        66  -9.7401     20.6858    109.5003   1.3153640012e+02   5.1496478524e+01    0.3652923    0.1731263 -68.98  0.001780654    1.915    0.478
        67  -7.4594     90.3167     28.3133   8.4764065195e+01   5.7162020504e+01    0.1331392   0.08625605  20.81 0.0002428834    1.644    0.392
        68  -9.2632    132.7436     26.4700   7.3913700224e+01   4.8353537076e+01    0.2741348    0.2032011  54.68  0.001208462    1.176    0.149
        69  -8.7518     14.9894    109.4888   1.3325191306e+02   5.1925282831e+01    0.1601062    0.1230099  19.92  0.001037693    1.609    0.378
        70  -8.8398    104.6007     25.9407   8.0088815142e+01   5.4575747452e+01    0.3676739    0.1668967  51.25  0.001720653    1.915    0.478
        71  -7.2497     28.6447     25.3213   1.0559474869e+02   6.6864094835e+01    0.0939263   0.09194058  44.95 0.0007046197    1.758    0.431
        72  -9.3918     16.0511    103.9204   1.3196894491e+02   5.3098223782e+01    0.3829383    0.2347181  37.24  0.002236755    1.989    0.497
        73  -9.3245     30.0365    101.4481   1.2710280550e+02   5.2529131833e+01    0.2707178    0.1352056 -47.81  0.001189937    1.673    0.402
        74  -8.3184     20.1768     22.4745   1.0816547881e+02   6.8112043214e+01    0.2491582    0.1206536  35.67  0.001426852    2.520    0.603
        75  -8.1657     64.3327     98.1290   1.1531783965e+02   4.9419513480e+01    0.2914591    0.1019005 -46.61  0.001091066    2.548    0.607
        76  -9.8206     56.9176     97.5895   1.1756683598e+02   5.0510241684e+01    0.2884216    0.2175002  25.93  0.001627677    1.471    0.320
        77  -9.0643      2.2037     89.2599   1.3374347746e+02   5.7162776075e+01    0.3423407    0.1860665 -62.60   0.00202251    1.433    0.302
        78  -7.4778      8.2806     17.0512   1.1147770393e+02   6.9903093823e+01    0.1755569   0.04876944 -31.37 0.0006783536    4.025    0.752
        79 -12.1508     43.1220     82.2092   1.1828987505e+02   5.5397476964e+01     1.155801    0.8871821  19.15    0.0070942    1.436    0.304
        80  -8.0183    100.7031     83.3114   9.9906002845e+01   4.6542882129e+01    0.1388512     0.116334 -86.11 0.0003387724    1.598    0.374
        81  -9.4054    226.9435     14.0873   5.7844408111e+01   2.7693484357e+01    0.3437959    0.1385905  85.84  0.001454251    2.814    0.645
        82 -10.2233     24.5919     65.2085   1.2045008784e+02   6.0558599229e+01    0.9811205    0.2998355 -46.25  0.004332338    2.486    0.598
        83 -10.4866      4.0700     76.3051   1.3061102142e+02   5.9764402533e+01    0.5675463    0.3703894 -46.67  0.002658585    1.178    0.151
        84 -10.8696     14.8204     75.5314   1.2663185210e+02   5.9256438041e+01    0.7810663    0.3590697 -30.69   0.00391766    2.330    0.571
        85 -10.3203     11.2451     70.5798   1.2677294124e+02   6.0491844934e+01    0.4927615    0.3004413 -43.56  0.002854661    1.280    0.219
        86  -8.5307    221.8916     81.1324   7.3147175427e+01   1.9252300369e+01    0.2370107    0.1772126 -71.82  0.001239094    1.347    0.258
        87  -9.2016    227.9389     78.6614   7.1717832360e+01   1.8314276393e+01    0.3378294    0.2914722  18.94   0.00153171    1.653    0.395
        88  -8.7054     78.6663     78.6204   1.0530542694e+02   5.1337313698e+01    0.3365883    0.2324326  72.71  0.001472105    2.790    0.642
        89  -8.9304     79.4870     72.4684   1.0317200931e+02   5.2375408020e+01    0.1995332     0.126323  25.78 0.0009740648    1.724    0.420
        90 -10.0709     74.3092     68.2730   1.0355734049e+02   5.3981984920e+01    0.4562912    0.3522687  -9.37  0.002342355    1.342    0.255
        91  -9.1155     19.6794     88.7221   1.2785472440e+02   5.6155763849e+01    0.2288099    0.1543739 -42.37  0.001409338    1.254    0.202
        92  -9.1284     16.4647     64.2506   1.2326383898e+02   6.1377188734e+01    0.2870782    0.1491335 -61.54  0.001301543    1.965    0.491
        93  -8.2376     12.0143     62.0000   1.2437491709e+02   6.2118847160e+01    0.2024767    0.1335256  11.39  0.001317183    1.702    0.412
        94  -9.4783     47.9318     62.1454   1.1084455928e+02   5.8763318314e+01    0.4846551    0.2792403  12.58  0.002478373    2.101    0.524
        95  -8.5817     92.7250     56.8294   9.3981755401e+01   5.2758710865e+01    0.2723286     0.186686  52.30  0.001356878    1.629    0.386
