#   1 NUMBER                 Running object number                                     
#   2 MAG_AUTO               Kron-like elliptical aperture magnitude                    [mag]
#   3 X_IMAGE                Object position along x                                    [pixel]
#   4 Y_IMAGE                Object position along y                                    [pixel]
#   5 X_WORLD                Barycenter position along world x axis                     [deg]
#   6 Y_WORLD                Barycenter position along world y axis                     [deg]
#   7 A_WORLD                Profile RMS along major axis (world units)                 [deg]
#   8 B_WORLD                Profile RMS along minor axis (world units)                 [deg]
#   9 THETA_WORLD            Position angle (CCW/world-x)                               [deg]
#  10 FWHM_WORLD             FWHM assuming a gaussian core                              [deg]
#  11 ELONGATION             A_IMAGE/B_IMAGE                                           
#  12 ELLIPTICITY            1 - B_IMAGE/A_IMAGE                                       
         1  -9.8618     97.7010     12.1446   1.2280690237e+01   5.7687413847e+01    0.3378662    0.2086008  -7.44   0.00124609    2.039    0.510
         2  -8.8486      3.4250     12.2814   5.4091267634e+01   7.4525475156e+01     0.144252    0.1050047 -46.45 0.0009416755    1.574    0.365
         3 -10.2465     41.0779     13.7519   3.2101685385e+01   6.9381563227e+01    0.2440479    0.1724576  28.46 0.0002091923    1.201    0.168
         4  -8.2734     65.1615      4.8643   1.7892649515e+01   6.5646836655e+01    0.1743143    0.1200922  33.19 0.0002405094    1.280    0.219
         5  -8.6411      2.9706      3.0322   4.9283191260e+01   7.5983131505e+01    0.1825483     0.107461  -9.55 0.0003261178    1.575    0.365
         6  -9.4187     67.5419      1.3811   1.5463102480e+01   6.5423545663e+01    0.2251383    0.1022868  57.37 0.0002003249    1.851    0.460
         7 -10.7496    107.5895    237.8674   6.6482899527e+01   1.0179941991e+01    0.4228155    0.3338251 -66.70   0.00225798    1.539    0.350
         8 -10.7347    247.2226    248.3488   4.0058322202e+01  -9.5404621008e+00     0.302876    0.2216982  -6.04  0.001204409    1.099    0.090
         9  -9.3144    213.7940    250.2148   4.6178826107e+01  -6.1200517174e+00    0.2357058    0.1302011  17.08  0.001341748    1.573    0.364
        10  -9.6502    205.1687    249.9156   4.7732306262e+01  -5.0573003350e+00    0.2822192    0.1402791  35.94  0.001542424    2.041    0.510
        11 -10.6287    181.6229    225.7492   4.8537350452e+01   1.6218787049e+00     0.862738    0.4032921  48.46  0.003401241    3.639    0.725
        12  -9.4124    157.5805    221.4909   5.2942922681e+01   5.8570904160e+00    0.2577759    0.2098677  14.53  0.000805715    1.069    0.065
        13 -11.5260    166.7457    248.3791   5.5064315229e+01   8.2352604980e-02    0.9114699    0.3177901  37.02  0.003966383    2.532    0.605
        14 -11.3756    166.9719    242.0309   5.4094803505e+01   1.0446024696e+00    0.5443893    0.3894314  22.71  0.002070843    1.162    0.140
        15 -10.4339    169.8067    224.9404   5.0865112070e+01   3.4499257455e+00     0.438004    0.3175677  48.29  0.001881134    1.754    0.430
        16 -11.0968    169.7451    233.9185   5.2292992520e+01   1.9649218504e+00     0.567722    0.5052302 -69.98  0.002549801    1.726    0.421
        17 -12.0987    162.1312    227.3676   5.2885985425e+01   4.1537565148e+00     1.040332    0.5891489 -40.03  0.002988348    1.886    0.470
        18 -10.7901     53.4672    249.4997   7.9577796444e+01   1.5009107558e+01    0.4181086    0.2746455  23.91  0.001905936    1.594    0.373
        19  -9.6702     56.6766    246.6640   7.8674644262e+01   1.5176100765e+01    0.2229956    0.1706181  33.09 0.0008274536    1.220    0.181
        20 -10.2699     12.8895    250.0367   8.7942100050e+01   1.9275955465e+01     0.341792    0.1759123  42.93  0.001689762    1.502    0.334
        21 -10.7676      7.5902    242.3467   8.8655595456e+01   2.1283993739e+01    0.4462878    0.4145183  27.78  0.003460194    1.388    0.280
        22 -11.5393     19.3036    247.5960   8.6547080833e+01   1.9117342428e+01    0.6644813    0.2993562  52.41  0.003692565    1.763    0.433
        23 -10.4694    100.8384    233.2347   6.7464116195e+01   1.2024558883e+01     0.508608    0.3174218  67.86  0.001931187    2.260    0.557
        24 -11.4041     98.7183    225.4638   6.7010723115e+01   1.3877007366e+01    0.4821154    0.4328939 -18.89   0.00153835    1.281    0.219
        25 -11.8481     95.5330    218.0372   6.6835122196e+01   1.5874154795e+01    0.7008262    0.4175193  43.07  0.002062287    1.515    0.340
        26 -10.4053     99.9862    217.4720   6.5688310707e+01   1.5344260459e+01    0.3709924    0.2190197  43.69 0.0006702043    1.554    0.357
        27  -9.4790     12.7977    244.5731   8.7710968618e+01   2.0350158742e+01     0.224577    0.1084969  38.68  0.001051089    1.663    0.399
        28 -11.3450    173.8231    244.7749   5.3092758484e+01  -3.1400836739e-01    0.5781227    0.4557335 -39.52  0.003756136    1.517    0.341
        29 -10.9999    106.1337    224.1373   6.5096564674e+01   1.3072715558e+01    0.6114455    0.4587938  -4.60  0.002202383    1.671    0.402
        30 -10.8142     73.4813    244.6115   7.4837277194e+01   1.3490054234e+01    0.3266189    0.2452482  25.25 0.0006564854    1.318    0.242
        31  -9.9341      4.0024    249.0631   8.9638411461e+01   2.0302723023e+01     0.270973    0.1518421  58.22 0.0008421325    1.386    0.279
        32  -9.9691    250.3442    241.7738   3.8509427153e+01  -9.0602759807e+00     0.260861    0.1526059 -17.18   0.00110973    1.370    0.270
        33 -10.2700    248.8237    237.8144   3.8125744122e+01  -8.4116533607e+00    0.2485076    0.1549693 -22.19  0.001109166    1.295    0.228
        34 -11.4653    237.4796    240.8564   4.0514186098e+01  -7.5816882205e+00    0.4508323     0.309415   2.36  0.001957073    1.134    0.118
        35 -11.1428     98.1170    241.4801   6.9035086823e+01   1.0815177682e+01    0.4694005    0.2869342  27.99  0.001014409    1.469    0.319
        36  -9.5247    221.2887    239.9506   4.3210820029e+01  -5.6263475878e+00    0.2383523    0.1660953 -15.39 0.0007906971    1.205    0.170
        37  -9.1211     16.2586    237.8356   8.6675123823e+01   2.1362202185e+01    0.3210689    0.1109313  53.01  0.001514164    2.384    0.581
        38 -10.6996    230.8413    234.8001   4.0685091484e+01  -6.0444601663e+00    0.4250523    0.2518611  -5.67  0.001628374    1.584    0.369
        39 -11.8555    126.7304    221.6630   5.9937238262e+01   1.0494974986e+01    0.9387919    0.5381798 -63.89  0.001105777    2.391    0.582
        40 -11.4082    239.1632    230.0190   3.8468617906e+01  -6.3544769060e+00    0.5386016    0.2906972   9.05  0.002282602    1.904    0.475
        41  -9.5692    242.9566    223.9323   3.6818281281e+01  -5.9694689173e+00    0.2170436    0.1455513 -31.43 0.0007608701    1.422    0.297
        42  -9.6543    116.8257    226.9548   6.2974627082e+01   1.0943941800e+01     0.267308    0.2440372 -55.99 0.0008302774    1.273    0.215
        43  -9.2108    144.9450    227.5544   5.6670434204e+01   6.6543388003e+00    0.2367961    0.1730838 -21.74 0.0006747708    1.514    0.340
        44  -9.8827    249.6814    226.9372   3.6210112126e+01  -7.1134185773e+00    0.2331492    0.1538688  -3.17   0.00158022    1.238    0.193
        45  -8.2141    195.7041    227.6962   4.6034046429e+01  -6.3017639203e-01    0.1289023   0.08296536  -3.41 0.0002043108    1.581    0.367
        46  -8.9417    191.6736    227.0120   4.6717206594e+01   2.3230564024e-02    0.1715739    0.1390485  -7.74 0.0003065375    1.088    0.081
        47  -9.0648     31.1595    224.7519   8.2672702936e+01   2.2578215632e+01    0.2199315    0.1398489 -48.33  0.001219461    2.038    0.509
        48  -9.2658     66.7832    223.5539   7.4340906290e+01   1.8640846547e+01    0.2136738    0.1768405 -77.41 0.0005593752    1.300    0.231
        49 -10.0944    133.2070    220.9756   5.8340161503e+01   9.6453332260e+00    0.3052272    0.1956522 -52.43 0.0008588351    1.792    0.442
        50 -10.6967    131.1066    214.8237   5.7895981769e+01   1.1166609052e+01    0.4604909    0.4311477 -87.01  0.001881004    1.313    0.238
        51  -9.0569    213.7528    220.7843   4.1428652238e+01  -1.9706404244e+00    0.3058586    0.1462445  39.58  0.001077977    2.394    0.582
        52  -9.2696    219.1986    219.2329   4.0163250087e+01  -2.4421053907e+00    0.3055714    0.1998947 -12.70  0.001831684    1.382    0.276
        53  -9.5845    115.0578    220.7552   6.2538262150e+01   1.2432832002e+01    0.2102676    0.2010055 -37.77 0.0005509051    1.175    0.149
        54  -8.8831    149.3859    219.7402   5.4478276137e+01   7.4134128277e+00    0.1993026    0.1732751  24.12 0.0006546417    1.079    0.073
        55  -9.5059    151.5366    216.0431   5.3405831865e+01   7.7685632234e+00    0.3576251    0.2293167   2.94  0.001154723    1.952    0.488
        56 -10.1837    190.4841    216.2805   4.5153528436e+01   1.9104660255e+00     0.477607    0.3000737 -30.70   0.00262566    1.543    0.352
        57  -9.4328    175.9799    216.0903   4.8102720635e+01   4.0557363518e+00    0.2884823    0.1732962 -34.06   0.00129854    1.687    0.407
        58  -8.6300    143.5370    217.0105   5.5366971883e+01   8.8195770710e+00    0.1950499    0.1351033 -46.47  0.001031561    1.595    0.373
        59 -10.3703     18.9961    214.0038   8.4720967208e+01   2.6163887058e+01    0.2309524    0.1697563  80.27  0.001447735    1.215    0.177
        60  -8.8862     24.9666    216.4844   8.3515067752e+01   2.5023202725e+01    0.2732984    0.1091745  45.70  0.001285266    2.077    0.518
        61 -10.2853    170.7567    215.2003   4.9058826054e+01   4.9908247022e+00    0.2940141    0.2362463   7.80 0.0006893481    1.105    0.095
        62 -10.5684    121.4932    222.5182   6.1277207003e+01   1.1117232924e+01     0.301462    0.2568347  55.13  0.001785518    1.292    0.226
        63 -10.4382    113.0050    212.9239   6.1918388746e+01   1.4344520236e+01    0.6542893    0.3995407   5.16  0.002769287    2.479    0.597
        64  -9.9910     64.5320    213.4796   7.3845109993e+01   2.1130231218e+01     0.539993    0.2169252  47.69  0.002228624    2.365    0.577
        65  -9.5088    228.3460    214.0793   3.7638737413e+01  -2.8451081690e+00    0.2360675    0.1533747  -6.18 0.0009653481    1.428    0.300
        66 -10.8208    212.3036    206.8115   3.9262104269e+01   3.6822069060e-01    0.6618603    0.4227187 -30.88  0.003752904    1.422    0.297
        67  -8.6943    212.7037    199.0388   3.7782788901e+01   1.5514445829e+00    0.2041188    0.1466003  -9.14 0.0003591031    1.284    0.221
        68  -9.5202    202.5861    210.7781   4.1810558049e+01   1.0887589032e+00    0.3255854    0.1950484 -29.04  0.001761984    1.569    0.363
        69  -9.9824     75.0581    219.0427   7.1893537143e+01   1.8521374880e+01    0.3090709    0.2369935  65.98  0.001083651    1.332    0.249
        70 -10.0840    237.7466    210.0247   3.5313219844e+01  -3.4235892229e+00    0.2271347    0.1962884  41.16  0.001444097    1.776    0.437
        71  -9.1130    128.3238    211.7279   5.8074028792e+01   1.2218247679e+01    0.2118077    0.1779218  44.11 0.0002292666    1.204    0.170
        72  -9.2495     18.5990    188.6602   8.3054900063e+01   3.2067202030e+01     0.222127    0.1644232 -71.17 0.0005416882    1.306    0.234
        73 -10.0095     11.9293    206.6724   8.5897544193e+01   2.8469066478e+01    0.3080128    0.2176655 -68.08  0.001283547    1.455    0.313
        74 -11.4098     15.6472    196.7857   8.4378368976e+01   3.0409743340e+01    0.7055954    0.3137791 -43.57  0.002639432    3.417    0.707
        75  -8.2508    224.4479    205.4715   3.6812396653e+01  -1.0616308581e+00    0.1255187    0.0995413  -9.58   4.4605e-05    1.011    0.011
        76  -9.3394    129.6858    201.0982   5.6048295206e+01   1.4182275975e+01    0.3569708    0.2775268  63.67    0.0018368    1.635    0.388
        77 -10.2027    166.7860    198.6987   4.7038952217e+01   8.6139244029e+00    0.7462645    0.3088133 -31.51  0.002655391    3.302    0.697
        78 -11.2843    176.0181    185.0128   4.2471307951e+01   9.6871246230e+00     0.773815    0.4920324 -54.91  0.002511043    2.006    0.501
        79 -10.1295    171.3738    201.2121   4.6491628978e+01   7.4126954037e+00    0.3702697    0.3221552 -77.76  0.001038489    1.719    0.418
        80 -11.3141    178.9108    196.3260   4.3990181003e+01   7.1115838411e+00    0.8255246     0.475667 -23.90  0.002826733    1.995    0.499
        81 -11.4855    172.9698    195.6338   4.5131793946e+01   8.1905159529e+00    0.6922022    0.3946995 -36.87  0.002081676    1.754    0.430
        82  -8.8979    112.7056    198.2620   5.9777450672e+01   1.7526615440e+01    0.4371113    0.2294678  61.78  0.001503308    3.557    0.719
        83  -8.5458    113.0326    194.2784   5.9057588082e+01   1.8353211896e+01    0.2343625    0.1910622 -20.55 0.0003440599    1.398    0.285
        84  -8.9762     51.2620    197.8632   7.5524775568e+01   2.6383018180e+01    0.3055959     0.140774  30.35  0.001340929    2.069    0.517
        85  -8.7517     44.4189    199.0000   7.7386599084e+01   2.6922068053e+01    0.2861878   0.07180576  27.52 0.0009301683    3.898    0.743
        86  -9.4357    126.7160    196.6242   5.6027316651e+01   1.5610899148e+01    0.3115033    0.2330852   0.22   0.00143388    1.581    0.368
        87  -9.2060    124.5228    192.9733   5.5952362943e+01   1.6757961461e+01    0.2736982    0.2024468 -32.13  0.001030643    1.495    0.331
        88  -9.5107     59.0564    200.4257   7.3803432734e+01   2.4814307202e+01    0.3522658    0.1976134  31.44  0.001689506    1.693    0.409
        89  -8.5465    131.4969    194.9577   5.4573202639e+01   1.5175990119e+01     0.204052    0.1444798 -51.31 0.0006418555    1.529    0.346
        90  -8.2343     66.7097    194.9739   7.1186082271e+01   2.5102467126e+01    0.2696237    0.1094988  56.26 0.0009017056    3.451    0.710
        91 -10.8442     93.8404    181.7956   6.2064264925e+01   2.4299209603e+01    0.6061406    0.3511569 -43.07  0.002009095    1.938    0.484
        92 -11.9798     98.0949    189.0100   6.2076670870e+01   2.1933390256e+01    0.6057312    0.4335006  67.41  0.001105131    1.716    0.417
        93  -8.2532    134.7913    192.6100   5.3362365233e+01   1.5123172847e+01    0.2088481    0.1257565  43.03 0.0009406608    1.652    0.395
        94  -9.4923    105.4041    197.4057   6.1489642350e+01   1.8872388019e+01    0.2745742    0.2467561 -17.78 0.0008897268    1.218    0.179
        95  -9.0341    185.5450    189.8762   4.1395832670e+01   7.2255357127e+00    0.2660882    0.1895118  21.77 0.0009108706    1.370    0.270
        96 -10.2990    183.1859    185.6758   4.1082263215e+01   8.3769785681e+00    0.2712069    0.2222823 -41.27  0.001261148    1.299    0.230
        97 -10.2047    104.0428    189.4829   6.0594384260e+01   2.0881681737e+01    0.3199417    0.2575333  30.99  0.001205955    1.179    0.152
        98  -9.4684    203.9584    187.9246   3.7357667683e+01   4.6851163286e+00    0.2783528     0.245092  47.40  0.001701531    1.505    0.336
        99  -8.9258    198.9478    185.4822   3.7859913809e+01   5.8830912087e+00     0.244755    0.1277036  39.46  0.001099141    2.021    0.505
       100  -8.5866    128.6963    188.3800   5.4115491334e+01   1.7056563735e+01     0.223933    0.1709273  64.14  0.001040581    1.677    0.404
       101 -10.1660     11.1833    187.5443   8.4847659345e+01   3.2989851004e+01    0.2609679    0.2529013 -18.44 0.0004297523    1.293    0.227
       102 -12.1927     12.0605    180.6017   8.4127910951e+01   3.4590557873e+01      1.02267    0.8162824 -65.14  0.006312875    1.273    0.214
       103 -11.2686     20.5153    180.4641   8.1901065024e+01   3.3881575276e+01     0.628844    0.3931486 -75.24  0.003378683    1.471    0.320
       104 -11.0172      5.6337    177.0933   8.5546490916e+01   3.5961982571e+01    0.4289117    0.3420286  42.45  0.001463425    1.271    0.213
       105 -11.8500      4.0178    170.9854   8.5547573722e+01   3.7578072350e+01     1.028341    0.5528921 -64.12  0.005340823    1.715    0.417
       106  -8.5163    250.3561    200.2669   3.1532025140e+01  -3.5565980745e+00    0.1610047   0.09211957 -37.60 0.0007514511    1.609    0.378
       107  -8.3494    155.4986    187.4362   4.7505766408e+01   1.2682918252e+01     0.145662    0.1300275   5.43 0.0001290354    1.034    0.033
       108 -10.2697     46.5329    183.0583   7.5167086252e+01   3.0526041871e+01    0.6911032    0.2146858 -61.30  0.002327357    2.897    0.655
       109  -9.0204     47.7030    176.3533   7.4066705910e+01   3.2056544452e+01     0.216799    0.1790593  80.23 0.0005898445    1.175    0.149
       110  -9.2362    250.4861    185.9506   2.8939919165e+01  -1.5033590993e+00    0.1859523      0.09677 -34.71 0.0009936886    1.580    0.367
       111 -10.0713    231.8101    185.4933   3.1879019442e+01   1.0314846287e+00    0.4377882    0.2404888 -13.97  0.002111268    2.236    0.553
       112  -9.8547    226.7917    183.1340   3.2291179118e+01   2.1077588564e+00    0.3391647     0.287086  46.59 0.0009868788    1.625    0.385
       113  -9.6374    108.5284    185.5256   5.8772351451e+01   2.1063702927e+01    0.3854188    0.2816754  82.12  0.001594402    1.898    0.473
       114  -8.8089    111.5085    184.4413   5.7810051588e+01   2.0820936014e+01    0.2683167    0.1991226  23.66 0.0007932979    1.366    0.268
       115 -10.4936    209.7783    184.6147   3.5625077768e+01   4.3632420226e+00     0.248672    0.2030641 -13.23  0.001514709    1.048    0.045
       116  -8.2209    138.5324    189.5163   5.1903371032e+01   1.5145137072e+01    0.1449694    0.1352209  22.46 5.035755e-05    1.049    0.046
       117  -8.5060    139.4942    184.9942   5.0843227226e+01   1.5938712892e+01    0.2134545    0.1178893 -27.08 0.0008103644    2.550    0.608
       118 -11.3734    204.8290    175.4376   3.4767350426e+01   6.7132005159e+00    0.6310966    0.3996879 -34.80  0.003301659    1.436    0.304
       119 -10.8293    179.3294    177.6071   4.0313548569e+01   1.0536324128e+01    0.4240679    0.2419049 -43.31  0.001964446    1.739    0.425
       120 -11.6013    207.8959    168.7625   3.2861667356e+01   7.3903506909e+00    0.6467247    0.4665287 -40.49  0.003590074    1.338    0.252
       121  -9.6527    104.2954    179.5067   5.8869099252e+01   2.3158161666e+01    0.7420946    0.2551713 -46.04  0.002438529    3.215    0.689
       122  -8.8763    100.9480    177.7775   5.9473367014e+01   2.4115807966e+01    0.2970907    0.1657112  24.26  0.001206989    2.007    0.502
       123  -9.0363    219.3207    178.5085   3.2712648244e+01   3.9502764546e+00     0.225875    0.1394168 -42.56 0.0006826402    1.603    0.376
       124  -9.6164    158.1758    177.0712   4.4889262304e+01   1.4324126897e+01    0.3953365    0.3269696 -43.79  0.001462076    1.258    0.205
       125 -10.5719    152.0094    174.5204   4.5822975848e+01   1.5950162213e+01    0.4095366     0.344632   8.51  0.001176093    1.196    0.164
       126 -10.1029    148.5261    174.5059   4.6648772271e+01   1.6577781428e+01    0.3438179    0.2532285 -52.67  0.001323578    1.485    0.327
       127  -9.3753    112.1460    179.4822   5.6778698849e+01   2.1855423699e+01    0.3869221     0.142442  34.10  0.001331237    2.610    0.617
       128  -8.8459    240.6579    177.9174   2.9000606751e+01   9.9664464400e-01    0.1819562    0.1311658 -27.26 0.0006931202    1.132    0.116
       129  -8.9815     89.3150    177.3214   6.2575706628e+01   2.6082832885e+01     0.307711    0.1958102  65.23   0.00125281    2.056    0.514
       130  -9.3531     71.8338    178.0503   6.7540187498e+01   2.8501079053e+01     0.245788    0.2208905  10.15 0.0006199668    1.230    0.187
       131  -8.8008    118.0597    175.9880   5.4591261305e+01   2.1650915101e+01    0.2230491    0.2132523 -13.80 0.0005051358    1.062    0.058
       132 -10.7474     28.8364    169.9020   7.8646340953e+01   3.5723812122e+01    0.5567901    0.3964516 -69.63  0.003051937    1.311    0.237
       133  -9.1901    138.9479    179.9806   5.0036098529e+01   1.7108101889e+01    0.3523301    0.2427296  71.33  0.001471539    2.445    0.591
       134  -8.4097     77.0264    175.5177   6.5710362052e+01   2.8381328936e+01    0.2075458    0.1066345  53.03 0.0005130326    2.251    0.556
       135 -10.1878     24.3116    174.5644   8.0357973099e+01   3.4988552949e+01    0.3030289    0.1815918  73.78  0.001187032    1.719    0.418
       136  -9.8435     19.9581    168.1507   8.0966659887e+01   3.6993855688e+01    0.4655428    0.1850263  76.87  0.001588357    3.751    0.733
       137  -8.4710     87.9860    173.2085   6.2269590678e+01   2.7292408086e+01     0.273842    0.2168666  21.12 0.0007521331    1.335    0.251
       138  -9.4054     92.1655    172.3539   6.0958393624e+01   2.6841305543e+01    0.3887134    0.2121938  41.22  0.001237148    1.762    0.432
       139  -8.6941    193.5121    172.3564   3.6346960594e+01   9.1176233826e+00    0.2248567    0.1530245  12.94 0.0006061188    1.689    0.408
       140  -9.3807    179.5049    169.5497   3.8649456588e+01   1.2051968604e+01    0.1948254    0.1805201   5.34 9.426181e-05    1.068    0.064
       141  -9.2901    176.8148    167.4164   3.8782573417e+01   1.2942444947e+01    0.2725527    0.2044783 -28.63 0.0006957593    1.291    0.225
       142  -8.0164    135.3034    171.6676   4.9331673179e+01   1.9574293495e+01    0.1490869    0.1206951  75.87 0.0002669617    1.657    0.397
       143  -8.8276    121.3135    169.7886   5.2564294374e+01   2.2507686861e+01    0.2836161    0.2285786  86.44 0.0009205187    1.627    0.385
       144  -9.6622    199.7690    167.3884   3.4116628781e+01   8.9733145194e+00    0.3758509    0.2390659  -3.26 0.0009850726    2.151    0.535
       145  -8.3379     55.3393    169.6777   7.1044053153e+01   3.2808906528e+01    0.1552809    0.1001607  62.71 0.0007050658    1.719    0.418
       146  -9.4306    160.3733    166.6675   4.2275116962e+01   1.6068831802e+01    0.4015202    0.2573447 -66.35  0.001640539    2.483    0.597
       147 -11.1301    217.8809    165.5474   3.0416896402e+01   6.3497058030e+00    0.5177418    0.3569909  31.30  0.002428234    1.562    0.360
       148 -10.7926    149.9147    163.9115   4.4158404405e+01   1.8583056347e+01    0.4458058    0.3782919  -1.13  0.001564412    1.233    0.189
       149  -8.8733     97.5359    164.8820   5.8125682921e+01   2.7789702693e+01    0.3665009      0.23991  74.70  0.001468692    2.331    0.571
       150  -8.1758     80.8149    165.1754   6.2965337079e+01   3.0391936488e+01    0.2660258    0.1477246  66.62 0.0009431907    2.895    0.655
       151  -8.6666     37.8297    165.0164   7.5529406387e+01   3.6043445935e+01    0.2409865    0.1391816  71.31 0.0004075206    2.027    0.507
       152 -11.0914    247.5303    162.1580   2.4942435188e+01   2.4866342947e+00    0.8872121    0.3281136 -29.95  0.003664458    2.804    0.643
       153  -9.0266      1.3950    162.7297   8.5669658760e+01   3.9805289686e+01    0.2314714    0.1089879 -84.35 0.0004275802    1.906    0.475
       154 -10.1361     99.8443    158.7884   5.6318940665e+01   2.8891508211e+01    0.6987106    0.3165545 -59.61  0.002533407    2.434    0.589
       155  -9.0750     99.9676    154.0236   5.5345018731e+01   3.0040225450e+01    0.2111288    0.2085933  43.93 0.0003697729    1.013    0.013
       156 -10.1512     23.0611    159.9939   7.9279898058e+01   3.8786388968e+01    0.4688715    0.2634424   5.95  0.001782367    2.434    0.589
       157  -8.7258     27.9943    158.0000   7.7610313604e+01   3.8840619237e+01    0.2323713     0.170264  25.58 0.0008731475    1.479    0.324
       158  -7.9183    177.3054    160.6617   3.7263639822e+01   1.4178471110e+01    0.1396331    0.1180862 -82.22 0.0007040665    1.675    0.403
       159  -8.5229     92.7612    160.1975   5.8620872080e+01   2.9735780931e+01    0.2584772    0.1549902  68.77 0.0009411919    2.702    0.630
       160  -9.3745    219.9374    159.3181   2.8806289775e+01   7.0833183791e+00    0.1871525     0.170797  65.82 0.0009568693    1.502    0.334
       161  -8.8011    138.8151    164.7754   4.7061019714e+01   2.0458705221e+01    0.2709449      0.20172 -81.71 0.0008423576    2.024    0.506
       162 -10.2425    143.0049    158.5334   4.4708746189e+01   2.1050833603e+01    0.6249862    0.2505982  46.48  0.002130757    2.757    0.637
       163  -9.9647    224.7043    157.1617   2.7564581031e+01   6.6898378785e+00    0.2019007    0.1890063  51.32  0.001183645    1.380    0.275
       164 -10.4402    208.7578    156.7145   3.0243301244e+01   9.3727511609e+00    0.6966152    0.3074443  32.47  0.002809415    2.844    0.648
       165 -11.2938    205.9123    150.1484   2.9383957114e+01   1.1032430613e+01    0.6068963    0.4744962 -47.74  0.003388895    1.330    0.248
       166  -9.9989    206.7544    142.2799   2.7553567237e+01   1.2295887722e+01    0.3386432    0.2950585  -3.44  0.001630532    1.170    0.145
       167  -9.6033    165.5847    156.5686   3.8949802502e+01   1.7178925681e+01    0.3596246    0.2582206  54.12  0.001331843    1.664    0.399
       168  -8.6956    127.6136    156.8188   4.8279100905e+01   2.4347198064e+01    0.2370542    0.1850784 -32.12   0.00050275    1.353    0.261
       169  -9.7190    135.5901    154.3366   4.5675517301e+01   2.3399469790e+01    0.3654351    0.2689145  21.50 0.0009619064    1.491    0.329
       170  -8.5941    131.9714    151.4933   4.5992102384e+01   2.4738566713e+01    0.2874138    0.2222256 -71.80  0.001073013    1.635    0.388
       171  -8.3780    119.4621    154.9517   5.0066829167e+01   2.6304286964e+01    0.2139112    0.1408963 -80.11 0.0008087705    2.495    0.599
       172  -9.4478     82.0644    154.5725   6.0724560677e+01   3.2871867517e+01    0.3136369     0.228242  78.77   0.00104765    1.745    0.427
       173  -9.6720     68.4846    153.9406   6.4724936092e+01   3.5073137167e+01       0.4261    0.2627452  68.56  0.001343038    2.208    0.547
       174  -8.6085     49.7736    155.1615   7.0654855510e+01   3.7225351970e+01    0.2595333    0.1304305  63.19 0.0009472977    2.834    0.647
       175  -9.2667    233.8440    153.7150   2.5392590666e+01   5.8359733930e+00    0.2441817    0.1523289 -28.62  0.001331197    1.420    0.296
       176  -9.2603    105.1576    157.5908   5.4574920020e+01   2.8261291206e+01    0.3067257    0.2344262  83.71 0.0008813059    1.729    0.422
       177  -9.6980      5.1182    151.9832   8.3773168660e+01   4.2248697746e+01     0.372839    0.2020431  62.21  0.001208948    1.925    0.480
       178 -10.9062    223.0698    148.5025   2.6071428283e+01   8.4144526707e+00    0.4491886    0.3996362  -5.13  0.001841532    1.123    0.110
       179  -8.7382    189.9314    150.6860   3.2529548305e+01   1.3794111537e+01    0.1993103    0.1789573  33.97  0.001134523    1.192    0.161
       180  -9.7961    117.5842    144.1390   4.8240658539e+01   2.9211497100e+01     1.376809    0.7722931  63.98    0.0045037    3.327    0.699
       181  -9.1682    108.8813    139.1167   4.9582190347e+01   3.2063271868e+01    0.5894089     0.328198  67.44  0.001738382    4.128    0.758
       182  -8.9401     27.8185    148.5916   7.6558553012e+01   4.1290260580e+01    0.4137467    0.1913546  77.68  0.001478626    3.247    0.692
       183  -8.5190     82.7982    149.2307   5.9496382968e+01   3.4109718177e+01    0.2091403     0.176927 -15.57 0.0004209391    1.355    0.262
       184  -8.8327     77.1378    147.3450   6.0872913188e+01   3.5479943427e+01    0.2714156    0.1998864 -47.51  0.001291065    1.366    0.268
       185  -9.4971     39.2243    146.9069   7.2754083694e+01   4.0581755217e+01    0.5266516    0.2442677  66.95  0.001763638    3.626    0.724
       186 -10.7580    244.3297    142.5369   2.1588377794e+01   6.0324594726e+00    0.3093859    0.2299282 -37.33  0.001930726    1.133    0.117
       187  -9.8594     55.9141    145.0845   6.7153783028e+01   3.9080956736e+01    0.5499727    0.2725096  52.88  0.001661202    2.483    0.597
       188  -9.2458     61.0042    145.0000   6.5515289870e+01   3.8428697375e+01    0.4330718    0.1177836  30.37  0.001322562    3.578    0.721
       189  -8.7872    195.3506    145.9083   3.0439558135e+01   1.3698093014e+01    0.2748255    0.1195699 -47.25 0.0007770615    2.372    0.578
       190  -9.4481    148.8652    145.0300   4.0291064758e+01   2.2863897187e+01    0.4656965    0.3265422  88.24  0.001762104    2.625    0.619
       191  -8.6457    134.4785    146.5094   4.4235032820e+01   2.5383375748e+01    0.1545307    0.1497212  -1.12 0.0008102279    1.001    0.001
       192  -9.2469    107.0222    144.9108   5.1404458483e+01   3.1007346323e+01    0.5124635    0.3124862  75.49  0.001673124    3.484    0.713
       193  -7.9811     13.6221    146.2937   8.0689799605e+01   4.3088533003e+01    0.1442423   0.08735175  58.90 0.0007022009    1.745    0.427
       194  -8.2243    142.7011    145.7112   4.1963234522e+01   2.3939246047e+01    0.1541793    0.1200991  -4.48 0.0002961541    1.558    0.358
       195 -10.3978     70.3575    142.7747   6.2133019632e+01   3.7679010088e+01    0.5544341    0.4199584 -61.68  0.002219958    1.298    0.230
       196  -9.1411    125.1372    142.9002   4.5890191942e+01   2.8041624618e+01    0.4032576       0.2531 -75.11  0.001456112    2.764    0.638
       197  -8.7017     87.8763    143.7590   5.6857624167e+01   3.4662485554e+01    0.2877328    0.2019793  83.51 0.0007971087    2.018    0.504
       198  -9.1577      3.3197    143.1553   8.3540641578e+01   4.4610326725e+01    0.3182307    0.1279916  80.52  0.001194284    3.100    0.677
       199 -10.5208    246.0371    135.1331   1.9875804909e+01   6.9423387731e+00    0.3450392    0.2451406  30.16  0.001686516    1.734    0.423
       200  -9.8983    192.7228    133.7886   2.8254505845e+01   1.6455487132e+01    0.3182532    0.2261877  65.00   0.00153948    1.893    0.472
       201 -10.7956    197.8431    136.2428   2.7847704744e+01   1.5026460961e+01    0.5523733    0.3915368   4.07  0.002653884    1.922    0.480
       202  -9.4940    202.9513    136.2445   2.6920054446e+01   1.4074574781e+01     0.261068    0.2199258  38.50 0.0008556723    1.299    0.230
       203  -9.8016     24.9587    127.2463   7.4648823526e+01   4.7112916371e+01    0.5187055    0.2622088 -51.07  0.002333238    1.821    0.451
       204  -9.8997     28.6459    122.8030   7.2683267426e+01   4.7940191859e+01    0.5191699    0.3147545  62.43  0.002365311    2.056    0.514
       205  -9.7267     28.6015    117.1882   7.1781464381e+01   4.9401312453e+01    0.6452376    0.1782943 -43.62   0.00191713    4.256    0.765
       206  -9.2627     23.6730    138.3529   7.6595049220e+01   4.4329123297e+01    0.4302208    0.1988087  57.58   0.00168847    2.770    0.639
       207  -9.9568     19.2545    133.9516   7.7485761519e+01   4.5843623650e+01    0.3425704    0.2420469  -1.10 0.0004599649    1.733    0.423
       208  -9.8004    234.3101    136.9774   2.1938594059e+01   8.5020136153e+00    0.3335719    0.2371294 -19.19  0.001085815    1.448    0.309
       209 -10.1417     41.6601    134.9597   7.0148903001e+01   4.3442744481e+01    0.5267849    0.3749408 -52.36  0.001520519    1.333    0.250
       210 -10.8918     44.9453    130.9364   6.8362274142e+01   4.4123437330e+01    0.8698603    0.5276629  87.20  0.003369816    2.186    0.543
       211  -8.5669    161.8781    137.1723   3.5424998400e+01   2.1912985411e+01    0.2119856    0.1788844  -1.95  0.000664571    1.310    0.237
       212  -8.1119     91.5127    135.5750   5.3994628426e+01   3.6092351865e+01    0.1532813     0.150551  57.23 9.614602e-05    1.039    0.037
       213  -9.6257    110.3553    131.4063   4.7364608360e+01   3.3630312589e+01      0.50444    0.4142237  33.69  0.001935921    1.221    0.181
       214 -10.1520    117.3149    125.1935   4.3849308535e+01   3.3712685717e+01    0.6357954     0.434393  30.52  0.002451712    1.564    0.361
       215  -9.9670    118.7695    118.8716   4.1837231084e+01   3.4867039050e+01    0.6627928    0.2536951 -44.86  0.002192265    2.618    0.618
       216 -10.8721    107.3289    122.8367   4.6169300152e+01   3.6255142006e+01     1.075704    0.5204138  34.04  0.003196766    2.215    0.548
       217 -11.0842    107.4768    113.5302   4.3737681288e+01   3.8399547316e+01    0.9980757    0.7263365 -27.45  0.004458923    1.578    0.366
       218  -9.6197     83.6886    132.0386   5.5676308460e+01   3.8318053144e+01    0.4189844    0.2784977  68.94  0.001695176    2.174    0.540
       219  -9.5763    209.5427    131.7905   2.4793661853e+01   1.3660158426e+01     0.249138    0.2432526  71.94 0.0009588891    1.196    0.164
       220  -9.2597    131.9531    131.1557   4.1307445248e+01   2.9361742315e+01    0.3797995    0.2492857 -64.88  0.001437201    1.999    0.500
       221  -9.3510     13.5105    130.2130   7.8935107638e+01   4.7250337797e+01    0.3810084    0.1842032  58.68  0.001598243    2.567    0.610
       222 -10.8259    246.7926    129.1136   1.8571359470e+01   7.7727349330e+00    0.3658437    0.2122162 -55.46  0.001800188    2.092    0.522
       223  -8.6186    160.9970    129.9982   3.3926896414e+01   2.3576486628e+01     0.194828     0.168358 -38.63 0.0006867882    1.121    0.108
       224  -9.6729     99.5311    128.3036   4.9857985927e+01   3.6436062301e+01    0.5167946    0.3493843  85.70  0.001964551    2.533    0.605
       225  -8.5862    153.2051    129.2314   3.5536724041e+01   2.5360886215e+01    0.2112843    0.1810944 -74.61  0.000544427    1.390    0.281
       226  -8.6616     73.2845    129.1721   5.8439505344e+01   4.0727625689e+01    0.3076402    0.1866326  57.49  0.001232472    2.140    0.533
       227 -10.2334    233.0300    127.2839   2.0130114791e+01   1.0301099200e+01    0.2971046    0.2059398  50.08  0.001055917    1.727    0.421
       228 -10.7299    227.7301    125.0899   2.0452201414e+01   1.1567364066e+01    0.4209119    0.3195188 -82.78  0.001785938    1.945    0.486
       229 -10.0412    223.0103    122.4951   2.0611306074e+01   1.2830071059e+01    0.2735606    0.2304469  27.01  0.000584016    1.385    0.278
       230  -9.8340     60.0809    124.5168   6.1928199950e+01   4.3867079043e+01    0.6065981    0.3404068  71.41  0.002053262    3.439    0.709
       231  -8.0441    168.2883    125.3212   3.1199032536e+01   2.3007407280e+01    0.1506696    0.1172512  -3.90 0.0002615903    1.601    0.375
       232  -9.1952    134.6069    124.3213   3.8927299123e+01   3.0333569430e+01    0.3474667    0.2292466   9.16  0.000999239    2.481    0.597
       233  -9.9190     44.4106    123.1614   6.7151861074e+01   4.6211875444e+01    0.6073555    0.3286133  67.57  0.002218042    3.076    0.675
       234  -9.2535    149.5520    123.4332   3.4979114822e+01   2.7355027609e+01     0.265582     0.252649  27.77 0.0005944277    1.063    0.059
       235  -8.6535    179.9716    122.7248   2.8165305588e+01   2.1093240103e+01    0.2032617    0.1982437  39.89  0.001160125    1.090    0.082
       236  -8.4888     84.0307    121.9869   5.3266686731e+01   4.0772879967e+01    0.2483892    0.1860801 -17.71 0.0007494607    1.642    0.391
       237  -8.0107    158.5121    121.4961   3.2416497953e+01   2.5845611400e+01    0.1519107    0.1461809 -62.74 0.0008091824    1.084    0.077
       238  -9.1336    142.2055    119.3347   3.5736153240e+01   2.9798207283e+01     0.394188    0.2578208 -71.13  0.001519557    2.407    0.585
       239  -8.6813     71.4814    119.9906   5.7010461660e+01   4.3337670891e+01     0.212659    0.1365469 -87.34 0.0008094385    2.472    0.595
       240 -10.7788     30.9961    100.7897   6.7816410784e+01   5.3366833446e+01    0.9673308    0.2791379  40.78  0.003071616    4.205    0.762
       241 -10.8792     23.3634     92.6385   6.9247231850e+01   5.6088169527e+01    0.5137862    0.3841168 -66.59  0.001525417    1.280    0.219
       242 -10.9434     15.4734    112.7644   7.5905667520e+01   5.1612446748e+01     0.836074    0.4163666 -71.52  0.003465328    1.815    0.449
       243 -10.1759     22.4409    110.1773   7.2890008403e+01   5.1742001109e+01    0.4502673    0.2874255 -78.50  0.001723939    1.593    0.372
       244 -10.9739     24.4077    102.9607   7.0852172599e+01   5.3416586341e+01     1.158623    0.5538398  66.13  0.003798767    4.412    0.773
       245 -11.1240     17.1874    104.1592   7.3893446865e+01   5.3684513132e+01    0.5846347    0.3110178 -47.70  0.001588831    1.680    0.405
       246 -10.7975    248.6083    116.8560   1.5877651786e+01   9.3972365775e+00    0.3469348    0.2821763 -64.16   0.00187378    1.397    0.284
       247  -8.4397    130.9979    118.4934   3.8393237782e+01   3.2381858385e+01    0.2160632    0.1380385  67.60 0.0005558999    2.371    0.578
       248  -9.3505      2.5963    116.5237   8.1059986100e+01   5.1456753205e+01    0.4769821    0.2106394  74.17  0.001831172    3.212    0.689
       249  -9.8639    185.3300    114.0010   2.5050241545e+01   2.1630777389e+01    0.3876204    0.3188991  79.51  0.001672062    1.476    0.323
       250  -8.8524    183.6204    109.9456   2.4393970001e+01   2.2739045340e+01     0.288513     0.186327  47.86   0.00112288    1.645    0.392
       251  -9.5417     92.9626    112.6864   4.8040761899e+01   4.1426357747e+01    0.4719886    0.3303231  81.85  0.001379561    2.338    0.572
       252  -9.4977     79.2550    112.4185   5.2527692546e+01   4.3947814518e+01    0.4678156    0.3153964  87.56  0.001824919    2.510    0.602
       253  -8.8328    121.9154    112.5756   3.9307060934e+01   3.5621153080e+01    0.2912357    0.2085137 -88.41  0.001085012    2.241    0.554
       254  -9.6889     66.6890    110.4342   5.6436333737e+01   4.6471466561e+01     0.384023    0.2424855  81.21  0.001402191    2.982    0.665
       255  -9.5322     61.7610    105.9410   5.7130127801e+01   4.8323816569e+01    0.3034476    0.2386718  50.70  0.001021657    1.430    0.301
       256  -9.4602    133.7304    108.5760   3.5068999732e+01   3.3931035961e+01    0.5535468    0.1968492 -47.33  0.001754432    2.929    0.659
       257 -10.8300    132.7274    101.6918   3.3452538194e+01   3.5592486814e+01    0.8410574    0.4478467  29.09  0.002659409    2.792    0.642
       258 -11.1689    249.7057    102.9632   1.2951828248e+01   1.1346170102e+01    0.7793818    0.2336605 -32.96   0.00282732    3.587    0.721
       259  -9.6905      8.1007    108.3205   7.8008403508e+01   5.3231880766e+01    0.2127329    0.1520474 -32.68 0.0008350285    1.446    0.309
       260  -8.4817     59.4660    109.5216   5.8836494635e+01   4.7765304206e+01    0.1472704    0.1424525 -50.70 9.487408e-05    1.044    0.042
       261  -8.3021     77.3520    106.2768   5.1609887411e+01   4.5762122898e+01    0.1574379    0.1180655 -10.55 0.0002172921    1.644    0.392
       262 -10.1117     46.0919    102.4104   6.2225182380e+01   5.1311573235e+01    0.7528995    0.3874542  63.00  0.002394977    4.288    0.767
       263  -8.4975    150.3579    103.5608   2.9670956944e+01   3.1254729446e+01    0.3045569    0.1239873 -52.63 0.0009486174    3.226    0.690
       264  -8.3209    139.7660    104.5766   3.2466556454e+01   3.3425737435e+01    0.2177178    0.1478589  60.54 0.0006278062    1.685    0.406
       265  -8.6902     93.5733    103.6356   4.5415635824e+01   4.3429253158e+01    0.3931207    0.1982501  23.89  0.001302456    2.974    0.664
       266  -9.2709      6.9800    102.9968   7.7673430089e+01   5.4645541897e+01    0.2099086     0.145211  62.50 0.0006535569    1.709    0.415
       267  -9.8796    108.9267     98.4807   3.9158946168e+01   4.1470576074e+01    0.5460914    0.3832304  81.62  0.001781876    2.361    0.576
       268  -8.3904     82.7526    100.1744   4.8085326981e+01   4.6256767628e+01    0.2585427    0.1720956  77.22 0.0009557409    2.806    0.644
       269  -9.7727     64.1930     96.2070   5.3705555603e+01   5.0317757728e+01    0.5184615    0.3231799  74.55  0.001738353    3.449    0.710
       270  -8.3414     95.3653     97.1203   4.2992417601e+01   4.4554145461e+01    0.2206228    0.1456053 -57.98 0.0007405032    1.737    0.424
       271  -8.1161    139.3038     92.6124   2.9274884279e+01   3.5921561207e+01    0.1617488    0.1201064 -75.87 0.0007016173    1.799    0.444
       272  -8.5725    107.8562     91.7180   3.7504595107e+01   4.3141258514e+01    0.2529797    0.1882133  24.95 0.0007673171    1.509    0.337
       273  -9.3905     44.4708     91.7598   6.0294261131e+01   5.4125667563e+01    0.4367234    0.2082909  14.50   0.00166061    2.756    0.637
       274  -9.5441      5.4143     92.1104   7.6622397528e+01   5.7452099590e+01    0.2446635    0.1419387  56.64  0.001010975    2.262    0.558
       275  -8.6398    124.6499     91.0276   3.2541670344e+01   3.9578507167e+01    0.2470262    0.1909276 -63.75  0.001037151    1.524    0.344
       276  -9.6510     34.9050     89.4532   6.3688889077e+01   5.5774913448e+01    0.4445065    0.2770768  85.94  0.001853696    2.694    0.629
       277  -8.4564     96.3702     90.3029   4.0657687606e+01   4.5843386618e+01    0.1619444    0.1205781   2.68 0.0007032713    1.749    0.428
       278  -9.2871     86.6071     86.6443   4.2797421026e+01   4.8570737573e+01    0.3474835    0.2552497  78.33  0.001036137    2.152    0.535
       279  -9.2266     48.3126     84.0953   5.6661283384e+01   5.5453528861e+01    0.3277315    0.2173472  68.80  0.001378787    2.611    0.617
       280  -8.9527    104.7505     82.9844   3.5784542122e+01   4.5604846963e+01    0.3300501     0.239734 -73.15  0.001142674    1.999    0.500
       281  -9.0347      7.5991     84.2006   7.4321553426e+01   5.9269653138e+01    0.3038705    0.1477165 -65.98 0.0009240696    1.780    0.438
       282  -9.3137      8.3440     80.6972   7.3323983432e+01   6.0072865209e+01    0.2209953    0.1504725  30.05 0.0009666396    1.679    0.405
       283  -8.7565    116.8402     83.1241   3.2309814988e+01   4.2904249058e+01    0.2142472    0.2054601 -86.74 0.0002577228    1.117    0.105
       284  -9.4881     36.3093     81.4426   6.1056195866e+01   5.7534523727e+01    0.4817853    0.2581246 -16.82  0.001919998    2.686    0.628
       285  -8.9678    185.4918     82.5135   1.7286942679e+01   2.7151848615e+01    0.3765154    0.2062478  41.00  0.001607157    2.310    0.567
       286  -9.4900     24.7907     80.7893   6.5978730421e+01   5.8839817381e+01    0.3673407    0.2409775  72.98  0.001435388    2.416    0.586
       287  -8.8519     86.8047     80.3581   4.0760640391e+01   4.9861591793e+01    0.3951908    0.1330245  33.35  0.001097717    4.148    0.759
       288  -8.1166     74.9926     80.5237   4.5030876524e+01   5.2060669843e+01    0.2010569    0.1271248  59.94 0.0006066039    2.347    0.574
       289  -9.3831    175.5673     77.3793   1.7645115510e+01   3.0242522286e+01    0.3656598    0.2506031 -79.30  0.001086118    1.876    0.467
       290  -8.9068     49.5242     76.7991   5.4019910998e+01   5.6953210479e+01    0.2826317     0.182484   5.63 0.0008324055    1.875    0.467
       291  -8.0338    216.5006     76.4746   1.1370843157e+01   2.1507608861e+01    0.1307843    0.1147517 -54.09 0.0001151201    1.025    0.024
       292  -8.2757    128.3142     75.6197   2.6985278899e+01   4.1666553625e+01    0.1591883    0.1179716 -75.88 0.0002106223    1.808    0.447
       293  -9.5750     10.0026     74.1567   7.1209197901e+01   6.1528374823e+01    0.2060387    0.1830843 -52.45 0.0003534347    1.093    0.085
       294  -9.1585     82.4745     72.3559   3.9647791995e+01   5.2337590291e+01    0.2986809        0.234 -84.32 0.0009442603    1.942    0.485
       295  -9.4585     26.5327     71.9017   6.2896609903e+01   6.0751981864e+01    0.5149592    0.2175607 -13.44  0.001433013    5.985    0.833
       296  -9.0998     51.3706     69.1149   5.0795820498e+01   5.8365794953e+01    0.3696987    0.2217935 -72.71  0.001405446    3.274    0.695
       297  -8.3885     16.6491     70.3227   6.7162215566e+01   6.1961439001e+01    0.1946294    0.1522194  64.25  0.001092315    1.734    0.423
       298  -8.1714    129.3397     69.3025   2.4789502702e+01   4.2534610670e+01    0.1536992    0.1151569  22.06 0.0007038353    1.672    0.402
       299  -9.3948      1.6319     68.8618   7.4053702099e+01   6.3226489327e+01    0.2185708      0.12196 -48.29  0.001164148    1.442    0.307
       300  -8.6072     95.4746     71.4815   3.4970086852e+01   4.9845401794e+01     0.256863    0.1403365 -51.97  0.001018788    2.213    0.548
       301  -8.8531     84.0482     63.9702   3.6203701728e+01   5.3630030026e+01    0.3896809    0.2199434  16.18  0.001354129    3.259    0.693
       302  -8.5125     37.6538     64.3060   5.5399815327e+01   6.1229225123e+01    0.1949443     0.164026  73.35  0.001073381    1.719    0.418
       303  -9.4174     18.1603     61.5678   6.4069857904e+01   6.3816661819e+01    0.2599623    0.1707074 -39.80 0.0006377877    1.309    0.236
       304  -8.3546     51.3372     61.3307   4.8150080807e+01   5.9979951057e+01    0.1499873    0.1013121 -11.43 0.0007052042    1.735    0.424
       305  -8.7428    100.5038     60.0231   2.9493131670e+01   5.0808171982e+01    0.2057292    0.1245057 -60.24 0.0006723515    2.532    0.605
       306  -9.3005     73.4604     59.5156   3.8431432371e+01   5.6535546244e+01    0.3123319    0.2291643 -63.25  0.000957492    1.933    0.483
       307  -7.9794    164.6830     59.6691   1.4759262214e+01   3.5583996920e+01     0.141087    0.1098411  25.77  0.000503302    1.685    0.407
       308  -8.9427    249.2772     58.7475   4.1327932652e+00   1.7761445055e+01    0.1631793   0.08650777  53.70  0.000891198    2.387    0.581
       309  -8.2539    111.3121     58.3062   2.5826668399e+01   4.8622754380e+01    0.1500055    0.1114309  20.92 0.0002771304    1.619    0.382
       310  -9.5045     39.0845     57.6900   5.2487519188e+01   6.2431677407e+01     0.259873    0.1572275 -33.60   0.00128254    1.597    0.374
       311  -9.9757      7.2383     57.1297   6.8467856644e+01   6.5581174069e+01    0.2677198     0.183143  70.46  0.001286828    2.340    0.573
       312 -10.1112      2.3118     56.3351   7.0859782973e+01   6.6034901155e+01    0.2854487    0.2128348 -60.99  0.001091414    1.274    0.215
       313  -8.5515     25.7492     55.2222   5.8241839745e+01   6.4481290078e+01    0.2007757    0.1010405   7.98 0.0006326905    2.408    0.585
       314  -8.0121    100.5169     54.4832   2.7539108214e+01   5.1720552649e+01     0.147012    0.1342665  30.93 -3.36066e-05    1.041    0.039
       315  -8.6092     62.7877     54.5847   4.0781982961e+01   5.9397397808e+01    0.1884611    0.1290064  46.06 0.0003303861    1.580    0.367
       316  -8.5134     54.3672     54.1495   4.4181346631e+01   6.0901744182e+01    0.1955723    0.1288608 -53.61 0.0009459288    1.851    0.460
       317  -8.0776     20.3458     52.6883   6.0212931217e+01   6.5533910782e+01    0.1216051    0.1009882  57.29 0.0007046064    1.709    0.415
       318  -8.6294     92.5414     50.5372   2.8521461730e+01   5.4129759992e+01     0.243339    0.1305367 -46.50 0.0007885292    2.199    0.545
       319 -11.1826     45.5807     48.9269   4.6142473822e+01   6.3236633839e+01    0.2662496    0.2231756 -11.88 0.0004204469    1.075    0.070
       320  -8.4149     81.8403     46.8332   3.0610504956e+01   5.7014900354e+01    0.1797651    0.1690205  82.50 0.0004443619    1.300    0.231
       321  -8.4602     65.0233     46.3091   3.6629840291e+01   6.0434828294e+01    0.2329493   0.09813893  26.36 0.0007041869    4.216    0.763
       322  -9.2545     22.5853     46.4877   5.6869305314e+01   6.6581688664e+01    0.2547797    0.1208319  21.30  0.001200577    2.136    0.532
       323  -8.7784      1.6007     45.9567   6.8454278381e+01   6.8314453854e+01    0.1727762    0.1296032 -45.56 0.0005147908    1.124    0.111
       324  -8.4623    150.0089     43.9811   1.2792796249e+01   4.1359746979e+01    0.1684176    0.1565691 -55.95 0.0007100893    1.115    0.103
       325  -9.9005      5.1921     41.3825   6.4954819887e+01   6.9049288791e+01     0.399716     0.221848 -81.08  0.001730193    3.539    0.717
       326  -8.2811     58.3233     42.6426   3.7884852962e+01   6.2256795220e+01    0.1288276      0.11236  88.78 0.0002160725    1.770    0.435
       327  -8.7538    114.0066     41.1660   1.9224555185e+01   5.0530097030e+01    0.2155215    0.1714902  35.78 0.0004067806    1.278    0.218
       328  -8.0410     69.4484     41.4516   3.2921117021e+01   6.0368160274e+01    0.1362705    0.1252551  23.70 0.0001639073    1.085    0.078
       329  -8.9754    123.4304     40.0891   1.6706216337e+01   4.8392022409e+01    0.2367564    0.1714156  51.55 0.0004155063    1.272    0.214
       330  -8.4095     36.8153     40.6155   4.7057405977e+01   6.5995497894e+01    0.1770943    0.1148309  37.41 0.0005580477    1.654    0.395
       331  -9.1000    216.0791     38.7887   2.9852718755e+00   2.6823205610e+01    0.2022475    0.1563347  56.87 0.0005946193    1.526    0.345
       332  -8.4302     84.1925     39.5984   2.6982404748e+01   5.7596047941e+01    0.2098125    0.1146484  39.88 0.0009418898    1.731    0.422
       333  -8.3734    106.4982     36.5610   1.9426317126e+01   5.2927722541e+01    0.1420021    0.1251042  45.06  4.40818e-05    1.042    0.040
       334  -8.7436     26.1117     36.3138   5.0939560836e+01   6.8125391880e+01    0.1778342     0.152155  -2.69  0.001144179    1.086    0.079
       335  -8.6955    119.4946     33.4855   1.5313308496e+01   5.0185305355e+01    0.2347381    0.1184739 -42.51 0.0009619994    2.190    0.543
       336  -8.3418     20.6372     34.6664   5.3350503912e+01   6.9033974733e+01    0.1398183   0.08143341 -16.77 7.528033e-05    1.815    0.449
       337  -8.1651     49.6896     33.2874   3.7625057224e+01   6.5236273716e+01     0.116943    0.1072751  68.72 0.0002226778    1.577    0.366
       338  -9.8128      6.2175     33.3225   6.1499445589e+01   7.0573977844e+01    0.2991753    0.1586169   6.49  0.001487545    1.912    0.477
       339  -8.6077    222.3339     32.3174   1.0229538361e+00   2.6323157269e+01    0.1091804   0.09271621  36.84 0.0007048059    1.694    0.410
       340  -8.7499     12.7146     31.1281   5.6602646719e+01   7.0457449370e+01    0.1765237     0.151988 -53.64 0.0006675438    1.466    0.318
       341  -7.8336     71.0539     31.0000   2.7906257724e+01   6.1551061440e+01    0.2299031   0.07042856  49.62 0.0008079822    2.981    0.665
       342  -9.5972    148.1061     28.3332   8.4575273137e+00   4.3755407153e+01    0.2183436    0.1967647  -1.88  0.001325292    1.357    0.263
       343  -8.4264    101.4693     28.9747   1.7874055851e+01   5.5051267477e+01    0.1882767    0.1063393 -53.57 0.0008090204    2.474    0.596
       344  -8.7313      1.4431     27.9875   6.2516009149e+01   7.1917741455e+01    0.1697921    0.1011612 -49.30            0    1.499    0.333
       345  -9.7724     44.3616     25.1626   3.6315534157e+01   6.7327670216e+01    0.2153938    0.1711518  25.65 0.0003513242    1.128    0.114
       346  -8.6720    110.4706     24.1275   1.3963091597e+01   5.3448788716e+01    0.1781504    0.1372291 -21.37 0.0003771945    1.482    0.325
       347  -8.2753    137.5458     22.5137   8.3366881048e+00   4.6989561846e+01    0.1346032    0.1187145  77.16 9.192521e-05    1.013    0.013
       348  -8.3478     58.6402     22.1756   2.8621925510e+01   6.5155980209e+01    0.1689914    0.1153547 -10.28            0    1.590    0.371
       349  -9.9846     13.0538     20.9975   5.1851655797e+01   7.2196420949e+01    0.2653687    0.1892452   2.17 0.0006807283    1.219    0.180
       350  -9.8209    188.8936     20.3755   1.3241596869e+00   3.4932336435e+01    0.2120788    0.1872424 -32.49 0.0008889041    1.337    0.252
       351  -8.6211     84.8554     21.1379   1.9223687632e+01   5.9766800885e+01    0.1870297    0.1744188  85.11 0.0005023663    1.264    0.209
       352  -8.1700     63.4969     20.9859   2.6182549476e+01   6.4345047835e+01    0.1686468    0.1083082 -52.89 0.0008095191    2.460    0.593
       353  -7.7878     48.3367     21.7016   3.2777863068e+01   6.7119693282e+01    0.1148137    0.1045408  75.00  0.000422039    1.656    0.396
       354  -8.8074     40.9243     20.9347   3.5894384193e+01   6.8481931465e+01    0.1931932    0.1418951  10.31  0.001152203    1.244    0.196
       355  -7.9833     73.6655     19.3582   2.1881926744e+01   6.2419505465e+01    0.1277117    0.1035293 -74.96 0.0007041131    1.804    0.446
       356  -8.3226      1.5146     19.5290   5.8940907303e+01   7.3454213200e+01    0.1200834    0.0924281 -19.17 0.0006078212    1.008    0.008
       357  -8.6550     50.6186     15.2426   2.8541769587e+01   6.7505564652e+01    0.2240809    0.1248134  29.63 0.0006512056    1.717    0.418
       358 -10.3553    196.0662    248.6152   4.9264163396e+01  -3.7615087455e+00    0.2985522    0.1897757  26.28  0.001826712    1.360    0.265
       359  -8.3592     27.3619     13.2918   3.9065201475e+01   7.1599835537e+01    0.1302894   0.08009941   6.73 0.0007028261    1.700    0.412
       360  -8.2409     80.4750     12.4555   1.6762105912e+01   6.1629552822e+01    0.1295385    0.1136881  50.24 1.436478e-05    1.084    0.077
       361  -9.1101    148.4892    249.0340   5.8960044356e+01   2.4655749695e+00    0.2466596    0.1512266  40.70  0.001369715    1.576    0.365
       362  -8.3942     31.8430     11.3975   3.5529831395e+01   7.1176332937e+01    0.1728461   0.09690843  27.92 0.0006966947    1.602    0.376
       363 -10.9680     78.1403    210.6264   7.0172171719e+01   1.9946695821e+01     1.135644    0.4345896  44.56  0.003678753    2.418    0.586
       364 -11.8462     89.8536    230.6751   6.9701543284e+01   1.4068778197e+01     1.487952     0.612408 -69.85  0.005933343    3.440    0.709
       365 -10.1623    107.3079    246.3374   6.7541799351e+01   8.6477558729e+00    0.4644265     0.284746 -71.35    0.0024645    2.267    0.559
