#   1 NUMBER                 Running object number                                     
#   2 MAG_AUTO               Kron-like elliptical aperture magnitude                    [mag]
#   3 X_IMAGE                Object position along x                                    [pixel]
#   4 Y_IMAGE                Object position along y                                    [pixel]
#   5 X_WORLD                Barycenter position along world x axis                     [deg]
#   6 Y_WORLD                Barycenter position along world y axis                     [deg]
#   7 A_WORLD                Profile RMS along major axis (world units)                 [deg]
#   8 B_WORLD                Profile RMS along minor axis (world units)                 [deg]
#   9 THETA_WORLD            Position angle (CCW/world-x)                               [deg]
#  10 FWHM_WORLD             FWHM assuming a gaussian core                              [deg]
#  11 ELONGATION             A_IMAGE/B_IMAGE                                           
#  12 ELLIPTICITY            1 - B_IMAGE/A_IMAGE                                       
         1 -17.2316    113.9457    122.7270   1.0131296467e+02   3.4980497544e+01     2.631552     2.456138 -67.00  0.009608633    1.065    0.061
         2 -17.7699     98.2252     77.7491   9.4401928751e+01   4.7489253944e+01     3.361143     2.791398  14.21   0.01185696    1.483    0.326
         3 -17.6446     79.3097    149.7208   1.1411479482e+02   3.4813861192e+01     3.575157     2.128249 -84.54   0.01362136    1.850    0.460
         4 -14.0554    193.7357     25.7693   5.6268683160e+01   3.3288990018e+01    0.5024295    0.3701157  13.35  0.001298241    1.613    0.380
         5 -15.7829     38.3074     99.4567   1.1698439673e+02   5.0931425515e+01     2.494545     1.604232 -78.72   0.01148686    1.367    0.268
         6 -18.2851     15.5816     76.8775   1.2024379916e+02   5.7967412098e+01     16.63763    0.7281727 -69.18   0.03001409   14.787    0.932
         7 -17.8693     29.1815    244.9930   1.3098308623e+02   2.3704564623e+01      3.11627    0.7468929  43.79   0.01791698    2.688    0.628
         8 -16.9029     36.1843    222.4279   1.2884999541e+02   2.6482145775e+01     1.558982    0.6898435  72.91  0.009742273    2.031    0.508
         9 -16.5251    102.6722    233.4612   1.1877416531e+02   1.6562493481e+01    0.9701882    0.5728226  49.13   0.00672224    1.276    0.216
        10 -13.6571    249.0780    205.8256   9.0975480309e+01  -2.6415238631e+00    0.3819892    0.2911761   0.83  0.002370876    1.193    0.162
        11 -14.8707    164.4528    199.5676   1.0413939934e+02   1.2020087234e+01     1.027455     0.547626  45.56  0.004539278    1.565    0.361
        12 -14.7794    128.3439    220.0381   1.1312868728e+02   1.4820732178e+01    0.7397465     0.549858  41.25  0.003672236    1.225    0.184
        13 -16.1405    154.9217    174.9248   1.0211142785e+02   1.7511255411e+01     1.258997     1.118649 -51.47  0.005921287    1.274    0.215
        14 -15.1796    142.3218    187.5889   1.0648933237e+02   1.7624824797e+01    0.8842406      0.73137 -34.37  0.004913685    1.522    0.343
        15 -16.3845    140.5202    204.8964   1.0918086914e+02   1.5185822291e+01     1.276866    0.8746599  36.07  0.005458205    1.405    0.288
        16 -15.1710    120.4770    205.8651   1.1292379421e+02   1.8191787451e+01    0.8627884    0.4493292  48.73  0.004937403    1.569    0.363
        17 -11.5376    153.5978    222.2771   1.0905639460e+02   1.0611491898e+01     0.193211    0.1136769  31.95  0.001144843    1.745    0.427
        18 -12.3410     53.3498    220.6996   1.2595492680e+02   2.4847838177e+01      0.20252    0.1061896  64.20  0.000629114    1.529    0.346
        19 -11.6155     68.9948    218.1893   1.2316214980e+02   2.3370600035e+01    0.1600422    0.1014551  64.33 0.0004662361    1.239    0.193
        20 -17.8386    119.9214    244.4682   1.1695217330e+02   1.2631231744e+01     4.264935    0.5863003  42.76     0.014927    5.147    0.806
        21 -11.6897     57.0008    212.6400   1.2480142605e+02   2.5756749730e+01    0.1992061    0.1017108  61.87  0.001274227    1.600    0.375
        22 -11.5756     98.0066    205.9645   1.1700176745e+02   2.1509513219e+01    0.1788162    0.1413741  60.05 0.0009242237    1.026    0.026
        23 -11.6885     60.3592    205.9063   1.2372697980e+02   2.6504351664e+01    0.1412266    0.1106738  85.37 0.0006555518    1.185    0.156
        24 -11.8011     76.6904    202.4305   1.2052195099e+02   2.5041091449e+01    0.2953482   0.09589542  38.99  0.001374805    2.877    0.652
        25 -11.9151     97.3863    198.6912   1.1636020761e+02   2.2831300274e+01    0.2991287     0.171116 -65.55   0.00164622    1.912    0.477
        26 -13.6745     93.2835    190.4796   1.1624462440e+02   2.4866539949e+01    0.5150253    0.3547359  72.14   0.00194708    1.367    0.268
        27 -11.8289     39.4956    201.2633   1.2706585638e+02   2.9722951678e+01    0.1617809    0.1095406  58.41 0.0006694766    1.174    0.148
        28 -11.0196     70.5961    200.2969   1.2143987644e+02   2.6206557996e+01    0.1237407   0.06303103  64.07 0.0006992362    1.825    0.452
        29 -16.1794    185.0717    226.2570   1.0429508732e+02   5.1625609533e+00     1.625418    0.8791168  35.63  0.006714716    1.533    0.348
        30 -15.0276    169.8374    227.2771   1.0694306310e+02   7.4235445721e+00     1.353931    0.8072658  68.49  0.007138154    2.953    0.661
        31 -15.5111    249.2793    214.9784   9.2431403697e+01  -3.5465716633e+00      1.87056    0.8537588 -13.04  0.008263404    2.870    0.652
        32 -15.1706     34.0702    190.1944   1.2731722057e+02   3.2304567261e+01    0.7031436    0.3699914  62.77  0.003454024    1.532    0.347
        33 -17.5503     40.4695    164.4738   1.2414124829e+02   3.6585981550e+01     2.288634     1.495765 -83.58   0.01318478    1.297    0.229
        34 -14.8084    217.1393    174.4903   9.0635522147e+01   6.2023484573e+00     1.660455    0.7539905  56.44  0.006701729    3.318    0.699
        35 -13.6560    201.5600    192.4236   9.6474952914e+01   6.6252035134e+00    0.5927017    0.4465694  68.01  0.003509408    1.945    0.486
        36 -15.9381    189.7236    174.1113   9.5410082386e+01   1.1260804036e+01     1.682021     1.141119 -30.35  0.008341729    1.659    0.397
        37 -12.6993    156.6436    190.1682   1.0417910653e+02   1.4762057440e+01    0.3217909    0.1928825  41.66  0.001246982    1.440    0.306
        38 -13.9895    128.4272    150.6418   1.0337955145e+02   2.6682401364e+01     1.391768    0.6310777 -69.95  0.004035058    5.896    0.830
        39 -14.1894    132.6787    167.6720   1.0535768209e+02   2.2728182536e+01    0.7678115    0.4880641 -38.28  0.004006808    2.025    0.506
        40 -13.9585    125.9632    166.8251   1.0659871743e+02   2.4046251092e+01    0.6930247    0.5098847 -61.08  0.003187682    1.464    0.317
        41 -12.6278     28.0004    138.2652   1.2445657580e+02   4.3302697520e+01    0.2911758    0.2203396 -84.90  0.001653047    1.076    0.070
        42 -12.9782     24.4974    134.5246   1.2490789683e+02   4.4428149068e+01    0.4150135    0.2061902  63.47  0.001843684    1.990    0.497
        43 -12.3491    185.0082    130.4658   8.7451788753e+01   1.9121707339e+01    0.3492432    0.2045705  50.35  0.001590583    1.692    0.409
        44 -13.3352    193.6902    128.3620   8.5298168108e+01   1.7622240961e+01    0.5399826    0.3243632  43.70  0.002471751    1.609    0.378
        45 -13.0252     33.5849    121.9228   1.2136879910e+02   4.6334931197e+01    0.6921981    0.3361467  88.91   0.00341705    2.211    0.548
        46 -13.2270     63.4063     65.7050   1.0173551901e+02   5.5627976294e+01      0.71619    0.3191349 -41.52   0.00303435    2.290    0.563
        47 -12.3371    175.0195     45.3145   6.5544361671e+01   3.5674022038e+01    0.2186174    0.2019285  62.32 0.0006217979    1.110    0.099
