#   1 NUMBER                 Running object number                                     
#   2 MAG_AUTO               Kron-like elliptical aperture magnitude                    [mag]
#   3 X_IMAGE                Object position along x                                    [pixel]
#   4 Y_IMAGE                Object position along y                                    [pixel]
#   5 X_WORLD                Barycenter position along world x axis                     [deg]
#   6 Y_WORLD                Barycenter position along world y axis                     [deg]
#   7 A_WORLD                Profile RMS along major axis (world units)                 [deg]
#   8 B_WORLD                Profile RMS along minor axis (world units)                 [deg]
#   9 THETA_WORLD            Position angle (CCW/world-x)                               [deg]
#  10 FWHM_WORLD             FWHM assuming a gaussian core                              [deg]
#  11 ELONGATION             A_IMAGE/B_IMAGE                                           
#  12 ELLIPTICITY            1 - B_IMAGE/A_IMAGE                                       
         1 -13.5691    250.0621     23.0172   4.0719967535e+01   2.0282583945e+01    0.7483675    0.0566173 -35.71  0.002219731    4.979    0.799
         2 -13.6220    237.2000      8.2186   3.8393847491e+01   2.4886993985e+01    0.4772689    0.2219678 -77.23  0.002097316    2.492    0.599
         3 -13.8893    243.0176     10.9840   3.8569411454e+01   2.3259223549e+01    0.4132821    0.2661209  74.30  0.001790014    1.517    0.341
         4 -12.0220    161.9308     11.6653   4.7474107160e+01   4.3201494259e+01     0.254366    0.2024162 -41.96 0.0007572366    1.335    0.251
         5 -11.1328    190.6925     11.0013   4.3535101375e+01   3.5897915855e+01    0.1875622    0.1707816 -64.49 0.0004415813    1.089    0.082
         6 -12.8637     98.4286      8.2891   5.8686161013e+01   5.8908997540e+01    0.2384363    0.2114055  26.71 0.0007305531    1.034    0.032
         7 -12.8383    102.0096      7.0000   5.7227407965e+01   5.8242674809e+01    0.2783524    0.1740301  56.19 0.0009835857    1.494    0.331
         8 -12.8080     89.5091      8.4943   6.1201714084e+01   6.0789994041e+01    0.2346776    0.1827237 -11.12 0.0007659057    1.272    0.214
         9 -13.6725     85.4827      7.4232   6.1883010498e+01   6.1725160424e+01     0.365623    0.3202724  27.23  0.001093707    1.076    0.071
        10 -11.2823    115.4775      8.5428   5.4718950392e+01   5.5023225664e+01    0.1347061    0.1203765  40.72 0.0001133512    1.021    0.020
        11 -10.4087      3.3361      8.6994   9.8574526893e+01   7.3018687090e+01    0.0886126   0.08632877 -67.56 0.0005287368    1.659    0.397
        12 -11.9546    124.1585      6.6999   5.2192052411e+01   5.3128085289e+01    0.2128634    0.1679995  83.24  0.001186101    1.427    0.299
        13 -12.1961     60.0219      6.2755   6.9863645551e+01   6.6602737786e+01    0.1757785    0.1417061  18.01 0.0005365977    1.082    0.076
        14 -11.5851    139.9923      2.9937   4.7980010748e+01   4.9560839916e+01    0.2174942    0.1551988 -67.71  0.001047482    1.691    0.409
        15 -11.9660    230.1292      1.9397   3.7488515728e+01   2.7186921232e+01    0.2216432    0.1671136  88.42 0.0007047867    1.193    0.162
        16 -12.6762     64.8696     10.8913   7.0337962126e+01   6.5245063894e+01    0.2930142    0.2258858  -4.73 0.0009383924    1.143    0.125
        17 -12.3767    113.2511      1.8700   5.2534823330e+01   5.6129397508e+01    0.3254685    0.1610066  57.83  0.001113204    1.748    0.428
        18 -12.2879    178.0981      7.6019   4.4054821995e+01   3.9451256515e+01    0.2257916    0.1802985 -48.55 0.0004484287    1.288    0.223
        19 -12.1870    170.9809    168.8156   8.9237677417e+01   1.3492104369e+01    0.2284127    0.2099171 -33.04 0.0003666617    1.135    0.119
        20 -17.7817    181.8968    226.5386   9.7223604833e+01   1.5682621658e+00     4.731775     4.146998  69.04   0.03108886    1.473    0.321
        21 -16.1218    129.2672    181.1592   1.0076244040e+02   1.9038428400e+01     1.797901     1.278985 -84.81  0.008869481    1.804    0.446
        22 -19.6302     78.6982    188.8540   1.1313857744e+02   2.5703169844e+01     7.457901      6.55667  77.48    0.0441965    1.068    0.064
        23 -14.0803    145.4022    116.3120   8.3113597099e+01   2.9900063561e+01    0.5215554    0.4211799  41.61 0.0005681837    1.262    0.208
        24 -12.9565    147.3193    122.9499   8.4333414268e+01   2.8038671185e+01     0.318376    0.2604862  48.75 0.0005755478    1.232    0.189
        25 -13.3593    143.0678    121.5054   8.5014536315e+01   2.9283910477e+01     0.344375    0.2904119  72.83  0.001013182    1.338    0.253
        26 -11.0842    189.4489    118.3372   7.3712470256e+01   1.9403659401e+01    0.2771275    0.1935524  55.73 0.0006101886    1.533    0.348
        27 -11.4848     20.3594    167.3179   1.2368956713e+02   3.7450547792e+01    0.2232278     0.128169  58.69  0.001089373    1.620    0.383
        28 -12.8022    150.8725    116.5213   8.1834410407e+01   2.8632190523e+01    0.3084296    0.2518515 -80.46 0.0009465789    1.495    0.331
        29 -13.5130    153.1031    108.8773   7.9279836390e+01   2.9741734108e+01    0.5762981    0.4761307  44.07  0.002796138    1.227    0.185
        30 -11.8010    186.0007    163.1067   8.4872456070e+01   1.1545133251e+01    0.2294292    0.2076969 -28.65 0.0003104945    1.123    0.110
        31 -13.1895    127.3338    105.3263   8.4828667450e+01   3.6240214688e+01    0.5437834    0.3835024 -89.52  0.002204963    2.230    0.552
        32 -12.1481    128.9903    101.0736   8.3220488585e+01   3.6812596658e+01    0.3108231    0.2565211 -22.76 0.0005880536    1.341    0.254
        33 -12.0850     20.8128    159.1877   1.2287853353e+02   3.9236905305e+01    0.2434386    0.1460327 -82.67  0.001293439    1.353    0.261
        34 -11.9654      1.6100    105.0733   1.2218185025e+02   5.3116285085e+01    0.2521093     0.120243 -71.18  0.001382504    1.563    0.360
        35 -12.3685    243.1771    158.0249   7.2946965438e+01   1.3149001576e+00    0.3022293    0.1668368 -39.87  0.001065295    1.792    0.442
        36 -11.2682    190.3729    157.5143   8.2765431468e+01   1.1697373165e+01    0.3034058    0.2353099  80.73  0.001165267    1.904    0.475
        37 -11.1343      1.4819    158.4566   1.2710881082e+02   4.0994033151e+01    0.1159596   0.08607776  89.05 0.0004759558    1.007    0.007
        38 -11.6421    137.0062    250.3789   1.0880455595e+02   5.2900309367e+00    0.2563734    0.1203473  47.84  0.001362231    1.732    0.423
        39 -11.9465    142.7150     96.0459   7.8260879233e+01   3.4809096199e+01    0.2941086    0.2618669  78.47 0.0008416268    1.249    0.199
        40 -11.8947    174.0573    154.6852   8.5600092726e+01   1.5631746175e+01    0.2109537    0.1894016  36.14 0.0005184084    1.081    0.075
        41 -10.4218      7.6253    155.5405   1.2553863223e+02   4.1173437504e+01     0.116847   0.08715729 -81.50 0.0003552836    1.097    0.088
        42 -11.2764    103.0104     93.2539   8.8304552646e+01   4.3830347698e+01    0.2499451    0.2070084  17.97 0.0004928039    1.382    0.277
        43 -13.4602    248.2772    150.7226   7.0520428264e+01   1.5291227758e+00    0.4694895    0.2939677 -31.58   0.00243405    1.440    0.305
        44 -11.3917    132.5752     91.7815   7.9621114722e+01   3.7997107756e+01    0.3015351    0.1508359 -38.33  0.001127968    2.028    0.507
        45 -11.1682    110.3034     89.8212   8.5183592366e+01   4.3155216276e+01    0.3417502    0.2086052  41.99  0.001484645    1.708    0.415
        46 -13.3745     30.2956     86.7345   1.1023368961e+02   5.5373033915e+01    0.5765906    0.1364176 -59.07   0.00213775    2.963    0.662
        47 -11.1464     15.5268     88.3788   1.1548550934e+02   5.6115775400e+01    0.2618223   0.09824926 -67.43  0.001193795    2.112    0.526
        48 -11.7350    243.9718     84.7048   5.5944160878e+01   1.2943436966e+01    0.2587506    0.1928688 -28.32  0.000507551    1.290    0.225
        49 -14.9155     43.9005     82.7548   1.0467663313e+02   5.4989586642e+01    0.8651076     0.560068  49.36  0.004596125    1.959    0.490
        50 -12.7147     36.5250     82.5151   1.0718389514e+02   5.5780013795e+01    0.2106165    0.1855739 -28.18   0.00074282    1.204    0.169
        51 -13.9846     36.0915     78.6690   1.0644735631e+02   5.6693199934e+01    0.4036425    0.3393973  37.54  0.002367797    1.428    0.300
        52 -14.0016     42.3652     70.9421   1.0222568571e+02   5.7790380422e+01    0.6576145    0.4906061 -88.65  0.003646984    1.849    0.459
        53 -13.6454     37.1690     71.9907   1.0441683989e+02   5.8081536619e+01    0.4550626    0.2979815 -62.81  0.001328241    1.420    0.296
        54 -11.6614     89.6512     86.4189   9.0416978585e+01   4.7772892186e+01    0.4131925    0.1930302 -41.58 0.0009332009    2.094    0.522
        55 -11.2411    127.3692    249.8983   1.1050088050e+02   6.8555552883e+00    0.1893867    0.1340268  18.86  0.001132356    1.982    0.495
        56 -10.3481     22.6568    151.1998   1.2169328431e+02   4.0895017517e+01    0.1159849   0.07410891  62.36 0.0001963541    1.518    0.341
        57 -10.9507     56.2219     74.1645   9.8090826918e+01   5.5489536836e+01    0.2079615    0.1606045 -34.89 0.0005765121    1.204    0.170
        58 -13.7917     23.8498     66.2619   1.0797872739e+02   6.0491622771e+01     0.398138    0.3004703 -45.06  0.002570313    1.099    0.090
        59 -11.2041    152.0601     64.8835   6.6572091505e+01   3.8504438664e+01     0.234409     0.223968   3.57 0.0006556173    1.079    0.073
        60 -11.2770     99.0594     61.5367   7.9532921653e+01   5.1126518769e+01    0.2913475    0.2022071 -56.17   0.00136379    1.752    0.429
        61 -11.2994     79.9135     61.0916   8.5627070643e+01   5.4721531491e+01    0.3270584    0.1981312  51.22  0.001503325    2.083    0.520
        62 -13.3866    249.5067     56.4515   4.8510320840e+01   1.5983855169e+01    0.6368291     0.247727 -35.23  0.002629803    2.225    0.550
        63 -12.3874      3.8765     59.5256   1.1416762005e+02   6.3204642219e+01    0.1891756    0.1439337 -75.97  0.001219833    1.317    0.241
        64 -11.0945    180.7604    144.1071   8.1782408147e+01   1.6299326280e+01    0.2159686    0.2036073 -74.13 0.0003903815    1.185    0.156
        65 -11.3753     56.1210     45.7308   8.8853033221e+01   6.1275027197e+01    0.2579725    0.1927961   2.76 0.0009491654    1.419    0.295
        66 -10.4100    208.9701     42.4670   4.9919476879e+01   2.7474249986e+01    0.2013144    0.1149452 -79.62 0.0007921698    2.369    0.578
        67 -15.2899    123.4283    218.1937   1.0748758560e+02   1.2812911245e+01     1.543826     0.957373 -36.88   0.00789985    2.410    0.585
        68 -12.1775    167.1694    138.9866   8.3573379459e+01   2.0280144231e+01    0.2858388    0.2483917 -60.90 0.0003008881    1.248    0.198
        69 -12.8403    125.9444     40.1070   6.4295407016e+01   4.8799425587e+01    0.5573678    0.2858722  46.54  0.001835686    1.862    0.463
        70 -11.0173    217.8188     37.3366   4.7448510920e+01   2.5983240283e+01    0.2523527    0.1714161 -48.35 0.0009319134    1.377    0.274
        71 -10.9077      1.3437    140.1993   1.2574041524e+02   4.5090116766e+01   0.09870393   0.07726978 -49.68 0.0002987567    1.518    0.341
        72 -10.9403     40.0705     36.4847   9.1963119921e+01   6.4969723300e+01    0.2001247    0.1441646 -35.23  0.001149268    1.159    0.137
        73 -10.9605    174.7693     33.2116   5.2234322886e+01   3.7435009490e+01    0.2056028     0.187799 -75.63 0.0004265248    1.089    0.082
        74 -12.9770    239.4436     25.0126   4.2117098611e+01   2.2427212275e+01    0.3315154    0.1983802 -58.05 0.0003553863    1.559    0.359
        75  99.0000    130.5081    236.0532   1.0833569132e+02   8.5712847237e+00     0.900132    0.7714728 -58.65  0.006226321    1.417    0.294
        76 -11.1938    139.5726    210.4739   1.0315558243e+02   1.1490537649e+01    0.2294387    0.1707516  23.89   0.00127485    1.550    0.355
        77 -11.7532     28.2875    135.0663   1.1851546721e+02   4.4148975769e+01    0.2366284    0.1717168  34.49  0.000945425    1.621    0.383
        78 -11.0977    144.1077     16.4957   5.1983989904e+01   4.7252776584e+01    0.2234567    0.1289609  63.55  0.001035069    1.596    0.373
        79 -10.4314     10.6409     15.3112   9.7450200199e+01   7.1410567154e+01    0.0939857   0.08950638  84.26 0.0007042383    1.741    0.426
        80 -11.3506     34.0546     14.1057   8.4984426189e+01   6.9341901026e+01    0.1818088    0.1422773 -14.93 0.0005286218    1.030    0.029
        81  -9.8987      2.4031    202.6154   1.2956677815e+02   3.1612969347e+01    0.2331958    0.1270988 -64.45  0.001500651    1.955    0.488
        82 -11.4079      7.6315    199.4528   1.2845048794e+02   3.1777827239e+01    0.1947121   0.08450089 -61.61  0.001076468    2.466    0.594
        83 -12.7924    207.9249    193.5900   8.6592871531e+01   2.0962411901e+00    0.3152353     0.230112  29.52 0.0008906356    1.245    0.197
        84 -10.7223      4.8607    191.5206   1.2852073306e+02   3.3645289137e+01    0.1391678   0.09288508  49.98 0.0009772128    1.442    0.306
        85 -12.0947      8.4646    187.7142   1.2760726861e+02   3.4118294635e+01    0.3788237   0.08880836  40.95  0.001765504    3.262    0.693
        86 -11.1082     32.4661    134.5076   1.1735524400e+02   4.3890195146e+01    0.1764028    0.1056026 -83.19  0.000587683    1.517    0.341
        87 -14.6340    147.8800    237.0218   1.0516787555e+02   5.6094366932e+00     1.367699    0.9844881  38.72  0.008611769    1.167    0.143
        88 -12.5296    248.5035    127.9976   6.5436941147e+01   5.0763477354e+00    0.2865105    0.2502885 -35.25  0.001439973    1.115    0.103
        89 -12.3216    212.9820    179.7863   8.2942830218e+01   3.3819783630e+00     0.244236    0.1934914 -26.35 0.0008718043    1.254    0.203
        90 -10.1211      4.2243    178.7027   1.2788211813e+02   3.6384816259e+01    0.2025235   0.09735114 -59.95  0.001150519    2.170    0.539
        91  -7.6128      1.9964    183.5070   1.2860819781e+02   3.5555435413e+01    0.1436367   0.08964088  50.98 0.0009742377    1.500    0.333
        92 -10.6114    133.3257     24.2741   5.6848365644e+01   4.9079622234e+01    0.1482821   0.09878706  33.46 0.0002341827    1.583    0.368
        93 -11.4910     30.4330    129.0329   1.1717952519e+02   4.5380628376e+01    0.2147765    0.1658777  53.97 0.0006518488    1.395    0.283
        94 -12.6434    178.6746    171.8932   8.8222968967e+01   1.1370483594e+01    0.2832037    0.2087174  48.47 0.0007653648    1.352    0.260
        95 -12.3551    244.5842    169.7660   7.5176585905e+01  -7.2333764629e-01    0.2969687    0.2281196 -15.20  0.001001439    1.171    0.146
