#   1 NUMBER                 Running object number                                     
#   2 MAG_AUTO               Kron-like elliptical aperture magnitude                    [mag]
#   3 X_IMAGE                Object position along x                                    [pixel]
#   4 Y_IMAGE                Object position along y                                    [pixel]
#   5 X_WORLD                Barycenter position along world x axis                     [deg]
#   6 Y_WORLD                Barycenter position along world y axis                     [deg]
#   7 A_WORLD                Profile RMS along major axis (world units)                 [deg]
#   8 B_WORLD                Profile RMS along minor axis (world units)                 [deg]
#   9 THETA_WORLD            Position angle (CCW/world-x)                               [deg]
#  10 FWHM_WORLD             FWHM assuming a gaussian core                              [deg]
#  11 ELONGATION             A_IMAGE/B_IMAGE                                           
#  12 ELLIPTICITY            1 - B_IMAGE/A_IMAGE                                       
         1 -11.2680     99.1861     10.6732   1.9250612287e+01   5.9028621591e+01    0.2927753    0.1653085 -47.30  0.001168598    1.767    0.434
         2 -11.1755     55.1479     11.2413   3.1319415825e+01   7.0123720034e+01    0.2102741    0.1691412  41.41 0.0006308616    1.225    0.184
         3 -12.1690     82.2130      8.9774   2.1810646761e+01   6.3616499263e+01    0.3218139    0.1867322  70.01  0.001192869    1.545    0.353
         4 -13.1738     89.5675      3.7563   1.7719182454e+01   6.2194873240e+01    0.4735241    0.2510408 -47.44  0.001244613    1.930    0.482
         5 -11.2105    152.8236      5.8150   1.1190250116e+01   4.5831695172e+01      0.17471    0.1550836 -71.80 0.0003934362    1.125    0.111
         6 -12.8746    100.9610      2.3625   1.5265602465e+01   5.9336768478e+01     0.439407     0.214988  71.41   0.00123647    1.782    0.439
         7 -10.5051    144.2556      2.0027   1.0623490792e+01   4.8284395505e+01    0.1502058    0.1055658 -34.35 0.0002311913    1.426    0.299
         8 -11.0047    142.9995    242.2676   6.6613391067e+01   6.6865649269e+00    0.1622954    0.1176812  16.81 0.0002218147    1.106    0.096
         9 -13.1064    245.4627    249.6672   5.0197173582e+01  -3.6894005347e+00    0.2156997    0.1286247   5.18 0.0005851932    1.319    0.242
        10 -11.8344    237.2557    248.9728   5.1271935328e+01  -2.9908189453e+00    0.2545888     0.142548 -29.90  0.001976142    1.552    0.356
        11 -10.1203    179.6808    250.6873   6.0726929310e+01   1.7940210040e+00    0.1108515   0.06451108  -5.84 0.0003766413    1.648    0.393
        12 -11.0290    124.9874    249.9752   7.1133806120e+01   7.4433117651e+00    0.1811122      0.11826  -7.64  0.001118579    1.675    0.403
        13 -13.3228    116.4360    240.7731   7.1956034347e+01   9.8308312106e+00    0.3861695    0.1817123  20.47  0.001976197    1.911    0.477
        14 -12.4871    114.8174    249.8066   7.3233255451e+01   8.5532658446e+00    0.2096618    0.1815517   3.55 0.0006970547    1.149    0.130
        15 -11.7213    111.5202    249.4923   7.3898196440e+01   8.9559064055e+00    0.1955029    0.1216125  27.29 0.0007407308    1.265    0.210
        16 -12.5637     99.0344    248.5599   7.6488292014e+01   1.0447115666e+01    0.3285449    0.2124028 -31.50  0.001384877    1.908    0.476
        17 -11.5366     85.0537    250.5265   7.9716110178e+01   1.1605202843e+01    0.3230578   0.09416282  25.86  0.001354043    2.701    0.630
        18 -11.7595     63.5051    246.9272   8.4264583319e+01   1.4478820952e+01    0.4271668     0.234848 -15.06  0.001960983    3.309    0.698
        19 -13.1884     70.3689    247.9378   8.2785075642e+01   1.3590514785e+01    0.2581219    0.2174837  45.16 0.0007387255    1.166    0.142
        20 -12.4616     68.2950    245.3153   8.3064012620e+01   1.4274196369e+01    0.1929428    0.1569767   0.03 0.0002453391    1.367    0.268
        21 -10.3880     66.2698    250.3327   8.3873892994e+01   1.3589664354e+01    0.1087369   0.08402862 -12.76 0.0003761295    1.589    0.371
        22 -11.2259     55.9354    250.5707   8.6207630185e+01   1.4589104066e+01    0.1749779   0.09166823  27.50 0.0004194203    1.473    0.321
        23 -13.8031     37.0628    245.3511   9.0208614642e+01   1.7378910493e+01     1.210603    0.3567296  36.37   0.00559271    2.200    0.545
        24 -13.3565     49.3556    220.2191   8.5806211083e+01   2.1154344908e+01    0.9288713    0.3548337  41.74  0.004185202    2.060    0.514
        25 -13.5784     37.1461    226.2984   8.9217205310e+01   2.1124528803e+01    0.8403723    0.3824205  18.40  0.002906791    2.173    0.540
        26 -13.3064     26.8516    223.2398   9.1604016967e+01   2.2741854722e+01    0.7608669    0.2064885  27.75  0.003082538    2.654    0.623
        27 -13.9574     26.5004    248.4480   9.2740248707e+01   1.7771142173e+01     1.452305          nan  36.56  0.004994778    4.103    0.756
        28 -15.1767     18.3789    212.1122   9.3259118280e+01   2.5915804985e+01     1.573764    0.9566748  63.37  0.008786419    1.492    0.330
        29 -15.4373     12.4267    224.9302   9.5215241208e+01   2.3662534266e+01    0.8199252    0.5123297  48.27  0.004332688    1.249    0.200
        30 -16.6835     13.5582    237.6023   9.5333460728e+01   2.0986362056e+01     1.684413     1.061447 -22.28  0.009276845    2.520    0.603
        31 -15.9736      4.7119    230.4488   9.7215773373e+01   2.3154144401e+01     1.184694     0.525303  79.67  0.006101331    2.307    0.567
        32 -11.1251     16.9714    250.6425   9.4945646161e+01   1.8198436545e+01    0.1735663   0.08222701  29.58 0.0005068264    1.565    0.361
        33 -10.5877     46.9468    240.9962   8.7698457805e+01   1.7247085164e+01    0.2812039    0.1399229  57.63  0.001057646    2.034    0.508
        34 -11.1951    162.1662    247.1215   6.3479958348e+01   3.9866385003e+00    0.1696583    0.1183053  -3.55 0.0008115253    1.251    0.200
        35 -12.5149    107.1471    240.1224   7.3902231459e+01   1.0972300103e+01    0.2362725    0.1873485 -32.02 0.0006808572    1.436    0.304
        36 -12.9762    102.8834    237.9113   7.4619158167e+01   1.1827090247e+01     0.411541    0.2358198   9.06  0.002185968    1.910    0.476
        37 -11.1324     89.3408    241.0733   7.7951778818e+01   1.2777868179e+01    0.1571672    0.1358096  29.28 0.0004711501    1.088    0.081
        38 -11.9497     79.2203    236.9585   7.9901184694e+01   1.4628217498e+01    0.3541436    0.1597083  39.11 0.0003027767    1.809    0.447
        39 -12.1016     70.8739    240.1612   8.2088708614e+01   1.4940680777e+01    0.4433467     0.309401  38.24  0.001682024    1.174    0.148
        40 -12.5904     71.3677    234.0784   8.1494248028e+01   1.6023448176e+01    0.3440479    0.2093114  23.93  0.000961334    1.395    0.283
        41 -12.4642     73.1010    230.0375   8.0750276713e+01   1.6605591520e+01       0.2487    0.2205391 -25.51 0.0004397651    1.338    0.253
        42 -11.6087    148.3118    239.0672   6.5171097972e+01   6.5940609307e+00    0.2361095    0.1417892  20.27 0.0007936538    1.386    0.278
        43 -12.9577     62.6151    234.1692   8.3568930486e+01   1.6946861256e+01    0.4383236    0.2823909  58.45  0.001159919    1.614    0.381
        44 -12.8787     52.5409    236.9519   8.6142775090e+01   1.7459256303e+01    0.2730561    0.2069174  12.34 0.0007569004    1.358    0.264
        45 -11.9222     44.0950    234.5605   8.8000196372e+01   1.8774621837e+01     0.312842      0.21766  58.51  0.001595547    1.368    0.269
        46 -12.2796    111.8371    234.5930   7.2291591577e+01   1.1385514035e+01    0.3532138    0.1339369  23.18  0.001559554    2.416    0.586
        47 -10.8681    246.5511    234.5649   4.8026108823e+01  -2.1678436423e+00   0.09776641   0.06537732 -10.59  6.51208e-05    1.010    0.010
        48 -11.0076     39.1012    233.9194   8.9155872473e+01   1.9391757644e+01    0.2009896    0.1038198  51.94 0.0006371561    1.702    0.413
        49 -11.0603     34.5323    233.7851   9.0239815166e+01   1.9857887866e+01    0.2567418    0.0978078  38.10 0.0007233561    1.875    0.467
        50 -12.3009    219.4209    230.4615   5.1436537102e+01   6.1356557441e-01    0.1907252    0.1478388 -23.43 0.0006483996    1.340    0.254
        51 -10.6267    181.2288    232.1818   5.8055743740e+01   4.0991687088e+00    0.1947339   0.09574062 -10.87 0.0009532096    2.825    0.646
        52 -11.7463     53.3780    231.2748   8.5571573578e+01   1.8481491674e+01    0.2341853     0.168494 -56.71  0.001081463    1.694    0.410
        53 -12.5754    231.6075    227.8108   4.9223124713e+01  -1.5616861986e-01    0.3061549    0.1438741 -24.12  0.001785509    1.806    0.446
        54 -12.3616    129.9506    230.6403   6.7917737420e+01   9.9730257903e+00    0.2121536    0.1653076  37.97 0.0007916437    1.340    0.254
        55 -10.7536     67.8067    231.3438   8.2118792231e+01   1.6934213117e+01    0.1677782    0.1020768  18.77 0.0002825979    1.532    0.347
        56 -11.1291    194.1802    229.8078   5.5459436826e+01   3.1053006716e+00    0.1575613    0.1019211  -7.22 0.0007381779    1.350    0.259
        57 -11.9876    178.2226    228.4724   5.8093800052e+01   4.9311104087e+00    0.1853958    0.1408567 -11.79 0.0002593241    1.118    0.105
        58 -11.5363    150.1714    229.4249   6.3588597222e+01   7.8609181248e+00    0.1632764   0.09299316  34.20 0.0006219297    1.659    0.397
        59 -10.7368     83.2028    229.4214   7.8302261121e+01   1.5590772551e+01    0.1977421   0.08892899  36.41 0.0009585566    1.785    0.440
        60 -12.4149    112.5241    227.8795   7.1395826183e+01   1.2475020558e+01    0.2511505    0.1851596  18.34  0.001069918    1.167    0.143
        61 -12.7904    105.2989    226.9090   7.2919275794e+01   1.3498226777e+01    0.2715673    0.2332986  18.90  0.001820162    1.037    0.036
        62 -12.2601    100.3194    227.0074   7.4070983461e+01   1.4065046312e+01    0.2284725     0.185718  32.81 0.0008731536    1.096    0.088
        63 -12.3627     91.1379    226.7098   7.6174802258e+01   1.5191905341e+01    0.2935576    0.1629555 -50.38  0.001566502    2.078    0.519
        64 -12.8703     34.2735    213.5072   8.9222935699e+01   2.4127850984e+01    0.6192551     0.153752  39.30  0.002398501    2.680    0.627
        65 -10.7307    222.4771    225.5154   5.0268490350e+01   9.3698279930e-01    0.1038606   0.07604618  -9.23 0.0001161848    1.037    0.035
        66 -13.5792    114.4849    223.5007   7.0450299983e+01   1.3022210892e+01    0.4747135    0.2352646  47.17  0.002255753    2.382    0.580
        67 -11.9439     68.0157    224.7191   8.1529103298e+01   1.8213129323e+01    0.2153764    0.1782316  88.92 0.0003007936    1.412    0.292
        68 -12.6064     96.0459    223.2936   7.4670136261e+01   1.5260719416e+01     0.201599    0.1833708  88.66 0.0005706978    1.345    0.257
        69 -11.2393    213.0193    222.4405   5.1303789048e+01   2.2123366262e+00    0.2420086    0.1030145 -23.44  0.001281971    2.505    0.601
        70 -12.1713    159.8817    222.2910   6.0711071533e+01   7.8665643500e+00    0.3407269     0.188389  30.31  0.001053081    1.643    0.391
        71 -13.1693    125.0111    221.7715   6.7899117358e+01   1.2064071245e+01     0.432708    0.1979367  36.86  0.002129393    1.975    0.494
        72 -13.0856     77.3571    220.0359   7.8829011456e+01   1.8090423227e+01    0.4117626    0.3624712  13.97  0.002458902    1.143    0.125
        73 -11.8953    237.9193    220.8604   4.7315809624e+01   1.0814218641e-01    0.1651467    0.1024074  -9.88  0.001236594    1.284    0.221
        74 -11.1518    188.5013    221.4799   5.5272179287e+01   4.8270257254e+00    0.1134353   0.08710134  -4.20 0.0008102713    1.020    0.019
        75 -12.5916    173.2001    219.1972   5.7724590034e+01   6.8281998951e+00    0.2931563    0.2100705 -28.91  0.001092314    1.321    0.243
        76 -11.7995     99.6140    220.2870   7.3505496105e+01   1.5404122832e+01    0.2053761    0.1583128 -42.03 0.0006444946    1.473    0.321
        77 -11.9938     87.5442    220.5729   7.6407937374e+01   1.6790798954e+01     0.218371     0.179496  27.42  0.000236642    1.031    0.030
        78 -11.0594    246.4872    220.5197   4.6063883216e+01  -5.9201300459e-01    0.1000247   0.06952979 -13.37 0.0002772985    1.025    0.024
        79 -11.1642    222.9876    220.3181   4.9443447226e+01   1.5303702002e+00    0.1466196    0.1047052   0.85  0.001130195    1.144    0.126
        80 -11.1337     60.1887    219.6926   8.3051635087e+01   2.0100963639e+01    0.2711998   0.07731301  32.80 0.0009155568    2.509    0.601
        81 -11.8049     65.2736    216.7742   8.1534726028e+01   2.0141125970e+01    0.3628166    0.2307785 -47.32   0.00195799    1.900    0.474
        82 -10.7480     41.5289    219.5104   8.7729971559e+01   2.2109743427e+01    0.1300645     0.106095  41.34 3.008924e-05    1.006    0.006
        83 -12.3053    134.2283    198.7738   6.2726816552e+01   1.5059125601e+01    0.2251841     0.146455   7.38  0.000742638    1.727    0.421
        84 -13.8734    145.3992    203.3445   6.0968137590e+01   1.2762457803e+01    0.6350057    0.3672537 -28.11  0.003284422    1.952    0.488
        85 -12.5960    141.8419    198.8115   6.1056003345e+01   1.4038589139e+01    0.3957179    0.2431864 -66.51  0.001922357    2.579    0.612
        86 -12.9455    145.2724    215.6422   6.2750281425e+01   1.0662051732e+01    0.3780099    0.3409187  19.79  0.001360839    1.186    0.157
        87 -13.2821    140.3127    211.1212   6.3170386527e+01   1.2045809059e+01     0.413426    0.3642821 -71.51  0.002610772    1.561    0.359
        88 -12.2054    129.9377    217.1461   6.6229186942e+01   1.2276661278e+01    0.2034034    0.1762828 -36.07 0.0007527601    1.269    0.212
        89 -13.1851    108.4812    215.4041   7.0863023415e+01   1.5246744856e+01    0.2889783    0.2414725 -54.53  0.001260289    1.390    0.280
        90 -12.6647     87.4278    214.1301   7.5764453309e+01   1.8083941849e+01    0.4223816    0.3695125 -62.17  0.002702425    1.329    0.247
        91 -11.8616     86.6604    210.5193   7.5565141490e+01   1.8911986350e+01    0.5254808    0.1900928  26.10  0.001799072    2.497    0.600
        92 -13.4138     79.9262    212.6198   7.7466441184e+01   1.9296874618e+01     1.057197    0.3349454  24.53  0.003153483    3.012    0.668
        93 -11.0727    155.2064    214.8026   6.0596178423e+01   9.6026290238e+00    0.1681827    0.1217402  -5.83 0.0004207045    1.329    0.248
        94 -10.8544     59.4183    214.7525   8.2846995534e+01   2.1222322811e+01    0.1579169    0.1206691 -54.45 0.0007137891    1.541    0.351
        95 -12.8017    125.1798    212.8407   6.6717943798e+01   1.3637114619e+01    0.2241468    0.2071996   1.56 0.0003640255    1.104    0.094
        96 -12.6020    120.4337    214.2154   6.7965754918e+01   1.3980280286e+01    0.2030599    0.1559368  23.23 0.0005370422    1.127    0.113
        97 -11.6194    247.3554    212.8443   4.4829451721e+01   2.2197402386e-01    0.1454363    0.1120274  -0.60 0.0004113191    1.246    0.197
        98 -10.5130     40.8593    213.1279   8.7497238690e+01   2.3552686092e+01    0.1556129    0.1476767 -10.68 0.0004811797    1.274    0.215
        99 -12.2272     68.6748    207.4936   7.9824359225e+01   2.1718568926e+01    0.5057986    0.2550375  12.59  0.001568786    2.449    0.592
       100 -10.9610     63.7724    211.3381   8.1442426536e+01   2.1460075483e+01    0.1901814    0.1149611  28.42 0.0002303077    1.417    0.294
       101 -11.1552     64.0001    208.2016   8.1102953412e+01   2.2110359259e+01    0.2071479    0.1492798  44.17 0.0004636836    1.214    0.176
       102 -11.2292     46.9477    211.0672   8.5776306693e+01   2.3371910776e+01    0.1987059    0.1484356 -29.91  0.000691622    1.747    0.428
       103 -12.9211    229.1534    207.1574   4.6563252225e+01   2.5959144135e+00    0.3188091    0.1851767 -40.29  0.001473362    1.771    0.435
       104 -11.8835    225.0425    204.0526   4.6700951709e+01   3.4016976276e+00    0.1765361    0.1467999 -23.37 0.0003870554    1.332    0.249
       105 -11.0049     38.0848    209.3175   8.7976418300e+01   2.4675419756e+01    0.1879698    0.1380035  31.97  0.000766971    1.176    0.150
       106 -11.9648    181.3017    207.5498   5.4509965658e+01   7.6584492704e+00    0.3018502    0.1349463  28.38  0.001572477    2.153    0.536
       107 -13.1039    105.3004    206.7958   7.0559710604e+01   1.7318106218e+01    0.6205135    0.2533758  31.38  0.002705387    2.089    0.521
       108 -12.0779    160.2933    206.4490   5.8360592465e+01   1.0352010130e+01    0.2102818    0.2035554  71.55 0.0006943744    1.475    0.322
       109 -12.2998     33.8244    205.8497   8.8888123993e+01   2.5880871744e+01    0.2558981    0.2329161  50.72 0.0006505401    1.103    0.093
       110 -11.7376     36.3045    203.2841   8.8062590309e+01   2.6218637942e+01    0.2105233    0.1789908  60.26 0.0002054038    1.096    0.088
       111 -11.2306    205.0970    206.2014   5.0170567242e+01   5.1890750509e+00    0.1629562    0.1177113  -7.90 0.0002882855    1.147    0.128
       112 -11.7055    123.6009    205.7066   6.6117541194e+01   1.5159707901e+01    0.2202833    0.1175249 -47.27 0.0007743898    1.996    0.499
       113 -11.3406     55.0796    205.5342   8.3210371526e+01   2.3711013719e+01    0.1830994    0.1618624  52.65 0.0003623232    1.074    0.069
       114 -12.5270     48.7144    204.7206   8.4836620031e+01   2.4593873567e+01    0.2740458    0.2210419 -60.07 0.0006666228    1.432    0.302
       115 -11.7108    117.3081    205.3251   6.7520057913e+01   1.6051216351e+01    0.2814123    0.1254179  45.67  0.001186067    2.577    0.612
       116 -12.6712     99.3435    185.0597   6.9153165964e+01   2.2669860897e+01    0.4989637    0.3138353 -30.05  0.002201535    2.046    0.511
       117 -13.2060     94.2270    183.7458   7.0312784321e+01   2.3679403689e+01    0.5290063    0.2979155 -50.39  0.002069565    1.896    0.472
       118 -13.2759     89.5322    183.0310   7.1469847611e+01   2.4494823381e+01    0.6833606    0.3407204 -67.49  0.001047301    2.378    0.580
       119 -13.0662     90.3126    200.9492   7.3553453280e+01   2.0449580535e+01    0.7068225    0.3302008 -40.58  0.002947061    2.788    0.641
       120 -13.5502     95.4642    194.0538   7.1376893161e+01   2.1245458618e+01     1.039314    0.3483019  41.62  0.003838263    2.800    0.643
       121 -11.1983     41.6552    205.1433   8.6752445020e+01   2.5247613413e+01    0.2582513    0.1452968  38.73  0.001311361    1.449    0.310
       122 -10.8385     60.0882    204.0804   8.1757509864e+01   2.3466952721e+01    0.2278461    0.1305736  54.18 0.0008899111    1.734    0.423
       123 -11.4764    166.8177    203.1823   5.6578951840e+01   1.0081207624e+01    0.1693838    0.1230033  -7.89 0.0003593696    1.319    0.242
       124 -11.7169     77.8140    200.9989   7.6782137016e+01   2.2022645006e+01    0.4140608    0.1648639 -59.59  0.001734243    2.671    0.626
       125 -11.4244    212.2413    200.0680   4.8060323447e+01   5.2699384245e+00    0.1563795    0.1255177 -54.66  0.001071985    1.996    0.499
       126 -12.4459     82.6994    195.5882   7.4886390582e+01   2.2591517770e+01     1.443076     0.718075 -84.51  0.005523011    3.429    0.708
       127 -13.5255     70.7032    186.6568   7.7093584943e+01   2.6167369466e+01     1.074016     0.818905  -9.09  0.005606373    1.632    0.387
       128 -13.6893     65.0066    181.7591   7.8143761511e+01   2.8056118099e+01     0.717436    0.4544535 -77.73  0.003466885    1.764    0.433
       129 -15.2696      3.5429    210.8010   9.7023307530e+01   2.7440208216e+01     1.189706    0.6003506  89.49  0.006169181    2.019    0.505
       130 -11.6680     51.2336    199.1650   8.3709195715e+01   2.5581803008e+01    0.2600548    0.1725851  33.72  0.000664336    1.289    0.224
       131 -11.1021     39.8475    197.9409   8.6732580463e+01   2.7092664490e+01    0.2783205    0.1189513  46.40 0.0008853595    2.000    0.500
       132 -10.8362     35.1376    198.4422   8.8062989601e+01   2.7457314221e+01    0.1862018    0.1174538  28.12 0.0002596958    1.410    0.291
       133 -11.2810      1.3999    196.7329   9.7218689718e+01   3.0823823553e+01    0.2899343    0.1112554 -79.95  0.001255968    2.640    0.621
       134 -12.9867    122.5286    196.4398   6.5061705503e+01   1.7083914862e+01     0.393141    0.2153842  41.40  0.001750504    1.816    0.449
       135 -11.0462     30.2793    196.9837   8.9309674212e+01   2.8280538025e+01    0.2039136    0.1321973 -45.20  0.001035165    1.961    0.490
       136 -12.6917     26.8818    193.3098   9.0035465370e+01   2.9480539782e+01    0.6143318    0.1841351 -69.49  0.002312363    3.276    0.695
       137 -11.3409     30.9636    188.8021   8.8594322847e+01   3.0175417909e+01    0.1992785    0.1743271  49.59 0.0003181062    1.034    0.033
       138 -12.0768     24.8101    185.8143   9.0179540238e+01   3.1498511953e+01    0.2963894    0.2167917  29.53  0.001271411    1.268    0.212
       139 -11.4385     28.6635    182.7052   8.8854392176e+01   3.1902932009e+01     0.243176    0.1527425 -36.84 0.0007257224    2.140    0.533
       140 -13.1112    191.2546    193.8472   5.0574532946e+01   8.5690930492e+00    0.4383279    0.2648893  28.06  0.002226676    1.660    0.397
       141 -10.1989     47.3292    196.2876   8.4541956887e+01   2.6680266585e+01    0.1306105    0.1027249 -21.02 0.0005498082    1.616    0.381
       142 -13.5782     11.2418    194.4701   9.4453738400e+01   3.0587808825e+01    0.3520348    0.2949336  29.32  0.001092818    1.190    0.159
       143 -12.9339      4.5048    181.6747   9.5891366648e+01   3.4235599484e+01     0.437362    0.3092336  82.22 0.0008745293    1.329    0.248
       144 -13.5612     10.4361    188.6349   9.4448209458e+01   3.2059654031e+01    0.6945391    0.4133188  14.95  0.002488169    1.780    0.438
       145 -11.9727     10.9352    180.9531   9.3982139550e+01   3.3916317751e+01    0.4109286    0.2517603 -60.46  0.002082346    1.836    0.455
       146 -12.2209    152.4752    195.5037   5.8284061707e+01   1.3221147481e+01    0.2244306    0.1960102   7.30 0.0007078098    1.041    0.039
       147 -11.3896    239.3045    193.3801   4.2975905957e+01   3.3520580614e+00    0.1788972    0.1181847 -14.86 0.0006118494    1.217    0.178
       148 -11.1004    217.9811    193.9956   4.6197163196e+01   5.4866678870e+00    0.1439861    0.1302849 -41.48 0.0004333735    1.600    0.375
       149 -11.9874    162.9798    192.4957   5.5659049528e+01   1.2356573512e+01    0.2609909    0.2232406 -83.84  0.001604559    1.862    0.463
       150 -12.2481    158.4193    193.2370   5.6699106533e+01   1.2830821810e+01    0.2643523    0.1796592  18.16  0.000281465    1.430    0.301
       151 -11.1501     69.3963    193.9025   7.8257285832e+01   2.4653651194e+01    0.1728794    0.1631516 -79.13 0.0004292884    1.168    0.144
       152 -11.3644    212.5780    192.8096   4.6850735288e+01   6.2469061885e+00    0.1507361   0.09383849 -42.96 0.0007252228    1.695    0.410
       153 -11.2142    120.5103    191.4961   6.4814337928e+01   1.8343407263e+01    0.1335479      0.12136  18.13 -3.162158e-05    1.016    0.016
       154 -11.2073    234.4994    190.4882   4.3191445741e+01   4.2108857458e+00    0.1080726   0.08033155 -18.32 0.0004130097    1.024    0.023
       155 -13.0616    134.8028    188.8097   6.1079012310e+01   1.6872686598e+01    0.3892178    0.2098388 -39.69  0.001011452    1.948    0.487
       156 -12.4507     50.4991    189.9713   8.3114826613e+01   2.7820033356e+01    0.3079976    0.2234015  27.87 0.0003546493    1.275    0.216
       157 -14.0669     50.9967    183.9761   8.2417989413e+01   2.9211609939e+01    0.5389174    0.3139452  39.85  0.001613682    1.484    0.326
       158 -11.0378    174.1927    188.8531   5.2875744176e+01   1.1502310133e+01    0.1733897    0.1284826  -8.61 0.0006308305    1.302    0.232
       159 -12.7708    194.5574    187.2033   4.8908874747e+01   9.1859760881e+00    0.2706616    0.1831456  35.69  0.001304694    1.661    0.398
       160 -12.0657    110.0242    187.9107   6.6842861825e+01   2.0551393350e+01    0.2118626    0.1951615  27.42 0.0006317465    1.031    0.030
       161 -13.4118    120.6719    186.5639   6.4032046132e+01   1.9320946701e+01    0.5117061    0.2561115  30.33 0.0005113709    1.874    0.466
       162 -14.0022    118.6956    180.1961   6.3519134513e+01   2.0927827023e+01    0.9292622    0.3952777  52.39  0.003056163    4.058    0.754
       163 -11.4732     43.5108    186.7227   8.4828400809e+01   2.9381037665e+01    0.2398203    0.1857487  46.49 0.0003669829    1.123    0.109
       164 -11.4349    247.5973    185.8467   4.0658270305e+01   3.4847968761e+00    0.1698482    0.1178447   3.97 0.0009650849    1.409    0.291
       165 -10.4078    241.3179    186.2792   4.1569285506e+01   4.0597926995e+00    0.1062673    0.0645961 -10.43 0.0002456242    1.577    0.366
       166 -12.1299    164.6021    185.2127   5.4139325578e+01   1.3398281851e+01     0.204813    0.1895978  47.77 0.0004162284    1.382    0.276
       167 -11.1842     40.5683    182.5455   8.5336205740e+01   3.0726167258e+01    0.2395421    0.1233394  83.01 0.0006200589    2.262    0.558
       168 -10.5858     37.3468    181.2936   8.6184782501e+01   3.1379389172e+01    0.2283694    0.1292891  18.74 0.0008658674    1.824    0.452
       169 -10.8303    210.4588    182.5001   4.5488532876e+01   7.9720212215e+00    0.1161666   0.09120391 -17.31 9.774706e-05    1.006    0.006
       170 -11.4518    142.1863    181.5707   5.8250415216e+01   1.7215766562e+01    0.1811663    0.1200512  17.68 0.0004908326    1.593    0.372
       171 -12.3955    106.1741    180.4226   6.6705074643e+01   2.2711278932e+01    0.2994491    0.2041259 -26.74  0.001453856    1.810    0.448
       172 -11.4331     24.0651    181.5188   9.0135667372e+01   3.2635809418e+01    0.2110225    0.1242298  26.37  0.001025497    1.571    0.363
       173 -11.5909    191.5899    177.7960   4.7825662009e+01   1.1035284624e+01     0.162272    0.1051862 -46.08 0.0004361152    1.624    0.384
       174 -12.1492    166.8449    177.9258   5.2450982010e+01   1.4365572708e+01    0.1987578    0.1815439  27.94 0.0004351957    1.226    0.185
       175 -11.9379     57.5362    176.7559   7.9762375543e+01   3.0212462339e+01    0.3579806    0.2268272  75.94  0.001661789    1.813    0.448
       176 -13.4057    148.2590    176.3312   5.6028115391e+01   1.7333228563e+01    0.3659667    0.2905295  53.36  0.002088626    1.559    0.359
       177 -12.0465    137.3205    177.0320   5.8582817183e+01   1.8815547759e+01    0.1874656    0.1735896 -28.78 0.0007785371    1.093    0.085
       178 -10.8886     53.2716    177.6333   8.1120649738e+01   3.0509956351e+01     0.153635   0.09512278  60.86 0.0006999906    1.666    0.400
       179 -12.3550     22.6159    175.6516   9.0204183837e+01   3.4254252296e+01    0.3962329    0.3115909 -64.54  0.001645939    1.395    0.283
       180 -11.8258    171.8852    175.6234   5.1063261315e+01   1.4061600657e+01    0.2131873    0.1560926 -27.33 0.0005238237    1.266    0.210
       181 -13.7227    126.6757    166.8626   5.9327801183e+01   2.2532484610e+01     0.594757     0.365023  27.33  0.002826886    1.675    0.403
       182 -12.7535    126.6089    173.7694   6.0539553356e+01   2.1090231326e+01    0.3614595    0.2422085 -72.31  0.001708487    2.118    0.528
       183 -13.5139    129.7914    169.9692   5.9123706998e+01   2.1393578248e+01    0.5595865    0.2949072  22.57  0.002365362    2.266    0.559
       184 -12.4535    106.2283    175.7604   6.5973319653e+01   2.3731540188e+01    0.2500238    0.2327906 -26.41 0.0006197821    1.122    0.109
       185 -12.5687     48.0702    174.6465   8.2376444696e+01   3.1870803016e+01    0.5254455    0.2312345  56.84  0.001376524    2.521    0.603
       186 -11.8347      3.8847    175.1493   9.5844788178e+01   3.5921644837e+01    0.3362827    0.2245509  61.14 0.0008801778    1.285    0.222
       187 -10.7754      2.6538    171.7278   9.6095100387e+01   3.6883278008e+01     0.184062    0.1111955  34.80  0.000336142    1.454    0.312
       188 -11.2967    224.1236    175.7003   4.2253145466e+01   7.3502983264e+00    0.1916116   0.09725783  42.19  0.001090657    2.570    0.611
       189 -10.4798     39.5669    175.4886   8.5033853761e+01   3.2606590299e+01     0.138605    0.1303933  54.21 9.485922e-06    1.081    0.075
       190 -13.2106     90.9260    171.5385   6.9444454799e+01   2.6958273019e+01    0.5300887     0.236595 -51.30  0.002123672    2.329    0.571
       191 -11.9441     17.2829    167.0641   9.1328501480e+01   3.6951053635e+01    0.4601929    0.2081551  15.74  0.001882724    2.386    0.581
       192 -12.3741     33.0407    157.9477   8.5524263437e+01   3.7890209357e+01    0.2826531    0.1924048  55.21 0.0003768395    1.361    0.265
       193 -12.8876     38.3157    154.8037   8.3455637603e+01   3.8175159501e+01    0.4902946    0.2176238  14.93  0.001780477    2.747    0.636
       194 -13.7667     33.2116    148.6089   8.4555401029e+01   4.0411128094e+01    0.5626445    0.2931497  22.02 0.0008089936    1.955    0.489
       195 -12.7140     29.4640    172.4513   8.7882935783e+01   3.4426826834e+01    0.3275684    0.2846705  28.05 0.0005530666    1.173    0.148
       196 -12.5368     24.0396    168.6990   8.9302525504e+01   3.5920141908e+01    0.4941234    0.2935358  17.23  0.002322986    1.773    0.436
       197 -13.6995     15.5043    149.6699   9.0799591237e+01   4.1768459779e+01    0.6035728    0.4341749 -29.80  0.002348859    1.744    0.426
       198 -12.6738     21.2394    148.7924   8.8741679783e+01   4.1519915026e+01    0.4100672    0.2542301 -61.51 0.0007475854    1.654    0.395
       199 -13.1892     21.4088    153.3247   8.9038954848e+01   4.0264641077e+01    0.5612198    0.3490361 -31.13  0.002510008    2.147    0.534
       200 -13.9543     26.5647    151.2858   8.7107841802e+01   4.0343331122e+01    0.8689129    0.4258234  88.16  0.003507609    2.167    0.539
       201 -10.4862     12.6936    174.6999   9.3166871165e+01   3.5356118070e+01    0.1308174    0.1018037 -40.39  0.000272294    1.594    0.373
       202 -11.5825    233.7975    171.5602   4.0172347766e+01   6.8217724184e+00    0.2140125    0.1894665  43.88  0.001664991    1.697    0.411
       203 -12.0478    100.7929    171.9600   6.6813589308e+01   2.5398685563e+01    0.2726007     0.210041 -89.47   0.00115173    1.621    0.383
       204 -12.0199    197.1562    170.2834   4.5551046724e+01   1.1500296605e+01    0.2241829    0.1412692 -27.68  0.001311217    1.426    0.299
       205 -11.6901     76.5482    171.4919   7.3526233100e+01   2.9021688628e+01    0.2347987    0.1615499  60.75 0.0006515185    1.580    0.367
       206 -12.1319     62.3803    170.4630   7.7586637997e+01   3.1176581203e+01    0.4242774    0.2464707  54.84  0.001877742    1.777    0.437
       207 -12.5106     57.5395    164.0436   7.8285358573e+01   3.3435468044e+01    0.4447212    0.2282498  63.16  0.001026653    2.398    0.583
       208 -12.6800    152.6173    168.8199   5.3760826997e+01   1.8115365721e+01    0.3263978    0.1895164 -56.75  0.001330987    2.090    0.522
       209 -12.9244    151.9635    164.7979   5.3165420537e+01   1.8988110572e+01    0.2929951    0.2161977  18.07  0.000936272    1.441    0.306
       210 -11.2195     48.8509    169.6482   8.1625753591e+01   3.3055077230e+01    0.2064272    0.1657815  37.94 0.0007972614    1.143    0.125
       211 -11.9551     41.7306    168.7104   8.3745351095e+01   3.4111805114e+01    0.3667481    0.2503655  68.53  0.001807107    1.464    0.317
       212 -13.2519      4.8148    161.9291   9.5040232036e+01   3.9280604107e+01     1.143405    0.3015402  46.98  0.003919701    2.956    0.662
       213 -12.3134     10.7263    161.3559   9.3105909061e+01   3.8993501336e+01    0.2826728    0.2186608  54.42 0.0002421089    1.125    0.111
       214 -12.5658    172.0180    166.5111   4.9400294652e+01   1.5642418546e+01    0.2421577    0.2166254 -33.63  0.001560907    1.136    0.119
       215 -11.8796    106.0833    167.4859   6.4677125037e+01   2.5614427071e+01    0.2183897    0.1366064  31.19 0.0005228421    1.541    0.351
       216 -12.8387     87.8683    164.8805   6.9290398282e+01   2.8999169335e+01    0.3329933    0.2682157  19.89  0.001124418    1.287    0.223
       217 -12.6423     83.8006    163.5039   7.0254484551e+01   2.9938582307e+01    0.4267012    0.2090537 -59.53  0.001083195    2.097    0.523
       218 -12.2201    198.4496    165.3096   4.4441030164e+01   1.2118716029e+01    0.1878892    0.1573344  61.41  0.001205965    1.812    0.448
       219 -11.6809    206.0278    163.9782   4.2966342914e+01   1.1317657694e+01    0.1897855    0.1266968  -9.84 0.0006473744    1.635    0.389
       220 -10.6760     68.2925    164.3268   7.5003752881e+01   3.1941909259e+01    0.1470773    0.1120928 -28.77 0.0002785524    1.621    0.383
       221 -12.4714     37.8008    162.4919   8.4396230700e+01   3.6173677209e+01    0.4304695    0.2722659 -17.65  0.001530281    2.306    0.566
       222 -12.6535     47.3218    161.3822   8.1211399641e+01   3.5388384916e+01    0.4329545    0.2326864  60.66  0.001792993    2.014    0.504
       223 -13.2049    170.0119    159.5417   4.8487784544e+01   1.7191964484e+01    0.3629107    0.2602131 -49.82  0.002034714    1.460    0.315
       224 -12.0840     15.9710    160.2423   9.1333408154e+01   3.8868104505e+01    0.2913344    0.2099869  41.93 0.0008987111    1.244    0.196
       225 -12.0603     77.2726    159.6711   7.1607592912e+01   3.1850113146e+01    0.2414826    0.2114277 -65.29 0.0004426848    1.187    0.157
       226 -12.2741     81.0256    156.4834   6.9977364634e+01   3.2095831897e+01    0.2807022    0.2149741  37.98  0.001160118    1.235    0.190
       227 -12.1656     76.9159    154.9516   7.0985358267e+01   3.3097465063e+01    0.2841673    0.2046786  39.51 0.0003517393    1.306    0.234
       228 -12.7888    188.0999    158.3159   4.4915856022e+01   1.4712720046e+01    0.2760546    0.2237197   2.82 0.0005244912    1.263    0.208
       229 -11.4462    105.6414    158.1645   6.3195219988e+01   2.7831294594e+01    0.2525404    0.1901525  43.76 0.0006434381    1.305    0.234
       230 -11.5817     71.2259    158.2014   7.3236260646e+01   3.3094028723e+01    0.2548742    0.1465962 -28.43 0.0008743475    2.768    0.639
       231 -12.5269     56.9609    157.3137   7.7617685050e+01   3.5265479805e+01    0.3270983     0.238048  43.37 0.0006992846    1.270    0.213
       232 -13.0831     63.2693    156.4345   7.5479754047e+01   3.4657998915e+01    0.3310456    0.2340472  22.55  0.001238643    1.472    0.320
       233 -12.1247    121.7218    156.0452   5.8583220135e+01   2.5677241098e+01    0.1991125    0.1839563 -43.22 0.0003391299    1.090    0.082
       234 -12.1049    212.1723    153.6669   4.0124541915e+01   1.2090616413e+01    0.2221838    0.1423756 -51.82 0.0007974899    1.852    0.460
       235 -11.6254     51.1473    153.9394   7.9081411835e+01   3.6900674991e+01    0.2440509    0.1875154  63.14  0.001217936    1.271    0.213
       236 -12.3697      3.4662    153.4985   9.5118596755e+01   4.1623064123e+01    0.3670263     0.204936  33.56  0.001752723    1.622    0.383
       237 -12.0614     88.5040    153.1101   6.7180494364e+01   3.1786654202e+01    0.2216733    0.1480404 -60.42 0.0006687627    1.542    0.351
       238 -11.7090    249.0973    151.9385   3.4806468551e+01   7.7378305529e+00    0.1611216    0.1172681 -27.44 0.0003063395    1.004    0.004
       239 -12.0393     45.5066    151.7744   8.0697956299e+01   3.8170998497e+01    0.3719254    0.2006347 -26.15  0.001315345    3.187    0.686
       240 -11.2517     79.5116    151.5276   6.9632598299e+01   3.3579216974e+01     0.151295     0.142219  57.05  0.000134108    1.012    0.012
       241 -12.0057    147.2147    149.4136   5.1238374656e+01   2.2800069725e+01    0.2742838    0.2415125  83.69 0.0005823791    1.425    0.298
       242 -12.7138    108.6389    149.0338   6.0692801211e+01   2.9470673950e+01     0.328968    0.2801224 -61.94 0.0007765626    1.215    0.177
       243 -12.1623     95.7168    149.2580   6.4379048390e+01   3.1575221049e+01    0.3127722    0.2143995 -19.61  0.001334677    2.098    0.523
       244 -12.5528     84.5991    149.3776   6.7708978413e+01   3.3335867946e+01    0.2794225    0.2588972 -25.59 0.0006172498    1.193    0.162
       245 -11.4920     54.4803    150.5114   7.7527770696e+01   3.7395112159e+01    0.1516958    0.1395893  61.39 8.668739e-05    1.003    0.003
       246 -13.4532      4.0933    147.5861   9.4633370678e+01   4.3184412077e+01    0.8393499     0.471502  -6.33  0.003691594    2.347    0.574
       247 -13.4853      2.0617    131.4682   9.4556440119e+01   4.7770837435e+01    0.5692352      0.42511  21.96 0.0005435514    1.402    0.287
       248 -12.1050      2.8072    142.5298   9.4841800914e+01   4.4654170887e+01    0.2758234    0.2571169  27.39 0.0009633602    1.176    0.149
       249 -14.1948      3.4772    137.9012   9.4367551009e+01   4.5891364430e+01     1.888094          nan  33.20  0.005031907    5.115    0.804
       250 -14.0058     11.5291    141.1765   9.1630041741e+01   4.4424962138e+01    0.9110301    0.3991926  51.44  0.003676413    2.112    0.526
       251 -14.2542     14.5552    136.0660   9.0146086542e+01   4.5620340840e+01    0.5818996    0.4022205  50.92  0.001864387    1.338    0.253
       252 -13.8634     11.9618    133.2409   9.0907528236e+01   4.6612783270e+01    0.4969219    0.2946745  49.52 0.0003944612    1.567    0.362
       253 -11.3809    171.6512    149.6912   4.6259751883e+01   1.8728745694e+01     0.136733   0.09794507  -7.05 0.0007044191    1.709    0.415
       254 -11.7342     77.0219    148.6949   6.9936637846e+01   3.4684556705e+01    0.2110816    0.1953176  30.19 0.0004577445    1.101    0.092
       255 -11.6623     66.3794    148.2875   7.3278764918e+01   3.6363959958e+01    0.2855165    0.1593831  48.50 0.0007113463    1.782    0.439
       256 -10.6525    229.3753    145.8181   3.6223828495e+01   1.0989893372e+01    0.1590982   0.08706801 -30.16 0.0002883998    1.520    0.342
       257 -10.3225    138.3058    146.2581   5.2624024852e+01   2.4974406897e+01    0.1380295    0.1090683  -5.23 0.0001887627    1.517    0.341
       258 -11.2439    121.4976    146.4714   5.6782032009e+01   2.7849821612e+01      0.14553    0.1396201 -11.29 0.0002184165    1.058    0.055
       259 -12.3274    170.4836    144.4459   4.5430147714e+01   1.9880265101e+01    0.2682962    0.1882318  14.31  0.001390746    1.805    0.446
       260 -12.9786    100.8714    142.0996   6.1524893469e+01   3.2453160879e+01    0.6249501    0.3253726  57.16    0.0022638    2.649    0.622
       261 -12.7543     44.5544    144.6421   8.0144347656e+01   4.0228946078e+01    0.3977686     0.221791 -22.81  0.001138285    3.046    0.672
       262 -10.7694    118.6049    143.7984   5.6992225150e+01   2.8959893932e+01    0.1990308    0.1408737 -65.06 0.0002988344    1.592    0.372
       263 -13.7199     23.8519    161.1523   8.8817715429e+01   3.7931254703e+01    0.7085493    0.5910604 -35.57  0.003887847    1.444    0.308
       264 -11.0489     49.6593    143.6810   7.8238352203e+01   3.9863518010e+01    0.1563102    0.1140062 -31.25 0.0007049581    1.714    0.417
       265 -10.9823    178.4646    142.4751   4.3538452344e+01   1.8939374024e+01    0.1311572    0.1168344 -34.87 -2.909683e-05    1.056    0.053
       266 -11.7020     88.0845    144.7021   6.5812221490e+01   3.3956053204e+01    0.2218087    0.1963455  36.29  0.001154882    1.113    0.102
       267 -13.1669     29.8651    138.4577   8.4684473739e+01   4.3572506093e+01    0.4615842    0.2352265 -88.83  0.001369692    2.084    0.520
       268 -12.0222    188.5748    138.5810   4.0970604545e+01   1.8002862659e+01    0.2299765     0.192418 -43.85 0.0007794166    1.153    0.133
       269 -11.6535     77.1928    139.1850   6.8224364171e+01   3.7126124372e+01    0.2140205    0.1733451  68.03 0.0002801303    1.293    0.226
       270 -11.9293     41.5506    139.5181   8.0553891138e+01   4.2000244767e+01    0.2578819    0.1895794  42.09 0.0006071255    1.281    0.219
       271 -12.8956     45.3282    137.8800   7.8973592425e+01   4.2001534593e+01     0.338743    0.2534573 -64.00 0.0003662312    1.339    0.253
       272 -12.6993     35.0681    138.7128   8.2806415695e+01   4.2956167395e+01    0.3400869    0.2396931  20.98  0.001073494    1.493    0.330
       273 -13.0212     37.5953    135.3004   8.1458797928e+01   4.3631745209e+01    0.4577324    0.2457937  50.86  0.001215984    1.839    0.456
       274 -14.4217     35.5119    130.6084   8.1638691214e+01   4.5183589067e+01    0.7998954     0.468281  37.58 0.0008330398    1.606    0.377
       275 -11.3610    212.5162    137.4730   3.6991955784e+01   1.4550871443e+01    0.1992283   0.09637748 -45.52  1.47716e-05    1.907    0.476
       276 -11.1124    223.4996    137.0656   3.5374395777e+01   1.3061399351e+01    0.1737006   0.09460329 -36.77 0.0009872583    1.457    0.314
       277 -12.7376    119.2840    135.7644   5.5137217155e+01   3.0671397483e+01    0.4178919    0.3197474 -86.24  0.001979134    1.692    0.409
       278 -10.4590    141.4387    135.5079   4.9639417239e+01   2.6675942874e+01    0.1423274    0.1355413 -43.34 0.0002233534    1.021    0.021
       279 -13.0005     77.8512    133.8847   6.7019246393e+01   3.8406688132e+01    0.4516505    0.2869229 -23.31  0.001142776    2.506    0.601
       280 -12.0618    102.7255    134.0200   5.9339535703e+01   3.4089584045e+01    0.2202542    0.2065642 -70.06  0.001173076    1.066    0.062
       281 -10.7013    138.6277    132.7804   4.9692860059e+01   2.7765451912e+01    0.1993652    0.1329122 -56.05 0.0004558544    1.566    0.362
       282 -11.7794    127.7843    132.8995   5.2335881101e+01   2.9749137005e+01    0.2797346    0.1906325  68.34  0.001215384    2.053    0.513
       283 -11.4727    193.4668    134.9747   3.9422938812e+01   1.7841206964e+01    0.1766283    0.1657101   8.36 0.0001758539    1.178    0.151
       284 -13.0068     28.5141    124.4479   8.3585030526e+01   4.7667932763e+01    0.4033533    0.2857424  -9.63  0.001056098    1.792    0.442
       285 -12.8018     21.6915    131.2956   8.7017778046e+01   4.6368037948e+01    0.3109728    0.2685733  10.89 0.0002187108    1.291    0.225
       286 -13.7819     22.1069    127.8728   8.6509516612e+01   4.7301641863e+01    0.6280094    0.3986736 -16.59 0.0003499705    2.102    0.524
       287 -11.8354     69.1720    131.2406   6.9443788369e+01   4.0490137663e+01    0.2676398    0.1558551 -28.34 0.0009481545    2.794    0.642
       288 -11.3060    126.7903    137.1795   5.3513238713e+01   2.8983470265e+01    0.2001916    0.1720746 -13.34 0.0003465655    1.317    0.241
       289 -12.5398    206.2902    129.3499   3.6288737582e+01   1.6763499129e+01    0.2282566    0.1834902 -31.79 0.0003345483    1.042    0.040
       290 -11.3195    121.8262    128.2740   5.2823075206e+01   3.1902863995e+01    0.2624993    0.2014443 -63.07 0.0008206587    1.378    0.274
       291 -12.7911     83.5930    127.6722   6.3893224193e+01   3.9061792046e+01    0.4552623    0.2437507 -44.31  0.001759144    2.092    0.522
       292 -12.4617     80.1994    127.3832   6.4950508848e+01   3.9716917702e+01    0.3150313    0.2159064  52.34 0.0006717861    1.499    0.333
       293 -13.5336     44.0343    127.3073   7.7920452846e+01   4.5113046487e+01    0.7433566    0.2722847  50.66  0.002343166    3.138    0.681
       294 -11.4521    188.0123    127.8855   3.8847397898e+01   1.9936544368e+01    0.1924055    0.1653065 -32.17 0.0003430358    1.030    0.029
       295 -10.4744    130.4844    128.4671   5.0678451771e+01   3.0218451276e+01     0.146282    0.1418213 -58.52 7.941555e-05    1.015    0.015
       296 -13.7317     60.2995    126.3959   7.1693898744e+01   4.3150101872e+01    0.3862979    0.3142527  85.24   0.00133745    1.264    0.209
       297 -12.0185     74.9630    125.0174   6.6233199027e+01   4.1217427267e+01    0.2319894    0.2248745 -86.77 0.0003142198    1.040    0.039
       298 -13.3470     19.1644    123.1949   8.7198100609e+01   4.8889894745e+01    0.5553432    0.3544587 -27.22  0.002435472    1.990    0.498
       299 -11.9176     23.8661    114.8522   8.4294085134e+01   5.0857273737e+01    0.4183833    0.2797914  74.29 0.0008295261    1.524    0.344
       300 -12.4943     21.7052    117.6884   8.5549984340e+01   5.0242370130e+01     0.344708    0.2510778 -47.11  0.001124493    1.476    0.323
       301 -13.0355     19.5124    114.8965   8.6151175014e+01   5.1232238690e+01    0.4346137    0.3223223 -64.64  0.001103341    1.307    0.235
       302 -11.7487    109.2857    122.9159   5.4997668032e+01   3.5538129432e+01    0.2589203    0.2065753  57.19 0.0004794056    1.312    0.238
       303 -11.5811    189.0030    121.6695   3.7357343475e+01   2.0839246884e+01    0.1694866     0.161869 -32.04 0.0002161145    1.114    0.103
       304 -11.3534    165.4107    122.1679   4.1630634326e+01   2.4935382923e+01    0.1950122    0.1207614 -51.92 0.0003346921    1.613    0.380
       305 -12.6276    104.0992    121.3807   5.6134691108e+01   3.6897653397e+01    0.3661408     0.301585  64.38  0.001768324    1.293    0.227
       306 -10.8820    100.6997    113.6251   5.5290606272e+01   3.9431519257e+01    0.2098115    0.2013349  31.49 0.0004622904    1.116    0.104
       307 -12.4412     98.5407    117.3009   5.6836992391e+01   3.8953684501e+01    0.3687276    0.2540252  59.89 0.0008395158    1.637    0.389
       308 -13.7942     10.1552    105.6184   8.9262037898e+01   5.4600266585e+01    0.5716806    0.3826307  68.06  0.001748028    1.475    0.322
       309 -13.7587     12.7347    112.8398   8.8840395679e+01   5.2355544125e+01    0.5462097    0.2909722 -76.62  0.002028022    1.738    0.425
       310 -13.7627      4.8289    119.7831   9.2754052993e+01   5.0899844960e+01    0.5585019    0.3097001 -81.38  0.002509814    1.660    0.397
       311 -12.3012     14.0070    118.0096   8.8802742525e+01   5.0783449981e+01    0.2569054    0.2159854  24.71  0.000648311    1.251    0.201
       312 -13.4678      9.2152    116.0427   9.0639010434e+01   5.1685853996e+01    0.4119638    0.2452087  77.86  0.001380452    1.640    0.390
       313 -10.8111     97.2883    125.3589   5.9075679087e+01   3.7202719552e+01    0.1585831    0.1214574 -23.07 0.0007024787    1.685    0.406
       314 -11.8560     44.2548    121.0185   7.6840403852e+01   4.6853452501e+01    0.2709993    0.2119266 -18.85 0.0006023872    1.594    0.373
       315 -11.6077    179.2355    119.9998   3.8627667710e+01   2.2831817820e+01    0.1930397    0.1888092 -15.27 0.0003601385    1.122    0.109
       316 -12.5258     71.8676    116.6884   6.5558312509e+01   4.3946848010e+01    0.3564219    0.1744965 -59.51 0.0009587283    2.017    0.504
       317 -12.3919     51.1151    116.6607   7.3373810784e+01   4.7161302591e+01    0.4796382    0.3126346 -63.38  0.001155944    1.493    0.330
       318 -11.3326    196.9212    115.3261   3.4751812151e+01   2.0562642284e+01    0.1659039    0.1574568 -28.54 0.0004564845    1.133    0.118
       319 -13.2274     82.8211    112.4269   6.0749016875e+01   4.3133684659e+01    0.6492451    0.2870412 -60.01  0.001720251    2.377    0.579
       320 -11.9891    104.8247    114.0875   5.4174358231e+01   3.8508461271e+01    0.2471416    0.2110734  87.09  0.001221706    1.272    0.214
       321 -13.9871     62.4016    111.5459   6.7948646944e+01   4.6882382603e+01    0.6582367    0.5004525 -68.35  0.002804502    1.306    0.235
       322 -11.3882    116.3152    112.7003   5.0585344214e+01   3.6531486073e+01    0.2356574     0.199264  47.40 0.0002966389    1.208    0.172
       323 -12.8214    113.1625    110.4377   5.0879434867e+01   3.7690693267e+01    0.4165607    0.3284183   9.27  0.001790795    1.745    0.427
       324 -11.8185     89.9628    110.7851   5.7966247852e+01   4.2212071092e+01    0.2641064    0.2553904  -9.87 0.0003587762    1.156    0.135
       325 -11.0833     92.2658    107.7068   5.6445995957e+01   4.2532883536e+01    0.2146381    0.1894367 -21.54            0    1.344    0.256
       326 -11.9030     52.7660    110.6858   7.1554968661e+01   4.8586313784e+01    0.3410731    0.2448081  45.36 0.0007220198    1.368    0.269
       327 -12.4219     73.7203    109.4359   6.3240573165e+01   4.5547494310e+01    0.3904171    0.2395039 -84.78  0.001048695    2.297    0.565
       328 -12.1025    171.4909    109.0256   3.7480797328e+01   2.6236239553e+01    0.3688156    0.2383114  65.25  0.001798502    1.993    0.498
       329 -11.5347    161.0550    110.0000   3.9638820535e+01   2.8070986866e+01    0.2234603   0.08194554  49.31 0.0008101013    2.996    0.666
       330 -10.7812    209.5323    108.5009   3.1500513618e+01   1.9554686984e+01    0.1269682     0.103188 -38.33 0.0008097619    1.014    0.014
       331 -12.2273      2.3613    106.9009   9.2890060880e+01   5.4698963088e+01     0.255571    0.1878349  37.17  0.001318346    1.362    0.266
       332 -11.8826    219.3092    106.0183   2.9723778754e+01   1.8355228958e+01    0.1744016    0.1271725 -39.53 0.0003660981    1.085    0.078
       333 -11.6894    229.3923    103.1253   2.7938201286e+01   1.7211523394e+01     0.176711    0.1569422 -55.53 0.0003248375    1.223    0.183
       334 -12.5448     78.8423    101.4796   5.9411675739e+01   4.6677837551e+01    0.3252685    0.2777361  66.11 0.0006009178    1.193    0.162
       335 -13.3951    155.0541     97.3688   3.7672608253e+01   3.1682515392e+01    0.3849042    0.3566563  28.61 0.0006599172    1.261    0.207
       336 -12.7546     32.8586     98.0844   7.7689540929e+01   5.4707586183e+01    0.5703761    0.3157074 -36.94  0.002242415    2.243    0.554
       337 -12.5654    162.6338     99.7146   3.6831459262e+01   2.9686314934e+01    0.2593072    0.1653285 -50.24  0.000804846    1.464    0.317
       338 -12.1576     93.7921     99.1671   5.3697443922e+01   4.4314323544e+01    0.3279627    0.2567036  48.14  0.001125914    1.277    0.217
       339 -11.1108    208.2282     99.6336   2.9762789517e+01   2.1156819096e+01    0.1484147    0.1185186  40.67 0.0004138511    1.574    0.365
       340 -10.9520     58.2877     98.0864   6.6485235882e+01   5.1181752489e+01    0.5178668    0.2294001  50.97  0.001553919    2.674    0.626
       341 -11.2636     45.8661     97.4942   7.1667003200e+01   5.3220357879e+01    0.2142265    0.2065265 -80.59 0.0007184576    1.034    0.033
       342 -12.0847     24.5598     97.1676   8.1430033956e+01   5.5840136216e+01    0.4770938     0.343212  11.43  0.001094894    1.548    0.354
       343 -10.7955     15.6231    103.1595   8.6482134288e+01   5.4908543429e+01    0.3104384    0.1907177  21.22   0.00141406    1.692    0.409
       344 -11.2424    168.5458     96.4701   3.4970966194e+01   2.9083370020e+01    0.1397446    0.1253233 -43.78 1.445107e-05    1.059    0.055
       345 -12.3535     66.9333     94.4752   6.2053800532e+01   5.0666669677e+01    0.2773068    0.2308162  68.44 0.0003373607    1.254    0.203
       346 -10.9215    117.4898     94.0832   4.5324488556e+01   4.0442238500e+01    0.2293628    0.1479665 -48.00 0.0004639767    1.503    0.335
       347 -10.8953     89.3274     94.3034   5.3810071943e+01   4.6400111369e+01    0.1560091    0.1285285  -8.34 0.0003702285    1.646    0.392
       348 -12.0003     78.2005     92.1916   5.7116695507e+01   4.9143980168e+01     0.231898    0.1876609  77.33  0.001087604    1.363    0.266
       349 -11.3591    191.5017    100.4855   3.2260717315e+01   2.3977698028e+01     0.133625     0.112675 -45.11 0.0008104857    1.012    0.012
       350 -12.5773    229.9734     89.8266   2.5144421599e+01   1.9024627263e+01    0.2282627    0.1874846 -32.17 0.0004418433    1.166    0.142
       351 -11.8328     22.9994     90.1033   8.0993703209e+01   5.7985998049e+01    0.2415735    0.2032318 -70.68            0    1.129    0.114
       352 -11.7304    171.3963     88.7649   3.2568422694e+01   2.9864534376e+01    0.2010188    0.1239925 -31.81 0.0008726883    1.671    0.402
       353 -11.5278     88.2547     89.0902   5.2659970523e+01   4.7870759689e+01    0.2916083    0.1952313  59.09 0.0008812614    1.628    0.386
       354 -12.4250     11.3459     86.9130   8.6465881156e+01   5.9835562755e+01    0.4038798    0.2547336  15.42  0.001120729    1.694    0.410
       355 -11.9794    178.2409     86.8763   3.1014937572e+01   2.8799100630e+01    0.2109486    0.1654152 -58.97 0.0005135371    1.203    0.169
       356 -12.4899    149.2872     87.0641   3.6085713558e+01   3.4856009489e+01    0.2785586    0.2055223 -27.32  0.001366647    1.566    0.361
       357 -12.0084    150.4173     82.7844   3.4699845596e+01   3.5401038795e+01    0.2713784    0.1919979  27.59  0.001157483    2.116    0.527
       358 -10.5538    244.2523     85.9752   2.2963513007e+01   1.7352132918e+01    0.1446536   0.07435293 -37.58 0.0002568576    1.428    0.300
       359 -11.5800    202.2941     86.1027   2.7497978999e+01   2.4303431376e+01    0.1803362    0.1372989 -45.65 0.0003529799    1.074    0.069
       360 -11.4120    159.4904     85.0494   3.3639719674e+01   3.3015181107e+01    0.2151742     0.129296 -42.03 0.0003345621    1.507    0.336
       361 -11.2327    125.4207     84.3450   4.0515201472e+01   4.0718361033e+01    0.3230916    0.2161106 -83.52  0.001337118    2.108    0.526
       362 -12.9312     61.7119     83.9185   6.1241498336e+01   5.4317647573e+01    0.4505236    0.2892196 -23.57  0.001649665    2.511    0.602
       363 -11.7368    190.3169     83.8405   2.8533219603e+01   2.6913309321e+01    0.2033732    0.1690941 -77.06 0.0004285815    1.278    0.218
       364 -11.3580    133.1535     84.1723   3.8665089677e+01   3.9001171890e+01    0.2035723    0.1992165 -72.23 0.0002618216    1.103    0.094
       365 -12.3283    112.9072     83.9365   4.3593967327e+01   4.3641473486e+01    0.4270536    0.2191025  59.23  0.001409253    2.223    0.550
       366 -11.9703     78.7172     82.1792   5.3939723817e+01   5.1486746772e+01    0.2768537    0.2536406 -88.01 0.0002762337    1.081    0.075
       367 -12.4701    182.2596     80.9898   2.8963023796e+01   2.8964465197e+01    0.2590958    0.1963132 -49.94 0.0002975968    1.133    0.118
       368 -11.6756    206.4600     80.9916   2.5826190010e+01   2.4320406595e+01    0.1797049    0.1510192 -50.01 0.0003205131    1.051    0.048
       369 -11.2515    215.8757     79.8946   2.4518289636e+01   2.2801201778e+01     0.175583    0.1183519 -53.57 0.0004857593    1.315    0.239
       370 -11.4211    171.4086     82.8219   3.1058451975e+01   3.0883202109e+01     0.195739    0.1249557 -30.38  0.000723724    1.658    0.397
       371 -12.3825     54.3180     85.7684   6.4989064603e+01   5.5102117663e+01    0.4651948    0.4099953  -0.92  0.002354258    1.328    0.247
       372 -11.3539    112.8496     78.5769   4.1964472987e+01   4.4776771791e+01    0.3244579    0.1949161 -60.42  0.001323864    1.886    0.470
       373 -11.2142     52.8003     78.6236   6.3628779231e+01   5.7208149217e+01    0.5267748    0.2726341  22.47  0.001908153    2.561    0.610
       374 -10.9851     48.2517     76.2460   6.5071522374e+01   5.8558411380e+01    0.2094231    0.1713811  68.23 0.0004382717    1.323    0.244
       375 -11.6080     75.1194     75.6484   5.3197130215e+01   5.3769735247e+01    0.2706488     0.210045 -66.56 0.0006017459    1.352    0.260
       376 -10.6302     23.2870     76.6765   7.8208882514e+01   6.1687391682e+01     0.153472    0.1064361  63.06 0.0004501345    1.603    0.376
       377 -11.3549    214.9949     75.0328   2.3533861912e+01   2.3657650975e+01    0.1988595    0.1179243 -56.37  0.000536182    1.602    0.376
       378 -11.4300     85.9212     75.0598   4.9046895322e+01   5.1615831893e+01    0.2351223    0.2301437  69.68 0.0006443151    1.075    0.070
       379 -12.4551      1.8654     73.6713   8.9960744644e+01   6.4065956288e+01    0.4567948    0.2223121 -60.56  0.001691274    1.829    0.453
       380 -11.3087      1.9968     68.6569   8.9229920239e+01   6.5433876895e+01    0.2445662    0.1943867 -76.69  0.001146609    1.172    0.147
       381 -11.0288    155.8158     73.8213   3.1240430685e+01   3.5797001941e+01    0.2058721    0.1561535 -69.53 0.0006399727    1.342    0.255
       382 -11.6598     87.9216     78.8685   4.9609162844e+01   5.0320954715e+01    0.3568691    0.2265115  46.07  0.001009681    1.577    0.366
       383 -11.0814    105.3211     72.9115   4.2225178224e+01   4.7688814586e+01    0.2224616    0.2021742 -51.17   0.00115721    1.119    0.106
       384 -11.0721     51.3429     73.1710   6.2637258867e+01   5.8838316840e+01    0.2181999    0.1427005 -70.04 0.0005695338    1.703    0.413
       385 -11.2236     10.8209     71.5690   8.4352033764e+01   6.4135671504e+01    0.2458111    0.1428135   8.04  0.001101319    1.898    0.473
       386 -11.2166    182.5707     71.0137   2.6421474659e+01   3.0493044089e+01    0.1917409    0.1674753 -76.30 0.0002780369    1.144    0.126
       387 -11.9614      7.3084     67.9045   8.5843468857e+01   6.5360121412e+01    0.2236957    0.1894814  34.45 0.0002614523    1.237    0.191
       388 -12.2661    203.0778     66.2148   2.2782650608e+01   2.7128588660e+01    0.2279267    0.1970302 -58.13 0.0003796665    1.094    0.086
       389 -12.2749    199.1809     65.4839   2.3035313177e+01   2.7988382078e+01    0.2371396    0.1778616 -41.15 0.0003369476    1.145    0.126
       390 -11.2147     98.0771     66.8640   4.2298345688e+01   5.0616213918e+01    0.2293455    0.1959959 -83.95 0.0002655119    1.199    0.166
       391 -10.9988     85.9728     67.2744   4.6344865908e+01   5.3310066932e+01    0.2136509    0.1956188  63.96 0.0001910372    1.065    0.061
       392 -11.6142     60.1682     67.0860   5.6485739396e+01   5.8746715565e+01    0.2230172    0.2075858 -23.90 0.0003303929    1.188    0.158
       393 -10.7469     48.3245     67.3074   6.2199372548e+01   6.0804947850e+01    0.1538709    0.1184511 -19.08 0.0007035928    1.648    0.393
       394 -11.6154    178.9602     64.2505   2.5163569858e+01   3.2296321648e+01    0.2261343    0.1727613 -49.45 0.0005841335    1.108    0.098
       395 -12.1141     11.4265     62.5302   8.2216670699e+01   6.6535605708e+01    0.4555866    0.2314193 -14.94  0.001816053    2.561    0.610
       396 -11.6947     44.8166     62.0535   6.2188879564e+01   6.2669662019e+01    0.2731849    0.2075792  10.27  0.001299642    1.601    0.375
       397 -12.3003    108.4711     59.4355   3.6770428473e+01   4.9574177928e+01    0.3221417    0.2459259 -75.50  0.000757433    1.419    0.295
       398 -11.3536    192.5017     57.4904   2.1819154780e+01   3.0474497547e+01    0.1335206    0.1067344 -54.37 0.0008105189    1.022    0.021
       399 -11.4182    160.0083     57.4775   2.5955039425e+01   3.7531641718e+01    0.1962678    0.1350037  71.79 0.0004263338    1.517    0.341
       400 -11.3481    120.5452     57.0244   3.3016203184e+01   4.7051799923e+01    0.2180795    0.1433843 -40.18 0.0002938268    1.514    0.339
       401 -10.9532     53.2535     56.8354   5.5912915437e+01   6.2421580173e+01    0.3363594   0.09485947  44.70 0.0009865412    3.596    0.722
       402 -11.0215    115.7467     53.9950   3.3063375921e+01   4.8759811551e+01    0.1880713    0.1254468 -40.95  0.000362909    1.493    0.330
       403 -12.9137     33.3851     57.3367   6.6948847357e+01   6.5552422029e+01    0.5893415    0.2259595  38.04  0.002164959    2.524    0.604
       404 -11.4372    126.2192     53.4290   3.0584990217e+01   4.6266129045e+01     0.203028    0.1366515  80.21 0.0004260889    1.598    0.374
       405 -13.5274     31.0315     49.9805   6.5703539215e+01   6.7662698219e+01    0.4440978    0.3172746  53.05   0.00118975    1.576    0.365
       406 -10.4168    222.9845     50.0000   1.7222805415e+01   2.5625589340e+01    0.1558935   0.06692518  71.21 0.0003632622    2.782    0.641
       407 -12.1506     19.3771     46.8608   7.2433127111e+01   6.9852929302e+01    0.5732049    0.1777077 -56.78  0.002056535    2.789    0.641
       408 -10.8575    190.8086     47.7946   1.9561662540e+01   3.2176661947e+01    0.1812691     0.122141 -58.18 0.0004007082    1.277    0.217
       409 -10.3837     98.3484     43.7469   3.3560587876e+01   5.4827280089e+01    0.1524196    0.1097898 -83.15 0.0003630204    1.591    0.371
       410 -13.6203     36.5982     40.1783   5.7961218303e+01   6.9037280878e+01    0.5357669    0.3100752  33.96  0.001299475    1.723    0.420
       411 -12.9447     25.1595     37.8961   6.4637931089e+01   7.1262080834e+01    0.5987682    0.3956121  -2.54  0.002529906    2.000    0.500
       412 -10.8919    118.9657     41.3194   2.7829440892e+01   5.0005624117e+01    0.2416452    0.1541989  16.97 0.0008086343    3.286    0.696
       413 -11.5446    241.9032     40.0982   1.3796411625e+01   2.3557576381e+01    0.1723914    0.1201047 -48.04 0.0003737171    1.019    0.019
       414 -10.3253    181.7065     39.2901   1.8264910202e+01   3.5260378679e+01    0.1376942     0.080618 -60.26 0.0002064293    1.550    0.355
       415 -10.2312     78.2866     37.3272   3.6863118199e+01   6.0830773109e+01    0.1441655    0.1156308  20.52 0.0007009925    1.610    0.379
       416 -11.0279     67.8421     33.6741   3.8922836952e+01   6.3915271686e+01    0.2018246    0.1682877  61.67 0.0003454885    1.145    0.127
       417 -10.3662     63.2724     34.3089   4.1091116405e+01   6.4858454146e+01    0.1395858    0.1133637  14.82  0.000374178    1.547    0.353
       418 -12.1533     44.1798     33.0821   4.9820318470e+01   6.9110141683e+01     0.296994    0.1993833 -29.24  0.001418416    1.766    0.434
       419 -12.9168     31.7542     32.6509   5.7376041604e+01   7.1409734091e+01    0.3618282     0.325954  60.04  0.001469892    1.232    0.188
       420 -12.6856     78.4558     31.4024   3.4036616883e+01   6.1732658660e+01    0.3006098    0.2372613 -82.49  0.001417438    1.399    0.285
       421 -11.6071      3.2552     29.6134   7.9585016542e+01   7.5390796167e+01    0.3120219    0.1691626 -51.77  0.001453883    1.658    0.397
       422 -11.2573      4.7718     24.6512   7.6149512768e+01   7.6435488756e+01    0.2253651    0.1550569 -48.59 0.0006451731    1.349    0.258
       423 -11.6075    106.5082     32.4932   2.7063814273e+01   5.4477910796e+01    0.2818591    0.1418419 -33.31  0.001097197    2.064    0.516
       424 -12.8041     68.6676     26.3548   3.4884446445e+01   6.4869365828e+01    0.4209091    0.2949109 -64.20  0.002039156    1.723    0.419
       425 -12.1892     86.9958     25.9924   2.8957792721e+01   6.0376218936e+01    0.2242184    0.2043081  80.26 0.0004837529    1.005    0.005
       426 -12.4067     84.0370     23.5317   2.8596837969e+01   6.1457666119e+01     0.285502    0.2093084 -67.31 0.0009266425    1.487    0.328
       427 -12.1501     58.9722     25.9257   3.8498722013e+01   6.7207331388e+01    0.2182675    0.2058257 -33.42 0.0003576287    1.137    0.120
       428 -11.9711     45.6303     25.8713   4.4959090397e+01   7.0118649841e+01    0.2733971    0.1995774  54.79 0.0008186198    1.371    0.270
       429 -11.5585    166.3440     22.5319   1.5081804535e+01   4.0822082570e+01    0.2415822    0.1684553 -51.78  0.000913621    1.202    0.168
       430 -11.3606    143.3947     18.7916   1.6230646595e+01   4.6788112990e+01    0.2234303    0.1595871 -82.57 0.0005139739    1.268    0.211
       431 -12.1152     80.8196     18.6930   2.7098396425e+01   6.2891780667e+01    0.2866015    0.2166404 -61.24  0.001506769    1.403    0.287
       432 -10.5541     46.3336     19.6973   4.0816800535e+01   7.0968220155e+01    0.1367479    0.1081715 -86.95 0.0003891153    1.658    0.397
       433 -11.0667    131.1965     18.1884   1.7472315211e+01   4.9926696650e+01    0.1912775    0.1810193  73.06 0.0007863151    1.212    0.175
       434 -12.1174     75.5350     14.8461   2.6573074166e+01   6.4691541426e+01    0.2578897    0.1879435  70.25 0.0005443656    1.264    0.209
       435 -11.1028     67.0000     14.9131   2.9220039520e+01   6.6815954672e+01     0.217359   0.08041766 -28.84 0.0008045044    2.957    0.662
       436 -12.5992    139.0057    247.6965   6.8039151241e+01   6.3018859937e+00    0.3225154    0.2411007  39.65  0.001558759    1.513    0.339
       437 -10.4653    153.2317    246.3730   6.5089855418e+01   5.0062787024e+00    0.1104936   0.07025774 -13.92 0.0006900529    1.606    0.377
       438 -10.5891     80.2852    246.2957   8.0431878760e+01   1.2838134511e+01    0.1118726   0.08372329  -6.58 0.0002145481    1.545    0.353
       439 -11.5274    167.4031    242.8940   6.1980160933e+01   4.0380362513e+00    0.1772778    0.1459209  22.85 0.0003862902    1.330    0.248
       440 -10.8210     60.9061    242.4025   8.4551202708e+01   1.5571944237e+01    0.1831071    0.1408457  63.10 0.0006402502    1.385    0.278
       441 -11.6488    199.3093    241.3519   5.6156525349e+01   1.1247313766e+00    0.1751395    0.1330611   5.22 0.0002483089    1.137    0.121
