#   1 NUMBER                 Running object number                                     
#   2 MAG_AUTO               Kron-like elliptical aperture magnitude                    [mag]
#   3 X_IMAGE                Object position along x                                    [pixel]
#   4 Y_IMAGE                Object position along y                                    [pixel]
#   5 X_WORLD                Barycenter position along world x axis                     [deg]
#   6 Y_WORLD                Barycenter position along world y axis                     [deg]
#   7 A_WORLD                Profile RMS along major axis (world units)                 [deg]
#   8 B_WORLD                Profile RMS along minor axis (world units)                 [deg]
#   9 THETA_WORLD            Position angle (CCW/world-x)                               [deg]
#  10 FWHM_WORLD             FWHM assuming a gaussian core                              [deg]
#  11 ELONGATION             A_IMAGE/B_IMAGE                                           
#  12 ELLIPTICITY            1 - B_IMAGE/A_IMAGE                                       
         1 -14.8690    141.6183      4.6697   1.2188791861e+01   4.7930259386e+01    0.9315056    0.4872768 -76.49  0.004662064    1.967    0.492
         2 -14.2005    225.7883     34.7302   1.2825246333e+01   2.7181019220e+01     1.260582    0.3255852 -49.66  0.005438278    3.085    0.676
         3 -14.1026    209.6756     22.2693   1.1261331032e+01   3.1549384939e+01     1.102005    0.4968866 -82.06  0.005600894    2.549    0.608
         4 -13.5251    247.4711     26.8883   9.9574998257e+00   2.4343254141e+01    0.9904433    0.1732202 -39.19  0.004474912    3.068    0.674
         5 -14.2095    121.4389     27.5280   2.2240379580e+01   5.0518944107e+01     1.085415     0.565904 -48.56  0.005051604    2.027    0.507
         6 -12.4640     59.0315     17.1406   3.3540543171e+01   6.6459057184e+01    0.6670789     0.365494  -7.01   0.00291513    2.739    0.635
         7 -13.6541     51.9540     14.1048   3.4645571770e+01   6.8336720734e+01    0.4818782    0.4122419 -56.57  0.002695434    1.483    0.326
         8 -15.0652     63.1469      3.9024   2.5202238598e+01   6.6840193567e+01     1.820922     1.060483 -83.67  0.008137771    2.798    0.643
         9 -14.2299     49.8361      3.5159   2.9395873070e+01   6.9868519263e+01    0.7949222    0.6046132  61.19  0.003942584    1.258    0.205
        10 -12.9646     42.7797     14.5880   3.8958663126e+01   7.0176739299e+01    0.4027582    0.2604657  46.58  0.001949601    1.383    0.277
        11 -12.9483     30.7928     15.2273   4.5725311758e+01   7.2354975100e+01    0.3345896    0.2879381  13.01  0.001563009    1.034    0.033
        12 -13.2827     19.1862     14.9676   5.3136022325e+01   7.4287082209e+01     0.607676      0.38252  48.91  0.003202032    2.048    0.512
        13 -13.7585     18.5800      3.9627   4.6069180032e+01   7.5931393775e+01    0.5997804    0.4895512 -20.41  0.002938528    1.285    0.222
        14 -13.8451     30.5548      2.9197   3.7789553494e+01   7.3907293694e+01    0.7085552    0.3098488  45.80  0.002472766    1.930    0.482
        15 -15.2923    169.9451     21.7360   1.4284534876e+01   3.9822436480e+01     2.934291    0.8090956 -55.22  0.009563348    4.740    0.789
        16 -13.0881    248.3219     10.3958   6.8282945632e+00   2.5903030919e+01    0.4956196    0.1902986 -47.73  0.003042285    1.760    0.432
        17 -13.9990    239.3574      5.7701   6.3261904720e+00   2.7848078572e+01    0.7357753    0.4215254 -67.21  0.004752005    1.438    0.304
        18 -13.8665    214.8759      6.3753   7.5443821373e+00   3.2168530636e+01     1.186433    0.3990241 -68.81  0.005357403    3.290    0.696
        19 -13.2369    201.4183      3.7318   7.6613764047e+00   3.5010628597e+01    0.6543872    0.3159494 -79.92  0.003704108    1.974    0.493
        20 -13.4845      3.6773      7.0576   6.0612749881e+01   7.7585641596e+01    0.4581746    0.4282131 -30.23  0.002154263    1.382    0.276
        21 -11.9863      2.9801      1.5161   5.7237554941e+01   7.8530645424e+01    0.2953414    0.1043439  31.07  0.001325199    2.585    0.613
        22 -14.0385    128.9139      4.5708   1.3481961121e+01   5.0953017319e+01     0.706948    0.3780411 -60.67  0.003564844    1.949    0.487
        23 -14.6472    113.8611      4.3250   1.5250649076e+01   5.4609431463e+01     1.102836    0.4719835  83.26  0.004737488    2.420    0.587
        24 -13.4431    174.7789      3.7814   9.2626786338e+00   4.0516574748e+01    0.5671383    0.2554091  89.35  0.002876914    2.151    0.535
        25 -14.3509    149.1476    175.6286   5.5538847886e+01   1.7657531267e+01    0.6771978    0.4992879  15.94  0.003441911    1.375    0.273
        26 -15.3986      5.9936    241.9837   9.8640120616e+01   2.0652447729e+01     1.320284    0.7610922  79.07  0.007921607    1.747    0.428
        27 -14.6975      4.8583    219.3673   9.8043320383e+01   2.5488479030e+01    0.5958365    0.4095279  63.19  0.003665586    1.294    0.227
        28 -14.1574    248.6344    168.5628   3.6553389449e+01   5.3764623524e+00    0.9342574    0.3068622 -36.35  0.004551015    2.321    0.569
        29 -13.7174    237.6049    170.7113   3.8459004599e+01   6.3347296517e+00    0.4911682    0.3391407 -38.39  0.003311139    1.320    0.242
        30 -13.6265    207.8629    169.7489   4.2891134676e+01   1.0213239670e+01    0.8339106    0.2876865 -34.67  0.003471571    2.667    0.625
        31 -16.4465      7.5492    118.5332   9.0318103297e+01   5.0949873751e+01     2.327808     1.512225  89.36   0.01038474    1.549    0.355
        32 -15.0589     12.8799    152.1441   9.1709891998e+01   4.1451427489e+01      1.07463     0.625779 -72.43  0.004027745    1.593    0.372
        33 -16.0850      3.4893    149.2019   9.4598332775e+01   4.2869247956e+01     2.669423    0.6915598 -80.95  0.008450941    3.754    0.734
        34 -14.8179     16.1013    136.3154   8.9041532501e+01   4.5501620382e+01    0.8746966    0.6726453 -64.33  0.003587849    1.217    0.179
        35 -13.4753    129.6807    141.3540   5.3213156554e+01   2.8109308529e+01    0.7370126    0.4689172  38.46  0.003294097    1.608    0.378
        36 -15.2821    132.8781    157.6956   5.5883386857e+01   2.3990981421e+01     1.037118    0.8009257 -39.88  0.004437916    1.252    0.201
        37 -11.6038     34.2007    161.9909   8.5719783187e+01   3.6988054681e+01    0.2607388      0.20698  29.22  0.001219977    1.254    0.203
        38 -12.8412     99.6466    159.3767   6.5077221772e+01   2.9049817918e+01    0.5481433    0.3440427  17.51  0.002370198    1.832    0.454
        39 -14.1052     99.7404    153.0907   6.3840231171e+01   3.0545131796e+01     1.333235    0.7304906  46.40  0.005427149    2.011    0.503
        40 -14.5010    102.5416    143.8799   6.1149930147e+01   3.2295770443e+01     2.029717    0.8168291  38.19  0.007252997    2.440    0.590
        41 -14.3854    203.6577    151.3885   4.0064419423e+01   1.3828907581e+01     1.184531    0.4288045 -44.42  0.004947147    2.553    0.608
        42 -12.2214     68.0655    157.3514   7.4229009675e+01   3.4225609931e+01    0.4087142    0.2143461 -58.57  0.001512942    1.873    0.466
        43 -13.1861    169.0692    153.1855   4.6798852078e+01   1.8888180057e+01    0.7862633    0.4348482 -47.66  0.003670903    1.798    0.444
        44 -12.9571    220.3498    147.7262   3.6722779510e+01   1.2031629026e+01    0.4477289    0.2000534 -32.04  0.002170078    2.000    0.500
        45 -13.8452     26.6226    143.9785   8.6169964056e+01   4.2541055547e+01    0.6179168    0.3694603 -46.60     0.002822    1.722    0.419
        46 -13.7615    247.5190    139.9780   3.1567736203e+01   9.5800893191e+00    0.7978957    0.4502128 -51.92  0.004586207    2.101    0.524
        47 -13.4638    128.1070    149.0064   5.5274259554e+01   2.6702484837e+01    0.5697207    0.4752759  34.50  0.002462088    1.220    0.180
        48 -14.2289     36.1564    141.0745   8.2430720637e+01   4.2409943371e+01    0.9673733    0.7314439  45.03  0.003497182    1.343    0.256
        49 -13.7451    180.8647    140.7376   4.1886296098e+01   1.9259120156e+01    0.6813328    0.5014173 -40.11  0.003423243    1.222    0.181
        50 -15.3489    182.5855    118.7588   3.6756362681e+01   2.2906443889e+01     2.032665     1.028836 -34.87  0.008195408    1.860    0.462
        51 -14.9102    199.3804    132.9312   3.7010474462e+01   1.7594746834e+01     1.177734    0.5950958 -26.58  0.005278557    2.280    0.561
        52 -14.1854     34.4147    123.0947   8.0330626959e+01   4.7490900571e+01     0.738225    0.5496917 -51.04  0.002432578    1.289    0.224
        53 -14.0255     28.2060    123.1672   8.2760218988e+01   4.8084498335e+01    0.7720159    0.3710752 -52.79  0.003169588    1.926    0.481
        54 -15.0995    243.5503    113.1857   2.6994647021e+01   1.3956785716e+01     1.643736    0.7275169 -36.27  0.008862306    1.743    0.426
        55 -14.1959    235.2336    108.5113   2.7035587329e+01   1.5841283231e+01     1.765781    0.5898835 -30.85  0.006995547    3.333    0.700
        56 -11.7348     89.1342    124.8733   6.1019615233e+01   3.9233106319e+01    0.2452712    0.2202184  75.22  0.001247502    1.259    0.205
        57 -15.0109     50.2994    111.0009   7.1743638723e+01   4.8858728047e+01     1.614593     0.816004 -58.80  0.005061267    1.888    0.470
        58 -14.9251     17.1938    158.5528   9.0860252602e+01   3.9412259715e+01    0.9042125    0.7054593  12.15  0.003855505    1.395    0.283
        59 -14.2564    246.1902     98.0547   2.3795035977e+01   1.5702565905e+01     1.029227    0.4693803 -46.85  0.005674324    1.834    0.455
        60 -12.8939    157.2870    102.2884   3.7529184837e+01   3.0733346259e+01    0.9206161    0.4550163  60.57  0.003636529    2.700    0.630
        61 -13.1923     14.0032     94.6159   8.4161981935e+01   5.7007298789e+01    0.3783534    0.2743799 -86.24   0.00125062    1.467    0.318
        62 -12.7212    195.9046     93.6563   2.8931091934e+01   2.4676971914e+01    0.4267351    0.3332449 -47.87  0.002306719    1.125    0.111
        63 -13.8979     62.6120    117.1172   6.8388908598e+01   4.5514852495e+01    0.9533824    0.6417091  37.81  0.003623612    1.499    0.333
        64 -13.1505     75.2901    116.4315   6.3661059931e+01   4.3692152517e+01     0.426742    0.3571162   4.98  0.002108754    1.320    0.242
        65 -14.1009      7.9741     72.5913   8.2980209012e+01   6.3150265648e+01    0.8043636     0.159068 -58.15  0.002649324    3.292    0.696
        66 -13.8290    247.7771     64.1842   1.7092537261e+01   1.9940550212e+01    0.9834408     0.323515 -47.16  0.004879191    2.358    0.576
        67 -14.1178    243.6594     51.8337   1.5002750545e+01   2.2117918320e+01    0.7551434    0.4272928 -48.32  0.004347987    1.335    0.251
        68 -13.8031    151.6050    218.1033   6.2189182205e+01   9.3212443015e+00    0.4828813    0.2998534 -26.26  0.002631395    1.628    0.386
        69 -13.8152    177.9966     50.8436   2.0964565700e+01   3.4576564916e+01    0.7251489    0.4702418 -49.55  0.004009407    1.375    0.273
        70 -11.9743     48.6586     66.9073   6.0179016598e+01   5.9927935871e+01     0.363379    0.2496661  -4.21  0.001649265    1.883    0.469
        71 -13.2333    216.3986     46.0473   1.5941335638e+01   2.7548644855e+01       0.5889    0.2682397 -61.80   0.00291935    2.397    0.583
        72 -12.4395     20.5000     51.8538   6.9892016144e+01   6.7061460364e+01    0.3589078    0.2408955 -34.98  0.001869144    1.412    0.292
        73 -13.0454     14.3351     51.0311   7.3427473878e+01   6.7860454905e+01    0.5182031    0.3040175 -53.87  0.002593272    1.587    0.370
        74 -13.8579    184.3516     60.5736   2.2618499650e+01   3.1913160210e+01    0.9939053    0.4373562 -46.58  0.004570833    2.025    0.506
        75 -14.7209     15.3274    203.8580   9.4649581652e+01   2.8177599806e+01    0.7475103    0.4001604  63.74  0.001963752    1.846    0.458
        76 -14.4945      7.6737    195.3908   9.6213355105e+01   3.0789388092e+01    0.6049446    0.5086033  81.45  0.002351197    1.123    0.109
        77 -12.3673    156.6125     36.7959   1.9884316477e+01   4.1104629213e+01     0.372861     0.206873 -68.31  0.001750151    2.099    0.524
        78 -13.0847     33.8726     34.0916   5.4317330731e+01   6.8850399231e+01    0.4292617    0.3492459  51.25  0.002458892    1.500    0.333
        79 -12.9178    226.2363    195.6017   4.4495079302e+01   4.0053452175e+00    0.3549556     0.174501 -24.11  0.001936696    1.888    0.470
        80 -14.9364     93.6321    181.2917   7.0547685554e+01   2.4753501803e+01     2.100861    0.8713483 -42.13  0.007318134    2.788    0.641
        81 -14.3800    109.1146     22.9469   2.2829911260e+01   5.4022027959e+01    0.5850158    0.4014312  89.14  0.003072344    1.558    0.358
        82 -13.5979    106.6393    168.3204   6.4780484665e+01   2.5848128263e+01    0.7259518    0.4794404 -31.49   0.00333394    1.697    0.411
        83 -12.6371     47.1790    195.2579   8.5342425311e+01   2.7219238703e+01    0.4906371    0.3215961 -75.18  0.002347304    1.619    0.382
        84 -13.3751     35.8114    192.5357   8.8265560807e+01   2.9044135172e+01    0.4366327    0.3765116  28.18  0.001401152    1.133    0.117
        85 -12.6351    128.6501    192.0594   6.3264800311e+01   1.7359190545e+01    0.2770686    0.2365377  37.70  0.001593933    1.255    0.203
        86 -13.1442     46.2388     17.2377   3.8861657692e+01   6.9152315931e+01    0.4454537    0.2081694  53.40  0.002004591    2.083    0.520
        87 -15.2516    152.0182    163.3849   5.2522358114e+01   1.9659376625e+01      1.35204    0.6505178  44.04  0.005665561    2.362    0.577
        88 -14.7713    155.0947    148.2855   4.8724369417e+01   2.2181142447e+01     1.313151    0.9468626 -24.27  0.006694127    1.438    0.305
        89 -14.5392    171.4961    178.7856   5.1328273535e+01   1.3730614733e+01     0.665495    0.5357143   1.41  0.003731382    1.176    0.150
        90 -15.3213    190.8916    181.6760   4.8092280647e+01   1.0514886489e+01     1.229119    0.7082911 -43.39  0.006564497    1.676    0.403
        91 -15.9052    178.1440    166.0739   4.7575414423e+01   1.5069992540e+01     1.427993     1.194908 -20.10  0.008114462    1.036    0.035
        92 -11.6663     28.0448    189.4521   9.0194711076e+01   3.0538162790e+01    0.3029127     0.200189 -25.41  0.001496297    1.962    0.490
        93 -14.5301    121.4915    181.8953   6.3299965043e+01   2.0546582302e+01     1.164566    0.6969653  11.23  0.005081139    2.070    0.517
        94 -15.1191    118.3666    166.5571   6.1321120842e+01   2.4407933958e+01     1.131072     0.931169 -84.26  0.005793459    1.611    0.379
        95 -12.5187     45.8804    185.8541   8.4753464251e+01   2.9653963294e+01    0.5710719    0.3308885 -11.85  0.002374768    2.592    0.614
        96 -13.0632    144.0451    184.7944   5.8380926802e+01   1.6595113186e+01    0.5659629    0.3740707  41.21  0.002878265    1.653    0.395
        97 -13.0336    228.4024    181.3088   4.1693422724e+01   5.8543132160e+00    0.2968664     0.167439 -30.68  0.001782626    1.408    0.290
        98 -12.9691     39.4206    179.8781   8.6024775246e+01   3.1828786561e+01    0.6137038    0.4190889  -0.38  0.003008676    1.771    0.435
        99 -13.7462     19.3712    177.4730   9.1757207892e+01   3.4303784910e+01    0.4974748     0.311021  71.23  0.002260477    1.634    0.388
       100 -13.7976    157.4987    178.0181   5.4132422341e+01   1.5929399419e+01    0.5628654    0.2911231  40.50  0.002570667    2.101    0.524
