#   1 NUMBER                 Running object number                                     
#   2 MAG_AUTO               Kron-like elliptical aperture magnitude                    [mag]
#   3 X_IMAGE                Object position along x                                    [pixel]
#   4 Y_IMAGE                Object position along y                                    [pixel]
#   5 X_WORLD                Barycenter position along world x axis                     [deg]
#   6 Y_WORLD                Barycenter position along world y axis                     [deg]
#   7 A_WORLD                Profile RMS along major axis (world units)                 [deg]
#   8 B_WORLD                Profile RMS along minor axis (world units)                 [deg]
#   9 THETA_WORLD            Position angle (CCW/world-x)                               [deg]
#  10 FWHM_WORLD             FWHM assuming a gaussian core                              [deg]
#  11 ELONGATION             A_IMAGE/B_IMAGE                                           
#  12 ELLIPTICITY            1 - B_IMAGE/A_IMAGE                                       
         1  -8.6004     55.5201     10.0573   7.2955957128e+01   6.6883085409e+01    0.1953385    0.1717318  45.47 0.0007123313    1.534    0.348
         2  -8.2488     90.7180      9.1889   6.0516814033e+01   6.0506431971e+01    0.1917696     0.154313 -37.57 0.0006064571    1.467    0.318
         3  -7.9652      6.3165      8.6316   9.6449566895e+01   7.2747349738e+01   0.09404138   0.08649281 -70.07 0.0007037037    1.781    0.439
         4  -8.5203     33.4812      5.3124   8.0319556605e+01   7.0602115314e+01    0.2548761    0.1753654 -55.90  0.001372669    3.014    0.668
         5  -8.5423     79.1453      4.0501   6.1602139529e+01   6.3349379466e+01    0.2834041    0.1508593 -33.62  0.001102074    2.056    0.514
         6  -7.9708     44.4599      3.2202   7.4106234929e+01   6.9386940884e+01    0.1547024    0.1005218 -33.74 0.0008868736    1.633    0.388
         7  -8.3681     62.2849      1.4972   6.6023237750e+01   6.6723693266e+01    0.1909536    0.1149126  50.77 0.0005081873    1.820    0.451
         8  -7.6137     39.4451      1.5202   7.5454623303e+01   7.0299577886e+01    0.1180726   0.09258334  -2.79 9.963463e-05    1.044    0.042
         9  -8.6062    132.2299    247.8237   1.0855431820e+02   6.0914208163e+00    0.2113592    0.1516438  66.88 0.0007308742    1.518    0.341
        10  -8.5428    249.2403    249.5842   8.7916111497e+01  -1.1518009835e+01    0.2299106    0.1337485   3.72  0.001434312    1.699    0.412
        11  -9.5666    248.5273    242.5509   8.6920332447e+01  -1.0668500900e+01    0.3251402    0.1853653 -36.59  0.001862526    2.139    0.532
        12  -9.3279    247.8285    234.6690   8.5753190237e+01  -9.6911056543e+00    0.2681985    0.2054125 -33.47  0.001411875    1.672    0.402
        13  -9.8932    246.6113    229.0690   8.5023538957e+01  -8.8707626324e+00    0.4702303    0.2073739 -26.83  0.002454109    2.336    0.572
        14  -7.7497    191.4671    249.9371   9.7989562620e+01  -3.3426384456e+00    0.1323987    0.1048509 -82.78 0.0008067494    2.392    0.582
        15  -8.4456     93.9647    249.3284   1.1566019378e+02   1.1495088515e+01    0.2091712    0.1265956  68.89  0.001276302    1.664    0.399
        16  -7.3527     86.3084    250.6670   1.1713439376e+02   1.2337147630e+01    0.1199889   0.06759728  64.66 0.0004579088    1.670    0.401
        17 -10.0518    223.9925    244.1712   9.1368457025e+01  -7.4441857418e+00    0.4008313    0.2289911 -44.57  0.002308168    2.507    0.601
        18  -8.9526    147.1771    245.9993   1.0557762227e+02   4.0623015691e+00     0.274349    0.1821621  78.06  0.001231739    2.410    0.585
        19  -9.0388    120.2177    245.7255   1.1053617145e+02   8.2515077766e+00    0.3053892    0.1828841  83.09  0.001604185    2.581    0.613
        20  -8.6052     67.5341    245.3049   1.2000245407e+02   1.5765433810e+01    0.1855871   0.09933715 -81.26 0.0008910397    1.988    0.497
        21  -8.7601     58.5592    244.5570   1.2150895181e+02   1.7039897218e+01    0.2405137    0.1012493  72.97   0.00114619    2.961    0.662
        22  -8.9982      9.6618    244.2271   1.2956467493e+02   2.2574569509e+01    0.2436527   0.08740468  84.60  0.001322346    2.632    0.620
        23  -9.0210    202.0141    242.8463   9.5066914177e+01  -4.0267100916e+00    0.2928032    0.1927868 -31.53  0.001425684    1.746    0.427
        24  -8.3213    194.8185    243.4276   9.6454452888e+01  -3.0038886277e+00     0.176377    0.1309363  32.33 0.0005168169    1.093    0.085
        25  -9.0851    194.0192    239.9663   9.6091767255e+01  -2.4187497431e+00    0.2435958     0.220896  66.66  0.000812956    1.538    0.350
        26  -8.3765    168.9930    243.3303   1.0118505680e+02   1.0338098232e+00     0.191321    0.1552117  65.35 0.0007116793    1.537    0.349
        27  -9.1814     77.9931    243.4581   1.1800633371e+02   1.4704093594e+01    0.2612134    0.1261553  67.19  0.001366829    2.258    0.557
        28  -8.5762    213.6855    241.8213   9.2822041267e+01  -5.6512421515e+00    0.1761205    0.1256931  20.60  0.001155632    1.155    0.134
        29  -9.0381    183.0006    240.1622   9.8147959905e+01  -7.2257371399e-01    0.3355661    0.2200966  62.40  0.001587105    2.366    0.577
        30  -9.3038    160.0662    240.5214   1.0247389257e+02   2.8595155515e+00    0.2825156    0.2029306  88.46  0.001186021    2.341    0.573
        31  -8.1468     88.1573    242.1551   1.1606122104e+02   1.3533128842e+01    0.1618146     0.110192  72.95 0.0006272142    1.392    0.281
        32  -9.2059    241.4925    238.2204   8.7408215803e+01  -9.2243271823e+00    0.4198356    0.1952859 -10.90  0.001864131    3.474    0.712
        33  -8.4370    146.2825    239.9312   1.0499085546e+02   5.1382319825e+00     0.219334    0.1439043  57.08 0.0007567077    1.573    0.364
        34  -9.4753    231.2571    237.4619   8.9046503562e+01  -7.6898634840e+00    0.2792096    0.2248797 -62.99  0.001580841    2.544    0.607
        35  -8.9502    135.4979    238.9157   1.0690272389e+02   7.0016055999e+00    0.2107865    0.1298118  56.33 0.0009066048    1.600    0.375
        36  -7.9642    129.1201    238.6704   1.0807989366e+02   8.0393617160e+00    0.1895696    0.1555202  84.51 0.0007927792    1.384    0.277
        37  -7.7967     41.2889    239.6490   1.2415145273e+02   1.9999016259e+01    0.1177608    0.0595427  67.08 0.0002374266    1.667    0.400
        38  -8.3299    208.8720    238.4004   9.3157696459e+01  -4.4945534054e+00    0.1541011    0.1349191  21.16 0.0005399257    1.179    0.152
        39  -8.5615     26.3904    237.5774   1.2654489123e+02   2.2038552864e+01    0.3363959   0.06734862  56.80  0.001288358    4.528    0.779
        40  -9.3438    210.9451    246.6094   9.4031708105e+01  -5.8369574342e+00    0.1870649    0.1641093 -26.18 0.0006319366    1.428    0.300
        41  -8.7732    217.3059    235.6879   9.1221163009e+01  -5.4210587170e+00    0.2287981     0.202423 -19.29 0.0008486342    1.346    0.257
        42  -9.3714    213.7579    231.9051   9.1255383184e+01  -4.3951093842e+00    0.2730782    0.2272025  73.12  0.001368452    2.142    0.533
        43  -9.3400    109.0967    234.5955   1.1141715631e+02   1.1806308154e+01    0.4647897    0.2414343  63.87  0.001196018    2.298    0.565
        44  -9.0464    203.2971    234.9814   9.3640328243e+01  -3.1894044637e+00    0.2763048    0.2046666 -61.66  0.001281544    2.338    0.572
        45  -8.2283    170.3592    236.1353   9.9936280622e+01   1.8701565652e+00    0.1485912    0.1171513 -63.01 0.0006764374    1.734    0.423
        46  -8.0287     58.0453    237.0000   1.2105490620e+02   1.8458649034e+01    0.1808027   0.05387622  38.29 0.0008060865    2.968    0.663
        47  -7.5684    184.4507    235.4819   9.7197201163e+01  -2.9116300358e-01    0.1238991    0.1002932  26.10 0.0001732284    1.045    0.043
        48  -8.4675     99.6625    234.6191   1.1320591122e+02   1.3206956136e+01    0.2418933    0.1362349  68.25  0.001288847    2.011    0.503
        49  -9.3642     78.8245    234.4195   1.1707986258e+02   1.6203206646e+01    0.2696815    0.1685308  81.86 0.0009773786    1.645    0.392
        50  -9.8967      8.1423    234.8420   1.2940660914e+02   2.4400342868e+01    0.2503181    0.1810808 -37.80  0.001681148    2.984    0.665
        51  -8.2757    122.9161    234.0173   1.0871482801e+02   9.7865802303e+00     0.199726    0.1273191  66.29 0.0009756663    1.766    0.434
        52  -9.5154     68.4610    232.1792   1.1879663212e+02   1.8006311469e+01    0.4901273    0.2315685  85.83  0.002388109    2.761    0.638
        53  -8.3204    194.4650    232.8753   9.4941145473e+01  -1.5155990125e+00    0.1549875    0.1202834 -36.06 0.0007660109    1.512    0.339
        54  -8.1812    144.6065    233.0810   1.0443135168e+02   6.5010884693e+00    0.2564313    0.1278501  62.55   0.00102681    3.510    0.715
        55  -8.2091    132.7545    232.9793   1.0669995392e+02   8.4144354124e+00    0.1916872    0.1283853  75.24 0.0009963505    1.981    0.495
        56  -8.7188     92.4531    232.0967   1.1431393328e+02   1.4709244807e+01    0.2825446    0.1653658  78.12   0.00114072    2.025    0.506
        57  -9.1809    186.3788    230.6827   9.6116807985e+01   9.0338725126e-02    0.2948447    0.2210414 -73.33  0.001204559    2.349    0.574
        58  -7.9743    157.9985    232.2330   1.0174347126e+02   4.4680577187e+00    0.1635846    0.1329502  80.53 0.0007293766    1.618    0.382
        59  -8.9429    236.0838    230.6648   8.7097765838e+01  -7.5648140981e+00    0.2270008    0.1758197 -29.11 0.0005531441    1.489    0.328
        60  -8.9171      1.9564    231.0237   1.3024323698e+02   2.5684380823e+01    0.2169983   0.09911752  65.56 0.0008177739    1.636    0.389
        61  -8.0353    205.0026    230.4587   9.2618915982e+01  -2.8445082775e+00    0.1886925    0.1019522  36.08 0.0004744607    1.562    0.360
        62  -9.9199    149.7594    226.3268   1.0252349556e+02   6.7737433289e+00    0.5651242    0.3461059 -88.57  0.002378843    3.799    0.737
        63  -8.4831    139.8752    230.1238   1.0496065878e+02   7.7528245725e+00    0.1962305    0.1461042  60.07 0.0007936215    1.356    0.263
        64  -8.1230    229.7899    229.0241   8.7925020725e+01  -6.4415900444e+00    0.1563305    0.1402028 -60.63 0.0007430607    1.901    0.474
        65  -8.9467    161.9894    227.7581   1.0034365593e+02   4.5239093728e+00    0.3173186    0.1973548  53.13  0.001355172    1.673    0.402
        66  -8.9033    127.8510    227.1544   1.0692723252e+02   1.0193840442e+01    0.3014755    0.2006941  70.68  0.001151497    1.818    0.450
        67  -8.2633    119.9981    227.9035   1.0855480770e+02   1.1306095906e+01     0.203694    0.1300673  66.45  0.001003657    1.746    0.427
        68  -7.9474    223.3791    227.1549   8.8751495020e+01  -5.2424403774e+00    0.1490145    0.1104293 -40.42 0.0007814305    1.713    0.416
        69  -9.3644    225.7211    222.4138   8.7536626759e+01  -4.9792823729e+00    0.2790855    0.2544444   1.93  0.001257608    1.268    0.211
        70  -8.4344    206.1413    226.2152   9.1728213273e+01  -2.4408405162e+00    0.2367224     0.157601 -48.21  0.001033785    2.027    0.507
        71  -8.0303     49.5993    227.2547   1.2185684143e+02   2.1313300432e+01    0.1994217    0.1008906  67.23  0.001129834    1.797    0.444
        72  -9.5476    175.6893    233.3381   9.8528729461e+01   1.4270983366e+00    0.4114107    0.2391123 -58.75  0.002110633    2.677    0.626
        73  -8.9830     94.4056    224.4382   1.1315655457e+02   1.5836548305e+01    0.3808765     0.180881  65.95  0.001687934    2.788    0.641
        74  -8.6402    216.5698    223.8700   8.9431869783e+01  -3.7601987586e+00      0.22324    0.2016244  76.94  0.001008411    1.804    0.446
        75  -8.7381    180.5914    224.5356   9.6273859964e+01   1.9511995531e+00    0.2570748    0.1871454  57.91  0.001179879    1.683    0.406
        76  -8.9278    104.6674    223.6717   1.1106553662e+02   1.4444926284e+01    0.3121403     0.197706  78.52  0.001703006    1.891    0.471
        77  -8.3348     38.3239    224.6980   1.2371249698e+02   2.3124022853e+01    0.2294644    0.1146122  66.01 0.0009993722    1.724    0.420
        78  -9.3029    160.8075    221.4401   9.9652843268e+01   5.7449474216e+00     0.678612    0.3182894  58.94  0.002474094    3.965    0.748
        79  -8.0039     59.9279    224.1369   1.1971497986e+02   2.0628987550e+01    0.2085851   0.09370007  60.65 0.0009377963    2.092    0.522
        80  -9.2588      8.2263    228.2092   1.2909801006e+02   2.5612100771e+01    0.2563946   0.08068027  69.91   0.00120114    3.160    0.683
        81  -8.5612    172.8856    223.1102   9.7542037933e+01   3.4526351218e+00    0.1878155    0.1606853  58.55 0.0005776781    1.332    0.250
        82  -8.1321    140.2223    222.7805   1.0391592681e+02   8.9473999717e+00    0.1981672    0.1202079  71.01 0.0006456285    2.573    0.611
        83  -9.1290    238.9626    221.4208   8.5031502002e+01  -6.8381009500e+00    0.2561508    0.1864448 -37.97  0.000923556    1.704    0.413
        84  -9.1866    192.3651    221.3336   9.3517971372e+01   4.8961910039e-01      0.26448    0.2302436 -89.54 0.0008958295    1.748    0.428
        85  -7.5533      9.3068    222.3138   1.2864151823e+02   2.6617652500e+01   0.09161083   0.07409448 -67.42 0.0005710051    1.624    0.384
        86  -9.1469    120.3387    219.2300   1.0741849348e+02   1.2818027694e+01    0.3766847    0.2129508  68.92  0.001561825    2.474    0.596
        87  -8.5759     82.8172    220.7164   1.1503199504e+02   1.8214472460e+01    0.2876982    0.1364101  62.25  0.001349723    2.283    0.562
        88  -8.1587     73.0364    220.9666   1.1695188953e+02   1.9519712097e+01    0.2026827    0.1144823  69.05 0.0009567618    1.758    0.431
        89  -7.9674     27.6008    220.7659   1.2537818844e+02   2.5064522658e+01    0.1996002   0.08588944 -72.82  0.001127561    2.118    0.528
        90  -7.9645    202.7184    220.0685   9.1356010142e+01  -1.0206804639e+00    0.1671952    0.1469657   1.03 0.0006287041    1.126    0.112
        91  -9.0188    249.4822    218.9375   8.2792114593e+01  -8.0536121946e+00    0.1841076    0.1374141  21.60  0.001229518    1.172    0.146
        92  -8.1664    210.0645    219.3007   8.9858975899e+01  -2.0986582950e+00    0.1722425      0.14324  23.05 0.0005307266    1.065    0.061
        93  -8.1859    135.3716    218.6796   1.0432543007e+02   1.0469800064e+01    0.2355971    0.1318102  54.78 0.0007251378    1.823    0.451
        94  -8.9492    132.2117    215.3019   1.0450109689e+02   1.1603562398e+01     0.262275    0.1951553 -82.27 0.0007916426    1.665    0.400
        95  -7.7308    113.6159    223.8598   1.0932481949e+02   1.3031761152e+01    0.1582368    0.1131697 -83.30 0.0004385395    1.619    0.382
        96  -9.0694     51.5466    217.5285   1.2075749470e+02   2.2961851754e+01    0.2593733    0.1412212  73.52 0.0008305483    1.742    0.426
        97  -8.7620    169.2540    216.0939   9.7169425343e+01   5.1967856576e+00    0.2736009    0.2167776 -84.11 0.0009235481    1.864    0.463
        98  -8.7107    142.8805    216.3886   1.0249279683e+02   9.6261349197e+00    0.2920676    0.1984601 -87.62   0.00147675    2.279    0.561
        99  -8.2043    111.7494    217.1710   1.0888955939e+02   1.4565501496e+01    0.2174738    0.1161852  69.47 0.0009439331    2.742    0.635
       100  -8.4459     62.0072    217.1729   1.1873370733e+02   2.1720255829e+01    0.2328146    0.1240329  59.73  0.001297518    1.658    0.397
       101  -8.7320    232.5656    215.1006   8.5051907805e+01  -5.0583211591e+00    0.2296608     0.205967 -53.93  0.001047983    1.740    0.425
       102  -7.8675     18.5169    216.0257   1.2671533135e+02   2.6928782488e+01    0.1612815   0.08701096 -84.38 0.0007045488    1.559    0.359
       103  -8.3423    185.6873    214.4200   9.3673544881e+01   2.6666247150e+00    0.1948991    0.1615977 -55.63 0.0007146845    1.552    0.356
       104  -7.8875    154.4170    215.2060   9.9994577595e+01   7.8795902944e+00    0.1624008     0.126059 -70.22 0.0006153146    1.650    0.394
       105  -8.8811     93.0700    214.0766   1.1229474162e+02   1.8020498326e+01    0.2969627    0.1654801  67.69  0.001156067    2.037    0.509
       106  -9.5538    213.9411    212.0456   8.7893692030e+01  -1.6890617864e+00    0.3121042    0.2950762 -72.35   0.00149273    1.567    0.362
       107  -9.4477     73.4038    212.1836   1.1603884235e+02   2.1202167368e+01    0.6469325    0.2270833  59.04  0.002410402    3.738    0.733
       108  -8.7162    161.7876    212.6964   9.8127753290e+01   7.0482873265e+00     0.227726     0.184856 -71.39 0.0008201383    1.593    0.372
       109  -8.1160    106.6149    213.0268   1.0942279006e+02   1.6162316094e+01    0.1980032    0.1405777  81.33   0.00112555    1.549    0.354
       110  -8.1964    224.6503    212.2268   8.5962734161e+01  -3.4350060761e+00    0.1654247     0.107007 -21.55 0.0007305279    1.573    0.364
       111  -9.3731    175.4508    210.1883   9.4990808098e+01   5.1084987189e+00    0.3945791    0.2587804  65.20  0.001539826    2.351    0.575
       112  -8.8256    204.1796    210.7173   8.9492325453e+01   1.1771926243e-01    0.2197175    0.1957514 -70.33 0.0006267813    1.660    0.397
       113  -8.1817    192.2595    210.5966   9.1756507517e+01   2.1493338462e+00    0.2124183    0.1581653 -52.55 0.0007705594    1.735    0.424
       114  -8.8101    147.8495    210.3765   1.0059969411e+02   9.8560922480e+00    0.2868307    0.2120657  81.43  0.001074627    1.852    0.460
       115  -8.9094    116.3407    210.3950   1.0709204313e+02   1.5126499755e+01    0.3402017    0.2137262  73.09  0.001153773    2.019    0.505
       116  -8.9259      6.6649    209.3827   1.2846096034e+02   2.9375194397e+01    0.4293597    0.1227793  74.33  0.001587567    4.827    0.793
       117  -9.3510    236.5063    208.2822   8.3135906046e+01  -4.7488028787e+00    0.3920527    0.2670202 -32.36  0.001616203    1.527    0.345
       118  -8.5458     85.4318    209.4440   1.1332907209e+02   2.0061437311e+01    0.3016639    0.1770196  83.94  0.001152382    2.020    0.505
       119  -8.3109     46.7000    209.8393   1.2107046329e+02   2.5085592918e+01    0.3255476    0.1212605  60.99   0.00143869    2.845    0.649
       120  -8.3918    139.3101    208.2908   1.0204519828e+02   1.1700713023e+01    0.2527996    0.1694328  70.37 0.0008025588    1.954    0.488
       121  -8.2579    126.3318    208.4291   1.0475625021e+02   1.3864772236e+01    0.2144274    0.1515483 -88.05 0.0007819178    1.806    0.446
       122  -9.3881    246.3712    207.3622   8.1250711945e+01  -6.1261759182e+00    0.2579678      0.19402 -19.05  0.000593468    1.238    0.192
       123  -9.4739    250.0779    201.9861   7.9625167004e+01  -5.9714746517e+00    0.4085297     0.177711 -32.81  0.001203268    2.200    0.546
       124  -9.5478    245.8914    193.8814   7.8812723988e+01  -4.2277910384e+00     0.389541    0.2818188 -61.37   0.00198678    2.829    0.647
       125  -8.0623    156.4289    208.1723   9.8504828099e+01   8.7657093298e+00    0.1677526    0.1287064 -68.95 0.0005540796    1.666    0.400
       126  -9.7933    163.9793    203.6033   9.6221790369e+01   8.2500638729e+00     0.431905    0.3332432  89.87  0.002309311    1.902    0.474
       127  -9.2726     99.3599    206.1984   1.1008037789e+02   1.8635404630e+01    0.3389876    0.2090313  77.77  0.001273282    1.973    0.493
       128  -8.2332     11.8162    207.1428   1.2742029491e+02   2.9342279471e+01    0.1378745    0.1145677 -84.48 0.0006608904    1.322    0.244
       129  -8.5893    225.8205    205.6399   8.4568305226e+01  -2.6957145225e+00    0.2485716    0.1549193  -8.03 0.0008851695    1.852    0.460
       130  -8.5760     56.4317    205.5534   1.1879617292e+02   2.4778195285e+01     0.269883    0.1424552  72.56 0.0008239168    1.949    0.487
       131  -9.3191    194.9094    203.5814   9.0022916844e+01   2.8058316703e+00    0.3157147    0.2677179 -55.68  0.001262115    1.527    0.345
       132  -9.3374    192.3949    197.2248   8.9376613290e+01   4.2851823405e+00    0.3384931    0.2588817 -59.25   0.00106051    1.777    0.437
       133  -8.9872    183.8465    204.1207   9.2296162019e+01   4.6510474776e+00    0.3057029    0.2190189  65.31 0.0009375404    2.021    0.505
       134  -8.6923    131.4904    204.4417   1.0310804178e+02   1.3760279846e+01    0.2933485    0.1808944  71.29 0.0009996657    2.328    0.570
       135  -7.9516    109.0196    205.3448   1.0795325559e+02   1.7292433868e+01    0.1870773    0.1500128  53.29 0.0006382429    1.095    0.087
       136  -8.1933     32.2098    210.2046   1.2385336499e+02   2.6656556729e+01    0.1784324   0.07322973 -89.05 0.0005672182    2.481    0.597
       137  -7.7200     17.3471    203.6622   1.2620378389e+02   2.9515252369e+01    0.1253583   0.06012593  66.30 0.0007047525    1.782    0.439
       138  -9.3132    243.0319    200.5384   8.0566698366e+01  -4.7028441167e+00    0.3303379    0.1701475 -35.65  0.001136005    1.952    0.488
       139  -8.1958    222.2354    201.6251   8.4487658722e+01  -1.5311433320e+00    0.2156008     0.151823 -42.67 0.0008904613    1.687    0.407
       140  -8.3646    210.9052    202.1124   8.6687951408e+01   2.8961830871e-01    0.1808343    0.1758226  31.09 0.0005037608    1.304    0.233
       141  -8.9598    140.5068    201.1521   1.0071357285e+02   1.2837132622e+01     0.345993    0.2293215  82.04  0.001016621    2.380    0.580
       142  -8.4901     80.1903    201.4891   1.1352790123e+02   2.2444314154e+01    0.3136643    0.1490207  71.48   0.00125955    3.145    0.682
       143  -7.7389     73.1445    202.1857   1.1506871621e+02   2.3284261654e+01    0.1808177    0.1242819  70.29 0.0007003473    1.331    0.249
       144  -8.0452     48.6151    202.3331   1.2007215617e+02   2.6403702803e+01    0.1993339    0.1101409  70.04  0.001097722    1.705    0.413
       145  -9.2957    237.0434    198.7111   8.1273936720e+01  -3.5100722436e+00    0.3089802    0.1709832 -37.05  0.001148723    1.869    0.465
       146  -9.4057    149.6596    198.8694   9.8421125829e+01   1.1657817487e+01    0.4059089    0.2841818  85.66  0.001336129    2.218    0.549
       147  -8.9869    123.8482    199.3126   1.0397553450e+02   1.6058836773e+01    0.3252513    0.2156866  78.34  0.001500186    2.015    0.504
       148  -9.6619    112.8822    198.5258   1.0621270269e+02   1.8041837939e+01     0.431193    0.2473427  67.01  0.001559828    2.243    0.554
       149  -9.0145     88.7757    198.7820   1.1140256770e+02   2.1760545808e+01    0.3444297    0.2046484  85.34  0.001470463    2.059    0.514
       150  -8.3949    177.0251    199.0607   9.2786129817e+01   6.7207136506e+00    0.2005353    0.1644903  78.73 0.0005608474    1.693    0.409
       151  -8.4984    202.3392    197.8344   8.7542288531e+01   2.4320844333e+00    0.2279078    0.2067465 -78.83 0.0009817862    1.571    0.363
       152  -9.3095     61.5876    197.0651   1.1693832707e+02   2.5903767161e+01    0.3973535    0.1905338  71.31  0.001427521    2.539    0.606
       153  -8.1084     12.9460    197.9739   1.2668399396e+02   3.1101761825e+01    0.1928993   0.09451257  67.05 0.0006877548    1.735    0.424
       154  -9.3064    214.9736    195.9565   8.4782728623e+01   5.4152069035e-01    0.2950915    0.2148532  22.55 0.0008617343    1.274    0.215
       155  -8.3342    132.9424    196.1503   1.0154780065e+02   1.5127059093e+01    0.2130079    0.1682387  68.52  0.000706899    1.348    0.258
       156  -8.6270    224.4856    194.1825   8.2680119144e+01  -8.0003753361e-01    0.2656433    0.1921574 -52.02  0.001023155    1.949    0.487
       157  -8.0451     29.3035    197.6736   1.2352101878e+02   2.9545789922e+01    0.1250036   0.06711454  68.78 0.0003874087    1.644    0.392
       158  -8.8676    185.2099    194.7149   9.0354893438e+01   5.9976782348e+00    0.2659504    0.2180761 -46.33 0.0007995761    1.386    0.278
       159  -8.9949    161.0443    194.4802   9.5290130051e+01   1.0431036046e+01    0.3229176    0.2166264  63.81  0.001056907    1.951    0.487
       160  -8.9997     44.1312    193.8474   1.2024168149e+02   2.8725993957e+01    0.3874569    0.1819592  67.40  0.001896429    2.226    0.551
       161  -8.3561    231.0119    194.3176   8.1519025207e+01  -1.9036616418e+00    0.1805516    0.1517053  12.06  0.000631946    1.052    0.049
       162  -8.8504     76.7846    193.7845   1.1337231960e+02   2.4556478133e+01    0.2707051    0.1821864  65.15 0.0006371344    1.389    0.280
       163  -8.0861    241.4979    192.0618   7.9225926389e+01  -3.2771194041e+00    0.1805709    0.1144699 -29.25  0.000481043    1.494    0.331
       164  -8.1301    199.0582    191.8405   8.7067236626e+01   3.9893667032e+00    0.1897211    0.1794123  48.08 0.0004972263    1.252    0.201
       165  -8.4342    172.3269    191.8618   9.2472992077e+01   8.8495423365e+00    0.2485898    0.2090529 -89.28   0.00116049    1.599    0.375
       166  -9.2054    139.6050    190.8584   9.9260639979e+01   1.5001801918e+01    0.3709491    0.2542217  78.75  0.001119057    2.096    0.523
       167  -9.2035    216.2578    188.2595   8.3072454243e+01   1.5223423225e+00      0.36431    0.2274225 -24.23  0.001183513    1.673    0.402
       168  -7.5258    205.2928    191.6865   8.5823342166e+01   2.9036187391e+00    0.1216719    0.1095767  84.10 0.0002619696    1.594    0.373
       169 -10.4943     92.4719    188.8437   1.0933945457e+02   2.3317197562e+01    0.9817047    0.2762783  49.30  0.003275069    3.767    0.735
       170  -8.5902    148.7539    189.4534   9.7042936294e+01   1.3627020676e+01    0.2561726    0.1835463 -73.35  0.000837916    1.840    0.457
       171  -8.2483      6.3108    190.6752   1.2751158575e+02   3.3216168769e+01    0.1204849    0.0610112  68.21  0.000388184    1.657    0.396
       172  -8.4264    237.2218    188.5480   7.9297546876e+01  -2.0768781422e+00    0.2308229    0.1598919 -27.33 0.0005847692    1.364    0.267
       173  -9.4072    155.9653    187.3971   9.5131065302e+01   1.2703251473e+01    0.3836243    0.2416394 -62.39  0.001073536    2.043    0.511
       174  -8.9492    129.2084    188.5773   1.0116439695e+02   1.7306089984e+01    0.2900711    0.2063272  75.40  0.001097176    1.742    0.426
       175  -9.8460    120.9281    186.8492   1.0272417796e+02   1.9104573533e+01    0.5229398    0.2868976 -75.18  0.002135622    2.752    0.637
       176  -8.6979     34.1772    187.9011   1.2177995693e+02   3.1115448900e+01     0.358573    0.1549888  78.84  0.001612102    2.695    0.629
       177  -8.3151    230.6621    187.5092   8.0268028256e+01  -8.3307587534e-01    0.1976608    0.1575738 -50.49 0.0007791415    1.691    0.409
       178  -8.7723    191.4926    187.3489   8.7719973908e+01   6.1236049639e+00    0.2798574    0.2230975 -84.02  0.001318982    2.006    0.501
       179 -10.2051    182.5396    186.8159   8.9436598598e+01   7.8715730519e+00    0.3389171    0.2417742 -36.54 0.0006206902    1.482    0.325
       180  -9.0910     54.8373    187.1168   1.1735849640e+02   2.8909205166e+01    0.3977167    0.1758905  62.95  0.001742832    2.574    0.612
       181  -8.6978    164.9261    186.8233   9.3114411615e+01   1.1150085666e+01    0.2637016    0.2185959 -85.24 0.0008450621    1.577    0.366
       182  -9.2987    109.5342    186.2324   1.0517314216e+02   2.1159581939e+01    0.3769191    0.2468943  74.71  0.001323363    1.872    0.466
       183  -8.6167    249.2799    185.5835   7.6623911364e+01  -3.5926144930e+00    0.2471745    0.1850826 -40.08  0.001091611    1.556    0.357
       184  -8.9342    210.2800    184.1625   8.3409741488e+01   3.2420783722e+00    0.3067084    0.2059222 -37.05  0.001085655    1.526    0.345
       185  -8.5748    202.7588    184.8587   8.5004735988e+01   4.4868992107e+00    0.2204454    0.1878633 -57.05 0.0006065866    1.507    0.336
       186  -9.0541     66.7716    184.7228   1.1450503171e+02   2.7906504694e+01    0.3754231     0.183886  60.15    0.0011691    2.177    0.541
       187  -8.5401    224.0560    183.7775   8.0740168460e+01   8.6895644652e-01    0.2273016    0.1758472 -25.63 0.0006779025    1.244    0.196
       188  -8.3937    197.1993    183.7746   8.5891011373e+01   5.6898717618e+00    0.2069623      0.15312 -89.18 0.0008253877    2.662    0.624
       189  -8.8517    174.2791    183.5354   9.0531746149e+01   1.0013915985e+01    0.2660677    0.2318375 -86.19 0.0008485041    1.473    0.321
       190  -8.1472      1.8052    183.8000   1.2798270089e+02   3.5042486587e+01    0.1616064   0.09602415  67.27  0.001056686    1.378    0.274
       191  -8.9018    240.8961    181.5800   7.7277810723e+01  -1.6533289653e+00     0.316855    0.1946471 -52.62  0.001494742    2.587    0.614
       192  -8.9813     44.3825    182.4298   1.1914084428e+02   3.1187618253e+01    0.3344037    0.1756312  74.01   0.00106901    1.987    0.497
       193  -8.1507     20.0137    183.5024   1.2433954876e+02   3.3499128717e+01    0.1741232   0.06186591  54.50 0.0008105842    2.612    0.617
       194  -9.2757    147.5441    180.7265   9.5775673968e+01   1.5585157250e+01     0.364428    0.2754057 -87.19  0.001022591    1.778    0.438
       195  -7.9893     83.3817    182.2403   1.1049529080e+02   2.6129766744e+01    0.1855937    0.1162499 -81.58  0.000497492    1.692    0.409
       196  -8.6882     26.7886    181.1616   1.2276172315e+02   3.3350286989e+01    0.3479021    0.1387893  63.16  0.001591116    2.668    0.625
       197  -8.9338     24.3159    176.9524   1.2294128731e+02   3.4521416562e+01    0.3445927    0.1546068  81.40  0.001654693    2.323    0.570
       198  -8.1498    235.3611    181.2505   7.8188353638e+01  -6.7848207147e-01    0.1819636    0.1143759 -40.30 0.0009355278    1.693    0.409
       199  -8.7329    137.6276    179.2401   9.7720282351e+01   1.7723890169e+01    0.3089993    0.2264751  89.27  0.001040371    1.818    0.450
       200  -9.7439    191.5622    177.5427   8.5797069919e+01   7.8377126479e+00    0.5300461    0.2963476 -29.84 0.0007490258    2.039    0.510
       201  -8.2375    169.3349    178.6377   9.0646958867e+01   1.1875398051e+01     0.209425    0.1677184  78.22   0.00069703    1.672    0.402
       202  -9.2400     35.7652    176.5965   1.2045455447e+02   3.3438824310e+01    0.4892715    0.1957822  81.41  0.001865982    3.627    0.724
       203  -9.7158    248.3865    176.4288   7.4953194604e+01  -2.1236928295e+00    0.4141715    0.2794801 -50.25  0.002180498    2.069    0.517
       204  -8.6666    250.5200    172.9032   7.3877712759e+01  -1.9527303066e+00    0.1876618    0.1663413 -19.47 0.0004964541    1.192    0.161
       205  -8.6292    231.2213    177.0405   7.8082873983e+01   6.7813416104e-01    0.2643179    0.1642854 -43.73 0.0008287366    1.805    0.446
       206  -8.4081    217.5732    177.4454   8.0681809427e+01   3.0298115869e+00    0.2286533    0.1890024  82.43 0.0008564199    1.981    0.495
       207  -8.6580    205.1214    177.7064   8.3126129960e+01   5.2648718204e+00     0.232349    0.1830304 -43.39 0.0006525316    1.395    0.283
       208  -8.7006    129.1757    177.5693   9.9340261110e+01   1.9612476895e+01    0.2966505    0.2110364  89.63 0.0009268352    1.859    0.462
       209  -8.1403     97.3374    177.7045   1.0667530009e+02   2.5003914373e+01    0.2485803    0.1719744  11.49  0.001147757    2.418    0.586
       210  -9.2984    183.1895    175.9626   8.7203152779e+01   9.7230503158e+00    0.3642369    0.2457599 -50.72 0.0006943053    1.684    0.406
       211  -8.6380     89.0590    176.9203   1.0847171084e+02   2.6468899087e+01    0.2862332    0.1678393  71.46 0.0009872883    2.123    0.529
       212  -9.1816     59.0038    176.0038   1.1523621449e+02   3.0871939386e+01    0.4458177    0.2090981  66.52   0.00172862    2.691    0.628
       213  -9.5783     56.4846    171.9864   1.1534487389e+02   3.2103765453e+01    0.4806678    0.2296246  83.10  0.001955351    2.929    0.659
       214  -8.8304     12.7735    176.4252   1.2531503775e+02   3.5701292608e+01    0.2900396    0.1181713  81.36  0.001364559    2.509    0.601
       215  -8.1762    211.6113    176.2675   8.1577306090e+01   4.3103994169e+00    0.1888412    0.1245333 -25.76  0.000941065    1.551    0.355
       216  -9.3738    158.7025    175.0545   9.2263996294e+01   1.4614082217e+01    0.4081177    0.2771546  76.13  0.001288715    2.383    0.580
       217  -9.4416    104.2086    174.7466   1.0463078029e+02   2.4550473898e+01    0.5011231    0.2775506  69.52  0.001585529    2.678    0.627
       218  -8.4876     79.2725    158.5732   1.0810082811e+02   3.2165643654e+01    0.2858707    0.1332609  35.33  0.001221681    2.296    0.564
       219 -10.6494     75.9990    171.1961   1.1071488031e+02   2.9693718144e+01     1.073016    0.4352133 -80.49  0.003330735    4.680    0.786
       220  -8.5501     74.3497    160.3310   1.0957604942e+02   3.2456034445e+01     0.233063    0.1834221 -10.11  0.000908361    1.974    0.493
       221  -8.4357    224.5269    174.3223   7.8749505903e+01   2.2885204698e+00    0.2403716    0.1252805 -40.04 0.0006690578    1.939    0.484
       222  -9.4822    175.8741    172.1667   8.7983676900e+01   1.1852955993e+01    0.3959528    0.2599537 -44.45 0.0007940314    1.593    0.372
       223  -8.4598    143.0506    172.6742   9.5308290963e+01   1.8084932952e+01    0.2412196    0.1973401 -70.98 0.0005944356    1.372    0.271
       224  -8.6586    134.6951    171.7458   9.7044707458e+01   1.9845681520e+01     0.285944    0.2210499 -83.35  0.001441528    1.560    0.359
       225  -9.6157    121.4951    170.5710   9.9896713849e+01   2.2505447907e+01    0.4407261    0.2893886 -77.19  0.001433882    1.940    0.484
       226  -8.9893     44.9613    170.8380   1.1784426157e+02   3.3733388228e+01    0.3758002    0.1943163  87.72  0.001384863    2.055    0.513
       227  -9.0056    205.2332    170.7402   8.1682483115e+01   6.4466329802e+00    0.3323465    0.2478116  26.94  0.001086847    1.324    0.245
       228  -8.3177    237.1775    169.8459   7.5546037347e+01   7.6717915676e-01    0.1905674    0.1750814 -28.44 0.0006552935    1.243    0.195
       229  -8.6433    230.6092    169.9961   7.6747971063e+01   1.8989678539e+00    0.2282136     0.175427  17.42  0.001281062    1.273    0.214
       230  -8.5844    198.5286    170.2254   8.2905453566e+01   7.8173290411e+00    0.2418737    0.1965654  40.19 0.0006722265    1.227    0.185
       231  -9.2584    167.1576    168.7298   8.9171041901e+01   1.4230330998e+01    0.3634767    0.2628883  71.05  0.001108897    1.929    0.482
       232  -8.5614    149.8493    169.6216   9.3191131546e+01   1.7424557170e+01    0.2752092    0.1954882 -72.56 0.0008844085    1.857    0.461
       233  -8.7011    244.3031    169.1074   7.4154538468e+01  -3.4425199763e-01    0.1900954    0.1534903 -23.30 0.0005930135    1.133    0.118
       234  -9.4904    191.5370    166.7116   8.3591739352e+01   9.8136743930e+00     0.584671    0.3561765 -24.58  0.002167458    1.963    0.490
       235  -7.9485     88.5253    168.9614   1.0743437447e+02   2.8360060659e+01    0.2033415    0.1287583 -68.12 0.0006433662    1.547    0.354
       236  -8.1897    218.6924    168.2827   7.8584685293e+01   4.3432164959e+00    0.1986203    0.1689313 -43.49 0.0005502059    1.327    0.246
       237  -8.6825    111.6816    167.4950   1.0167922803e+02   2.4914812176e+01    0.2836219    0.1999906  85.65  0.000831266    1.747    0.428
       238  -8.4085    185.0761    166.6456   8.4915154220e+01   1.1097480451e+01    0.2450373    0.1953667 -50.75 0.0007115739    1.388    0.280
       239 -10.0874     94.9461    162.8232   1.0492710451e+02   2.8771965007e+01    0.8688957    0.4653021  78.99  0.002997775    3.684    0.729
       240  -8.4816     68.0355    167.0453   1.1203507367e+02   3.1753166682e+01    0.2137232    0.1393097  74.02 0.0004196172    1.613    0.380
       241  -9.1862     20.4829    166.0407   1.2286470508e+02   3.7322849748e+01    0.3671447    0.1491543  59.91  0.001269816    2.585    0.613
       242  -8.6649     12.8455    167.2402   1.2462541357e+02   3.7724774147e+01    0.2121601   0.08226349  65.52   0.00094915    2.827    0.646
       243  -8.3288    233.8883    165.2328   7.5164932051e+01   2.0772286879e+00    0.2282866    0.1684875 -39.65 0.0006761596    1.405    0.288
       244  -9.8807    136.7318    164.4947   9.5215276187e+01   2.1025578812e+01    0.6419627    0.2983244  55.78  0.002043932    2.829    0.646
       245  -8.6375    159.5293    164.4825   8.9997258596e+01   1.6593330482e+01    0.2759121    0.2329559  86.96 0.0008802448    1.454    0.312
       246  -9.5645     33.2891    163.4038   1.1973947980e+02   3.6694234481e+01    0.5264451    0.2111392  56.50  0.002341466    2.704    0.630
       247  -8.2983    239.7339    164.0122   7.3880522873e+01   1.2358778936e+00    0.2490812     0.201846 -61.70  0.001374735    1.813    0.449
       248  -8.5824    237.0294    159.0172   7.3291941126e+01   2.5125135574e+00    0.2545469    0.1696995 -54.31 0.0007493208    2.093    0.522
       249  -8.5069    212.9268    163.6144   7.8692561385e+01   6.2222165622e+00    0.2615139    0.1939453 -42.42 0.0006202733    1.414    0.293
       250  -8.3380     56.9439    163.6866   1.1423715198e+02   3.3968356349e+01    0.3808557    0.1884544  18.57  0.001511467    3.751    0.733
       251  -8.5892     60.4258    160.3752   1.1297602892e+02   3.4308927715e+01    0.2908569    0.1700013  68.22 0.0009838971    1.908    0.476
       252  -8.9324    246.0481    163.0125   7.2586976871e+01   2.9413996720e-01     0.202409    0.1766833 -13.90 0.0005013936    1.072    0.067
       253  -8.5404    204.8577    163.0468   8.0138792948e+01   7.8759111041e+00    0.2086843    0.1946696 -64.24 0.0004662729    1.313    0.239
       254  -7.8989    200.2427    162.9733   8.1038760228e+01   8.7900544512e+00     0.185306    0.1185818 -38.26 0.0005102139    1.556    0.357
       255  -9.3207      3.4393    162.4028   1.2629447039e+02   3.9559461839e+01    0.3676447    0.1503032  54.47   0.00151467    2.337    0.572
       256  -9.2501    177.5221    160.7902   8.5283774673e+01   1.3732091804e+01    0.3325188    0.2508848 -67.92  0.001002786    1.768    0.434
       257  -9.0492    151.6473    161.2480   9.1122259807e+01   1.8826429536e+01    0.3259946    0.2466794 -72.65  0.001030869    1.651    0.394
       258  -7.7146    222.2646    161.6715   7.6518223858e+01   4.7889890804e+00    0.1297674    0.1101537 -61.62 0.0002510445    1.571    0.364
       259 -10.7223    241.7553    154.3291   7.1468363546e+01   2.4153548889e+00    0.8038414    0.4480287 -55.79  0.003219434    3.163    0.684
       260 -10.4684    241.2888    144.0892   6.9308640253e+01   4.1581425763e+00    0.7487722    0.3507279 -26.17   0.00306135    2.304    0.566
       261  -9.9478    250.1623    157.8864   7.0816135478e+01   3.7813452022e-01    0.3803124    0.1835703 -35.93 0.0008447103    1.871    0.466
       262  -9.0240    246.5638    155.5187   7.0911183261e+01   1.3723888774e+00    0.2426948    0.1821705 -27.13 0.0005864603    1.183    0.155
       263  -8.6044    227.4496    159.1441   7.5025143725e+01   4.2448947724e+00    0.3060553    0.2041936 -53.25 0.0009968803    1.973    0.493
       264  -8.5232    128.4327    159.4491   9.6205647121e+01   2.3702005358e+01    0.3264152    0.2146569  80.13 0.0008385163    2.340    0.573
       265  -9.7858    105.9305    158.0807   1.0142461171e+02   2.8054218741e+01    0.5293957    0.3517227  85.10  0.001379055    2.009    0.502
       266  -9.3172    167.7067    157.4798   8.6718339674e+01   1.6382168914e+01    0.3592148    0.2856102 -89.43  0.001193294    1.722    0.419
       267  -8.5955    196.7399    157.9435   8.0660056025e+01   1.0406057809e+01    0.2575734    0.1987406 -57.20 0.0008032437    1.576    0.366
       268  -8.4143    188.2338    157.5796   8.2328153732e+01   1.2187669627e+01    0.2751229    0.1966705 -39.57 0.0006857287    1.404    0.288
       269  -8.4181    217.9290    156.4271   7.6193164886e+01   6.5078876769e+00    0.2719739    0.1838304 -49.37 0.0009246713    1.712    0.416
       270  -8.8324    157.8371    156.5566   8.8736792003e+01   1.8574833286e+01     0.284848    0.1985028 -66.76 0.0009235337    1.847    0.458
       271  -9.3530    119.6538    155.5318   9.7577103473e+01   2.6211963822e+01    0.4239127     0.285363 -86.14  0.001750811    2.063    0.515
       272  -9.4301     81.7595    154.9778   1.0691702822e+02   3.2651047071e+01    0.5051959     0.276941  68.95  0.001427668    2.577    0.612
       273  -9.5972     49.7645    155.5530   1.1494964811e+02   3.6742035588e+01    0.4021913    0.2137618  66.32  0.001561888    2.181    0.542
       274  -8.2052    204.5344    155.1037   7.8480595315e+01   9.3695704285e+00    0.2177732     0.137819 -40.05  0.001012393    1.562    0.360
       275  -8.4850    144.3241    154.8074   9.1496807152e+01   2.1656827060e+01     0.274004    0.2214453  89.69 0.0008956101    1.516    0.340
       276 -10.1430    133.0446    151.8923   9.3587334751e+01   2.4512536018e+01    0.7062186    0.4113034 -53.08  0.001421101    1.746    0.427
       277  -9.5937     68.0138    153.7013   1.1017146694e+02   3.4900274729e+01    0.4691224    0.2616329  77.98  0.001517213    2.439    0.590
       278  -8.1263    232.7968    153.8331   7.2916734181e+01   4.1325144560e+00    0.1811075    0.1604425 -48.34 0.0006164393    1.331    0.249
       279  -8.8414    151.8634    152.6434   8.9277723914e+01   2.0612614956e+01    0.2967876    0.2001594 -65.41  0.001069545    1.862    0.463
       280  -8.4092     60.0000    152.9844   1.1207666839e+02   3.6115116130e+01    0.2203139   0.06832711 -65.46 0.0007952523    2.893    0.654
       281  -9.2464     19.8935    152.5237   1.2178907492e+02   4.0467960431e+01    0.2044622    0.1346737  78.65    0.0008458    1.353    0.261
       282  -8.1863    182.7686    151.7048   8.2187270392e+01   1.4443591798e+01    0.2698567    0.1935691 -68.63 0.0008588859    2.001    0.500
       283  -9.5764     29.4968    150.8766   1.1933540794e+02   3.9980588464e+01    0.4675911    0.2042107  66.11  0.002001586    2.903    0.656
       284  -8.8190      2.6845    150.6710   1.2560361874e+02   4.2247867476e+01    0.3345404    0.1270192 -78.55  0.001657125    2.048    0.512
       285  -9.7826    248.9362    149.4983   6.9221259276e+01   1.9018658074e+00     0.373262    0.1886648 -31.28 0.0007871464    1.789    0.441
       286  -9.0441    189.4083    150.3714   8.0492924145e+01   1.3329639219e+01    0.3178922    0.2386154 -56.51 0.0008453214    1.564    0.361
       287  -8.7924     98.3396    150.6914   1.0199223802e+02   3.1061730575e+01     0.306544    0.2167554  80.41 0.0008863244    1.700    0.412
       288  -9.3403    243.2592    149.9893   7.0272556343e+01   2.8405200987e+00    0.3399269    0.1796526 -37.65 0.0009371706    1.740    0.425
       289  -9.8874    233.2816    147.5860   7.1458622788e+01   5.0798219061e+00    0.3136847    0.2313534 -27.44 0.0008872782    1.240    0.193
       290 -10.0283     89.3806    146.4736   1.0352905413e+02   3.3513678670e+01     0.687013    0.3764414 -89.00  0.002448345    3.282    0.695
       291  -8.2503    212.9711    149.9372   7.5697602132e+01   8.6186139502e+00    0.2170832    0.2017541 -12.79  0.000462866    1.036    0.035
       292  -8.4714    198.8409    149.0319   7.8262013280e+01   1.1640997871e+01    0.2195055     0.197842 -67.61  0.000587696    1.334    0.251
       293  -9.8266     39.6362    147.9457   1.1650936419e+02   3.9663015200e+01    0.4719345    0.2269438  65.09  0.001999568    2.582    0.613
       294 -10.4274    106.7077    143.9607   9.8570448869e+01   3.1224151582e+01    0.8249559     0.554398 -80.29  0.002161331    1.862    0.463
       295  -9.0336     78.1918    147.3669   1.0658133815e+02   3.4994353318e+01    0.2794036     0.188905  72.12 0.0009149623    1.694    0.410
       296 -10.5583     54.7527    143.0483   1.1199673241e+02   3.9145943609e+01     1.067026    0.5402659 -78.94  0.003189988    2.092    0.522
       297  -8.2372    223.1194    147.1022   7.3168549180e+01   7.1150342088e+00    0.2134538    0.1806672  -4.02 0.0004468713    1.154    0.133
       298 -10.3471    148.9547    144.9103   8.8275250170e+01   2.2877234410e+01    0.5982845    0.4038899 -77.50  0.001566954    2.285    0.562
       299  -9.4347     13.1000    146.1048   1.2279784206e+02   4.2514450955e+01     0.365766    0.1779796  70.44  0.001253046    2.186    0.543
       300  -8.0858    206.7318    146.5583   7.6139566286e+01   1.0485223266e+01    0.1877054    0.1428979  56.98 0.0004303485    1.543    0.352
       301  -8.4065    175.6610    146.2233   8.2487093822e+01   1.7019814271e+01    0.2315557       0.1889 -62.63 0.0007266213    1.423    0.297
       302  -9.7314    139.0677    144.9523   9.0656274139e+01   2.4876542966e+01    0.4234777    0.2958872 -79.84   0.00114669    2.030    0.507
       303  -8.8463    165.5913    144.2498   8.4274967217e+01   1.9548474438e+01    0.3305364    0.2393565  62.28 0.0007847336    1.644    0.392
       304  -9.8365    125.1437    142.8174   9.3636633757e+01   2.8096639833e+01    0.5807422     0.376054 -85.16  0.001686212    2.498    0.600
       305  -8.9516    247.0596    143.9046   6.8308969596e+01   3.1287222573e+00    0.2563576    0.1759935 -26.07 0.0005038985    1.310    0.237
       306  -8.5009    250.3319    140.9946   6.7137459047e+01   3.0012325627e+00    0.1985576    0.1545627 -29.23  0.000693217    1.129    0.114
       307  -7.3107    218.2933    144.6541   7.3505988007e+01   8.4954522761e+00    0.1413424    0.1139453 -66.02 0.0004988326    1.666    0.400
       308  -7.9770    194.1914    144.2059   7.8106611971e+01   1.3517932367e+01     0.201658    0.1788348 -71.74 0.0005179649    1.367    0.268
       309 -10.7394     69.4906    141.1997   1.0783426401e+02   3.7709196838e+01    0.8036115     0.486447  85.85   0.00341541    2.118    0.528
       310  -9.4633     69.8141    134.4328   1.0659263392e+02   3.9309545142e+01    0.3731186    0.2069242  17.57  0.001536033    2.912    0.657
       311  -9.4697      2.7545    141.6681   1.2486998732e+02   4.4293698033e+01    0.4374615    0.1774954  80.31   0.00179334    2.706    0.631
       312  -8.1699    162.4914    150.1101   8.6288689200e+01   1.8972007240e+01    0.2280538    0.1488417 -46.04 0.0006849151    1.553    0.356
       313  -9.8499     23.3474    138.0106   1.1944955605e+02   4.3570035434e+01    0.5381171    0.2554622  76.38  0.001929982    2.603    0.616
       314  -7.9599    234.7778    138.9161   6.9258007731e+01   6.2480050627e+00    0.1901506    0.1065996 -33.05 0.0006456754    1.635    0.388
       315  -8.2600    182.0042    141.5785   8.0048649732e+01   1.6608104851e+01    0.2830745    0.2069893 -56.35   0.00057805    1.566    0.361
       316  -8.6468    172.2996    138.4466   8.1430504015e+01   1.9321592251e+01     0.318117    0.2395634 -89.43 0.0009464351    1.973    0.493
       317  -7.7518    218.5430    138.5407   7.2061814361e+01   9.5278294722e+00    0.1448976    0.1340082 -21.22 9.689842e-05    1.039    0.037
       318  -8.2756    207.6898    138.1380   7.4016171393e+01   1.1834016652e+01    0.2351756    0.1780634 -53.72 0.0008322813    1.505    0.335
       319  -8.7695    197.6701    137.4479   7.5829065727e+01   1.4073533282e+01     0.285967    0.2089665 -59.46  0.000799285    1.691    0.409
       320  -9.5947    138.9686    137.5393   8.9029569532e+01   2.6554279481e+01    0.4140392    0.2709486  23.62  0.001713415    2.047    0.512
       321 -10.3612     83.3171    133.1125   1.0265891741e+02   3.7677078319e+01    0.5686731    0.3596403 -70.98  0.001224061    1.635    0.388
       322  -9.3558     39.3962    136.2928   1.1507488119e+02   4.2477744829e+01    0.3152624     0.185607  61.54  0.001144412    1.890    0.471
       323  -9.3951    250.6727    129.8956   6.4614889281e+01   4.7189198364e+00    0.6797302    0.1400073 -38.79  0.002028243    4.100    0.756
       324  -9.0588    248.4712    135.3905   6.6193720681e+01   4.2408280779e+00    0.4023257     0.186484 -40.92 0.0006427013    2.002    0.501
       325  -8.4699    246.9723    130.3285   6.5296401918e+01   5.3426031127e+00    0.2034898    0.1737795 -45.76 0.0005288303    1.243    0.196
       326  -7.9415    187.6576    135.8152   7.7497242945e+01   1.6535936514e+01     0.216563    0.1359411 -48.67 0.0004508476    1.676    0.403
       327  -8.1956    162.4270    136.2960   8.3152104943e+01   2.1894154006e+01    0.2155794    0.1463248 -54.80 0.0009394791    1.605    0.377
       328  -9.0517    151.5233    135.7825   8.5581956358e+01   2.4330880406e+01    0.3329871    0.1873036  32.52  0.001288488    2.127    0.530
       329  -8.7101    179.4794    133.9754   7.8796872774e+01   1.8677240186e+01    0.3060581    0.2384978 -63.61 0.0007700308    1.538    0.350
       330  -8.1596    237.5026    133.9514   6.7668271057e+01   6.5551776394e+00    0.2173033    0.1262113 -36.76  0.001014658    1.557    0.358
       331  -7.3934    231.3157    134.2577   6.8792987443e+01   7.7142256093e+00    0.1397246    0.1053745   7.79 0.0002395631    1.535    0.348
       332 -10.0943    132.5569    131.5917   8.9260288047e+01   2.9201866622e+01    0.5759404    0.3981954  82.20  0.001909622    2.221    0.550
       333  -9.1520    112.8708    133.1246   9.4700884940e+01   3.2669657814e+01     0.396237    0.2850559 -79.38  0.001057547    1.710    0.415
       334  -9.4709    142.9545    131.6554   8.6681661684e+01   2.7043912018e+01     0.363578    0.2630981 -70.52   0.00089425    1.731    0.422
       335 -10.4759     98.2163    129.5921   9.7869945499e+01   3.6117810236e+01    0.9410545    0.3116439 -55.50  0.003023326    2.903    0.655
       336  -9.2046    168.3275    129.6290   8.0206605907e+01   2.2011640753e+01    0.3369074    0.2535981 -64.14 0.0007591757    1.596    0.373
       337  -9.8240     73.2263    129.2796   1.0471531884e+02   4.0091618481e+01    0.4843728    0.2683923 -75.35  0.001466966    2.093    0.522
       338  -9.9758     13.0463    129.4492   1.2115713197e+02   4.6407720977e+01    0.4565848    0.2256446  69.33  0.001941446    2.346    0.574
       339  -7.8701    220.5205    130.4292   6.9810370710e+01   1.0563833251e+01    0.1452686    0.1345727 -21.16 0.0003544576    1.021    0.021
       340  -8.3176    211.7023    129.3817   7.1185383678e+01   1.2597406063e+01    0.2637019    0.1675708 -47.32 0.0007974443    1.635    0.388
       341  -8.1944    204.5070    130.1117   7.2733388171e+01   1.3996791658e+01    0.2294964     0.141299 -40.31  0.001011997    1.556    0.357
       342  -7.8536    192.8742    130.1796   7.5065960265e+01   1.6503314085e+01    0.2237505    0.1998084 -68.01 0.0005760002    1.285    0.222
       343  -9.6109    152.9687    128.4045   8.3472948630e+01   2.5625812060e+01    0.6359647    0.2887846 -47.29  0.002226467    2.208    0.547
       344  -8.5468     25.9716    130.2038   1.1784422108e+02   4.5201047406e+01    0.2834882    0.1132759  12.07  0.001034782    5.166    0.806
       345  -7.8573      1.6304    130.3104   1.2415748720e+02   4.6981165094e+01    0.1242516   0.07091964  68.37 0.0007035555    1.767    0.434
       346 -10.7082     44.6982    123.3739   1.1172248026e+02   4.5054466416e+01     1.083417    0.5256145  77.24  0.003838729    3.964    0.748
       347 -10.4471     60.0609    125.0798   1.0765073262e+02   4.2866843824e+01    0.7403673    0.4166967  79.05  0.002475258    2.783    0.641
       348  -9.9984    117.8541    125.2489   9.1593039833e+01   3.3574231765e+01    0.5308498    0.3718454  88.88    0.0014945    2.097    0.523
       349  -8.0766    228.4696    125.5132   6.7250889057e+01   9.7926029632e+00     0.145079    0.1316095 -31.81 0.0008091257    1.056    0.053
       350  -8.9995    179.0977    124.7688   7.6629321035e+01   2.0619552302e+01    0.2960975    0.2443723 -61.86 0.0005269012    1.364    0.267
       351 -10.2927    131.0835    118.9406   8.6578429035e+01   3.2376053668e+01    0.5956265    0.4020438  88.69  0.001870509    2.538    0.606
       352  -8.7679     84.7690    123.0539   1.0022563355e+02   3.9891768920e+01    0.5144714    0.3243722   8.14  0.002065194    2.859    0.650
       353 -10.2759     28.4578    122.3890   1.1614357680e+02   4.6857291395e+01    0.7629722    0.3512397  78.88  0.002946237    3.507    0.715
       354  -9.3066     28.6154    113.6054   1.1483290937e+02   4.8952065339e+01    0.4275146    0.1194313  31.03  0.001708201    3.732    0.732
       355  -7.9491    188.5090    124.0268   7.4455028216e+01   1.8666209724e+01    0.2152188    0.1293281 -60.64 0.0005672512    2.375    0.579
       356  -8.9885    158.7995    121.7774   8.0446617908e+01   2.5772494991e+01     0.391636    0.2924049 -82.29 0.0008765247    1.898    0.473
       357  -7.8842    202.9715    122.0301   7.1066207311e+01   1.5844116551e+01     0.232919     0.182739 -70.74 0.0005839258    1.654    0.396
       358  -7.8382    195.1744    122.1985   7.2642830489e+01   1.7536876940e+01    0.2104291    0.1766668 -61.57 0.0004847355    1.346    0.257
       359  -8.6441    171.9361    121.6220   7.7408097752e+01   2.2866116886e+01    0.2896031    0.2197261 -49.02 0.0004603449    1.335    0.251
       360  -9.6433     70.9013    119.8669   1.0354978893e+02   4.2710113692e+01    0.3833359    0.2576889 -88.49 0.0008595323    1.839    0.456
       361 -10.1474    141.5273    117.8829   8.3645426023e+01   3.0403469969e+01    0.7166886      0.33762 -48.14  0.001935626    2.115    0.527
       362  -9.7617      3.2628    117.5809   1.2248494196e+02   4.9835627960e+01    0.5057561    0.2150244  66.99  0.002249356    3.137    0.681
       363  -7.9157    231.4709    117.5149   6.4849637832e+01   1.0555821369e+01    0.1453202    0.1306815 -35.89 0.0005464086    1.058    0.055
       364  -7.5723    205.7079    117.6798   6.9466718616e+01   1.6052347311e+01    0.1524532    0.1172313   2.65 0.0007012223    1.606    0.377
       365 -10.0032    109.5871    114.4265   9.1237351234e+01   3.7675752287e+01    0.5635971    0.3825357 -82.32  0.001650126    2.192    0.544
       366  -9.0882    109.4858    107.7776   8.9583839631e+01   3.9237763278e+01    0.3398599    0.2317483  -2.38  0.001338197    2.526    0.604
       367  -8.0582    219.4639    116.5169   6.6666056272e+01   1.3261968502e+01    0.1484071    0.1365043 -27.97 7.637261e-05    1.003    0.003
       368  -8.2634    193.0624    115.6062   7.1410726913e+01   1.9278440982e+01    0.2656265    0.2000545 -47.94 0.0005939637    1.338    0.253
       369  -8.1315    185.6192    115.8181   7.2985419652e+01   2.0929985133e+01    0.2216994    0.1396591 -48.67 0.0004556287    1.640    0.390
       370  -7.4417    153.2880    115.6682   8.0187943668e+01   2.8303981047e+01    0.1590974    0.1254537 -79.30 0.0004268444    1.623    0.384
       371 -10.3951     92.7966    111.8829   9.5404927219e+01   4.1272493981e+01    0.8571922    0.3731243 -58.11  0.002627271    2.361    0.577
       372 -10.0478     78.9276    112.4586   9.9620766608e+01   4.3345458543e+01     0.568495    0.3654349 -88.67  0.001902796    2.310    0.567
       373  -7.7455    167.4165    114.4807   7.6587271233e+01   2.5360752439e+01    0.1567167    0.1503635 -52.51 0.0001688537    1.049    0.047
       374  -9.8168    122.0859    112.5943   8.7346812447e+01   3.5659465295e+01    0.3567175    0.2736048 -64.35 0.0007191424    1.420    0.296
       375  -8.5554    174.7841    112.0679   7.4321270599e+01   2.4161874887e+01    0.3306062    0.2032028 -52.07 0.0008634564    1.773    0.436
       376 -10.3976    133.4669    109.3277   8.3474577201e+01   3.4026852808e+01    0.6897534    0.3667775 -52.70  0.002207676    1.991    0.498
       377  -8.6141    159.1760    111.7105   7.7754098208e+01   2.7815635721e+01    0.2718376    0.2081333 -52.76 0.0005358228    1.349    0.259
       378 -10.2429     66.3200    109.7140   1.0280846773e+02   4.5795756801e+01    0.6401672    0.3189461 -60.95  0.002386624    1.827    0.453
       379  -9.9541     14.0566    111.2505   1.1872730678e+02   5.0630872624e+01    0.3721497    0.2007877  71.33  0.001383353    2.271    0.560
       380  -7.8886    149.7088    110.3510   7.9654148001e+01   3.0242799034e+01    0.1618865    0.1254412 -77.93 0.0002564272    1.673    0.402
       381 -11.3058    248.7430    104.8354   5.9162839519e+01   9.1563102239e+00    0.9364649    0.3033826 -36.44   0.00340783    2.632    0.620
       382  -8.0077    189.4504    107.9963   7.0177153164e+01   2.1569343501e+01    0.2394127     0.147177 -40.00 0.0005235767    1.559    0.359
       383  -9.8669    119.0126    106.4622   8.6580641499e+01   3.7671711840e+01    0.3916143     0.259507 -44.33  0.001232118    1.457    0.314
       384  -8.5963    124.5035    107.4855   8.5358097639e+01   3.6321288695e+01    0.1556831    0.1491333 -29.11 0.0008099359    1.053    0.050
       385  -9.3090    139.8848    104.8868   8.0624972769e+01   3.3604114400e+01    0.3878395    0.2945803 -77.95 0.0008899765    1.748    0.428
       386 -10.5441     45.5523    102.3053   1.0771621313e+02   5.0059036674e+01    0.7740601     0.432136  74.33  0.003155098    3.138    0.681
       387  -8.9234     46.1313     92.6155   1.0551172370e+02   5.2300474647e+01    0.4452023    0.2575507  -1.02  0.001854556    2.871    0.652
       388 -10.7041     22.8633    102.6984   1.1487257580e+02   5.2019625552e+01    0.7275543     0.385863  74.79  0.002692301    2.732    0.634
       389  -9.5346    150.6018    103.2343   7.7508446427e+01   3.1549303962e+01    0.4724781    0.2996298 -61.21  0.001136855    2.017    0.504
       390  -9.0358     79.2394    104.8907   9.7778352424e+01   4.5109360345e+01    0.4013314    0.2143165  24.89  0.001526328    2.490    0.598
       391  -8.5315    166.7747    104.1051   7.3969423619e+01   2.7629253535e+01    0.2437894    0.2096658 -66.58 0.0005660847    1.283    0.221
       392  -9.7685      6.7791    102.7076   1.1974495775e+02   5.3098469087e+01    0.4090718     0.198514 -84.47  0.002062308    1.965    0.491
       393 -10.2153    128.5756    102.2716   8.2852995288e+01   3.6625751983e+01    0.3772401     0.299038 -85.50 0.0008957007    1.638    0.389
       394 -10.5599    109.1438     99.0032   8.7342432847e+01   4.1304800855e+01    0.8065172    0.4812768  67.12  0.001572934    2.898    0.655
       395  -9.2156    108.3877     92.4664   8.5728995678e+01   4.2909692119e+01    0.5701346    0.2941495  26.59  0.001994539    2.976    0.664
       396  -7.9074    175.6069    102.2492   7.1526909401e+01   2.5925814831e+01    0.2129354    0.1488844 -29.77 0.0004006943    1.494    0.331
       397  -8.3019    159.8094    101.1475   7.4748311788e+01   2.9856239655e+01    0.2429436    0.2095353 -66.12  0.000508919    1.271    0.214
       398  -9.3964     81.9166     99.7907   9.5704201632e+01   4.5900328472e+01    0.3949073    0.2699545 -74.38  0.001081997    1.810    0.447
       399 -10.1831     63.8826     96.3611   1.0056204925e+02   4.9308401843e+01    0.6378626    0.3709774 -76.69  0.002031362    2.385    0.581
       400  -9.6064     94.9876     96.8289   9.0928663833e+01   4.4412666674e+01    0.4482547    0.2720769 -53.40 0.0007579079    1.584    0.368
       401  -7.4286    183.6972     96.6983   6.8330032884e+01   2.5080775725e+01    0.1557407    0.1231896   9.91 0.0002060812    1.590    0.371
       402  -8.5249    243.2987     94.9336   5.7616577711e+01   1.1875376191e+01    0.2464291   0.07810288 -49.04   0.00070331    4.305    0.768
       403  -8.3948    176.5086     93.4225   6.8912882516e+01   2.7423934497e+01    0.3161874    0.2054039 -55.54 0.0009308357    1.757    0.431
       404  -8.2181    164.8423     94.1424   7.1643430509e+01   3.0075196755e+01    0.2449128    0.2075937 -67.32 0.0005243792    1.316    0.240
       405  -9.3535    139.1214     92.1254   7.7217981060e+01   3.6478849367e+01    0.4720945    0.3257411 -64.61  0.001526238    1.865    0.464
       406  -8.7685     59.7484    115.1103   1.0588426086e+02   4.5335000460e+01    0.3581227    0.2285421  -2.94  0.001588675    2.694    0.629
       407 -10.2801    123.9393     91.2631   8.0980389532e+01   3.9996856598e+01    0.5282139    0.4246423  29.35   0.00132712    1.356    0.262
       408  -8.0873    157.8372     91.8211   7.2577410270e+01   3.2198336840e+01    0.2158706    0.1843539 -68.68 0.0004428452    1.311    0.237
       409  -9.9078     34.7867     89.9939   1.0873833225e+02   5.4030061351e+01    0.4525425    0.2497635 -81.99  0.001452246    2.305    0.566
       410  -7.9634    151.1246     89.1558   7.3384917635e+01   3.4312956305e+01    0.2174201    0.1805708 -61.62 0.0004054481    1.320    0.242
       411 -10.2268     86.7351     85.6888   9.0388127640e+01   4.8346443029e+01    0.7769696    0.4832342 -46.05  0.001512141    1.475    0.322
       412  -8.6917     64.8827     87.8847   9.8131470233e+01   5.1152012748e+01    0.4413521    0.2549753  -2.62  0.001660018    3.512    0.715
       413  -7.4474    188.2953     87.3052   6.4844394242e+01   2.5722680335e+01    0.1533826    0.1219555  11.47 0.0002488023    1.582    0.368
       414  -7.6207    163.9947     87.4751   6.9928338966e+01   3.1576365114e+01     0.203915    0.1409029  85.55 0.0004237155    2.187    0.543
       415  -9.8273     48.6060     84.3612   1.0277045452e+02   5.3956353746e+01    0.5231572    0.3313086  80.56  0.001876888    2.757    0.637
       416  -7.6124    179.3323     85.7099   6.6169947543e+01   2.8189612104e+01    0.1585816    0.1217178 -75.47 0.0004778917    1.628    0.386
       417  -9.5726      5.0732     92.1106   1.1882622424e+02   5.5653946694e+01    0.3818713    0.1940575  58.73  0.001535009    2.669    0.625
       418  -9.7773    104.8527     83.3306   8.4084619795e+01   4.5580809077e+01    0.4774716    0.3221029 -66.33  0.001014634    1.995    0.499
       419  -8.9718    104.8237     77.3640   8.2252853265e+01   4.6841184685e+01     0.346503    0.2190374  19.34  0.001173188    2.255    0.557
       420  -9.9037    110.2370     74.9729   7.9884824957e+01   4.6246270107e+01     0.287894    0.2495714  41.86 0.0003076217    1.201    0.167
       421  -9.1827    105.8915     71.6719   8.0109823523e+01   4.7787290870e+01    0.3905623    0.2338895 -52.27 0.0006839315    1.850    0.460
       422  -8.4040    157.8805     84.1137   7.0324167274e+01   3.3693396382e+01    0.2353182    0.2086965 -63.81 0.0004076689    1.204    0.169
       423  -9.0747    140.8518     83.0103   7.4072667906e+01   3.7931664058e+01    0.3286736    0.2058598 -48.30 0.0006012706    1.648    0.393
       424  -9.7273     24.7690     80.8038   1.1028552854e+02   5.6994787001e+01    0.4681914     0.261932 -88.68  0.001539142    2.562    0.610
       425  -9.7950     10.0134     81.1604   1.1547646035e+02   5.7895556987e+01     0.405261    0.2117491  66.92  0.001722646    3.066    0.674
       426  -8.9348     43.2219    109.5152   1.0980015604e+02   4.8567063198e+01    0.2785229    0.1398957  22.18  0.001286014    2.570    0.611
       427  -9.1086     22.9374     90.3282   1.1275147129e+02   5.4927357426e+01    0.2667795    0.2326636 -17.49  0.001359661    1.357    0.263
       428  -8.5296    150.4474     80.7541   7.1050414756e+01   3.6117248147e+01    0.3110249    0.2041208 -56.04 0.0009001087    1.777    0.437
       429  -8.8930    119.3312     80.2291   7.8931944997e+01   4.3282609185e+01    0.3347647    0.2521926 -64.91  0.000772845    1.637    0.389
       430  -8.9039     74.4937     80.3752   9.2858692677e+01   5.1478583186e+01    0.3275958    0.2165532 -66.03 0.0009796565    1.822    0.451
       431  -8.2642    166.8428     79.4335   6.6960987371e+01   3.2397863226e+01    0.2687295    0.1975737 -45.85 0.0005820289    1.357    0.263
       432  -8.0459    184.0000     78.0392   6.3077758526e+01   2.8430764424e+01    0.2517918   0.08597903 -35.46 0.0006785946    2.854    0.650
       433  -7.5939    174.5535     78.4838   6.5072793354e+01   3.0677229866e+01    0.1543403    0.1494923 -52.32 6.336294e-05    1.014    0.014
       434  -9.5936    128.0164     75.3157   7.5010404597e+01   4.2367704030e+01    0.4325776    0.2809767 -58.73 0.0006774077    1.943    0.485
       435  -9.9997     63.3726     73.7902   9.4768857668e+01   5.4521397431e+01    0.7644421    0.2996308 -59.85  0.002671246    3.261    0.693
       436  -8.6115     64.0679     63.6864   9.1413465370e+01   5.6575848970e+01    0.4849758     0.273363  -0.29  0.001826846    3.511    0.715
       437  -8.3189    140.3282     75.1040   7.1769731062e+01   3.9587315591e+01    0.2233124    0.1949995 -44.44 0.0006561691    1.145    0.127
       438  -9.7895     82.5092     71.5040   8.7481180863e+01   5.2117702138e+01    0.8710135     0.354872 -45.07  0.002978191    2.248    0.555
       439  -8.2349    163.4464     73.1100   6.5806067760e+01   3.4379765485e+01    0.2359805    0.1497191 -37.66 0.0005658426    1.550    0.355
       440  -7.6312    151.4819     73.4912   6.8590477412e+01   3.7232729518e+01    0.1545369    0.1506021 -61.86 0.0008098684    1.049    0.046
       441  -9.0301    115.3960     72.6967   7.7657980728e+01   4.5628459653e+01    0.3391792    0.1780169 -39.10  0.001094111    1.854    0.461
       442  -8.7803     42.7292     72.5126   1.0186514854e+02   5.7267132586e+01    0.3176377    0.1706382 -66.43  0.001361743    2.033    0.508
       443  -7.8543    175.5090     72.4989   6.3135500680e+01   3.1501556937e+01    0.1523195    0.1500059 -49.13 0.0008105962    1.012    0.012
       444  -9.3810     94.9817     70.8507   8.3209320092e+01   5.0056188803e+01    0.4343582    0.2288233 -54.70  0.001070695    2.279    0.561
       445  -7.7397    170.4104     71.2185   6.3782416256e+01   3.2991043384e+01    0.2221305    0.1392647 -45.75  0.000943258    1.611    0.379
       446  -9.4713     51.3793     69.6010   9.7877410651e+01   5.6953341713e+01    0.4068804    0.2301426 -68.09  0.001332573    2.313    0.568
       447  -9.2516     29.7931     70.0986   1.0605594313e+02   5.9013245794e+01    0.4355597    0.2151639 -21.19  0.001891464    3.063    0.674
       448  -9.1854     16.5667     70.0438   1.1098806783e+02   6.0007405362e+01    0.2316374    0.1717969 -85.07 0.0008157119    1.515    0.340
       449  -8.3224    206.4389     69.7794   5.6844117363e+01   2.4340959837e+01    0.2925886    0.1327136 -38.05  0.001135605    2.035    0.509
       450  -8.5975    146.9946     68.4589   6.8064694829e+01   3.9229375648e+01    0.2884659    0.2041525 -52.07 0.0006049955    1.542    0.352
       451  -7.4664    157.2492     69.6713   6.6106893262e+01   3.6516774082e+01    0.1543497    0.1175213 -63.65 0.0001842849    1.546    0.353
       452  -8.9990    138.8127     66.3075   6.9344673902e+01   4.1569232685e+01     0.336794    0.1981715 -49.52 0.0009971305    1.888    0.470
       453  -8.8608    121.6558     66.1565   7.3756832033e+01   4.5527533375e+01    0.3198316    0.2358407 -61.29 0.0006551722    1.698    0.411
       454  -8.6661     37.3074     64.4211   1.0171650747e+02   5.9582662232e+01    0.2518809    0.2012234 -80.91 0.0009495036    1.566    0.362
       455  -9.0885    109.9961     63.4644   7.6154450274e+01   4.8536010557e+01    0.3505315    0.2265079 -49.85 0.0007153374    1.694    0.410
       456  -8.1097    158.1713     62.1357   6.3563712731e+01   3.7590570199e+01     0.210079    0.1762859 -66.31 0.0003453161    1.327    0.247
       457  -9.6862     97.5086     60.3458   7.8869685165e+01   5.1633681794e+01     0.390247    0.2644391 -30.01  0.001529698    1.462    0.316
       458  -9.6699     73.3136     59.6270   8.6731616626e+01   5.6023510077e+01    0.3857185    0.2300806 -53.85  0.001110972    1.855    0.461
       459  -8.2157     88.8686     59.8158   8.1466575744e+01   5.3353557752e+01    0.1875399    0.1692852 -58.34  0.000666748    1.290    0.225
       460  -7.9346    147.3465     59.2331   6.5025821417e+01   4.0744859174e+01    0.2158346    0.1348715 -43.39 0.0005109974    1.637    0.389
       461  -9.8613     23.4856     56.5145   1.0501525944e+02   6.2469491609e+01    0.4105224    0.2711515  86.45  0.001665991    2.574    0.612
       462  -8.2037    130.7445     57.8015   6.8545115641e+01   4.4954192076e+01    0.2022881    0.1726319 -60.39 0.0003864356    1.336    0.252
       463  -9.5373      7.5771     57.2481   1.1163809785e+02   6.3336798748e+01    0.2733404      0.19372  81.29  0.001023351    1.921    0.480
       464  -8.2458    140.0914     56.4627   6.5800684266e+01   4.2965808706e+01    0.2452902    0.2006277 -55.56 0.0004365995    1.354    0.261
       465  -9.3809    119.1123     55.5789   7.0844851457e+01   4.7984680347e+01    0.4532512    0.2332073 -46.62  0.001474695    2.164    0.538
       466  -9.4857     54.2328     55.3838   9.2372717544e+01   5.9583412222e+01    0.3637055     0.223314 -61.45  0.001079631    2.044    0.511
       467  -9.0569     43.9502     55.4290   9.6426522710e+01   6.0793797851e+01    0.3033305    0.1732712 -56.71  0.001023845    1.734    0.423
       468  -8.5252    105.8867     53.4197   7.3848041466e+01   5.1204851437e+01    0.2688125    0.1926851 -49.78 0.0005943858    1.573    0.364
       469  -9.4472     92.4063     50.6862   7.7027124457e+01   5.4370087845e+01    0.3696619    0.2404656 -47.55  0.001016807    1.684    0.406
       470  -8.1293     74.2892     52.3375   8.3809529797e+01   5.7270849957e+01    0.1428237   0.09935672 -12.23 0.0005971128    1.638    0.389
       471  -7.8909    144.6511     49.2333   6.2337423642e+01   4.3015377282e+01    0.2035468    0.1414241 -19.94 0.0004293651    1.599    0.374
       472  -8.6242    129.9066     49.1073   6.5764579061e+01   4.6581335598e+01    0.2200818    0.2021172 -67.12 0.0004652852    1.234    0.190
       473  -8.5912    120.8625     47.6017   6.7547728659e+01   4.8910378739e+01     0.239828    0.1939771 -14.96 0.0005767483    1.279    0.218
       474  -8.8583    156.2052     47.5849   5.9338382244e+01   4.0395689141e+01    0.2161399    0.1310597  47.27 0.0005557898    1.638    0.389
       475  -8.2835    112.0857     47.0425   6.9735599972e+01   5.0953251620e+01    0.2171396    0.1773108 -67.83 0.0005500005    1.619    0.382
       476  -8.9504     82.0602     46.2739   7.8816943306e+01   5.7044838840e+01     0.277193    0.1843816 -42.69 0.0006331409    1.516    0.340
       477  -8.5990     45.0445     44.7229   9.2341913009e+01   6.2789400707e+01    0.2058718    0.1601827 -50.43 0.0004249517    1.338    0.253
       478  -8.9725     16.5528     44.8266   1.0462725804e+02   6.5394688819e+01    0.1948986    0.1767325 -84.90 0.0006737943    1.452    0.311
       479  -8.8754    132.9745     43.5439   6.3071541554e+01   4.6708252039e+01    0.2713288    0.1946152 -47.87 0.0006902391    1.544    0.352
       480  -9.6657      5.2369     42.2509   1.0890602383e+02   6.6594345334e+01     0.289986    0.1950595 -83.58  0.001228021    1.997    0.499
       481  -8.5884     92.9222     42.6656   7.3825995415e+01   5.5625096806e+01    0.2434487    0.1844514 -14.21 0.0006391737    1.330    0.248
       482  -9.3945     69.6908     41.6119   8.1429584358e+01   5.9940161508e+01    0.3814786    0.2554569 -56.42  0.001169918    2.077    0.519
       483  -9.0661     58.0164     42.0884   8.6092282849e+01   6.1611479558e+01    0.3446259    0.1769134 -52.86  0.001286735    2.405    0.584
       484  -8.6214    105.9471     41.5088   6.9420385746e+01   5.3148240055e+01    0.2592001      0.18915 -47.29 0.0006693341    1.567    0.362
       485  -8.2475    140.3617     41.2483   6.0579760604e+01   4.5256694735e+01    0.2051617    0.1311326 -40.39 0.0008593801    1.624    0.384
       486  -8.3627     36.8118     41.0345   9.4499217824e+01   6.4399402207e+01    0.1807633    0.1546737 -47.75 0.0005298135    1.272    0.214
       487  -8.9618     95.5527     37.3793   7.0930731995e+01   5.5933137022e+01    0.4462376    0.2165754 -33.29  0.001785952    2.018    0.504
       488  -8.3743     80.5331     36.5699   7.5521231179e+01   5.8926458188e+01    0.2362785     0.117931 -45.11 0.0007290572    2.286    0.563
       489  -9.3998     26.1735     35.4687   9.7222730114e+01   6.6474417696e+01    0.2830919    0.1850337 -58.39 0.0009032289    1.690    0.408
       490  -8.0859    133.3767     36.1568   6.0366112975e+01   4.7667994321e+01    0.2040155    0.1293318 -39.94 0.0008940676    1.658    0.397
       491  -8.1664    126.0104     35.6764   6.1920152836e+01   4.9489359316e+01    0.1988683    0.1744488  47.06 0.0003494392    1.100    0.091
       492  -8.3902    111.8734     34.7448   6.5179250108e+01   5.2856603419e+01    0.2498649    0.1729022 -55.38 0.0005818877    1.927    0.481
       493  -8.7284    119.1114     32.8672   6.2579048533e+01   5.1478770347e+01    0.3472782    0.1663246 -38.76  0.001225358    2.191    0.544
       494  -7.7648     88.5368     34.5115   7.2004293130e+01   5.7749174338e+01    0.1373487    0.1232241   0.94 0.0001281653    1.023    0.023
       495  -9.0357     48.5676     33.5075   8.6547929748e+01   6.4393101230e+01    0.2259458    0.1941922 -30.81  0.000717413    1.188    0.158
       496  -8.8343     60.5202     32.5502   8.1258761493e+01   6.2882266199e+01    0.2309044    0.1666618 -39.25 0.0005869179    1.385    0.278
       497  -8.5419     72.3051     31.4690   7.6326185011e+01   6.1162305925e+01    0.2400395    0.2077296 -77.54 0.0007924432    1.851    0.460
       498  -9.0781     12.9371     30.2258   1.0159447548e+02   6.8494890959e+01    0.3114834    0.1724149 -63.77  0.001553759    2.124    0.529
       499  -8.5999    101.8068     29.7225   6.6009481095e+01   5.5737999800e+01    0.2466087    0.1712023 -54.41 0.0008080675    1.979    0.495
       500  -8.3107     42.1679     30.1461   8.7924325214e+01   6.5765550918e+01    0.1588671    0.1373655 -40.25 0.0003733457    1.329    0.247
       501  -8.9809     81.5586     27.3693   7.1335871240e+01   6.0112018276e+01    0.2807318    0.2094189 -45.46 0.0007354984    1.628    0.386
       502  -8.9134      3.6979     28.0249   1.0537921703e+02   6.9471261064e+01    0.1646945    0.1547157  77.76 0.0007515373    1.558    0.358
       503  -7.3941    136.5487     27.4750   5.6579679034e+01   4.8026122084e+01    0.1406532    0.1334965  44.67 0.0004562859    1.018    0.018
       504  -9.0122     91.6868     26.3529   6.7639006800e+01   5.8285533269e+01    0.2903398    0.2111581 -44.28 0.0009171832    1.632    0.387
       505  -7.4085    150.3102     25.6438   5.3232965329e+01   4.4831661271e+01     0.149426    0.1052217 -63.90 0.0007043175    1.731    0.422
       506  -8.1655     34.8893     23.4242   8.8360467513e+01   6.7734344686e+01    0.1511396    0.1008727  51.16 0.0008044027    2.695    0.629
       507  -8.1911    104.4877     22.5251   6.2352806560e+01   5.6085643542e+01    0.1377326    0.1231197  21.75 4.786946e-05    1.002    0.002
       508  -9.0445     63.5574     21.1720   7.5081117131e+01   6.4129313571e+01    0.2775404    0.2012938 -45.53 0.0008576398    1.749    0.428
       509  -9.0902     48.3450     21.6951   8.1533229472e+01   6.6335436092e+01    0.2302189    0.1938035 -30.18 0.0005931552    1.279    0.218
       510  -8.1103    121.2811     21.6318   5.7794994918e+01   5.2383840301e+01    0.1387757    0.1051602 -59.48 0.0007014084    1.690    0.408
       511  -8.9385     74.0387     19.8527   7.0623201209e+01   6.2510127844e+01    0.2823021    0.1698294 -35.70 0.0007784544    1.719    0.418
       512  -8.0435     19.5409     21.5127   9.4993735516e+01   6.9564493130e+01     0.117487    0.0907352 -28.21 1.982682e-05    1.042    0.040
       513  -8.0534     12.2935     20.6782   9.8347814580e+01   7.0279320961e+01   0.09675299   0.08813766 -68.83 0.0002877793    1.613    0.380
       514  -8.0431     87.8149     17.8099   6.5176788243e+01   6.0144097198e+01    0.1691739    0.1518305 -35.88 0.0004805428    1.323    0.244
       515  -8.1986     38.5678     18.0926   8.4240296824e+01   6.8150405893e+01    0.1810316    0.1014125 -36.51  0.001015785    1.572    0.364
       516  -8.0113    112.8225     16.8444   5.7932477376e+01   5.4879206707e+01    0.1732025    0.1601847 -63.27 0.0003902398    1.304    0.233
       517  -7.8358     30.0178     16.2194   8.7438685299e+01   6.9424889437e+01    0.1588527     0.118491 -47.37 0.0007198461    1.640    0.390
       518  -8.5211    134.5789     14.7988   5.2432958668e+01   4.9940591699e+01    0.1834619    0.1248907 -37.96 0.0009335631    1.593    0.372
       519  -8.1183     97.0238     15.0278   6.1280585777e+01   5.8562755230e+01    0.1923078    0.1581157 -54.46 0.0005253438    1.602    0.376
       520  -7.8404      7.3448     15.6967   9.8939719641e+01   7.1491013262e+01    0.0926929   0.08856098  86.99 0.0007040117    1.686    0.407
       521  -7.6823     17.2937     14.6447   9.3180761124e+01   7.0910960085e+01   0.09856614   0.08886674 -59.43 0.0007031213    1.689    0.408
       522  -7.5432     76.6602     10.3177   6.5343598215e+01   6.3176846874e+01    0.1171931    0.1024191 -62.99 0.0007049023    1.709    0.415
       523  -8.8535    175.5802    247.7986   1.0057544523e+02  -6.2405894244e-01    0.2718877    0.1868287  64.96  0.001394703    2.178    0.541
       524  -7.7648     47.5392     10.4836   7.6511860266e+01   6.8034291339e+01    0.1222427   0.09864351  -4.29 8.718785e-05    1.040    0.038
       525  -8.5463    156.2547    248.3471   1.0419219047e+02   2.2998992005e+00    0.2447439    0.1477512  57.00 0.0007698139    1.873    0.466
       526  -8.3591    113.1072    248.6277   1.1214179733e+02   8.8435268752e+00    0.1876673    0.1428008  82.80  0.000777186    1.441    0.306
       527  -9.2880    103.8533    246.9548   1.1365790931e+02   1.0475033252e+01    0.3878307    0.2055339 -83.25  0.001971981    2.799    0.643
       528  -9.1565    242.7351    247.4466   8.8667556430e+01  -1.0426251026e+01    0.2222432    0.1355893 -30.13 0.0009876692    1.803    0.445
       529  -8.8397    232.6131    247.5462   9.0400164804e+01  -9.0530966882e+00    0.1862749    0.1642077 -21.85 0.0006803197    1.500    0.333
       530  -8.4223    218.4772    247.2472   9.2801501227e+01  -7.0138936000e+00     0.260528    0.1100327 -36.51  0.001361194    2.733    0.634
