#   1 NUMBER                 Running object number                                     
#   2 MAG_AUTO               Kron-like elliptical aperture magnitude                    [mag]
#   3 X_IMAGE                Object position along x                                    [pixel]
#   4 Y_IMAGE                Object position along y                                    [pixel]
#   5 X_WORLD                Barycenter position along world x axis                     [deg]
#   6 Y_WORLD                Barycenter position along world y axis                     [deg]
#   7 A_WORLD                Profile RMS along major axis (world units)                 [deg]
#   8 B_WORLD                Profile RMS along minor axis (world units)                 [deg]
#   9 THETA_WORLD            Position angle (CCW/world-x)                               [deg]
#  10 FWHM_WORLD             FWHM assuming a gaussian core                              [deg]
#  11 ELONGATION             A_IMAGE/B_IMAGE                                           
#  12 ELLIPTICITY            1 - B_IMAGE/A_IMAGE                                       
         1 -14.1192     78.9392     71.8833   9.5502542178e+01   5.1715923399e+01     1.456627    0.8770015 -15.45  0.006016151    3.056    0.673
         2 -15.7994      6.7462     68.4327   1.1734956896e+02   5.9609139751e+01     2.046555     0.683795 -70.17  0.009769809    2.445    0.591
         3 -13.8308      8.8728     42.8107   1.1134908431e+02   6.4711800408e+01    0.8153524    0.6438237  55.34    0.0060364    1.776    0.437
         4 -15.2823     42.0609      6.7549   8.4861790597e+01   6.8193637093e+01     2.148046     1.130109 -19.84   0.01169736    1.934    0.483
         5 -15.2633      8.7709     29.4154   1.0778801996e+02   6.7298464493e+01     1.210441    0.6985413  32.95  0.007941364    2.321    0.569
         6 -15.1100     14.3170     19.9707   1.0239408001e+02   6.8670420841e+01    0.7487007    0.6324933  -4.53  0.005956054    1.339    0.253
         7 -14.8488     22.1667     13.4931   9.6472572389e+01   6.9181155014e+01    0.7357595    0.4972956  36.58  0.002644022    2.040    0.510
         8 -14.2197    119.8877     26.7963   6.8081454187e+01   5.2023790411e+01     2.437244    0.8945312  34.03  0.007063007    4.719    0.788
         9 -15.1830    119.4205     54.6770   7.8352586684e+01   4.7773123095e+01     1.535683    0.9648016  24.60  0.001985439    2.079    0.519
        10 -14.4720    101.3571     49.9428   8.1773580499e+01   5.2199125684e+01    0.8520342    0.7165443  66.89  0.002569498    1.524    0.344
        11 -13.5499    131.8021     33.0726   6.7522963602e+01   4.8460019712e+01    0.8332957    0.4545256 -26.20  0.002857188    1.858    0.462
        12 -14.6046    122.3927     36.9370   7.1269822914e+01   5.0026049389e+01      1.02718    0.5800912  24.02   0.00240016    2.482    0.597
        13 -13.4339      8.3840      3.2313   9.8596959522e+01   7.1904878676e+01    0.6191869    0.4025626  34.61  0.003151418    2.201    0.546
        14 -12.7938    187.4774     12.9474   5.0262343749e+01   3.6806852936e+01    0.7635769     0.577597 -23.72  0.003517066    1.397    0.284
        15 -13.9754    189.5243     26.5061   5.4172466862e+01   3.4712826673e+01     1.816596    0.7127354 -52.63  0.005570021    3.890    0.743
        16 -12.5669    195.0113     23.5479   5.2451725235e+01   3.3620923985e+01    0.8338807    0.3379671 -36.23  0.002859425    2.367    0.578
        17 -14.9756    166.5893     30.2091   5.9214959504e+01   4.0257752528e+01     1.492931     0.872752  62.96  0.004470848    1.697    0.411
        18 -13.3816    139.4416     21.6315   6.1579741461e+01   4.8147995159e+01    0.6247798     0.553302  75.32  0.001588345    1.264    0.209
        19 -14.9175    146.6600     30.3832   6.3212624502e+01   4.5272898011e+01     1.174828    0.6998439  52.80  0.003805909    1.601    0.375
        20 -12.4858    222.2613      5.2167   4.3877564830e+01   2.8540754815e+01    0.7569904    0.2978503 -24.05  0.002991985    2.658    0.624
        21 -12.7999    223.7071     20.9499   4.7996285286e+01   2.6443119012e+01    0.7347076    0.4972973   6.71 0.0005113924    2.043    0.511
        22 -13.8519    215.2703     20.8893   4.8983282670e+01   2.8622916312e+01     1.273785    0.4128909 -26.20  0.004392162    3.100    0.677
        23 -13.3134    218.9961     15.2348   4.6964230543e+01   2.8304720207e+01    0.4912066      0.47081 -63.99  0.001776936    1.049    0.047
        24 -13.0131    214.9801      9.8559   4.5921808924e+01   2.9926219796e+01     0.395889    0.3535759  69.01 0.0004722461    1.094    0.086
        25 -15.7532     98.6583     12.8501   6.8062867282e+01   5.8270591601e+01     1.666469    0.7774857  47.06  0.005218914    2.052    0.513
        26 -11.4645    153.0457      8.0916   5.4022351542e+01   4.6260864719e+01    0.2181747    0.2014754  57.56 0.0007704746    1.056    0.053
        27 -12.1334    120.1732      3.7875   5.8866493669e+01   5.4625905668e+01    0.3406774    0.2093161  67.71  0.001583012    1.852    0.460
        28 -11.0036    117.5048      1.4640   5.8510373559e+01   5.5451327487e+01     0.231399    0.1545064 -58.46 -3.714559e-05    2.217    0.549
        29 -11.2660     67.8250      3.5335   7.3447567446e+01   6.4970661312e+01    0.2532055    0.1679355   4.57  0.001475055    1.484    0.326
        30 -12.0326     26.9950      3.1292   8.9718822627e+01   7.0365975942e+01    0.3210864    0.1763138 -22.16   0.00194211    1.666    0.400
        31 -10.5741    192.9874      2.9767   4.6490540558e+01   3.6364311582e+01     0.163679    0.1588758 -89.30 0.0003484144    1.051    0.048
        32 -11.8024    232.6967      1.7491   4.1964236748e+01   2.6264636395e+01    0.2953299    0.1744917  63.64  0.001091926    1.630    0.387
        33 -12.0620     81.1208      1.7175   6.8226651840e+01   6.2885650939e+01    0.5155767     0.121184  46.46   0.00187842    3.720    0.731
        34 -12.0006     60.8084      1.6767   7.5042362077e+01   6.6297825213e+01    0.3630156    0.1472688  43.26  0.001754145    2.570    0.611
        35 -12.4065    110.8318    155.2371   1.0534229027e+02   2.8630256387e+01    0.5182034    0.2897424  86.59  0.002006729    3.279    0.695
        36 -13.1358     57.4444    246.7876   1.2471248386e+02   1.9577680830e+01    0.4199204    0.3293958  37.91  0.003384215    1.880    0.468
        37 -13.7519     28.0314    246.1186   1.2888939549e+02   2.3040708002e+01    0.4643784    0.2464093  73.43  0.003590432    1.371    0.271
        38 -11.8462      2.8070    249.9273   1.3245428968e+02   2.4996239623e+01    0.2437794    0.1227928  52.40  0.001768632    1.523    0.343
        39 -13.9807      8.9619    245.6317   1.3148055136e+02   2.5062079152e+01      0.63419     0.289029  61.42  0.003172122    1.478    0.323
        40 -11.9097    213.6014    155.8061   8.4404799361e+01   8.1927880042e+00    0.1962615    0.1295894 -45.32 0.0009578597    1.731    0.422
        41 -10.9528    188.2458    156.0111   8.9288391862e+01   1.3439222879e+01    0.1807043    0.1217816 -38.90 0.0007738633    1.590    0.371
        42 -11.7494     56.6903    154.4966   1.1690358386e+02   3.6625588179e+01     0.368945    0.1422401 -52.25   0.00164732    2.973    0.664
        43 -12.1062     85.4717    153.4512   1.1058168155e+02   3.3014388580e+01    0.3587007    0.2762221 -63.50  0.001960095    1.269    0.212
        44 -11.9337    103.4028    150.1483   1.0612616521e+02   3.0930478619e+01    0.3407571     0.264192 -41.90  0.001927099    1.576    0.365
        45 -12.7247    245.8095    149.1618   7.7285824142e+01   2.6674700915e+00    0.4435599    0.3086483 -47.40  0.002298884    1.795    0.443
        46 -15.4399      8.8209    179.4583   1.2829135129e+02   3.6500306383e+01     1.560338    0.9105151 -85.24   0.01135033    1.292    0.226
        47 -12.1023     62.9091    147.5604   1.1469426935e+02   3.7338071507e+01    0.2027129    0.1457779  85.86 0.0004386644    1.268    0.211
        48 -11.6367    148.8637    141.0913   9.4355701935e+01   2.4413704846e+01    0.2331345    0.1968195  87.00  0.001245997    1.307    0.235
        49 -11.5085     89.1450    140.7369   1.0777803182e+02   3.5190648120e+01    0.2472156    0.1614856 -38.87  0.001242509    2.073    0.518
        50 -12.9633     41.3837    137.4633   1.1818500012e+02   4.1971842124e+01    0.4657185    0.2961632 -66.89  0.002916849    1.333    0.250
        51 -11.8885     46.7274    134.7473   1.1663703910e+02   4.1993325356e+01    0.4555193    0.2345755 -64.86  0.002517637    1.619    0.382
        52 -11.6939    229.9963    138.0094   7.7526625812e+01   7.5441514355e+00    0.2202235    0.1808288 -69.91  0.001145423    1.706    0.414
        53 -12.7260    246.1241    136.1788   7.4352172675e+01   4.4732790329e+00    0.4269664    0.3424252 -78.11  0.002221032    1.954    0.488
        54 -11.3265     62.9041    134.4300   1.1286067835e+02   4.0183564102e+01    0.2497529    0.1783246  55.70   0.00151694    1.433    0.302
        55 -11.3385     11.0442    134.0999   1.2448128608e+02   4.5407993149e+01    0.1644275    0.1218244 -88.57 0.0004123743    1.033    0.032
        56 -12.3388    132.8475    129.1600   9.5417817416e+01   3.0060075305e+01    0.7046737    0.2699077 -45.28  0.002566719    2.688    0.628
        57 -14.2402     30.2023    118.9416   1.1846550214e+02   4.7062614538e+01     2.305295    0.3469543 -59.65  0.008359716    3.980    0.749
        58 -15.7337     24.8494     94.8488   1.1641986330e+02   5.2757676447e+01     1.699244     1.238023 -14.18   0.01111531    2.007    0.502
        59 -13.6773    130.2328    102.8754   8.9852753376e+01   3.6097940266e+01     2.815309    0.3626451  46.95  0.005705934    8.320    0.880
        60 -12.0354     78.4973    111.3251   1.0503281136e+02   4.3228518031e+01    0.3462633    0.2785119  76.58   0.00123777    1.332    0.249
        61 -14.5210    105.6312    122.5045   1.0047615609e+02   3.6506380834e+01     1.473821    0.9258454  37.88  0.007209343    1.769    0.435
        62 -15.3323    106.7753    107.0121   9.6779680190e+01   3.9682432050e+01     1.581404     1.391104 -25.37  0.008770131    1.312    0.238
        63 -13.2683     85.0614    115.5491   1.0418936243e+02   4.1337619236e+01    0.8217655    0.5247825  17.46  0.003802932    2.627    0.619
        64 -13.6483     91.3191    109.3759   1.0130129508e+02   4.1744114056e+01    0.8498729    0.6076393  36.17  0.004457829    1.594    0.373
        65 -15.0056     17.9356    110.7326   1.2041611311e+02   4.9851757405e+01    0.9509252    0.8701167 -34.22  0.005167582    1.458    0.314
        66 -12.3604    180.9844    121.4280   8.3000551168e+01   2.1268666894e+01    0.3659413    0.2900874  55.82  0.001371498    1.283    0.220
        67 -12.2618    241.5784    121.2842   7.1654949204e+01   7.6453876835e+00    0.2853269    0.1259622 -36.51  0.001143491    2.166    0.538
        68 -12.1373     37.0709    119.4771   1.1687475299e+02   4.6309519495e+01    0.2393138    0.2154135  81.49  0.001293794    1.195    0.163
        69 -12.4100      4.2744    119.9186   1.2464756149e+02   4.8867355323e+01    0.3968445    0.1732158  25.89  0.002307197    3.036    0.671
        70 -13.2673    248.8910    106.3456   6.6888969580e+01   8.3240794305e+00    0.5760958    0.2436486 -37.68  0.002285389    2.214    0.548
        71 -12.5790     44.9748    110.6023   1.1358477333e+02   4.7475393246e+01    0.4426757    0.3227148 -61.16  0.002830692    1.183    0.154
        72 -12.3917    121.0456    111.7806   9.4310526541e+01   3.6030699081e+01    0.3405743    0.2208262  65.90  0.001516834    1.968    0.492
        73 -11.8722    176.2829    110.7126   8.1314707798e+01   2.4362337342e+01    0.3999341    0.2839155  44.18  0.001857554    1.404    0.288
        74 -12.3561     61.6540    108.6706   1.0891864213e+02   4.6034271850e+01    0.5552508    0.2929245 -65.53  0.002797686    1.687    0.407
        75 -12.6960     62.5647     99.7920   1.0696485540e+02   4.7892824085e+01    0.5904904    0.3654187  85.77  0.002849859    2.320    0.569
        76 -14.3623      2.4524     97.2051   1.2267330775e+02   5.3780436003e+01     1.160637    0.3820125 -75.63  0.004026437    2.423    0.587
        77 -13.1466     43.3264     91.3894   1.1067743026e+02   5.1874314175e+01    0.8244468    0.2885193 -64.67  0.003521465    2.503    0.600
        78 -13.1960     50.6878     98.8854   1.1004125909e+02   4.9462832862e+01      0.64708    0.4381221   2.01   0.00263206    2.432    0.589
        79 -12.4015     49.5345     95.0292   1.0962817243e+02   5.0436979850e+01     0.365242    0.2339628 -71.28  0.001586796    1.423    0.297
        80 -13.1972    137.6582     95.7334   8.6151434408e+01   3.6016501744e+01    0.4305991    0.3851284 -70.01  0.001026151    1.185    0.156
        81 -11.1676    161.5620     96.6857   8.0817826280e+01   3.0471398793e+01     0.282147    0.1410918  50.65  0.001080421    2.012    0.503
        82 -12.4103    128.0561     95.8616   8.8562206573e+01   3.7999441398e+01    0.4083071    0.2183053  59.46  0.001578803    2.443    0.591
        83 -11.8496     59.6900    125.4682   1.1226335202e+02   4.2546757117e+01    0.3128022    0.2426208 -17.66  0.001121299    2.036    0.509
        84 -12.5663    178.4847     85.5979   7.4075233472e+01   2.8481213617e+01     0.645136    0.2584339 -48.27  0.002056682    3.028    0.670
        85 -11.7576     89.5019     87.2730   9.6574035727e+01   4.6850832738e+01    0.3615693    0.2442646  47.13  0.001867695    1.651    0.394
        86 -13.6388    188.3305     84.4943   7.1774920053e+01   2.6242771741e+01    0.8195725    0.3953133  43.58  0.002105542    2.202    0.546
        87 -12.7663    132.4522     86.2823   8.4816885813e+01   3.9033677899e+01    0.2926098    0.2825661 -39.45 0.0009324765    1.005    0.005
        88 -12.1073    125.9705     86.6461   8.6563212954e+01   4.0315342242e+01    0.3935161    0.2587833  54.67   0.00180523    1.672    0.402
        89 -13.6937    164.1955     71.6362   7.3010807223e+01   3.4481543317e+01     1.184477    0.5261802  40.88  0.004098624    2.607    0.616
        90 -14.6810    161.2337     80.5543   7.6324286814e+01   3.3594113374e+01     1.421504    0.7595398  32.08  0.004711154    2.639    0.621
        91 -14.8646    172.2684     77.0896   7.2914505439e+01   3.1530391010e+01      1.45027    0.6676971  53.69  0.005363969    2.176    0.540
        92 -13.2581    237.7107     80.1748   6.2031868769e+01   1.4824512455e+01     0.607289    0.4180554 -87.06  0.002704788    2.099    0.524
        93 -10.6855     98.4106     84.1700   9.3256746013e+01   4.6036841182e+01    0.1951442    0.1262258 -58.76 0.0003859894    1.607    0.378
        94 -14.7242     39.0063     67.8519   1.0698403161e+02   5.7355341361e+01      2.38561    0.5536454  27.96  0.008642137    5.448    0.816
        95 -13.8407     62.9948     56.2938   9.5956113125e+01   5.7077493616e+01    0.7787831    0.5037252 -41.62  0.002963699    1.322    0.243
        96 -13.8958     66.1693     49.5397   9.2741028675e+01   5.7968411094e+01    0.8288045    0.6337531  26.77   0.00501955    1.479    0.324
        97 -12.7772     72.0050     75.1198   9.8491176237e+01   5.2028133527e+01    0.4337609     0.340295  35.18  0.001663912    1.466    0.318
        98 -12.1968     40.4513    243.5526   1.2699710311e+02   2.2075502278e+01    0.3004828    0.1556643  86.76  0.001971164    1.669    0.401
        99 -14.6882     87.4459     65.6514   9.1096131034e+01   5.1666161120e+01     1.441309     1.010472 -18.34  0.005429805    1.755    0.430
       100 -13.3711     55.6377     79.7982   1.0461697895e+02   5.3086686084e+01    0.6051099    0.3413766 -43.94  0.002149127    1.651    0.394
       101 -14.1961     60.8054     75.8627   1.0209397988e+02   5.3320038685e+01    0.7248713     0.499139 -47.50 0.0007374703    1.248    0.199
       102 -12.6241    216.7544     81.1905   6.5657609613e+01   1.9731973247e+01     0.547108    0.4314981 -40.73  0.001489701    1.247    0.198
       103 -12.6717    210.1682     77.6104   6.5807285948e+01   2.1941923188e+01    0.5392101      0.35746 -62.03  0.002286372    1.950    0.487
       104 -11.7798     90.7877     80.4247   9.4389988435e+01   4.8097171385e+01    0.4131176    0.2724085 -26.52  0.001974979    1.894    0.472
       105 -13.2533    170.7935    241.7876   1.0634736380e+02   3.7165429268e+00    0.2397125    0.2142971  76.53  0.001854623    1.330    0.248
       106 -14.4958     95.7533    238.3164   1.1821391278e+02   1.5842882560e+01    0.6612028    0.4199216  56.63  0.001997351    1.180    0.153
       107 -12.0249    147.3062    239.0405   1.0989259804e+02   7.8907657661e+00    0.1553299    0.1286526  60.65 0.0009721019    1.121    0.108
       108 -12.1276     24.6143    217.1272   1.2790384272e+02   2.8143809546e+01    0.4918757    0.2827792  68.87   0.00369844    1.266    0.210
       109 -13.7187     25.7200    227.4621   1.2829264650e+02   2.6280909589e+01    0.5221506     0.264898 -65.65  0.003656392    2.221    0.550
       110 -13.2423     20.9119    225.1144   1.2888505775e+02   2.7168649750e+01    0.3296533    0.2819303  62.85  0.001929845    1.530    0.346
       111 -13.2591    134.8501     79.6539   8.2291449669e+01   3.9825681816e+01    0.8798788    0.4319362  53.36  0.002839765    2.231    0.552
       112 -13.8776    131.9523     66.6082   7.9014905324e+01   4.2932409649e+01     1.250912    0.9469061  45.21  0.006213768    1.354    0.261
       113 -13.7456     66.3214    223.4030   1.2172523260e+02   2.2243561015e+01    0.6515986    0.4422276  48.56  0.004746461    1.415    0.293
       114 -14.5475     62.8879    214.8777   1.2162012105e+02   2.4146051477e+01    0.8711341    0.3903646  50.21  0.005216187    1.807    0.447
       115 -11.4139    248.3391    215.6742   8.9686456345e+01  -6.0846570470e+00    0.1030269   0.09242453  63.72 0.0007051451    1.727    0.421
       116 -10.9895    200.4815    215.4895   9.7682109736e+01   2.0624299886e+00    0.1236143   0.09986682  37.01 0.0001477792    1.005    0.005
       117 -14.0706    111.7501     40.1909   7.5300795481e+01   5.1791440274e+01    0.8655006    0.5397537  17.51  0.003103417    2.192    0.544
       118 -13.2698      9.3376    210.8259   1.2991557574e+02   3.0738002787e+01    0.5622836    0.3130929  47.71  0.004282985    1.673    0.402
       119 -11.9920    113.9314     80.1317   8.7863266664e+01   4.4038141051e+01    0.4226164     0.316623 -47.17  0.001793271    1.270    0.213
       120 -11.3381     97.4836     78.9624   9.2074529448e+01   4.7283203617e+01     0.196547    0.1884963  32.46  0.000305796    1.136    0.120
       121 -12.0919     41.9053     77.1870   1.0819727422e+02   5.5096044992e+01    0.3290519    0.2175254 -60.38  0.001109672    1.231    0.188
       122 -14.0322    198.1027     70.9930   6.6081597854e+01   2.6057425074e+01      1.24632    0.6027071  38.99  0.004439464    2.553    0.608
       123 -11.2309     23.1316     75.1657   1.1352700945e+02   5.7128278819e+01    0.1796268    0.1256713 -50.51 0.0005968723    1.234    0.189
       124 -11.9565    158.2553     63.9028   7.1924019692e+01   3.7279968959e+01    0.3775991     0.236389 -46.86  0.001381993    1.697    0.411
       125 -11.9823    218.8947     74.8871   6.3588639326e+01   2.0201776176e+01    0.4617071     0.231282 -33.24  0.001841762    1.911    0.477
       126 -13.8778     79.4831     60.0617   9.1811372369e+01   5.4021392788e+01    0.7951497    0.4850091 -30.05  0.003917735    1.756    0.431
       127 -14.0049    177.8833     57.8185   6.5952406335e+01   3.3352234240e+01    0.8876427    0.6735981 -53.31  0.002404359    1.440    0.306
       128 -12.6548     39.2867     60.6336   1.0511212082e+02   5.8832164730e+01     0.310535    0.2075534  57.40  0.001791216    2.174    0.540
       129 -12.6785     24.4342     59.9631   1.0993125227e+02   6.0224573826e+01    0.3072444    0.1826642 -52.95 0.0009915149    1.279    0.218
       130 -11.4105    248.1996     55.4141   5.4164272899e+01   1.5930027296e+01    0.2679973    0.1616167 -55.90  0.001205051    1.850    0.459
       131 -12.3446    247.1272     51.2973   5.3240546855e+01   1.6749831496e+01     0.427673    0.2588519  22.15  0.001750311    2.649    0.623
       132 -12.3185    136.3770     49.7097   7.2326426964e+01   4.4870565446e+01    0.3365762    0.2573021  35.24 0.0009357935    1.343    0.256
       133 -10.6477    136.6161    211.2417   1.0839185102e+02   1.3826307291e+01    0.1437652    0.1153577 -47.44   0.00093949    1.581    0.367
       134 -12.9537    154.5236     46.4994   6.7088937389e+01   4.1024003915e+01    0.5092027    0.2725456  51.21  0.001760296    1.810    0.448
       135 -13.7818    158.3825     43.2721   6.5194384559e+01   4.0545444013e+01    0.6880711    0.4655909  49.29  0.002143536    1.438    0.304
       136 -13.4630     95.4002    218.8663   1.1648945754e+02   1.9033289823e+01    0.4520155    0.2123217  47.10   0.00256772    1.761    0.432
       137 -11.3580     80.5107    208.4957   1.1806189325e+02   2.2943202784e+01     0.214004    0.1191716  68.83  0.001040625    1.684    0.406
       138 -11.4420     85.4709    215.9835   1.1790948751e+02   2.0942340903e+01    0.2324928    0.1215102  58.10  0.001387662    1.589    0.371
       139 -12.8740    198.8144     37.3712   5.6055447435e+01   3.0873253597e+01     0.519092    0.3671717 -72.60  0.001675259    1.703    0.413
       140 -14.1524    217.6860     41.7228   5.4546238609e+01   2.5374069103e+01     1.217988    0.5139202  58.57  0.004675525    2.268    0.559
       141 -13.0080    205.3363     40.3206   5.5936205495e+01   2.8767745311e+01    0.6043782    0.3842169 -79.75  0.002142749    2.120    0.528
       142 -11.4904     25.5102     43.0510   1.0521718783e+02   6.3547028080e+01    0.1814783   0.09060816 -54.54 0.0004260852    1.554    0.356
       143 -13.1803     75.9580     37.4490   8.5168228364e+01   5.8730204698e+01    0.3490627    0.3033354  46.30 0.0009276819    1.416    0.294
       144 -12.5197     70.5600     36.5110   8.6638983257e+01   5.9709015685e+01    0.3052763     0.253262  -3.42  0.001051216    1.184    0.155
       145 -12.2834     36.0535     35.5706   9.8901250080e+01   6.4061340909e+01    0.4216713    0.1831616 -34.00  0.002028802    2.354    0.575
       146 -12.7774     45.7901     33.8724   9.4599056692e+01   6.3370292055e+01    0.4857437    0.2647983 -31.98  0.002641071    1.706    0.414
       147 -12.4406    242.0009     35.8462   4.9854820406e+01   2.0032137275e+01    0.6220936    0.2633655  68.82  0.002453191    2.508    0.601
       148 -10.8292    149.9439    207.0000   1.0541698886e+02   1.2229231365e+01    0.2131134   0.06021082  44.84 0.0008053659    2.963    0.662
       149 -12.8064     57.2636    203.5776   1.2165679171e+02   2.6867042559e+01    0.4526243      0.22592 -87.30  0.002646435    1.979    0.495
       150 -13.2005    152.4472     31.3601   6.2351444438e+01   4.3707027385e+01    0.4573935     0.342868   3.97  0.001358566    1.521    0.343
       151 -12.6470     16.7254    195.7684   1.2793718133e+02   3.2728486053e+01    0.4894234    0.1837843 -67.34  0.002852933    2.412    0.585
       152 -11.6727    211.4509     33.4650   5.3064019649e+01   2.8076044219e+01    0.2680711    0.1828976 -62.98 0.0005818885    1.653    0.395
       153 -13.8772     18.0101    160.2113   1.2528175095e+02   3.9462309894e+01      1.05987    0.7004791  58.28  0.007684766    1.417    0.294
       154 -13.1874     22.2833    181.2139   1.2605381154e+02   3.4927775722e+01    0.3979586    0.2740081 -89.32  0.001788983    1.114    0.102
       155 -11.4838    250.2241    200.2672   8.6697559762e+01  -4.6976615810e+00    0.1713589   0.08928149 -39.17 0.0008848098    2.395    0.582
       156 -13.6122     29.9970    169.5038   1.2375118268e+02   3.6464761722e+01    0.4785765    0.3341436 -54.28 0.0005986594    1.829    0.453
       157 -11.7215    163.9949    195.2928   1.0109562857e+02   1.1599344685e+01     0.256392    0.1644732 -80.76  0.001195285    2.762    0.638
       158 -13.1877     55.7764     27.4564   8.8417533192e+01   6.3286086269e+01    0.4726012     0.309134  35.08  0.001640205    1.751    0.429
       159 -11.4979     97.5468     26.9250   7.4232776606e+01   5.6630224856e+01    0.2556036    0.2358211  32.90  0.001305338    1.187    0.157
       160 -11.2145     75.2516     23.4164   7.9830148610e+01   6.1093720913e+01    0.2245127    0.1186658  37.45 0.0007958881    1.998    0.500
       161 -13.1586     40.5907    195.3921   1.2388645910e+02   3.0333181769e+01    0.3961723    0.1464413 -85.41  0.001900116    3.000    0.667
       162 -11.3676     60.9417     17.7607   8.2462376546e+01   6.4113496497e+01    0.2280748    0.1544037 -36.19 0.0004057396    1.370    0.270
       163 -11.7197     70.8139     16.6982   7.8467480250e+01   6.2779864484e+01     0.231863     0.192294 -15.41 0.0005117423    1.059    0.055
       164 -12.2047    201.2111    191.7276   9.3634177637e+01   5.1922200494e+00    0.3136688    0.2504339  28.33    0.0019131    1.154    0.133
       165 -10.5084    107.6782    192.6722   1.1138078198e+02   2.1796106374e+01    0.1088615   0.09939647  -2.61 0.0007048392    1.689    0.408
       166 -11.6743    249.5838    182.2590   8.3446272130e+01  -2.4442284486e+00    0.2309944    0.1145056 -33.81  0.001145029    2.129    0.530
       167 -11.9500     48.9483    181.5358   1.2124449110e+02   3.2034560480e+01    0.3316571     0.220198 -56.41  0.002171183    1.834    0.455
       168 -12.5865     85.2982    180.3848   1.1418401821e+02   2.7534234637e+01     0.325205     0.195243  70.82  0.001814221    1.687    0.407
       169 -13.4299    123.9468    166.7997   1.0445114820e+02   2.4023844107e+01    0.5914388    0.3709781 -72.20  0.002965877    1.873    0.466
       170 -13.1730     73.8294    153.5709   1.1312332573e+02   3.4632030033e+01    0.5753154    0.4306311  40.52  0.003000412    1.514    0.339
       171 -12.2944     77.3653    157.1217   1.1284624745e+02   3.3396965531e+01     0.352578    0.2777957  41.08  0.001518155    1.453    0.312
