#   1 NUMBER                 Running object number                                     
#   2 MAG_AUTO               Kron-like elliptical aperture magnitude                    [mag]
#   3 X_IMAGE                Object position along x                                    [pixel]
#   4 Y_IMAGE                Object position along y                                    [pixel]
#   5 X_WORLD                Barycenter position along world x axis                     [deg]
#   6 Y_WORLD                Barycenter position along world y axis                     [deg]
#   7 A_WORLD                Profile RMS along major axis (world units)                 [deg]
#   8 B_WORLD                Profile RMS along minor axis (world units)                 [deg]
#   9 THETA_WORLD            Position angle (CCW/world-x)                               [deg]
#  10 FWHM_WORLD             FWHM assuming a gaussian core                              [deg]
#  11 ELONGATION             A_IMAGE/B_IMAGE                                           
#  12 ELLIPTICITY            1 - B_IMAGE/A_IMAGE                                       
         1  -8.4254     83.1523     11.1022   2.8207578040e+01   6.2972012319e+01    0.2266667    0.1721733  21.91 0.0009762939    1.299    0.230
         2  -8.4380     55.8385     10.0507   3.7573620505e+01   6.8740552970e+01    0.1927857    0.1693961 -35.18 0.0006176915    1.307    0.235
         3  -7.7689     47.5763      9.8172   4.1212184275e+01   7.0246396761e+01    0.1764706    0.1116824 -39.16 0.0006593257    1.645    0.392
         4  -8.6314     91.0557      9.0187   2.4863640398e+01   6.1379642009e+01    0.2155996    0.1636743 -58.33 0.0006623836    1.677    0.404
         5  -8.3229    101.4650      7.9517   2.1727730424e+01   5.8987500901e+01    0.2022684    0.1349476 -19.88 0.0003557405    1.520    0.342
         6  -8.2388     70.4724      6.0390   2.9519396003e+01   6.6306111914e+01    0.1982836     0.123931 -23.14  0.000637052    1.547    0.354
         7  -8.5523     33.3939      4.8453   4.5482414571e+01   7.3220296510e+01    0.2874828    0.1671168 -48.65  0.001437843    2.339    0.572
         8  -7.7327     16.2925      2.6872   5.5014603104e+01   7.5773012466e+01    0.1036099   0.09423208 -55.94 0.0004284698    1.592    0.372
         9  -8.0017     62.5050      1.4277   2.9607553585e+01   6.8455321935e+01    0.1305998    0.1149484  12.56  8.23694e-05    1.038    0.036
        10  -8.6240     79.2068      3.5782   2.5324920444e+01   6.4651206925e+01      0.27019    0.1511245 -36.17 0.0009933962    1.919    0.479
        11  -8.1199     63.5269    248.4482   8.7205629496e+01   1.6672243638e+01     0.109087   0.07755384  54.06 0.0001890444    1.033    0.032
        12  -8.6320    248.6496    249.1882   5.5206572613e+01  -7.4372597670e+00    0.2706485    0.1401786  -4.66  0.001749564    1.962    0.490
        13  -9.8291    248.7229    241.7660   5.4113042964e+01  -6.7638953690e+00    0.3741038    0.1819983 -30.05  0.001613902    2.188    0.543
        14  -8.8926    247.8161    234.0379   5.3089916288e+01  -5.9171068512e+00      0.20934    0.1294297  -8.78 0.0009993927    1.413    0.292
        15  -9.6381    246.7546    228.8194   5.2448714825e+01  -5.2706320602e+00    0.3914084    0.1751696 -23.86  0.001807853    2.188    0.543
        16  -8.5667     94.1944    249.1055   8.1748055889e+01   1.2792182549e+01    0.2654788    0.1217628  60.57  0.001261526    2.599    0.615
        17  -7.4681     25.7025    250.6385   9.3870424526e+01   2.0454799300e+01   0.08156089   0.07658993 -55.86 0.0007033544    1.713    0.416
        18  -9.3303    224.4994    245.5040   5.8464625168e+01  -4.1856777016e+00    0.2267201    0.1567304  -3.12 0.0008133393    1.303    0.233
        19  -9.6028    223.6686    242.3496   5.8150138822e+01  -3.7596485066e+00    0.1986894    0.1916545  44.83  0.001184226    1.890    0.471
        20  -9.3247    210.9659    246.0518   6.0751427966e+01  -2.5225240962e+00    0.1984678    0.1500533 -33.76 0.0009145323    1.738    0.425
        21  -9.6820    147.4027    245.1582   7.1695251122e+01   6.1987675539e+00     0.282398    0.2342876 -42.33  0.001287691    1.542    0.352
        22  -8.0071    142.5135    247.6568   7.2856039416e+01   6.5362826291e+00    0.1991023   0.08224893  37.04   0.00106178    1.860    0.462
        23  -9.3516    120.3261    245.3602   7.6649077131e+01   9.8946699757e+00    0.2997353    0.1815631  68.84  0.001724257    2.363    0.577
        24  -8.8704     67.8916    245.0061   8.6200105081e+01   1.6706572634e+01    0.2830276    0.1440387  74.46  0.001648456    2.310    0.567
        25  -9.0245    201.9734    243.1798   6.1860875864e+01  -1.0326324197e+00    0.2039036    0.1525189 -44.30 0.0009041479    1.979    0.495
        26  -9.2202     78.0999    243.1533   8.4212295505e+01   1.5757906916e+01    0.2694311    0.1244221  67.83  0.001265845    2.821    0.645
        27  -7.7801     58.3225    244.6444   8.7898849883e+01   1.7894613344e+01    0.1178515    0.0577183  59.82 0.0003098481    1.763    0.433
        28  -8.5322    194.5274    242.9619   6.3098328412e+01  -1.2356393884e-02    0.1974017    0.1130415  20.31 0.0007128825    1.596    0.373
        29  -9.1156    193.9789    239.0383   6.2658993092e+01   5.1861788367e-01    0.1723292     0.154589  16.96  0.000575504    1.294    0.227
        30  -8.8310    169.0435    243.0365   6.7559531428e+01   3.4696852402e+00    0.1704928    0.1346818  31.82 0.0005984238    1.085    0.078
        31  -7.8866     50.0000    242.9924   8.9291530346e+01   1.9118042425e+01    0.1488969    0.0560017 -74.95 0.0008030151    2.946    0.661
        32  -9.7687    182.8231    240.3447   6.4778075010e+01   1.8949410315e+00    0.4412403    0.2429065  41.36  0.002134494    1.622    0.383
        33  -9.6173    159.9871    239.9211   6.8797596350e+01   5.1404651666e+00    0.2698459    0.2092435 -88.47  0.001414524    2.274    0.560
        34  -7.8547    153.4707    241.9595   7.0225098332e+01   5.7836101285e+00    0.1326455   0.09766664  84.51 0.0008086742    2.450    0.592
        35  -8.2529    115.0400    241.9617   7.7288034919e+01   1.1116360333e+01     0.161336    0.1269296   9.54 0.0007398816    1.644    0.392
        36  -8.1957     88.3576    242.1714   8.2249116806e+01   1.4618362768e+01    0.1409128   0.09493759  86.61 0.0009424791    1.746    0.427
        37  -8.4884    214.0203    241.2901   5.9580958679e+01  -2.4095649007e+00    0.1578494    0.1127576  21.53  0.001016611    1.065    0.061
        38  -8.9788    240.7460    239.1936   5.4966816169e+01  -5.5637426315e+00    0.3242639    0.1369837 -14.53  0.001634476    3.184    0.686
        39  -8.5958    146.0574    239.3106   7.1266463130e+01   7.1892660922e+00    0.1608326     0.122258  38.11 0.0005466903    1.064    0.060
        40  -9.1461    135.6234    238.6616   7.3120087280e+01   8.7524833034e+00    0.2114803    0.1354482  61.61 0.0007610339    1.985    0.496
        41  -8.1079    122.7867    239.3720   7.5585780172e+01   1.0441119316e+01     0.163324   0.08970422  31.41 0.0008971847    1.639    0.390
        42  -9.1898    231.0216    236.4812   5.6106302206e+01  -4.0855886255e+00    0.2899144    0.2236738 -35.06   0.00174381    1.854    0.461
        43  -9.2362    235.9220    230.2784   5.4383216609e+01  -4.0641158039e+00    0.2954648    0.1679839 -13.12  0.001012922    1.728    0.421
        44  -8.1735    209.0062    238.0411   5.9956486003e+01  -1.3939963567e+00     0.146068    0.1267298  42.09 0.0004740104    1.619    0.382
        45  -8.0029    129.0220    238.4973   7.4330155137e+01   9.7028015690e+00    0.1646264   0.07431389  52.08 0.0007364748    2.411    0.585
        46  -8.5278     13.8069    237.6165   9.5418389586e+01   2.3794900583e+01    0.1507359   0.06144675  46.14 0.0004956741    1.701    0.412
        47  -9.8299    214.7428    232.8468   5.8239336152e+01  -1.5786641501e+00    0.3822736    0.3145545 -88.57  0.002282296    3.406    0.706
        48  -9.1845    203.2346    234.6045   6.0444583597e+01  -2.2583215666e-01    0.2318503    0.1883463 -54.43  0.000989633    2.110    0.526
        49  -9.8155    175.7142    233.2164   6.5089018250e+01   3.7909820168e+00     0.384189    0.2207815 -54.11   0.00217344    2.748    0.636
        50  -8.4159    170.3552    235.2685   6.6329307947e+01   4.2865034757e+00    0.1294464    0.1098526 -51.74 0.0005107923    1.624    0.384
        51  -9.2684    109.2286    234.4248   7.7634304350e+01   1.3074892328e+01    0.4301245    0.1716557  51.97  0.001884448    2.576    0.612
        52  -8.1438    122.9381    233.9978   7.4986853471e+01   1.1234219664e+01    0.1830227     0.118846  61.05 0.0007409411    1.745    0.427
        53  -8.5138     99.4460    233.9384   7.9448751805e+01   1.4483453079e+01    0.2351824    0.1346047  68.43  0.001318278    2.189    0.543
        54  -8.7312     78.3576    233.6432   8.3431339001e+01   1.7291242160e+01    0.1887122    0.1318175 -75.70  0.001018692    1.628    0.386
        55  -8.6884      8.4568    234.4993   9.6239210995e+01   2.4834654566e+01    0.1029988   0.07262118  62.95 0.0001135179    1.032    0.031
        56  -8.4653    194.4735    232.4851   6.1657076912e+01   1.2338665364e+00    0.1675413    0.1455779  52.83 0.0006394816    1.653    0.395
        57  -9.0065    140.4905    230.3248   7.1238088641e+01   9.2811851098e+00    0.3597845    0.1585819  50.89  0.001707046    2.552    0.608
        58  -8.3681    132.8289    232.6977   7.2968207547e+01   1.0028679340e+01    0.2099091    0.1414179  72.18  0.001227779    2.189    0.543
        59  -9.4346     67.9567    231.5176   8.5239576655e+01   1.8950877535e+01    0.4420387    0.2071514  73.40   0.00224018    2.775    0.640
        60  -9.4107    186.5480    230.4903   6.2772129236e+01   2.5973809257e+00    0.2941067    0.2375118 -72.21  0.001618952    2.328    0.571
        61  -8.5235     92.8190    231.8653   8.0523902671e+01   1.5710431862e+01    0.2315421    0.1248205  67.76   0.00124371    2.321    0.569
        62  -8.4681    157.5441    231.5486   6.8192419767e+01   6.6311728053e+00    0.1171469   0.09328306  31.81 9.142874e-05    1.014    0.014
        63  -9.0073    151.4574    228.9623   6.8998603863e+01   7.8849590979e+00    0.2313061    0.1767697  58.09   0.00108464    1.543    0.352
        64  -9.4550    148.6146    224.3285   6.8942299625e+01   8.9851107134e+00    0.3524227    0.2376047  72.73  0.001904013    2.585    0.613
        65  -8.0901      1.4230    230.2728   9.7329545060e+01   2.6209449102e+01    0.1443497   0.06884649  75.20 0.0009472775    1.672    0.402
        66  -7.9896    229.9461    228.9547   5.5142978913e+01  -3.1563299325e+00    0.1415011     0.133589  19.95  0.001025123    1.680    0.405
        67  -8.8248    162.3248    227.7344   6.6804973260e+01   6.4689213087e+00    0.2706983     0.169706  53.98  0.001429038    1.959    0.490
        68  -8.7280    127.8661    227.1435   7.3276621796e+01   1.1595694117e+01    0.2858548    0.1660513  58.95  0.001281138    2.079    0.519
        69  -7.8713    223.3950    227.2128   5.5949594030e+01  -2.1044396925e+00     0.134186   0.09919199 -31.23 0.0005566917    1.639    0.390
        70  -8.2386    120.0338    227.3125   7.4811199934e+01   1.2694563670e+01    0.1672477    0.1300009  46.31 0.0005724534    1.075    0.069
        71  -8.4773     49.7304    226.7544   8.8372592697e+01   2.1949253656e+01    0.2865576    0.1084032  58.89  0.001431941    2.462    0.594
        72  -8.6970    206.0219    225.5861   5.8639017069e+01   4.5467687998e-01    0.1862431    0.1563402 -41.82 0.0007877046    1.708    0.415
        73  -8.1283    199.9650    225.9821   5.9750619408e+01   1.2573081467e+00    0.1384575    0.1094766  14.47 0.0003562496    1.038    0.037
        74  -8.7282    180.5974    224.2892   6.2960409605e+01   4.2617407762e+00    0.2641765    0.1685762  50.41 0.0005509133    1.889    0.471
        75  -8.8192     94.0730    223.9516   7.9540831966e+01   1.6881003298e+01    0.3466506     0.145753  58.56  0.001529716    3.013    0.668
        76  -9.0218    216.5143    223.2766   5.6492936248e+01  -7.2602224033e-01    0.2082548    0.1877599 -33.83 0.0008976165    1.634    0.388
        77  -7.8985    113.8064    223.7801   7.5636692608e+01   1.4158815626e+01    0.1624426    0.1182461  57.48 0.0005471199    1.319    0.242
        78  -8.7887    104.6981    223.5103   7.7401580213e+01   1.5491082296e+01    0.2859365    0.1786925  70.56  0.001553859    1.981    0.495
        79  -7.9894     38.3242    224.6389   9.0405522416e+01   2.3599433824e+01    0.1233378    0.0579977  61.15  0.000704225    1.782    0.439
        80  -8.5190    173.0360    222.8622   6.4145133431e+01   5.5690608448e+00    0.1748846    0.1564889 -71.00 0.0006766818    1.650    0.394
        81  -8.2186    140.4647    222.5261   7.0279078698e+01   1.0469023812e+01    0.1637112    0.1181624 -70.83 0.0005523722    1.969    0.492
        82  -7.8980     59.9775    223.4940   8.6185047241e+01   2.1335894020e+01     0.170397   0.06001626  52.26 0.0008083461    2.400    0.583
        83  -9.3079    239.0741    220.9864   5.2420722353e+01  -3.4849438808e+00     0.285325    0.1563048 -19.65  0.001614961    1.752    0.429
        84  -9.4441    225.5472    221.5226   5.4706875449e+01  -1.7543892003e+00    0.2180388    0.1850339  32.54 0.0009539637    1.498    0.332
        85  -9.1927    160.2625    221.0013   6.6279017999e+01   7.7391192064e+00    0.4446175    0.2017866  53.25  0.001878303    3.352    0.702
        86  -9.2849    120.6914    219.3072   7.3767250730e+01   1.3906233603e+01    0.4679288    0.2170049  59.73  0.001932647    3.491    0.714
        87  -8.5590     82.5369    220.2069   8.1476117117e+01   1.9084036627e+01    0.2532026    0.1309806  60.58  0.001355872    1.982    0.496
        88  -7.8393     27.5275    220.9691   9.2248556158e+01   2.5407439885e+01     0.132991   0.07733732 -54.95 0.0008084911    2.427    0.588
        89  -8.2068    202.5482    220.0493   5.8399609594e+01   1.6250345187e+00     0.154521    0.1079377 -27.21 0.0004226799    1.535    0.348
        90  -9.4402    192.3737    221.0656   6.0358422093e+01   2.9662752379e+00    0.2483364    0.2254326 -60.19  0.001210859    1.705    0.414
        91  -8.4719    210.1429    218.9395   5.6905097593e+01   6.7969294661e-01    0.1903844    0.1680452  13.50 0.0007698992    1.265    0.210
        92  -9.4193    248.1168    216.4398   5.0254268125e+01  -4.1628269742e+00    0.4279956     0.287378 -41.74  0.002747195    2.344    0.573
        93  -8.9535     51.7677    217.1732   8.7344932574e+01   2.3467535337e+01    0.2239041    0.1302077  79.75 0.0008829539    1.698    0.411
        94  -7.9470    179.3534    217.1718   6.2147140710e+01   5.4155029584e+00    0.1455686    0.1128766 -49.91 0.0005663621    1.727    0.421
        95  -8.7527    169.3378    215.9921   6.3847896004e+01   7.0973350319e+00    0.2462877    0.1982327 -85.70 0.0009902767    2.114    0.527
        96  -8.4425    142.8445    216.4361   6.9024434334e+01   1.1065638723e+01    0.2064461    0.1603633 -83.85 0.0009786449    1.864    0.464
        97  -8.1520    111.8242    216.9942   7.5272954537e+01   1.5588440625e+01    0.1914377    0.1246251  72.92 0.0008482282    1.992    0.498
        98  -8.2280     61.9310    216.9544   8.5312449086e+01   2.2297420942e+01    0.1989862     0.104916  62.55   0.00105351    1.779    0.438
        99  -7.7276     18.3836    216.1679   9.3750394069e+01   2.7211372816e+01    0.1557646   0.07805216  79.34  0.000947897    1.745    0.427
       100  -9.2845    133.1799    215.9368   7.0869877779e+01   1.2607328283e+01    0.4784498    0.2732913  71.16  0.002017815    3.799    0.737
       101  -8.6044    232.0311    214.1496   5.2450565640e+01  -1.7928232384e+00    0.2014355    0.1481664 -32.73 0.0007229173    1.651    0.394
       102  -8.2285    154.1553    214.5238   6.6550834804e+01   9.6381318730e+00    0.1844558    0.1629448  70.87  0.000922801    1.433    0.302
       103  -9.4079    214.0565    211.9191   5.5106788492e+01   9.8523624397e-01    0.2932227    0.2694325  61.40  0.001544897    1.797    0.444
       104  -8.4284    185.6455    214.1538   6.0528663581e+01   4.8860146124e+00    0.1587528    0.1530675 -49.05  0.001073622    1.447    0.309
       105  -9.0783     93.0002    213.6835   7.8732840196e+01   1.8844345707e+01    0.2626289    0.1508673  67.62  0.001280453    2.064    0.516
       106  -9.4439     73.5558    212.0108   8.2551643692e+01   2.1761052471e+01    0.6778508    0.1802432  54.03  0.002190426    5.148    0.806
       107  -7.9868    225.0040    212.2487   5.3301177251e+01  -6.0512314490e-01    0.1596543    0.1245613  10.64 0.0004466938    1.037    0.036
       108  -9.5090    175.3923    209.6123   6.1744090619e+01   7.0969913042e+00    0.3649447    0.2852534  74.79  0.001760365    2.183    0.542
       109  -8.5370    161.7145    212.0020   6.4722844748e+01   8.8593254338e+00    0.1926823    0.1715919 -89.66  0.001034139    1.564    0.361
       110  -7.9598    106.4537    212.5072   7.5853030661e+01   1.7149979033e+01    0.1242549    0.1004673  53.14  0.000277725    1.075    0.070
       111  -9.0002    204.1581    210.5709   5.6617819945e+01   2.5996084260e+00    0.2278613    0.1802528 -31.92 0.0006125767    1.464    0.317
       112  -8.5706    192.7676    210.6943   5.8684051683e+01   4.2850068159e+00    0.1922533    0.1620747 -73.29 0.0009578823    2.088    0.521
       113  -8.7589    147.8270    210.0595   6.7166238891e+01   1.1318194169e+01    0.2244418    0.1764874 -88.06 0.0008873051    1.878    0.467
       114  -8.9148    116.3447    210.3343   7.3569968313e+01   1.6082223095e+01    0.2654605    0.1686143  62.27 0.0008568208    1.802    0.445
       115  -9.1749      6.3435    208.5950   9.5727956849e+01   2.9768645492e+01    0.3810218    0.1020305  71.70  0.001537959    4.067    0.754
       116  -8.1006     32.0000    209.4158   9.0769351176e+01   2.7132585947e+01    0.2234749    0.0956319  78.15  0.001130984    2.435    0.589
       117  -9.2083    236.3844    207.2308   5.0585272285e+01  -1.5903753354e+00    0.3967788    0.1684273 -35.31  0.001609219    2.476    0.596
       118  -8.3671     85.3871    208.9289   7.9817484959e+01   2.0768841830e+01    0.2442259    0.1429706  74.51  0.001188097    2.071    0.517
       119  -8.2880     45.7712    209.0195   8.7981083939e+01   2.5709365343e+01    0.1416898   0.08574888 -81.91 0.0006693308    1.624    0.384
       120  -9.1862    246.4156    207.1184   4.8961856873e+01  -2.9287672985e+00    0.2243254     0.158164 -18.76 0.0007103949    1.314    0.239
       121  -7.8414    156.5743    207.7862   6.5107182248e+01   1.0313426626e+01    0.1508847    0.1219636 -65.17 0.0009351275    1.667    0.400
       122  -8.3115    138.9027    207.5810   6.8609047631e+01   1.3113235477e+01    0.2165713    0.1650572 -84.92 0.0009029362    1.871    0.465
       123  -8.1128    126.6165    208.3232   7.1210567713e+01   1.4882716187e+01    0.1851857    0.1317685  64.89 0.0008489065    1.644    0.392
       124  -9.0376     99.4472    205.9951   7.6564989260e+01   1.9345593489e+01    0.3236704    0.1873628  72.33  0.001204735    2.362    0.577
       125  -8.5415     56.6678    205.5618   8.5489008143e+01   2.5111559872e+01    0.3110541    0.1229224  58.64  0.001389071    2.571    0.611
       126  -9.4238    194.7713    203.3462   5.7125576761e+01   4.9911524788e+00     0.365674    0.2860862 -44.33  0.001413842    1.634    0.388
       127  -9.2142    192.4224    196.9330   5.6480955945e+01   6.2703672601e+00    0.3447297     0.259527 -52.39  0.000806763    1.862    0.463
       128  -9.0506    183.8436    203.9145   5.9247816962e+01   6.6106778191e+00    0.2766969    0.2204217  66.56  0.001303573    1.955    0.489
       129  -8.0539    109.0560    205.0505   7.4437865488e+01   1.8114074459e+01    0.1977419    0.1327436  67.05 0.0006936801    1.699    0.411
       130  -7.7462     92.6483    205.3178   7.7919031309e+01   2.0441746956e+01    0.1332286   0.07966795  61.85 0.0007047274    1.740    0.425
       131  -8.3183     25.0170    205.0136   9.1917524965e+01   2.8708219997e+01     0.197089   0.09460566  62.96 0.0008772448    1.733    0.423
       132  -9.6615    163.9649    202.9514   6.2919832822e+01   9.9047685918e+00    0.4125714    0.2297556  52.70  0.001120648    2.207    0.547
       133  -8.7589    131.3087    203.6749   6.9622715143e+01   1.4964320553e+01    0.2630646    0.1849566  68.20   0.00127434    1.824    0.452
       134  -9.3933    250.1183    201.9011   4.7483829192e+01  -2.8368269123e+00    0.3513994    0.1433276 -28.07  0.001421673    2.278    0.561
       135  -9.4422    245.8172    193.4810   4.6670104628e+01  -1.2824967175e+00    0.3063271    0.2419545 -56.18  0.001862151    2.570    0.611
       136  -9.0745    243.2158    200.5215   4.8330500494e+01  -1.7482224279e+00    0.2703032    0.1591804 -28.83 0.0009923592    1.645    0.392
       137  -8.5771    210.9101    201.8296   5.3972213060e+01   2.7369819420e+00    0.1846976    0.1585376 -60.24  0.000683295    1.956    0.489
       138  -8.7695    140.7731    201.1274   6.7311486996e+01   1.3911464741e+01     0.328335    0.2009254  60.66  0.001578238    2.186    0.543
       139  -8.4033     48.7260    202.1545   8.6879680845e+01   2.6723037224e+01    0.2130344   0.08358702  62.32 0.0009458961    2.742    0.635
       140  -8.0874    222.1848    201.2451   5.1921461768e+01   1.1420560067e+00    0.1454311    0.1341966   1.12 0.0004725365    1.368    0.269
       141  -8.3385     79.9204    200.9798   8.0162896430e+01   2.3037121191e+01    0.2106333     0.122243  64.64  0.001012558    1.797    0.443
       142  -7.9839     10.9683    202.0000   9.4566469573e+01   3.0642524931e+01    0.1650592   0.05500088  30.40 0.0008028297    2.945    0.660
       143  -9.3773    149.5650    198.5339   6.5123970030e+01   1.2940497617e+01     0.354391    0.2553613  84.95  0.001429585    2.373    0.579
       144  -8.8470    124.1244    199.2187   7.0510840034e+01   1.6879219251e+01    0.2886976    0.2058499  82.60  0.001062305    1.933    0.483
       145  -9.1273    112.9841    198.3125   7.2757389481e+01   1.8769420682e+01    0.4208926    0.2267536  64.88  0.001850076    2.755    0.637
       146  -8.9903    237.1011    198.2388   4.8914281549e+01  -6.2951195881e-01    0.2413712    0.1484319 -31.22  0.001019932    1.653    0.395
       147  -8.6658    176.8985    198.5888   5.9701506699e+01   8.5070711989e+00    0.2140652    0.1697576 -61.54 0.0007021822    1.823    0.451
       148  -8.9669     88.6104    198.2027   7.7994973564e+01   2.2380395100e+01     0.340953     0.188534  72.76  0.001315521    2.430    0.588
       149  -8.5931    202.1360    197.5978   5.4811996457e+01   4.6497865994e+00    0.2145193    0.1957542 -69.51 0.0008718017    1.742    0.426
       150  -9.0501     61.3912    196.9566   8.3761095034e+01   2.6250518286e+01    0.3936848    0.1792833  67.15  0.001618342    2.639    0.621
       151  -8.8770    216.1764    195.6605   5.1981068813e+01   2.7562749975e+00    0.2386064    0.1978839 -59.21  0.001021455    2.068    0.516
       152  -7.9916     29.3303    197.6760   9.0620236405e+01   2.9741206941e+01    0.1277821   0.06362114  61.76 0.0004220078    1.701    0.412
       153  -8.0088     12.3956    196.6142   9.4040981637e+01   3.1591373150e+01    0.2282183   0.07210752  81.33 0.0009518034    3.474    0.712
       154  -8.1804    133.4050    195.9079   6.8083644795e+01   1.6005256693e+01    0.1648691    0.1116234 -88.07 0.0008016652    2.429    0.588
       155  -8.6082    224.5723    193.8553   5.0217803754e+01   1.7306987589e+00    0.2730617    0.1312867 -40.54  0.001197764    2.443    0.591
       156  -7.6345    209.2897    195.5854   5.3178891953e+01   3.8186985887e+00    0.1094623    0.1000303 -75.33 0.0006973221    1.835    0.455
       157  -8.9578    185.2604    194.5192   5.7416367084e+01   7.7746646534e+00    0.2384352    0.2094088 -52.55 0.0007986485    1.510    0.338
       158  -9.0989    160.8601    194.0070   6.2117334023e+01   1.1850965379e+01    0.2975464    0.2259599  68.10  0.001327399    1.868    0.465
       159  -8.8452     43.9948    193.4239   8.7223901271e+01   2.9038681058e+01    0.4128541    0.1627258  65.44  0.001791508    2.905    0.656
       160  -8.4039    231.0910    193.9424   4.9139134900e+01   7.5894879231e-01    0.2019762    0.1301802 -32.68 0.0007503899    1.619    0.382
       161  -8.6249     76.8832    193.6472   8.0058925629e+01   2.4911068205e+01    0.2190295    0.1635253  85.28 0.0005649921    1.335    0.251
       162  -8.2683    198.7651    191.4412   5.4351990332e+01   6.0535112894e+00    0.1963397    0.1523896 -42.13 0.0005574184    1.561    0.359
       163  -8.3912    172.3252    191.4170   5.9396754023e+01   1.0376565172e+01    0.1914831    0.1570888 -66.04  0.000690415    1.727    0.421
       164  -8.6641      6.9936    191.9936   9.4934898325e+01   3.3010220491e+01    0.2553956   0.05537165  59.46 0.0009598777    4.140    0.758
       165  -8.0462    205.4602    191.5173   5.3145403007e+01   4.9783214179e+00     0.125209    0.1055619  10.36 0.0004487374    1.039    0.037
       166  -7.8659    179.4169    191.5014   5.8022111062e+01   9.1911895390e+00    0.1269537    0.1119138  18.73 0.0001181072    1.043    0.041
       167  -9.0946    139.4054    190.2093   6.5954891540e+01   1.6053907394e+01    0.3166433    0.2268264  75.42  0.001236335    2.034    0.508
       168  -9.4336    129.3654    189.5215   6.7999173575e+01   1.7826138350e+01    0.3339907    0.2377041 -66.99  0.001845067    1.715    0.417
       169 -10.2960     92.4284    188.6497   7.6030743511e+01   2.3738092583e+01     0.930769    0.2743931  48.03  0.003115438    3.360    0.702
       170  -8.7543     21.8370    191.6162   9.1832908224e+01   3.1731371386e+01    0.1667775   0.07960683  46.12 0.0008923704    1.713    0.416
       171  -8.4546    148.7720    189.2588   6.3830953904e+01   1.4668142143e+01    0.2083395    0.1816542 -76.64  0.001271427    1.439    0.305
       172  -9.3588    155.9711    187.4481   6.2036059352e+01   1.3775548732e+01     0.318415    0.2249383 -60.65   0.00090847    1.854    0.461
       173  -8.7583     34.1916    187.8939   8.8946261095e+01   3.1264294045e+01    0.3002702    0.1358377  71.65  0.001304715    2.256    0.557
       174  -9.3512    249.2578    185.2322   4.4625466231e+01  -7.7999529118e-01    0.2528012    0.2106381  -6.17  0.001559834    1.198    0.165
       175  -8.3752    237.2890    188.1074   4.7062140062e+01   5.8473890219e-01    0.1689461    0.1299868 -13.42 0.0006529379    1.154    0.133
       176  -8.7629    216.5258    187.6885   5.0488558816e+01   3.7727830989e+00     0.209689    0.1932422 -17.12 0.0007261295    1.333    0.250
       177  -8.7261    191.5493    187.3292   5.4964956241e+01   7.8328640992e+00    0.2410245    0.2058892 -80.16 0.0008560319    1.931    0.482
       178  -9.5115    120.6077    185.8168   6.9359800998e+01   1.9951431710e+01    0.4483464    0.2647917 -78.79  0.001982279    2.769    0.639
       179  -9.1434     54.6925    186.5157   8.4292523970e+01   2.9240116272e+01    0.4010536    0.1852193  71.30  0.001367147    2.651    0.623
       180  -8.2551    230.4990    187.0780   4.7991300509e+01   1.7188778858e+00    0.1757026    0.1076533 -29.63  0.001018512    1.571    0.363
       181  -8.9007    164.9208    186.6230   6.0061921331e+01   1.2403821116e+01    0.2247116    0.1944294 -53.69 0.0006297306    1.392    0.282
       182  -9.0354    109.7029    186.0413   7.1816901910e+01   2.1643604124e+01    0.3590093    0.2168092  68.47  0.001353599    2.233    0.552
       183  -9.2165    210.0728    184.0378   5.0957177413e+01   5.3007475293e+00     0.226306    0.1636175 -26.11 0.0006342739    1.353    0.261
       184  -8.5958    202.7773    184.4347   5.2350579622e+01   6.4233329186e+00     0.222042    0.1645844 -49.70 0.0009095332    1.828    0.453
       185  -8.7461    182.8595    184.5089   5.6123821422e+01   9.7164670568e+00    0.2652008     0.188661 -49.27  0.001083955    1.736    0.424
       186  -8.9649     66.8883    184.4956   8.1335753467e+01   2.8140217531e+01    0.3693254    0.1726799  56.50  0.001178856    2.142    0.533
       187  -8.5399    223.9878    183.3328   4.8394518104e+01   3.2034591651e+00    0.1982705    0.1542289 -28.62 0.0005221575    1.347    0.258
       188  -8.3598    197.2617    183.4133   5.3181605324e+01   7.4799356725e+00    0.1991565    0.1550654 -53.38 0.0006808536    1.788    0.441
       189  -9.0255    174.2542    183.4443   5.7627424288e+01   1.1346461774e+01    0.2401803     0.219121  85.26 0.0007300848    1.492    0.330
       190  -8.0220    242.6716    183.3020   4.5304846402e+01   3.9995216162e-01    0.1017981   0.09649575 -37.37 0.0003255591    1.645    0.392
       191  -8.9582     44.5438    182.3467   8.6215975185e+01   3.1319941370e+01    0.3537913    0.1620654  61.07  0.001009652    2.142    0.533
       192  -8.0945      1.7881    183.5494   9.5657318349e+01   3.5195972411e+01    0.1588549    0.0765586  47.53 0.0009424408    1.695    0.410
       193  -7.7488    235.2788    181.6110   4.6183007304e+01   1.7075187395e+00    0.1099568   0.09435677 -46.23 0.0007000103    1.735    0.424
       194  -9.0342    147.4745    180.4694   6.2647780728e+01   1.6464912195e+01    0.2928092    0.2215189  70.71 0.0009892806    1.775    0.437
       195  -9.5385     25.5707    178.4475   9.0206539664e+01   3.4167508897e+01    0.6338589    0.2127548  75.29  0.002294769    4.191    0.761
       196  -8.7115    137.6331    179.2514   6.4575071161e+01   1.8379157075e+01    0.3153992    0.2037686  66.88  0.001281163    2.250    0.556
       197  -8.6199    250.5273    172.5027   4.2018549604e+01   6.0166528788e-01    0.2296929    0.1496585 -15.98 0.0005041105    1.306    0.234
       198  -9.1973    248.8945    177.3088   4.3193878173e+01   2.4054424490e-01    0.2737457    0.2546858 -23.33  0.001296155    1.518    0.341
       199  -8.7540    247.3105    173.6877   4.2745995784e+01   9.2606365015e-01    0.1961124    0.1065707 -30.15 0.0004203627    1.663    0.399
       200  -9.2847    191.4865    178.1116   5.3285122756e+01   9.2621028429e+00     0.268353    0.2373551  74.40 0.0006803619    1.657    0.396
       201  -8.2473    169.3163    178.4198   5.7718451004e+01   1.3038632581e+01    0.2001134     0.163073 -68.21 0.0005586586    1.703    0.413
       202  -9.1238     36.0142    176.6405   8.7697329110e+01   3.3499250300e+01    0.5200723    0.1904623  73.63  0.001881746    4.044    0.753
       203  -8.8894    205.1008    177.6098   5.0648204580e+01   7.0458745188e+00    0.2151099    0.1668607 -36.03 0.0006070547    1.406    0.289
       204  -8.7017    129.2450    177.0331   6.6067573433e+01   2.0233871724e+01    0.3215896    0.2165677  88.22  0.001050264    2.403    0.584
       205  -8.5861    231.2850    176.8296   4.5933069734e+01   2.9444719952e+00    0.2124805     0.169217 -37.60 0.0007296349    1.528    0.346
       206  -8.4638    217.4736    177.1130   4.8342338887e+01   5.0902710412e+00    0.1785588    0.1696336   2.94 0.0005348634    1.316    0.240
       207  -9.1992    183.0976    175.9292   5.4498836453e+01   1.1055021695e+01    0.2513952    0.2176996 -59.58 0.0008231645    1.527    0.345
       208  -8.5932     88.9274    176.4988   7.5278031436e+01   2.6786485904e+01    0.2448472    0.1715231  84.39  0.000705827    1.593    0.372
       209  -8.0954     72.9585    177.2375   7.9127801388e+01   2.8893849288e+01    0.1762147    0.1533551  62.13 0.0002721873    1.048    0.045
       210  -9.4564     58.9689    175.4927   8.2232889737e+01   3.1101890974e+01    0.4662585    0.2133429  64.70  0.002002747    2.621    0.619
       211  -9.3693     55.8352    170.6648   8.2473610591e+01   3.2565377644e+01    0.4213681    0.2124843  81.74  0.001887597    2.429    0.588
       212  -8.6078     13.0849    176.5708   9.2882013604e+01   3.5733477052e+01    0.2594373    0.1280115  65.72  0.001323715    1.725    0.420
       213  -7.9414    211.5662    176.0694   4.9185876237e+01   6.2025297088e+00    0.1585005    0.1098449 -55.43 0.0006799322    2.341    0.573
       214  -9.1804    158.6785    174.6501   5.9239333802e+01   1.5566272923e+01     0.355882    0.2661732  89.73  0.001127784    2.235    0.553
       215 -10.6792    101.7163    175.6214   7.2157806433e+01   2.5024952205e+01    0.4096035    0.2845138  28.22  0.002168808    1.582    0.368
       216  -9.5147     81.4861    155.3634   7.4121089680e+01   3.2600258662e+01    0.4570203    0.3809455  53.08  0.001722787    1.143    0.125
       217 -10.5369     76.0823    171.0532   7.7632100700e+01   2.9821034559e+01    0.9660291    0.4144084 -83.99  0.003223882    4.383    0.772
       218  -8.8093     74.9731    159.5286   7.6384226775e+01   3.2580536378e+01    0.2832144    0.1999784   4.56  0.001236579    2.299    0.565
       219  -8.6642    224.4557    174.1249   4.6560143355e+01   4.3868763379e+00    0.1825446     0.172118   4.79 0.0006903543    1.320    0.242
       220  -9.6228    175.7583    172.0106   5.5218232301e+01   1.2998225617e+01    0.3347674    0.2436042 -42.07  0.001024756    1.477    0.323
       221  -8.3716    142.9225    172.2267   6.2205168204e+01   1.8799905756e+01    0.2073078    0.1791251  63.84 0.0005620939    1.278    0.217
       222  -8.3594    134.8159    171.6891   6.3916547286e+01   2.0325190988e+01    0.2379241    0.1767499  86.12 0.0009547804    1.904    0.475
       223  -9.1289     45.2269    170.8226   8.5034131355e+01   3.3782950133e+01    0.3695118    0.1793354  84.24  0.001194758    2.320    0.569
       224  -9.4245    121.2878    170.1947   6.6751577590e+01   2.2955240147e+01    0.3440285    0.2495927 -85.93 0.0009035063    1.811    0.448
       225  -8.7272    230.7555    169.9341   4.4679133807e+01   3.9599629569e+00    0.2021054    0.1479675  -1.75  0.001217665    1.234    0.190
       226  -8.3421    205.8932    170.1137   4.9050636413e+01   8.0373835203e+00    0.1860062    0.1759505 -33.35 0.0006337698    1.325    0.245
       227  -8.5005    198.5054    169.9991   5.0395685625e+01   9.3257665855e+00    0.2251724    0.1852805  52.48 0.0006151866    1.512    0.338
       228  -8.6392    149.9425    169.4242   6.0158245246e+01   1.8084822455e+01    0.2393106    0.1974421 -76.38 0.0007434489    1.561    0.359
       229  -8.5906    244.6714    169.1194   4.2269245670e+01   1.9062605363e+00    0.1846694    0.1390595 -34.04 0.0006473156    1.464    0.317
       230  -8.3123    237.0981    169.3038   4.3513946719e+01   3.0467008940e+00    0.1704895    0.1448424   3.18 0.0007652252    1.112    0.101
       231  -9.1930    167.1277    168.3340   5.6285454448e+01   1.5186133105e+01    0.3009894    0.2515382  71.61 0.0008752336    1.589    0.371
       232  -8.0913     88.8126    168.7754   7.4247857384e+01   2.8479156948e+01    0.1926857    0.1419165  67.41 0.0005227411    1.372    0.271
       233  -9.1464    218.1062    168.0360   4.6457157769e+01   6.2865491393e+00    0.2627343    0.1811876  43.49 0.0009222795    1.593    0.372
       234  -7.9626    211.4609    167.9657   4.7617734537e+01   7.4136097610e+00    0.1649035    0.1112595 -55.16 0.0004311083    2.349    0.574
       235  -8.6159    111.6457    167.4105   6.8555217639e+01   2.5156145112e+01    0.3020525    0.2013335  76.12  0.001195551    2.037    0.509
       236  -9.2432    191.9323    166.2317   5.0897915371e+01   1.1081668329e+01    0.2874627    0.1815019 -45.68 0.0008500616    1.805    0.446
       237  -8.6643    184.9709    166.2463   5.2257083990e+01   1.2324578121e+01    0.2212795    0.1900239 -61.77 0.0005769236    1.547    0.354
       238  -8.8764     20.7528    166.2887   9.0486472175e+01   3.7320987308e+01    0.3132468    0.1113556  49.83  0.001456016    2.418    0.586
       239  -8.3604     13.3208    167.6637   9.2314422597e+01   3.7673462784e+01    0.1313737   0.06651122  63.96 0.0007050011    1.708    0.414
       240  -9.4972    137.5163    164.5495   6.2031335353e+01   2.1261812220e+01    0.6776251    0.2778122  53.85  0.002264854    3.562    0.719
       241  -9.9836     94.7601    162.2484   7.1826911079e+01   2.9010373849e+01    0.8179716    0.4382463  77.16  0.002909973    3.656    0.726
       242  -8.1229    234.0611    164.6986   4.3091552088e+01   4.1503759093e+00    0.2086038    0.1510869 -31.61 0.0006297884    1.369    0.269
       243  -8.6442    159.5941    164.0469   5.7050555278e+01   1.7339466976e+01     0.279605    0.2265051  85.12 0.0009410803    1.759    0.432
       244  -8.1856    240.3523    164.1153   4.1959008267e+01   3.2323306200e+00    0.1722193    0.1015761 -36.54 0.0004755345    1.709    0.415
       245  -8.6974    212.9397    163.4119   4.6436709042e+01   7.8436221501e+00    0.2292588    0.1725078 -41.74 0.0006727718    1.516    0.341
       246  -9.3730     33.4063    162.9501   8.7181842543e+01   3.6851748929e+01    0.5050138    0.1861975  55.32  0.002154695    2.689    0.628
       247  -8.4753    204.8529    162.5988   4.7733347730e+01   9.3736003392e+00    0.2363622    0.1655347 -47.97 0.0006515085    1.762    0.433
       248  -9.3197      3.2412    162.1338   9.4346387944e+01   3.9729136604e+01    0.3903668    0.1563369  55.77  0.001838588    2.128    0.530
       249  -9.3126    177.6198    160.5460   5.2583611224e+01   1.4641936689e+01    0.3170828     0.263882 -74.35  0.001139102    1.717    0.417
       250  -8.9814     60.7073    160.4406   8.0114956285e+01   3.4289145540e+01    0.3494465    0.2415804 -83.23  0.001724838    1.379    0.275
       251  -8.8182    151.6598    160.6865   5.8123912882e+01   1.9439240513e+01    0.2663727    0.2182369 -73.96 0.0009047509    1.558    0.358
       252  -8.6290    227.3699    158.9337   4.3025921826e+01   6.0544420816e+00    0.2946257    0.1904244 -49.71  0.001122529    2.185    0.542
       253  -9.4222    242.8078    154.6113   3.9635930049e+01   4.1270697712e+00    0.1940264    0.1764859 -85.96 0.0006220883    1.837    0.455
       254  -9.8291    250.1884    157.5508   3.9103605489e+01   2.5715087162e+00     0.327105    0.2055801 -26.53 0.0008364521    1.366    0.268
       255  -9.0719    246.5632    155.4828   3.9234230335e+01   3.4115428575e+00     0.390113    0.2067107  -6.75  0.001776847    2.478    0.597
       256  -8.7296    237.1339    158.8957   4.1416092458e+01   4.4542860984e+00      0.18583    0.1605959 -25.59  0.000629618    1.269    0.212
       257  -8.3342    127.9927    158.9053   6.3197800673e+01   2.4122580595e+01    0.2244953     0.167607  73.73 0.0006995555    1.697    0.411
       258  -9.5540    105.9495    157.9106   6.8354093257e+01   2.8160474725e+01     0.494962    0.2910357  67.19  0.001494948    2.401    0.583
       259  -8.7565    196.6838    157.7845   4.8265559779e+01   1.1604085188e+01    0.2364584    0.1785182 -49.49 0.0007741455    1.606    0.377
       260  -8.4368    188.1523    157.6759   4.9888971005e+01   1.3187448187e+01    0.2286229    0.1795209 -43.56 0.0005701509    1.393    0.282
       261  -9.3416    167.7489    157.2798   5.3962414762e+01   1.7071704782e+01    0.3244741    0.2601455  78.56   0.00117415    1.800    0.444
       262  -8.5862    217.9806    156.3625   4.4094993767e+01   8.0324258167e+00     0.243822    0.1696671 -43.68 0.0007289682    1.653    0.395
       263  -9.0576    157.6179    155.6681   5.5811324934e+01   1.9287783534e+01    0.2781399    0.2197372 -66.60  0.001024815    1.606    0.377
       264  -9.1193    119.5051    155.0919   6.4526285353e+01   2.6443840938e+01    0.3609109    0.2551656  82.75  0.001439685    1.958    0.489
       265  -9.0809     49.7913    155.0616   8.2270470583e+01   3.6888383889e+01    0.4202248    0.1865158  59.55  0.001772888    2.544    0.607
       266  -8.8965    246.1611    162.5770   4.0736942763e+01   2.5328726887e+00    0.2247683    0.1476901 -24.13  0.000533851    1.313    0.238
       267  -8.1893    204.8639    155.1339   4.6181986927e+01   1.0547592902e+01    0.1956738     0.179169 -39.62 0.0004840558    1.292    0.226
       268  -8.7762    144.5004    154.3217   5.8473753764e+01   2.2028283838e+01    0.2399122    0.2045407 -79.01 0.0005292413    1.418    0.295
       269  -9.4880     68.1555    153.6921   7.7330671885e+01   3.4883591686e+01    0.4241845    0.2262749  68.37    0.0012717    2.386    0.581
       270  -9.6244    132.8268    152.8127   6.0891293429e+01   2.4515743036e+01    0.4444311    0.3194141  74.86   0.00119845    1.924    0.480
       271  -9.0116    133.5540    148.2057   5.9797638327e+01   2.5347855767e+01    0.2781061    0.2349289  -7.56 0.0008857649    1.410    0.291
       272  -7.7069    232.7831    153.6141   4.1026440006e+01   5.9092199662e+00    0.1578287    0.1230996  47.87 0.0004040056    1.595    0.373
       273  -7.9829    151.7988    152.5999   5.6472103030e+01   2.0988934150e+01    0.1962121    0.1849442 -59.53 0.0004325287    1.156    0.135
       274 -10.4949    148.9064    144.9184   5.5513418816e+01   2.3079917961e+01    0.6192411    0.4228771  89.90  0.001664231    2.763    0.638
       275  -8.5245     20.0748    152.3562   8.9624873456e+01   4.0587603446e+01    0.1728747    0.1353575  67.47 0.0009771712    1.118    0.106
       276  -9.3160    243.2001    150.0245   3.8619867169e+01   4.6914178823e+00    0.2834142    0.1458824 -35.79  0.001195259    1.803    0.445
       277  -9.0112    189.5433    150.0741   4.8005129183e+01   1.4222470147e+01    0.2826641    0.2233445 -60.65 0.0009261316    1.702    0.413
       278  -8.0511    182.3950    151.1356   4.9651469994e+01   1.5397894540e+01    0.1958477     0.128896 -49.56 0.0009328659    1.753    0.430
       279  -8.7250     98.2939    150.5958   6.9024724032e+01   3.1072205565e+01    0.3040661    0.2112527  75.07  0.000796118    1.747    0.428
       280  -9.4689    248.9542    149.0992   3.7548226464e+01   3.8891981222e+00    0.2928226    0.1578045 -28.60 0.0006929384    1.589    0.371
       281  -8.3870    213.0322    149.8082   4.3572852046e+01   9.9109909297e+00    0.1907646    0.1789112 -26.25 0.0005074347    1.229    0.186
       282  -8.4280    162.4686    150.1279   5.3601785602e+01   1.9417810494e+01    0.2107794    0.1401279 -42.25 0.0005365866    1.533    0.348
       283  -9.6710     40.0507    147.7959   8.4010765589e+01   3.9715693685e+01    0.5706552    0.2360096  62.68  0.002044687    2.997    0.666
       284  -9.1656     40.2977    140.8876   8.3162815486e+01   4.1360293292e+01    0.3933144    0.2208318 -10.81   0.00145652    4.586    0.782
       285  -8.9883      2.9586    149.8392   9.3742746210e+01   4.2549761318e+01    0.2471247    0.1088262  70.38  0.001232895    2.057    0.514
       286  -8.5814    198.7841    148.7656   4.5948575233e+01   1.2700217820e+01    0.2553638    0.1789072 -42.60   0.00055524    1.512    0.339
       287  -9.8542     89.2729    146.0278   7.0587539994e+01   3.3584065538e+01    0.6812481    0.3651301 -89.75  0.002358135    3.583    0.721
       288  -9.4117    233.6879    147.6456   3.9617934540e+01   6.6099201949e+00     0.247817    0.1862559 -25.98 0.0007456608    1.191    0.161
       289  -8.3349    223.3171    146.8867   4.1164398756e+01   8.5206350343e+00    0.1890191     0.148914 -19.24 0.0004508197    1.120    0.107
       290 -10.1181    139.0415    144.5629   5.7736502962e+01   2.5067892409e+01    0.5112858    0.3193094 -71.13  0.001666822    2.531    0.605
       291  -9.5885     29.1939    150.2363   8.7107548849e+01   4.0242507132e+01    0.4734262    0.1796607  64.59  0.001831873    3.254    0.693
       292  -9.9436    106.7563    144.3708   6.5710147899e+01   3.1062672136e+01    0.7229733    0.4613166  74.15  0.002810688    2.282    0.562
       293  -8.7569    105.3417    138.3476   6.4907525839e+01   3.2692088716e+01    0.5825872    0.2740045  24.81  0.001898472    3.715    0.731
       294  -8.7420     77.9792    146.8405   7.3725283387e+01   3.5114995881e+01    0.2933922    0.2032512  81.26 0.0009027966    1.612    0.379
       295  -9.6215     13.8479    146.2760   9.0751636648e+01   4.2547447084e+01    0.3908611    0.1693543  54.09  0.001523871    2.151    0.535
       296  -7.9186    206.4529    146.4580   4.4026142091e+01   1.1646179171e+01    0.1377647    0.1229436  -6.93 0.0001177304    1.029    0.028
       297  -8.3241    175.8774    145.9711   4.9860638441e+01   1.7583206054e+01    0.2192372     0.180407 -83.12 0.0008639072    1.759    0.432
       298  -9.1802    242.5470    138.7123   3.6304966876e+01   6.3764046373e+00    0.3250891    0.2128593 -63.32  0.001429436    3.352    0.702
       299  -9.6260    240.2705    144.9962   3.8009715543e+01   5.8748820201e+00    0.1923841    0.1600893 -30.14 0.0004570424    1.245    0.197
       300  -9.6883    125.0395    142.4650   6.0694737203e+01   2.8180728197e+01    0.5161131    0.3421516 -84.59   0.00160187    2.434    0.589
       301  -9.0848    247.0464    143.7767   3.6713160510e+01   4.9215286250e+00    0.2229883    0.1526131 -24.22 0.0005395598    1.233    0.189
       302  -7.9635    194.4534    143.9207   4.5705848931e+01   1.4335755266e+01    0.1853123    0.1190915 -57.93 0.0008042323    2.331    0.571
       303  -8.9931    165.5261    143.7196   5.1552844222e+01   2.0041734715e+01    0.2673378    0.2363536 -70.30 0.0008124704    1.371    0.270
       304 -10.6103     69.6622    140.8516   7.5038532488e+01   3.7743336857e+01    0.6327745    0.3418749 -66.87  0.002912264    1.769    0.435
       305 -10.4062     55.0790    144.6261   7.9583613138e+01   3.8745751232e+01    0.8010727    0.3495347  68.94  0.002715361    3.927    0.745
       306  -8.3933    181.9839    141.3349   4.7580236117e+01   1.7222046133e+01    0.2416009    0.1984904 -61.14 0.0005838713    1.530    0.346
       307  -9.4159      2.5658    141.3247   9.3331099070e+01   4.4564405109e+01    0.3831779     0.161114  73.74  0.001418973    2.242    0.554
       308  -8.5121    238.6447    140.3160   3.7253719680e+01   6.8139238465e+00    0.1237061    0.1013908 -57.32 0.0007045442    1.744    0.427
       309  -9.8204     23.4275    137.8174   8.7480287960e+01   4.3761817837e+01      0.48831    0.2053899  65.21  0.001640602    2.711    0.631
       310  -7.7908    218.5498    138.5063   4.0130115656e+01   1.0663325714e+01     0.137081    0.1205966 -15.30 0.0002253129    1.056    0.053
       311  -8.2208    207.7736    137.7223   4.1840648212e+01   1.2812767779e+01    0.2461587    0.1721647 -55.74  0.001042173    1.951    0.487
       312  -8.7265    197.5546    137.4780   4.3664390064e+01   1.4829340530e+01    0.2606089    0.2201083 -59.23 0.0009114115    1.497    0.332
       313  -8.9564    150.4749    135.9646   5.3172287787e+01   2.4587015000e+01    0.5422057    0.2730719  26.37  0.001833087    3.231    0.690
       314  -8.9971    248.5160    134.8833   3.4581066172e+01   5.9051933625e+00    0.2731254    0.1758142 -32.04 0.0008245404    1.359    0.264
       315  -8.8921    250.7329    130.5718   3.3318003820e+01   6.1297756587e+00    0.5119058    0.1044662 -29.92  0.001487916    4.884    0.795
       316  -8.6349    172.2615    137.8801   4.8802264901e+01   1.9800402928e+01    0.2651734    0.2171242 -68.67 0.0006598246    1.584    0.369
       317  -8.5626    162.6695    136.1892   5.0478265135e+01   2.2068517727e+01    0.2253874    0.1848828 -63.13 0.0006117846    1.451    0.311
       318 -10.3260     83.5720    133.0593   6.9825293002e+01   3.7572191487e+01    0.5293468    0.3346735 -79.21  0.001421569    1.842    0.457
       319  -9.8454     56.1011    135.2921   7.7993573500e+01   4.0899022066e+01    0.3939198    0.2480129  -2.38  0.001676225    3.047    0.672
       320  -9.0083     39.3176    135.7683   8.2824137206e+01   4.2718908017e+01    0.2857076     0.175018  66.40 0.0009200073    1.662    0.398
       321  -7.9437    187.8020    135.5926   4.5108214253e+01   1.7088181038e+01    0.1858115    0.1392823  55.07 0.0005024762    1.550    0.355
       322  -9.8993     63.3464    133.4453   7.5640217839e+01   4.0416906943e+01    0.3376113    0.2183326 -47.10  0.001225317    1.702    0.412
       323  -8.0202    250.6033    140.7829   3.5546370130e+01   4.7494161270e+00    0.1760211    0.1021591 -35.74 0.0004871762    1.588    0.370
       324  -7.8537    231.3798    134.1654   3.7040943262e+01   8.9847752750e+00    0.1884182    0.1103407 -38.93 0.0003942807    1.648    0.393
       325  -8.3794    179.5657    133.7744   4.6336260866e+01   1.9080594892e+01    0.2708824    0.2120236 -63.71 0.0007495985    1.663    0.399
       326  -8.4450    237.3927    133.2132   3.5885901612e+01   8.0547931380e+00    0.1887038    0.1077341 -38.76 0.0005558046    1.677    0.404
       327  -8.8687    112.6652    132.8356   6.1835995599e+01   3.2641941404e+01    0.3141189    0.2440335  74.00 0.0008929753    1.515    0.340
       328  -9.1957    143.0975    131.5111   5.3879727768e+01   2.7003298776e+01    0.3290699    0.2558359 -73.90 0.0008928328    1.634    0.388
       329  -8.9702     23.8961    130.8095   8.6649942790e+01   4.5434198901e+01    0.2884259    0.1559662 -23.60  0.001205242    3.670    0.728
       330 -10.2004     12.6972    128.3724   8.9611492747e+01   4.6944132613e+01    0.6131724    0.2423958  84.14  0.002260293    2.712    0.631
       331  -8.5260    246.9953    129.8645   3.3702576682e+01   6.8634898242e+00    0.2335907    0.1572185 -28.43  0.000701342    1.258    0.205
       332  -8.0117    204.5436    130.0048   4.0643815067e+01   1.4711079920e+01    0.2121801    0.1298185 -35.64 0.0005900933    1.527    0.345
       333  -8.2141    192.8706    130.1368   4.2847341513e+01   1.7026013200e+01    0.2129836     0.192894 -52.29 0.0005116608    1.262    0.208
       334  -9.2330    168.3207    129.4442   4.7667839601e+01   2.2212101441e+01    0.2963126    0.2425741 -65.55  0.000459586    1.500    0.333
       335  -9.3624    152.9785    128.9262   5.0956013495e+01   2.5508763142e+01    0.4110713    0.2636423 -58.82  0.001066182    1.921    0.480
       336 -10.0129    118.2489    125.0030   5.8618235254e+01   3.3375352833e+01    0.7098413    0.4822774 -76.57    0.0030332    2.020    0.505
       337  -9.2463     98.0154    128.2602   6.4834246111e+01   3.6337560153e+01    0.4921114    0.2070963 -55.49  0.001695899    2.317    0.568
       338  -9.8547     72.9669    128.8993   7.2091254888e+01   4.0193126064e+01    0.4024218    0.2524271  88.27  0.001114507    2.007    0.502
       339 -10.1088    132.2153    131.3783   5.6500658091e+01   2.9216958277e+01    0.4372052    0.2995938 -74.65  0.001052273    2.072    0.517
       340  -7.8293    220.3351    129.6984   3.7827963511e+01   1.1702675352e+01     0.131333    0.1082314 -62.50 0.0007035834    1.659    0.397
       341  -8.1090    211.4969    128.9451   3.9161239777e+01   1.3520202187e+01     0.211964    0.1272552 -34.96 0.0007530208    1.534    0.348
       342  -7.8075    186.3015    129.6508   4.4009833937e+01   1.8451122284e+01    0.1446307    0.1163565 -69.38 0.0007038826    1.692    0.409
       343 -10.7404     45.2046    123.4829   7.9444062161e+01   4.5134345226e+01     1.193361     0.538333  75.34  0.003960914    4.060    0.754
       344 -10.5571     60.4494    125.2945   7.5146073867e+01   4.2823192869e+01    0.6953403    0.3813148  76.02  0.002783662    2.642    0.622
       345  -8.3403    228.4665    125.0247   3.5426033739e+01   1.0892166555e+01    0.2138816    0.1194676 -32.89  0.001022246    1.578    0.366
       346  -8.7152    179.2923    124.6277   4.4204988647e+01   2.0821973429e+01    0.2870323    0.2341738 -76.11 0.0006043859    1.667    0.400
       347 -10.6354     28.2005    120.5312   8.4210936164e+01   4.7603037231e+01     1.028375    0.4321716  89.76  0.003998368    2.876    0.652
       348  -8.3570    188.6652    123.5886   4.2085425174e+01   1.9045771045e+01    0.2490033    0.1702965 -52.92  0.000760702    1.723    0.420
       349 -10.2635    131.1281    118.4540   5.3695821188e+01   3.2263297376e+01    0.7829642    0.4860286 -86.10  0.002512296    3.838    0.739
       350 -10.1836    133.7821    109.6547   5.0759494252e+01   3.3624314048e+01    0.7659916    0.3561256 -48.56  0.002547745    2.164    0.538
       351  -8.6713     84.5689    122.6114   6.7493740780e+01   3.9954631712e+01    0.3935182    0.2422466  15.86  0.001598172    2.581    0.612
       352  -7.7850    203.3386    122.1384   3.8988526180e+01   1.6269391636e+01    0.2057733    0.1203029 -42.78 0.0004496485    1.708    0.415
       353  -8.0953    195.1606    121.6031   4.0360162120e+01   1.8042864331e+01     0.271729   0.09710193 -38.61 0.0006076198    2.609    0.617
       354  -8.7371    171.9339    121.4258   4.4940878357e+01   2.2983990238e+01    0.2685136    0.2023039 -52.85 0.0004133284    1.461    0.316
       355  -9.4037    158.5084    121.0924   4.7784708148e+01   2.5924657498e+01    0.3417881    0.2492921 -69.46 0.0008183272    1.880    0.468
       356 -10.0382    141.4948    117.8658   5.0961869584e+01   3.0220804581e+01    0.6238284    0.3095492 -54.43  0.001096926    2.381    0.580
       357  -9.3719     71.0589    119.6448   7.0923072606e+01   4.2763023727e+01    0.3366407    0.2255202 -87.27  0.001001712    1.732    0.423
       358  -9.7530      3.0455    116.9228   9.1446942033e+01   5.0405850790e+01    0.5752498    0.2278469  71.01  0.002452203    2.784    0.641
       359  -7.7888    231.5004    117.4941   3.3199433187e+01   1.1460424325e+01    0.1382768     0.118998 -26.08 0.0008095603    1.075    0.069
       360  -8.2245    185.6212    115.7619   4.0733967331e+01   2.1094593681e+01    0.2097127    0.1316395 -44.90 0.0003167607    1.610    0.379
       361 -10.0527    109.4065    114.0085   5.8403713564e+01   3.7612752459e+01     0.513701    0.3324321 -76.29  0.001526561    2.227    0.551
       362  -9.4082    109.7670    107.1180   5.6559179027e+01   3.9141657821e+01      0.43288     0.263668  16.94  0.001551646    2.951    0.661
       363  -8.8350     59.1604    115.0376   7.3719404726e+01   4.5565107031e+01    0.3594859    0.2358605 -11.26   0.00155493    2.649    0.623
       364  -8.2719    250.4991    114.9211   2.9854909857e+01   8.3535003745e+00    0.2026109    0.1107501 -28.70 0.0006074718    1.530    0.346
       365  -8.1081    193.0142    115.0312   3.9132641883e+01   1.9641332199e+01    0.2229424    0.1739631 -61.60 0.0005172995    1.604    0.377
       366  -8.5937     99.2265    120.3266   6.2769182770e+01   3.8012346781e+01    0.3513876    0.2140804 -16.07  0.001144158    3.921    0.745
       367 -10.0912     92.7893    112.2590   6.2781428375e+01   4.1086785652e+01    0.5724056    0.3273734 -69.74  0.001390292    2.192    0.544
       368  -8.6442     92.8187    104.7842   6.0950063680e+01   4.2880426133e+01    0.5770668    0.3117855  14.13  0.001587086    5.423    0.816
       369  -9.9866     79.1611    112.4040   6.6943158362e+01   4.3327057307e+01    0.6229529    0.3848627  88.78  0.001960689    2.459    0.593
       370  -8.7206     78.2943    104.8405   6.5490424922e+01   4.5330527409e+01    0.2714531    0.1979106  -8.43  0.001023397    2.067    0.516
       371  -7.8372    167.4965    114.4518   4.4117337721e+01   2.5282830265e+01    0.1509485    0.1458975 -31.25 0.0001452039    1.042    0.040
       372  -8.0584    242.6994    113.3348   3.0577480025e+01   9.9850849866e+00    0.1329699   0.09574794 -51.45 0.0007034607    1.656    0.396
       373 -10.1162    121.2891    111.4842   5.4506457843e+01   3.5833909532e+01    0.7212104    0.3835419 -66.30  0.002286782    3.133    0.681
       374  -8.4881    174.8553    111.7900   4.1877143078e+01   2.4171503046e+01    0.2785742    0.1872918 -60.18  0.000633798    1.944    0.486
       375  -9.1512    159.0644    111.5833   4.5220960352e+01   2.7702068333e+01     0.286125    0.2061269 -54.57 0.0005899599    1.527    0.345
       376 -10.2128     66.6019    109.7492   7.0315304659e+01   4.5877078690e+01    0.6341792    0.3018874 -67.80  0.002045833    2.189    0.543
       377  -9.9869     14.1304    110.7524   8.7437585373e+01   5.1197982119e+01    0.4216959     0.216386  83.36  0.001580307    1.947    0.486
       378 -10.8300    249.6277    103.5336   2.7351705533e+01   1.0113108928e+01    0.5702636    0.3080298 -38.43  0.002843483    1.616    0.381
       379  -8.2963    189.1993    107.7200   3.7981158829e+01   2.1754519375e+01    0.2630214     0.184361 -42.78 0.0006200928    1.392    0.282
       380 -10.7821     23.0513    102.6032   8.3485155561e+01   5.2564587520e+01    0.7718933    0.3690107  67.64  0.002295639    2.737    0.635
       381  -8.6712    166.6875    104.1540   4.1562480777e+01   2.7447014710e+01    0.2625896    0.2230873 -56.37 0.0007086595    1.263    0.208
       382  -9.2491    139.7993    104.2801   4.7797196941e+01   3.3464926380e+01    0.3612609     0.272121 -82.76 0.0007428796    1.857    0.462
       383 -10.5026     45.6408    101.9993   7.5690123108e+01   5.0519668694e+01    0.8189182    0.4130596  70.32  0.002991454    3.372    0.703
       384  -9.5384    150.5150    102.7347   4.4790723138e+01   3.1390709900e+01    0.4400039    0.2742338 -60.68  0.001309397    2.115    0.527
       385  -9.0498      6.4180    102.7045   8.9061033280e+01   5.3715912672e+01    0.2776376    0.1622552  67.71  0.000876588    1.742    0.426
       386  -7.9088    175.5670    101.8462   3.9087521665e+01   2.5865612151e+01    0.2198851    0.1353041 -48.17 0.0006719397    1.698    0.411
       387 -10.0558    128.4064    101.2968   4.9878912889e+01   3.6594396076e+01    0.4604076    0.2799972 -42.68  0.001011575    1.600    0.375
       388 -10.7340    108.8529     98.6059   5.4533274851e+01   4.1282527131e+01    0.9032734     0.480406  65.18  0.001375885    3.618    0.724
       389  -8.9588    107.9800     92.1971   5.2963568864e+01   4.2916572065e+01    0.5945543    0.3121329  24.56  0.001905492    3.517    0.716
       390  -8.3818    159.6901    100.5817   4.2103682677e+01   2.9732668606e+01    0.2686266    0.1783401 -55.64 0.0005950562    1.734    0.423
       391  -9.3722     82.1680    100.0331   6.3079509844e+01   4.5874421735e+01    0.3608591    0.2490167 -79.32 0.0009752648    1.794    0.443
       392 -10.1835     63.8366     95.5847   6.8072949017e+01   4.9811530815e+01     0.670021    0.3598869 -74.00  0.001506339    2.323    0.569
       393  -8.5862     64.7884     87.7773   6.5792748432e+01   5.1604179142e+01    0.3898872    0.2387044 -14.07  0.001480582    3.092    0.677
       394  -9.2231     95.0299     96.8411   5.8187505064e+01   4.4368175633e+01    0.3667631    0.2292949 -59.63 0.0006842098    1.655    0.396
       395  -8.5497     43.6166    108.8609   7.7607426102e+01   4.9005193843e+01    0.2746288    0.1656386   3.96  0.001217901    2.679    0.627
       396  -8.2655    164.7308     93.9869   3.9149843648e+01   2.9835051360e+01    0.2253454    0.1915642 -35.22 0.0004599449    1.124    0.111
       397  -7.8204    188.7695     93.0152   3.4130486014e+01   2.4429160161e+01    0.2082481    0.1188597 -34.59 0.0008745008    1.628    0.386
       398  -8.3643    176.3589     93.0022   3.6485470573e+01   2.7302058947e+01    0.2668303    0.2133363 -75.58 0.0005697513    1.582    0.368
       399  -9.1798    139.0285     92.1927   4.4542854678e+01   3.6156986743e+01    0.3674015    0.2814336 -80.26  0.000714494    1.752    0.429
       400  -9.0064    120.1817     92.8472   4.9675046324e+01   4.0212625274e+01    0.3257228    0.2405314  35.52  0.001494411    1.476    0.322
       401 -10.1225    124.6364     90.7097   4.7825772987e+01   3.9704525092e+01    0.7318319    0.4171213 -37.50 0.0009546098    1.776    0.437
       402  -8.7880     46.9521     92.1378   7.3230108730e+01   5.2862067097e+01    0.3552954    0.2297992  37.34  0.001798311    1.711    0.416
       403  -9.7139      5.1721     91.7910   8.8267371766e+01   5.6507166033e+01    0.3429832     0.178828  63.96  0.001260083    2.148    0.535
       404  -8.1788    157.8653     91.5738   3.9944085602e+01   3.1903868164e+01    0.2589612    0.1796611 -43.72 0.0005143659    1.400    0.286
       405  -9.6402     34.7631     89.3617   7.7105461342e+01   5.4869644930e+01    0.5229063    0.2696961 -86.98  0.001785607    2.496    0.599
       406  -9.2005     22.4467     90.2733   8.1810931575e+01   5.5728494021e+01    0.3832763    0.2214843 -51.06  0.001485753    1.594    0.373
       407  -8.1242    151.0290     89.0517   4.0743294439e+01   3.4000285418e+01    0.2486742    0.1908938 -72.49 0.0005921394    1.662    0.398
       408 -10.1068     86.4827     85.7469   5.7775963728e+01   4.8543314068e+01    0.7056543     0.406286 -62.01  0.001751411    1.972    0.493
       409  -9.8914     48.5932     83.8848   7.0733043970e+01   5.4731888913e+01     0.638131     0.389911 -87.82  0.002211955    2.243    0.554
       410  -7.5410    179.3080     85.6039   3.3813303728e+01   2.7927112128e+01    0.1657647    0.1140838 -62.50 0.0007003804    1.836    0.455
       411  -8.3702    157.9886     83.5507   3.7538883950e+01   3.3397839064e+01    0.2477797    0.2001197 -38.76 0.0003902612    1.185    0.156
       412  -9.7910    104.6998     82.8765   5.1127480463e+01   4.5672929658e+01    0.4309206    0.3052166 -67.06 0.0009185983    1.740    0.425
       413  -7.5143    170.6865     83.3328   3.4829942510e+01   3.0386391290e+01    0.1611706    0.1188565 -66.10 0.0007045344    1.682    0.405
       414  -9.0464    140.9586     82.5970   4.1158856969e+01   3.7642698732e+01    0.3595411    0.2418921 -54.46 0.0008137727    1.638    0.390
       415  -9.0364    249.6638     81.6845   2.2177586866e+01   1.3159341772e+01    0.3204127    0.1728336 -60.54  0.001361691    2.841    0.648
       416  -7.5512    185.4808     82.4890   3.1780927236e+01   2.7002189177e+01    0.1529585    0.1424963 -34.79 -1.140885e-05    1.011    0.011
       417  -9.6502     24.8920     80.4679   7.9121870364e+01   5.7995400065e+01    0.4952621    0.2781454  81.16   0.00158434    2.347    0.574
       418  -9.4507      9.8355     80.8072   8.5063128500e+01   5.8977409150e+01    0.3379671     0.182258  61.55  0.001132225    2.249    0.555
       419  -8.6830     74.8079     80.2472   6.0133486474e+01   5.1856998915e+01    0.3292416    0.1995537 -66.53 0.0009596972    1.953    0.488
       420  -8.3970    150.2357     80.2223   3.8242191859e+01   3.5889185432e+01    0.2218675    0.1816422 -62.46 0.0008000183    1.354    0.262
       421  -8.6954    119.2493     79.8156   4.5924322222e+01   4.3206932214e+01    0.2993166    0.2286476 -64.86 0.0008019013    1.533    0.348
       422  -8.0413    166.8007     79.3899   3.4435532803e+01   3.2029866823e+01    0.2155535    0.1810243 -40.93 0.0004881821    1.139    0.122
       423  -7.9432    184.1779     77.6625   3.0624180181e+01   2.8127057085e+01    0.3018352    0.1044159 -35.47  0.000995602    2.610    0.617
       424  -8.0225    105.3161     77.2867   4.9153332345e+01   4.6765184759e+01    0.1537354    0.1224979  -1.41 0.0002420603    1.587    0.370
       425  -8.4284    140.3608     75.3087   3.8992751849e+01   3.9201072460e+01    0.3031058    0.2130789 -69.23 0.0007685103    1.926    0.481
       426  -9.2690    128.1833     75.1900   4.2007324765e+01   4.2110578603e+01    0.3773981    0.2516647 -57.82 0.0006435125    1.760    0.432
       427  -9.9292     63.2507     73.4407   6.2314335611e+01   5.5287562058e+01     0.475381    0.2905444 -67.51  0.001116894    1.896    0.472
       428  -9.0096    163.3563     72.5420   3.3034395177e+01   3.4084343963e+01    0.5567557    0.1974201 -37.11  0.001830164    2.602    0.616
       429  -9.5979     82.4601     72.4736   5.5004935415e+01   5.2320355971e+01    0.4070559    0.2932197 -75.92 0.0009016528    1.895    0.472
       430  -8.8557    115.7488     72.1750   4.4386426398e+01   4.5566330431e+01    0.4451207    0.1946446 -44.01  0.000939992    2.212    0.548
       431  -9.5451     94.9028     71.6068   5.0528351311e+01   5.0130465499e+01    0.4438028    0.3015275 -42.64  0.001993018    1.389    0.280
       432  -8.2579     42.7183     72.5647   7.0149304868e+01   5.8207653245e+01    0.2336903    0.1614901 -83.64 0.0009254632    1.723    0.420
       433  -7.6007    175.5079     72.4526   3.0655780434e+01   3.1106611635e+01    0.1541298    0.1450484 -44.30  0.000169294    1.029    0.028
       434  -8.9945    105.6874     71.3823   4.7067299348e+01   4.7939535107e+01    0.3416713    0.2167051 -59.02 0.0009439272    1.906    0.475
       435  -9.6284     51.4525     69.2825   6.5681732182e+01   5.7929281657e+01    0.5054594    0.2683192 -73.29  0.001590554    2.726    0.633
       436  -8.7301     28.8887     70.2581   7.5292519872e+01   6.0182691748e+01    0.2757026    0.1281821 -44.13 0.0008715811    2.061    0.515
       437  -8.9167     17.0372     70.2070   8.0286633314e+01   6.1142243101e+01    0.3057943     0.185962  68.73 0.0009642367    2.117    0.528
       438  -8.9700    147.1891     68.1939   3.5083933541e+01   3.8855186526e+01    0.3327251    0.2349264 -48.62 0.0006071282    1.446    0.308
       439  -8.6302    121.6495     65.8246   4.0564810764e+01   4.5468072667e+01    0.2939769    0.2218333 -64.54 0.0006223635    1.605    0.377
       440  -9.0097     37.2723     63.8861   7.0041107478e+01   6.0902363677e+01    0.3082204    0.2045932 -85.63  0.001462612    1.973    0.493
       441  -8.8618    109.9997     63.4664   4.3000504337e+01   4.8597661399e+01    0.2911502     0.206377 -53.60 0.0005116655    1.528    0.345
       442  -8.3241     65.5522     62.7270   5.7941804117e+01   5.7398210109e+01    0.4067495    0.2025202  16.81  0.001268907    4.484    0.777
       443  -8.7754    158.1906     61.5793   3.0574099112e+01   3.7248713116e+01    0.2498898    0.1790527 -27.48 0.0005929148    1.401    0.286
       444  -9.5961     73.2940     59.1560   5.3684869564e+01   5.6884428066e+01    0.4665805    0.2425563 -53.07  0.001181661    1.984    0.496
       445  -9.0079     97.5879     60.2757   4.5630806902e+01   5.1936232944e+01    0.3072863    0.2132042  51.27 0.0009277062    1.560    0.359
       446  -8.7881    138.4666     65.6638   3.6250453249e+01   4.1460390077e+01    0.3321048    0.2211124 -59.97 0.0007545187    1.859    0.462
       447  -8.2041     88.9917     59.3022   4.8103532922e+01   5.3902641114e+01    0.2054699    0.1959207 -30.95 0.0006224218    1.030    0.029
       448  -9.9651     23.5658     56.2221   7.4071240911e+01   6.4032128459e+01     0.484123    0.2890219  83.47  0.001906694    2.640    0.621
       449  -9.6054      7.7224     57.1430   8.1732139391e+01   6.4902059237e+01    0.3236348     0.209942  80.61  0.001019654    1.823    0.451
       450  -8.2867    130.7176     57.1958   3.5162929606e+01   4.4875051551e+01    0.2473141    0.1839131 -51.23 0.0005556028    1.421    0.296
       451  -8.2064    139.9884     55.9272   3.2528327659e+01   4.2788752133e+01    0.2427356    0.1822893 -65.76  0.000477649    1.601    0.375
       452  -9.0876    119.0601     55.2231   3.7428795755e+01   4.8046831570e+01    0.4503538    0.2213728 -46.88  0.001359216    2.187    0.543
       453  -8.8597     44.2970     55.4801   6.4324570786e+01   6.2055228759e+01    0.2702179     0.219438 -78.69 0.0007917424    1.468    0.319
       454  -9.0141     62.8513     54.3858   5.6000475681e+01   5.9659447773e+01    0.3283013     0.190925 -52.94 0.0007435488    1.689    0.408
       455  -8.9238     54.0453     53.6900   5.9423982576e+01   6.1149276293e+01      0.36538    0.1933383 -61.47  0.001195687    2.267    0.559
       456  -8.3530    105.9068     53.1792   4.0363428297e+01   5.1475113964e+01    0.2314665    0.2039136 -58.98 0.0006275707    1.243    0.196
       457  -9.5069     92.4521     50.2862   4.3434701121e+01   5.4958480520e+01     0.440434    0.2458003 -48.69  0.001217881    1.924    0.480
       458  -8.2528     74.3988     51.7581   5.0432168655e+01   5.8230796092e+01    0.2159324    0.1277675 -33.73 0.0008319091    1.691    0.409
       459  -8.3333    144.7111     48.4833   2.8863446713e+01   4.2798203695e+01    0.2697126    0.1349083 -31.31  0.000649742    1.955    0.489
       460  -8.3877    129.9579     48.9472   3.2325618273e+01   4.6459782434e+01    0.2468682    0.1831213 -66.66 0.0006289018    1.676    0.403
       461  -8.4435     63.1557     48.2348   5.3469299156e+01   6.0902454543e+01    0.3305421    0.2026688  -5.89  0.001297526    2.866    0.651
       462  -8.4063    120.7934     47.3400   3.3980302577e+01   4.8986452141e+01    0.2105834    0.1833676 -41.27 0.0004801183    1.145    0.127
       463  -8.3488    112.4832     46.9781   3.6048094192e+01   5.1046081089e+01    0.2587718    0.1952191 -61.26 0.0006282275    1.610    0.379
       464  -9.0119     82.1034     45.9671   4.5216079110e+01   5.7892306070e+01     0.309488    0.2250441 -54.05  0.000661984    1.561    0.359
       465  -8.4837     45.0187     44.5273   5.9968705156e+01   6.4378309223e+01    0.2432735    0.1786787 -60.80 0.0005801637    1.477    0.323
       466  -9.0622     16.5996     44.4433   7.4103380379e+01   6.7326651462e+01    0.2830245    0.1717804 -73.56 0.0008187665    1.730    0.422
       467  -8.3448    132.5290     42.9719   2.9484800173e+01   4.6757395216e+01    0.2331519    0.1460756 -33.20  0.000414703    1.556    0.357
       468  -8.4441     92.6919     42.6425   4.0191921686e+01   5.6290546782e+01    0.2371902    0.1723711   9.58 0.0008550288    1.718    0.418
       469  -9.4034     69.7180     41.4906   4.7961269392e+01   6.1095023332e+01     0.405801    0.2740892 -60.54  0.001200279    2.008    0.502
       470  -8.5738     58.4613     42.6594   5.3134177677e+01   6.2795381907e+01    0.2863018     0.215309 -72.48 0.0009803915    1.951    0.487
       471  -9.6909      5.2760     41.8140   7.9339679271e+01   6.8644202571e+01    0.3486327    0.2002441 -84.12  0.001325673    1.999    0.500
       472  -7.9869    140.3916     41.2114   2.7126818242e+01   4.5009955877e+01    0.2126169    0.1340237 -41.06  0.000324251    1.571    0.364
       473  -8.6666    105.7936     40.9155   3.5465267580e+01   5.3627154987e+01    0.2811594    0.1926353 -49.25 0.0006009318    1.612    0.380
       474  -8.6880     36.8354     40.4337   6.2294448921e+01   6.6276054692e+01    0.2923098    0.1828479 -60.28 0.0009997179    1.691    0.408
       475  -8.7199     95.7064     38.0079   3.7237578021e+01   5.6408735146e+01    0.2534462    0.2087366 -79.00 0.0007279029    1.617    0.382
       476  -8.2310     80.7506     36.3976   4.1515104413e+01   5.9880034024e+01    0.2606647    0.1650894 -45.41 0.0006232362    1.659    0.397
       477  -8.2548    133.4111     36.1730   2.6697658006e+01   4.7532199835e+01    0.2146725    0.1334261 -40.42 0.0007126797    1.606    0.377
       478  -9.3908     26.2165     35.1526   6.5708240045e+01   6.8557717018e+01    0.3151011    0.2065448 -66.72 0.0008994965    1.750    0.429
       479  -8.0675    125.9629     35.3026   2.8002011963e+01   4.9555396066e+01     0.201541    0.1933464  43.29 0.0004526079    1.039    0.038
       480  -8.6649    111.9426     34.5020   3.1096276820e+01   5.3154819112e+01    0.2886385    0.1909629 -45.59 0.0005846056    1.619    0.382
       481  -7.3570     88.6905     34.3149   3.7841577618e+01   5.8553152828e+01    0.1425589    0.1148674 -66.54 0.0007030074    1.632    0.387
       482  -8.8247     48.5158     33.0523   5.3350348649e+01   6.6210862185e+01    0.2477825    0.2063388 -60.36 0.0005824013    1.474    0.322
       483  -8.9771    119.1637     32.6451   2.8517003395e+01   5.1641960171e+01    0.3757944    0.2057145 -45.26   0.00126544    1.989    0.497
       484  -8.8412     60.8278     32.2984   4.7411707688e+01   6.4364303020e+01    0.2884204    0.1808176 -51.04 0.0007652648    1.839    0.456
       485  -8.7276     72.0831     30.6762   4.2046931223e+01   6.2569831579e+01      0.26888    0.1828828 -47.77 0.0007491917    1.644    0.392
       486  -8.7132     12.9189     30.3125   7.1370416172e+01   7.0744308294e+01    0.2612347    0.1635103 -73.05 0.0008829466    1.865    0.464
       487  -8.4951    101.6897     29.2103   3.1574257980e+01   5.6377913165e+01    0.2252369    0.1739426 -46.22  0.000484525    1.407    0.289
       488  -7.6815     42.2902     29.6940   5.4811045834e+01   6.7747448047e+01    0.1202172    0.1055144 -74.20 0.0002881161    1.574    0.365
       489  -8.8603     81.6506     27.2501   3.6896510437e+01   6.1164701568e+01    0.3106944    0.2198689 -53.98 0.0009401242    1.800    0.444
       490  -9.0112      3.7664     27.3424   7.5846616581e+01   7.1972428113e+01    0.2731929     0.151871 -79.74  0.001379906    2.273    0.560
       491  -8.8770     91.8341     26.2512   3.3106224161e+01   5.9076855130e+01    0.3051342    0.1832889 -42.68 0.0007984279    1.788    0.441
       492  -8.1092    104.3678     22.6964   2.7910188372e+01   5.6617668096e+01    0.1486523    0.1115486 -67.03 0.0007034568    1.744    0.427
       493  -8.9797     63.6393     20.6092   4.0277420755e+01   6.5783283648e+01    0.3239348    0.2038522 -44.06 0.0009226304    1.756    0.431
       494  -8.8010     48.2583     21.2263   4.7499983310e+01   6.8373852004e+01    0.2692501    0.1919899 -43.56  0.001058759    1.453    0.312
       495  -7.6399     19.7079     21.3114   6.3397234075e+01   7.2037087024e+01    0.1103952   0.09769994 -82.93 0.0003199676    1.588    0.370
       496  -8.9950     74.0339     19.0645   3.5448781648e+01   6.3945173354e+01     0.314453    0.1804505 -38.45 0.0008220205    1.784    0.439
       497  -7.8875     38.9970     18.2537   5.0587470961e+01   7.0281833785e+01    0.1756466    0.1355927 -53.24 0.0004813078    1.619    0.382
       498  -8.8075     87.8500     17.1884   2.9911962649e+01   6.1187480836e+01    0.2043073     0.189118 -42.23 0.0004486112    1.212    0.175
       499  -7.2856    112.6931     16.7232   2.3208874941e+01   5.5280918899e+01    0.1487177    0.1018624  31.50 0.0002010519    1.551    0.355
       500  -8.0449     97.1454     15.1541   2.6276466328e+01   5.9266777740e+01     0.193065     0.165622 -51.26  0.000622656    1.334    0.251
       501  -7.9024     30.3039     15.6870   5.4014326579e+01   7.1903792618e+01    0.1123753    0.1011316 -68.77 0.0003794944    1.616    0.381
       502  -8.2158      7.7087     15.3701   6.8392932665e+01   7.4230059950e+01    0.1098838   0.09212741 -88.66 0.0007024874    1.719    0.418
       503  -7.6561     17.2980     13.7229   6.1040017250e+01   7.3728789900e+01    0.1034305   0.09695538 -79.44 0.0002803449    1.535    0.348
       504  -7.7015    119.7057     11.2902   1.9362743352e+01   5.4076499312e+01    0.1418252    0.1062341 -60.80 0.0002929168    1.551    0.355
       505  -8.0685    191.2556    249.2654   6.4488815153e+01  -2.9326800531e-01    0.1391006    0.1118637  39.25  0.001053499    1.404    0.288
       506  -8.2671    184.9904    250.0000   6.5652312154e+01   4.5656585945e-01     0.184709   0.04846168  37.18 0.0008027906    2.945    0.660
       507  -9.3753    175.5902    247.5226   6.6966573011e+01   2.0154343809e+00    0.2697901    0.2103639  71.48  0.001580432    2.292    0.564
       508  -8.9022    132.3276    247.9067   7.4722118173e+01   7.8972300735e+00    0.2401445    0.1627656  72.40 0.0009222247    2.177    0.541
       509  -9.0901    103.9495    246.7773   7.9777888179e+01   1.1876188771e+01    0.3300534    0.1781104 -82.14  0.001828977    3.012    0.668
       510  -9.1711    242.9398    246.2426   5.5658069532e+01  -6.5010542964e+00    0.3091539    0.1501583 -16.08  0.001935969    2.149    0.535
       511  -9.2336    232.9434    246.1407   5.7206840913e+01  -5.2913127907e+00    0.3301554    0.1880376  -9.58  0.001776766    1.768    0.434
       512  -8.6863    218.5076    248.0215   5.9786459272e+01  -3.6891420510e+00    0.1884541    0.1251247 -30.32 0.0008699924    1.786    0.440
       513  -8.4947    156.0406    247.9956   7.0471217639e+01   4.6320507984e+00    0.1625264    0.1166604  55.04 0.0005770015    1.643    0.391
