#   1 NUMBER                 Running object number                                     
#   2 MAG_AUTO               Kron-like elliptical aperture magnitude                    [mag]
#   3 X_IMAGE                Object position along x                                    [pixel]
#   4 Y_IMAGE                Object position along y                                    [pixel]
#   5 X_WORLD                Barycenter position along world x axis                     [deg]
#   6 Y_WORLD                Barycenter position along world y axis                     [deg]
#   7 A_WORLD                Profile RMS along major axis (world units)                 [deg]
#   8 B_WORLD                Profile RMS along minor axis (world units)                 [deg]
#   9 THETA_WORLD            Position angle (CCW/world-x)                               [deg]
#  10 FWHM_WORLD             FWHM assuming a gaussian core                              [deg]
#  11 ELONGATION             A_IMAGE/B_IMAGE                                           
#  12 ELLIPTICITY            1 - B_IMAGE/A_IMAGE                                       
         1 -14.6758    163.4102     40.2518   8.0680089183e+01   3.9137712510e+01     1.368633     1.002804  -8.86  0.003721781    1.528    0.346
         2 -14.1738    176.9367      7.2818   6.8065895365e+01   3.9413815030e+01    0.9483799    0.8717026  62.84  0.004120609    1.015    0.015
         3  -9.9722    150.7940    247.4378   1.2898680650e+02   5.8142394503e+00    0.1413009   0.08869577  35.96 0.0002151108    1.366    0.268
         4 -19.7510     73.7191    183.5437   1.3598633261e+02   2.8217004696e+01     15.34551     6.070072 -66.47   0.07112556    2.539    0.606
         5 -10.3915      1.2881    214.3752   1.5165313437e+02   3.0182615808e+01   0.08859977    0.0645962 -64.60 0.0007019246    1.724    0.420
         6  -9.8507     24.6440    213.7384   1.4779192252e+02   2.8115715132e+01   0.08432224    0.0782567 -61.04 0.0004693078    1.622    0.383
         7 -10.7690    110.0856    244.9153   1.3570300822e+02   1.2239759175e+01    0.1570469     0.127085  50.13 0.0004322944    1.107    0.097
         8 -11.9909    111.2048    209.5176   1.3164007213e+02   1.7868936170e+01    0.3271505    0.2260582  27.12  0.001543134    1.785    0.440
         9 -11.6008    101.9012    207.7629   1.3321670982e+02   1.9587775651e+01    0.4382055    0.2179182  65.89 0.0009469981    2.769    0.639
        10 -11.8654    163.2213    209.1575   1.2159220965e+02   9.3941532006e+00    0.3135923    0.1814535  58.85   0.00153684    2.172    0.540
        11 -13.0739     11.7550    206.3277   1.4953278613e+02   3.0696782615e+01    0.3960981    0.2722615  36.68  0.002444194    1.728    0.421
        12  -9.4751      9.5268    201.5191   1.4964388340e+02   3.1783176193e+01    0.1007768   0.07712521  83.56 -4.16637e-05    1.112    0.101
        13 -11.5244    158.2254    204.1310   1.2177989889e+02   1.1057055372e+01      0.31182    0.2050442  63.26  0.001634327    1.920    0.479
        14 -11.6833    156.6652    199.1471   1.2130451316e+02   1.2148468924e+01    0.2943886    0.2190589 -72.78  0.001160327    1.856    0.461
        15 -12.3126    163.2691    203.7193   1.2073995593e+02   1.0247809060e+01    0.2760818    0.2630587  51.96 0.0003137351    1.141    0.123
        16 -13.5868    161.6882    198.9439   1.2028695508e+02   1.1299831350e+01    0.5499187    0.3598838 -72.21  0.002224923    2.594    0.614
        17 -11.5126    119.3408    243.9657   1.3402377834e+02   1.1041073279e+01    0.1874579    0.1202964  52.25 0.0003459686    1.254    0.203
        18 -10.0187     13.5789    244.5310   1.5112434114e+02   2.3967863769e+01    0.1394974   0.06972002  85.10 4.525096e-05    1.672    0.402
        19 -11.2444    138.7500    198.7635   1.2478862263e+02   1.5306507638e+01    0.5495344     0.250136  56.71  0.002255909    2.835    0.647
        20 -14.1089    175.0149    194.1906   1.1689167576e+02   9.6959300469e+00    0.6069146    0.5321621 -76.38  0.002797121    1.498    0.333
        21 -14.0514    167.2155    191.2074   1.1791405149e+02   1.1592984266e+01    0.5930855    0.4913452 -87.94  0.003282018    1.642    0.391
        22 -13.0250    180.2689    192.4664   1.1557055436e+02   9.0216076417e+00    0.4047945    0.3499541  64.20  0.001114144    1.386    0.278
        23 -13.6279    176.5078    188.1574   1.1554584558e+02   1.0402797969e+01    0.7029575    0.3705677 -58.61  0.002897248    3.221    0.690
        24 -11.6878    153.1422    194.2040   1.2121259763e+02   1.3603377039e+01     0.192266    0.1649471  29.66  0.000401936    1.140    0.123
        25 -12.2716    169.1060    202.6030   1.1943615537e+02   9.4051657005e+00    0.2181607    0.2146717  54.78 0.0001964725    1.176    0.150
        26 -10.6513     14.0000    240.8591   1.5089916559e+02   2.4519625642e+01    0.1621984   0.08038029 -83.44  0.001165998    1.774    0.436
        27 -14.2453    207.1168    179.7198   1.0806525499e+02   6.0678144147e+00    0.8379863    0.7547747 -11.58  0.004387968    1.145    0.127
        28 -13.4255    196.6426    172.3186   1.0861013158e+02   9.1985878329e+00    0.7379515    0.4080372 -45.89  0.002726191    2.120    0.528
        29 -11.1462     28.4871    179.2928   1.4466949289e+02   3.4306367558e+01    0.3148266    0.2213757  28.51  0.001943893    1.849    0.459
        30 -10.4804    139.3133    249.9445   1.3123839812e+02   7.2134232881e+00    0.2545761    0.1405278  52.48  0.001543945    1.584    0.369
        31 -11.2567     36.4079    186.5816   1.4373480405e+02   3.2046703575e+01    0.2718031    0.2153383   4.06  0.001837245    2.170    0.539
        32 -12.4574     29.7406    183.5531   1.4477012427e+02   3.3330254617e+01    0.5337356    0.2270232  36.07  0.002709551    2.428    0.588
        33 -11.7670    108.1716    182.3867   1.2864361649e+02   2.3404747801e+01     0.291654    0.2020842  67.10 0.0005422132    1.542    0.351
        34 -11.1360      3.7074    180.2705   1.4944015331e+02   3.6327128083e+01    0.2403976    0.1541778  25.76  0.001691714    2.141    0.533
        35 -10.3043     10.9478    174.5277   1.4770709251e+02   3.6863784014e+01    0.1621997    0.1134207 -78.83 0.0005364666    1.215    0.177
        36 -13.2100    178.1042    171.6837   1.1216218375e+02   1.2869844943e+01    0.4948555    0.3504277 -49.30   0.00258119    1.628    0.386
        37 -12.9618    138.6171    171.7413   1.2043550419e+02   2.0292809508e+01    0.5036539    0.3720319 -80.81  0.001993273    1.789    0.441
        38 -12.4053    147.3370    172.6815   1.1874068913e+02   1.8519688810e+01    0.3608377    0.2287002  65.56  0.001648125    2.149    0.535
        39 -13.3874    143.9209    168.0939   1.1863798433e+02   2.0021141773e+01    0.6052006    0.3812984  57.21  0.001618486    1.760    0.432
        40 -11.1159    202.1447    165.9595   1.0625879754e+02   9.1627949719e+00    0.2194214    0.1668611 -67.96   0.00108491    2.097    0.523
        41 -11.3587    122.9317    165.9504   1.2284633733e+02   2.4220935744e+01    0.3394692    0.1971271  55.81  0.001147139    1.865    0.464
        42 -10.6881    131.8704    236.7896   1.3105736004e+02   1.0236764028e+01    0.1484498    0.1344597  87.37 0.0004453511    1.263    0.208
        43 -11.3064    223.8546    163.7915   1.0175050407e+02   5.3382101062e+00     0.240555    0.1885495 -33.01 0.0004703588    1.339    0.253
        44  -9.8864    135.1557    235.1572   1.3028488139e+02   9.9765537196e+00    0.2070082    0.1644489  40.81 0.0006643672    1.122    0.108
        45 -10.7069    237.5200    159.4638   9.8419205937e+01   3.4246564818e+00    0.1356439    0.1169394   3.76 0.0003545528    1.015    0.015
        46 -11.9166    164.7007    158.0999   1.1223650835e+02   1.7922428538e+01    0.2825078    0.2007253  35.54 0.0006803138    1.371    0.271
        47 -14.1098    143.5294    144.2261   1.1401512435e+02   2.4798846440e+01    0.9799339    0.5286825 -61.88   0.00380201    2.662    0.624
        48 -14.2289    134.2999    146.2507   1.1655657744e+02   2.6167838821e+01      1.49643    0.4236017 -54.10  0.004181528    4.853    0.794
        49 -14.0868    136.0672    127.1820   1.1198694936e+02   2.9765975088e+01     1.682851     0.334714 -47.99  0.004203492    5.377    0.814
        50 -11.1980     22.9274    155.3241   1.4372002543e+02   3.9781667366e+01    0.2757462    0.1862309 -80.77  0.001092362    1.197    0.165
        51 -11.3917    174.5634    149.0388   1.0823523296e+02   1.7609266685e+01    0.2700162    0.2435865  48.95 0.0007962852    1.139    0.122
        52  99.0000     17.9270    233.4941   1.4995701964e+02   2.5351074028e+01    0.2877693    0.1539563  64.64  0.002110974    1.404    0.288
        53 -11.1248      4.9103    137.7069   1.4608250654e+02   4.4963771705e+01    0.2095121    0.1288348 -83.68 0.0004496468    1.276    0.217
        54 -12.2693    160.6813    127.8900   1.0643579334e+02   2.4531369751e+01     0.377726    0.3118033 -44.27  0.001941388    1.240    0.193
        55 -10.3791     25.7259    232.0769   1.4866817053e+02   2.4807151822e+01    0.1274771   0.09144403  76.45 0.0001970959    1.070    0.065
        56  -9.9148     28.4485    229.3586   1.4808493915e+02   2.4987856455e+01   0.09959305   0.07208596  68.10 0.0001343247    1.042    0.040
        57 -11.5468     24.6502    226.4561   1.4853029940e+02   2.5874739156e+01    0.3323121    0.1114294 -64.21  0.001844088    3.045    0.672
        58 -11.5656    171.9183    117.4583   1.0139329752e+02   2.4084389861e+01    0.3757114    0.2948767 -89.89  0.001011495    1.817    0.450
        59 -11.5092    152.8620    151.3086   1.1340508092e+02   2.1557389910e+01    0.2332531    0.1778372  62.28 0.0009377468    1.491    0.329
        60 -10.8269    219.2767    224.0431   1.1373392281e+02  -2.0455420238e+00    0.1594524     0.134564   9.43 0.0003787753    1.134    0.118
        61 -10.7022    205.4963    110.1798   9.2762604799e+01   1.7820646647e+01    0.2704642    0.2103651  45.02 0.0007518342    1.303    0.232
        62 -11.9898    133.7823    248.9931   1.3207835326e+02   8.1741999070e+00    0.1920932    0.1483692 -54.05  0.000871129    1.656    0.396
        63 -11.8573     19.8486    222.7092   1.4909642574e+02   2.7002913112e+01     0.166664    0.1185287 -73.62   0.00102211    1.502    0.334
        64 -10.8757    155.0375    104.9005   1.0191582181e+02   3.0251584420e+01    0.2219096     0.213836  -0.91 0.0003115273    1.015    0.014
        65 -10.5869     10.1601    101.8455   1.4087095618e+02   5.2410249344e+01    0.1805861    0.1350146  88.08  0.001232578    1.287    0.223
        66 -10.0946     14.0713    222.0507   1.4998758488e+02   2.7675815384e+01    0.1193309   0.09049824 -78.49  0.000391832    1.412    0.292
        67 -10.7414     13.6413     59.9239   1.3246227313e+02   6.1255641896e+01    0.1684925    0.1184811 -58.42 0.0004926558    1.128    0.114
        68 -14.2425    151.9828     55.0125   8.7795373663e+01   3.9836774107e+01     1.025785    0.8692253  25.00  0.002181579    1.202    0.168
        69 -12.4993    125.0590    246.7818   1.3333453655e+02   9.7854064735e+00    0.2885367    0.1485499 -54.93  0.001578747    2.428    0.588
        70 -12.6551    167.1733     32.0334   7.7349807487e+01   3.9241107917e+01    0.4054211    0.3563441   8.63 0.0008665779    1.197    0.164
        71 -10.2972    144.9616     33.9812   8.2251021773e+01   4.4540663112e+01    0.2184177    0.2046205  39.38 0.0003386157    1.038    0.036
