#   1 NUMBER                 Running object number                                     
#   2 MAG_AUTO               Kron-like elliptical aperture magnitude                    [mag]
#   3 X_IMAGE                Object position along x                                    [pixel]
#   4 Y_IMAGE                Object position along y                                    [pixel]
#   5 X_WORLD                Barycenter position along world x axis                     [deg]
#   6 Y_WORLD                Barycenter position along world y axis                     [deg]
#   7 A_WORLD                Profile RMS along major axis (world units)                 [deg]
#   8 B_WORLD                Profile RMS along minor axis (world units)                 [deg]
#   9 THETA_WORLD            Position angle (CCW/world-x)                               [deg]
#  10 FWHM_WORLD             FWHM assuming a gaussian core                              [deg]
#  11 ELONGATION             A_IMAGE/B_IMAGE                                           
#  12 ELLIPTICITY            1 - B_IMAGE/A_IMAGE                                       
         1 -15.3168    120.3512    102.6906   1.0552091100e+02   3.8454619161e+01     1.407571    0.8386338 -29.06  0.005680304    2.130    0.530
         2 -14.7514      8.1583     21.3750   1.1834240538e+02   6.8817667154e+01     1.352219    0.5660205 -33.03  0.007836182    1.931    0.482
         3 -11.9643     83.9866     22.6408   8.9977996428e+01   5.9067659260e+01    0.3905645    0.2548702   1.60  0.002166761    1.670    0.401
         4 -11.4657     62.7737     17.0850   9.4616288026e+01   6.3267837404e+01    0.2833966    0.2319984  58.57  0.001838846    1.875    0.467
         5 -12.2027     86.9846     11.4773   8.4764650132e+01   5.9716931516e+01    0.4241126    0.2727901  61.46  0.001587851    1.924    0.480
         6 -11.6079     75.3213     13.4223   8.8996568919e+01   6.1622392558e+01    0.2156743    0.1908024   9.07 0.0006602837    1.152    0.132
         7 -10.8456    124.0242     10.2516   7.5372947763e+01   5.2162240497e+01    0.1826752    0.1494516  48.06 0.0004444992    1.048    0.046
         8 -11.6614     78.8146      2.4413   8.3477099048e+01   6.2057095273e+01    0.2731312     0.141401   3.58  0.001093328    2.411    0.585
         9 -11.7252     96.3434      3.2836   7.9122674098e+01   5.8644954803e+01    0.2375536    0.1171632  45.19  0.001066314    1.670    0.401
        10 -12.0181     73.3193      1.4884   8.4699227742e+01   6.3117004062e+01    0.2214937    0.1235549  48.61  0.000570265    1.674    0.403
        11 -13.6017    187.9253    232.5983   1.1723922594e+02  -1.9401451118e+00    0.5141135    0.2755322  50.51  0.002496518    1.879    0.468
        12 -12.4257    194.9535    229.6420   1.1540246173e+02  -2.7190642733e+00    0.2554827    0.1880329 -26.37   0.00147304    1.565    0.361
        13 -14.8597    204.1744    208.3917   1.0988091739e+02  -9.4020414419e-01     1.264571     1.038505  23.98  0.006150087    1.140    0.123
        14 -14.8253    193.4903    198.4156   1.1013730424e+02   2.8143537059e+00     1.691904     1.329164  17.08  0.007681952    1.381    0.276
        15 -13.3572    177.8816    212.5758   1.1586896345e+02   3.2613112165e+00    0.3250197    0.2345158  27.77  0.001042566    1.438    0.305
        16 -12.5622    218.5256    199.7186   1.0545911954e+02  -2.1381980437e+00    0.6364973    0.5471897   0.05  0.003792638    1.124    0.111
        17 -11.2560    213.2125    196.6096   1.0588043330e+02  -6.3096288138e-01    0.3079047    0.2038918  33.42  0.001184023    1.457    0.314
        18 -11.4716    250.1066    199.3561   9.9575187598e+01  -7.5895082430e+00    0.5656701    0.1743033 -37.57  0.002172904    3.144    0.682
        19 -13.3090    192.1791    217.3653   1.1385062467e+02  -2.3083775429e-01    0.4270908    0.3206387  22.17   0.00229059    1.370    0.270
        20 -12.4702    244.4989    192.0878   9.9142702171e+01  -5.5303257029e+00    0.3875384    0.2667601  31.92  0.002113035    1.425    0.298
        21 -12.8618     71.1412    198.2817   1.3599826209e+02   2.4888517855e+01    0.2763571    0.2196923  44.85  0.001697512    1.374    0.272
        22 -11.8203    213.1796    189.7200   1.0452820125e+02   5.6456013876e-01    0.3727191    0.2330686  48.60  0.001528871    1.662    0.398
        23 -13.3458    238.3913    193.3870   1.0050315040e+02  -4.6753319904e+00     1.027296    0.4488359 -41.93  0.004444548    2.376    0.579
        24 -11.9774    212.2946    216.8643   1.0985683337e+02  -3.7856183482e+00     0.315794    0.2380565   7.40  0.001216649    1.424    0.298
        25 -12.9972    231.6327    192.1589   1.0150222234e+02  -3.2763893492e+00     0.699263    0.5176923  12.52  0.003821809    1.431    0.301
        26 -11.6211     34.1040    177.2036   1.4134955303e+02   3.4263257471e+01    0.2118769    0.1537381  -8.31  0.001174292    2.695    0.629
        27 -11.8866    217.4667    174.1056   1.0049404492e+02   2.5082410734e+00    0.4165325    0.3808345  64.09   0.00237482    1.274    0.215
        28 -11.8241     89.7695    168.4956   1.2766671652e+02   2.8818356955e+01    0.2744832    0.1834925 -63.81  0.001389603    1.409    0.290
        29 -11.9520    211.9459    164.5713   9.9534891554e+01   5.3781004289e+00     0.599825    0.2989686  35.24    0.0023629    2.301    0.565
        30 -11.7116     48.1861    166.4148   1.3700932167e+02   3.5119291653e+01    0.1775848    0.1066648  52.08 0.0007898361    1.705    0.413
        31 -10.5995     86.4772    162.4948   1.2745369451e+02   3.0747011006e+01    0.1404799      0.12655 -81.24 3.675956e-05    1.042    0.040
        32 -13.4636    194.3813    153.3605   1.0060138560e+02   1.1279997675e+01     1.273499     1.071735  40.15  0.006539848    1.193    0.162
        33 -10.9232     40.8143    157.6208   1.3756571035e+02   3.7994345421e+01    0.1705694    0.1048969  51.27 0.0009432845    1.713    0.416
        34 -13.0083     80.9942    150.4718   1.2672179161e+02   3.4435458031e+01    0.4379652    0.3919361 -54.50  0.002523499    1.173    0.147
        35 -14.1144     58.7623    145.5069   1.3145912467e+02   3.8708456609e+01     1.323522    0.5273508  54.77  0.004855169    3.630    0.724
        36 -13.0439    168.4282    124.9070   9.9477077051e+01   2.3046261561e+01     1.444381    0.8663349  27.99   0.00538204    2.421    0.587
        37 -14.7037    132.9661    115.2269   1.0552798192e+02   3.3095779752e+01    0.9948533    0.7182885 -19.98  0.004346191    1.846    0.458
        38 -14.4465    152.5255    130.0250   1.0441946192e+02   2.5558592979e+01     1.908412    0.8060117 -42.54  0.006627061    2.416    0.586
        39 -15.1726    143.5547    122.9146   1.0482996144e+02   2.9108473406e+01     2.177368      1.21112 -51.03  0.008704669    1.836    0.455
        40 -12.8382     74.8110    157.7665   1.2948793318e+02   3.3629116750e+01    0.3879682    0.3020181 -51.71  0.002173694    1.334    0.251
        41 -13.0163    121.6005    127.6573   1.1151941981e+02   3.2655954348e+01    0.4989811    0.3286855  55.77  0.002209148    1.670    0.401
        42 -11.2179     48.6467    129.7006   1.3144047301e+02   4.3628516239e+01    0.1318386   0.09135645 -36.45 0.0007036823    1.697    0.411
        43 -12.6226    110.2040    122.0799   1.1318012946e+02   3.6143332580e+01    0.2963924    0.2517916 -31.75  0.001530875    1.273    0.214
        44 -12.8222    203.1055    120.6452   9.1144318000e+01   1.5832793242e+01    0.3687417     0.266082 -36.76  0.001718789    1.379    0.275
        45 -11.5660    115.0000    137.9789   1.1557614969e+02   3.1559463155e+01    0.2570107   0.08342048 -51.51 0.0008079095    2.981    0.664
        46 -12.3687    100.6810    114.7396   1.1399015971e+02   3.9562829468e+01    0.2585918    0.2225899  46.87  0.001385209    1.228    0.186
        47 -13.2080    142.3755    140.8650   1.0941765974e+02   2.5357877821e+01      1.34623    0.6063532 -46.72  0.004933109    2.215    0.548
        48 -12.3814     77.0064    141.4439   1.2609748484e+02   3.7172637563e+01    0.4961691    0.3001891 -62.94  0.002403351    1.519    0.342
        49 -15.3204    105.5476    101.3080   1.0920374374e+02   4.1651346955e+01    0.9614782    0.7780619  80.00  0.004834061    1.579    0.367
        50 -11.5326     80.1184    109.8430   1.1861228690e+02   4.4074177062e+01    0.1950476    0.1576802 -31.42 0.0004128725    1.309    0.236
        51 -14.0804    132.2182    103.7526   1.0269648837e+02   3.5731644596e+01     0.783784    0.4671822 -41.54   0.00111583    1.672    0.402
        52 -13.4182     17.0981    101.3146   1.3533574144e+02   5.2965665184e+01    0.4008292    0.3376243 -64.79  0.002510948    1.083    0.076
        53 -12.1126     54.7093     94.8010   1.2263588087e+02   5.0853710020e+01    0.3177002     0.256545 -42.78  0.001160473    1.096    0.088
        54 -12.9370     39.8166     92.7882   1.2680134761e+02   5.2902090817e+01     0.342849    0.1465219 -52.65  0.001625502    1.861    0.463
        55 -13.8353    234.6493    246.2754   1.1081566052e+02  -1.1632869538e+01    0.5516173    0.2177858  37.58  0.002667727    2.169    0.539
        56 -13.8848     90.3813     86.4717   1.0950857287e+02   4.7488116568e+01    0.5527616    0.3287627  19.21  0.002343069    2.424    0.587
        57 -13.5187     77.3873     89.9454   1.1440556019e+02   4.8848720923e+01    0.6046298    0.2619033 -61.08  0.002097643    3.451    0.710
        58 -12.4893     23.0120     88.3429   1.3111814901e+02   5.5327522540e+01    0.3057999    0.2272264  64.01  0.001265828    1.829    0.453
        59 -11.2737    129.0322     83.2465   9.7736638526e+01   4.0576423224e+01    0.2049756    0.1983537  40.21 0.0004659002    1.038    0.037
        60 -10.6558     42.6037     78.1512   1.2242516001e+02   5.5709738043e+01    0.1821561   0.09385055 -44.48 0.0005341074    1.624    0.384
        61 -14.3312     96.8725     71.8954   1.0323529032e+02   4.9202281706e+01    0.8468484    0.5351388  20.58  0.001246279    2.032    0.508
        62 -12.1654     92.7066     72.2944   1.0460678651e+02   4.9875421011e+01    0.2422674    0.2096068  55.53 0.0004160412    1.363    0.267
        63 -12.8786     54.8816     74.0036   1.1721968804e+02   5.5176640530e+01    0.2815777    0.2368016 -58.60  0.001760927    1.296    0.228
        64 -11.3857     66.5074     76.4943   1.1410010204e+02   5.3178696662e+01    0.1337018    0.1167206 -30.56 -4.837645e-05    1.006    0.006
        65 -12.5838     72.8666     74.9062   1.1158724360e+02   5.2587690636e+01    0.2143053    0.1701709 -19.32  0.000664682    1.256    0.204
        66 -11.4238    120.5320     73.5203   9.7056454433e+01   4.4228626301e+01    0.1442718    0.1407948   0.87 4.865268e-05    1.025    0.024
        67 -14.6705    113.1108     98.2351   1.0627279019e+02   4.0856014388e+01     1.022173    0.4903719 -54.77  0.003815813    2.422    0.587
        68 -11.4271     77.3102     71.3199   1.0909067160e+02   5.2611181765e+01    0.1393012   0.09858207 -12.73 0.0002669501    1.644    0.392
        69 -12.4134     59.8431     71.1289   1.1474157075e+02   5.5123712927e+01    0.1934136    0.1751074 -51.65 0.0009833965    1.220    0.180
        70 -12.6592     83.0651     68.4880   1.0639390104e+02   5.2228004914e+01     0.240215     0.185616 -53.92 0.0005729664    1.462    0.316
        71 -10.4481     21.0169     66.7029   1.2691438242e+02   5.9921566559e+01    0.1535275    0.1278307 -38.71 0.0002440214    1.075    0.070
        72 -12.4747    125.5044     57.5273   9.0743868597e+01   4.5893892270e+01    0.3351097    0.2448099  41.87 0.0006165962    1.320    0.243
        73 -11.1340     52.6039     57.0502   1.1294163134e+02   5.8671856504e+01    0.1834212    0.1693354  14.41 0.0004692354    1.248    0.199
        74 -13.0464     67.2911     53.9657   1.0684069777e+02   5.7255614375e+01    0.4153022    0.2657819 -51.99  0.002191991    1.860    0.462
        75 -10.5313    210.6503     54.4938   7.3257429441e+01   2.5676641746e+01    0.1403022    0.1269909 -69.26 0.0007905848    1.049    0.046
        76 -10.9846    132.8611     53.7841   8.7737758986e+01   4.4829824542e+01     0.217256    0.1813122  27.01 0.0005605614    1.226    0.184
        77 -11.5153    145.5767     50.9378   8.3935068455e+01   4.2292180187e+01    0.2611859    0.2047629  61.73 0.0005104349    1.258    0.205
        78 -10.2859     95.5375     49.4658   9.6290470428e+01   5.3289504152e+01    0.1342136    0.1224548   4.04 0.0008083353    1.027    0.027
        79 -13.2615     42.0117     46.3665   1.1330850568e+02   6.1767240948e+01    0.5626338    0.3135337 -47.29   0.00207741    1.709    0.415
        80 -12.1537      2.3923     46.4944   1.2859631801e+02   6.4937874052e+01    0.2394006    0.1729433 -53.46  0.001184206    1.227    0.185
        81 -10.6725    156.7651     43.9162   7.9482080860e+01   4.0593374140e+01    0.1843573    0.1829386  -3.30  0.000650536    1.086    0.079
        82 -10.7839    102.0809     43.5086   9.2332915498e+01   5.2925030871e+01    0.1938951    0.1261087  44.85 0.0003488692    1.482    0.325
        83 -13.3382    243.9184    247.3716   1.0935993010e+02  -1.3160528692e+01    0.4026901    0.2822142   5.02  0.002619751    1.331    0.249
        84 -12.9467    225.5728    248.0686   1.1273539827e+02  -1.0457516200e+01    0.2931675    0.2308653  -9.35  0.001973975    1.290    0.225
        85 -12.3159    193.5964    248.9991   1.1873653149e+02  -5.3805237907e+00     0.223788    0.2039976  37.95  0.001553152    1.162    0.139
        86 -11.2277     81.9486     13.8564   8.7156178050e+01   6.0405189377e+01    0.2307959    0.1538447  31.70 0.0006489927    1.312    0.238
        87 -12.3144    184.3119    246.9895   1.2016464918e+02  -3.5151441136e+00    0.1725724    0.1560173  30.21 0.0008965835    1.102    0.093
        88 -13.8408    232.7166    238.3310   1.0982802600e+02  -1.0306264310e+01    0.3779316    0.3551738   9.70  0.002499178    1.288    0.224
        89 -13.9278    242.3162    231.8643   1.0698822665e+02  -1.0947031758e+01    0.7217913    0.5756297 -63.12  0.004317746    2.261    0.558
        90 -14.8843    246.2727    218.7248   1.0392093310e+02  -9.7771266310e+00     1.372862    0.7602047 -33.03  0.007401802    1.809    0.447
        91 -11.0955     78.7360     30.6313   9.4662052164e+01   5.8995465760e+01    0.2248527    0.1852372   0.78  0.001437035    1.068    0.064
        92 -13.8734    218.0148    232.7959   1.1157434682e+02  -7.1612851311e+00    0.5445963    0.3745108 -39.56  0.003206993    1.670    0.401
