#   1 NUMBER                 Running object number                                     
#   2 MAG_AUTO               Kron-like elliptical aperture magnitude                    [mag]
#   3 X_IMAGE                Object position along x                                    [pixel]
#   4 Y_IMAGE                Object position along y                                    [pixel]
#   5 X_WORLD                Barycenter position along world x axis                     [deg]
#   6 Y_WORLD                Barycenter position along world y axis                     [deg]
#   7 A_WORLD                Profile RMS along major axis (world units)                 [deg]
#   8 B_WORLD                Profile RMS along minor axis (world units)                 [deg]
#   9 THETA_WORLD            Position angle (CCW/world-x)                               [deg]
#  10 FWHM_WORLD             FWHM assuming a gaussian core                              [deg]
#  11 ELONGATION             A_IMAGE/B_IMAGE                                           
#  12 ELLIPTICITY            1 - B_IMAGE/A_IMAGE                                       
         1 -13.4654    188.8771     27.5366   7.4150510155e+01   3.4682013471e+01     1.301993      1.15823  51.24  0.006091856    1.160    0.138
         2 -13.9114    201.4976      9.4072   6.7218574385e+01   3.3363805584e+01     1.776762     1.092096  41.01  0.008788926    1.825    0.452
         3 -10.8831     20.9809     10.7292   1.1877207347e+02   7.3160318213e+01    0.2885217    0.1135839 -33.90  0.001195223    2.722    0.633
         4 -10.4017     81.6753    248.7079   1.4100859607e+02   1.7487396501e+01    0.2111146    0.1184525  54.29 0.0008545716    1.565    0.361
         5 -10.6794    249.2937    249.1453   1.1326982730e+02  -2.7088474073e+00    0.2087492    0.1393796 -12.72  0.001242369    1.489    0.329
         6 -11.0283    125.5002    249.9225   1.3349743314e+02   1.2240050925e+01     0.312323    0.1080114  35.43  0.001702787    2.137    0.532
         7 -10.4395     67.0517    250.1559   1.4361497675e+02   1.8854254517e+01    0.1933939    0.1550117  43.85  0.001691724    1.139    0.122
         8  -9.0993     63.4915    250.5870   1.4424632186e+02   1.9163512481e+01     0.132505   0.07487818  31.02 3.025559e-05    1.584    0.369
         9  -9.9616     37.1943    249.3854   1.4861524229e+02   2.1917306272e+01    0.2080465    0.1118179  57.82  0.001427678    1.457    0.313
        10 -10.4916     29.1196    249.1559   1.4994272914e+02   2.2688944061e+01    0.1961671    0.1589267  39.52   0.00043751    1.306    0.235
        11 -11.4452     35.1237    245.0439   1.4878482931e+02   2.2742296623e+01     0.432611    0.3382919 -49.33   0.00370745    1.951    0.487
        12 -14.5977      5.2195     16.0752   1.3175706412e+02   7.3280229923e+01     22.54423     0.879935 -63.92   0.03176856   23.975    0.958
        13 -14.5576      6.0636    186.5041   1.5184053384e+02   3.5032791531e+01     2.713381      1.03618 -74.29  0.008621078    2.460    0.594
        14 -14.4168      3.5102    234.6573   1.5374802466e+02   2.7024682762e+01     7.371717          nan -72.65    0.0254855   10.139    0.901
        15 -13.6091      9.9972    207.2684   1.5181373211e+02   3.0988325874e+01    0.9610518    0.6708081 -69.98  0.002749172    1.651    0.394
        16 -10.0583    238.2534    247.9846   1.1475382086e+02  -1.3616896709e+00    0.1133444   0.07240644 -14.46 0.0008841776    1.559    0.358
        17 -10.5738     83.6391    244.6086   1.4038474429e+02   1.7841235479e+01    0.3541118    0.1282857  50.91  0.001934891    2.525    0.604
        18 -10.2134    198.3975    245.2125   1.2064247894e+02   3.6819505598e+00    0.1156679   0.09675942 -29.35 0.0009539585    1.675    0.403
        19 -11.6689    139.2877    249.1838   1.3104626026e+02   1.0644415066e+01    0.3495472    0.2442758  33.10  0.002705072    1.052    0.049
        20 -10.4091     66.5785    242.9913   1.4327247145e+02   1.9925219870e+01    0.1952826     0.137954  61.21 0.0006893462    1.261    0.207
        21 -10.4980     94.9913    241.6588   1.3815708488e+02   1.6963372258e+01    0.1923827    0.1502434 -67.71  0.001070431    1.636    0.389
        22  -9.6877     19.6411    240.7070   1.5122581411e+02   2.4771780596e+01    0.2306341    0.1667926   6.32  0.001798775    2.250    0.556
        23 -10.2984     46.4427    248.6362   1.4703424586e+02   2.1146893650e+01    0.2288578    0.1155867  51.29 0.0007312758    1.463    0.316
        24  -9.9209    183.9215    238.0555   1.2214946168e+02   6.2628157289e+00    0.1760875      0.10588  11.01  0.001142248    1.752    0.429
        25  -9.4154     35.1060    229.9027   1.4813799310e+02   2.5051813618e+01    0.1617943   0.09424508  55.18 0.0006228468    1.312    0.238
        26 -14.3951     56.6983    212.4589   1.4314114698e+02   2.5755970963e+01     7.301115      1.25775  44.99   0.02995988    3.777    0.735
        27  -9.2717    177.0756    227.0181   1.2191964842e+02   8.4162971309e+00    0.1599008    0.1277317  36.56 0.0005399081    1.292    0.226
        28 -10.8042    173.4552    221.6558   1.2185427236e+02   9.5520616510e+00    0.3300492     0.252638  49.49  0.001741209    1.611    0.379
        29  -9.1895     20.4268    227.4968   1.5063714205e+02   2.6753035090e+01   0.09695186   0.07105473  57.33 0.0001342686    1.017    0.016
        30 -12.6447     44.0710    234.2308   1.4675260503e+02   2.3522745171e+01    0.2600001    0.2508598  62.53 0.0007865684    1.377    0.274
        31  -9.7076     27.7009    221.8713   1.4911534806e+02   2.7020706633e+01    0.1633029    0.1316818  45.71  0.000434066    1.195    0.163
        32 -13.8691     50.0567    225.2411   1.4519323962e+02   2.4341329290e+01    0.8759404    0.5908216  69.01  0.005219016    1.356    0.263
        33  -8.9940    152.4998    212.9685   1.2454891339e+02   1.3586877862e+01    0.1377821    0.1140406 -37.86 0.0003417826    1.470    0.320
        34 -12.1866     27.8053    203.8382   1.4826948316e+02   3.0076352617e+01    0.3999323    0.1653362  43.30  0.001083419    1.829    0.453
        35 -11.4185     68.3104    199.3289   1.3981993144e+02   2.6752729659e+01    0.2809736    0.2104519 -40.57  0.001173924    1.826    0.452
        36  -9.5523    192.2050    193.5082   1.1431814132e+02   1.0412274597e+01    0.2366347    0.1635668 -55.10  0.001104313    2.541    0.607
        37 -11.6151     73.5536    191.4593   1.3801874104e+02   2.7556874082e+01    0.2243428    0.2147674 -50.42 0.0006708209    1.285    0.222
        38  -8.3889    105.5401    181.4790   1.2997536347e+02   2.5242187874e+01     0.122593    0.1050454  49.54 0.0008079568    1.070    0.066
        39 -10.8888     82.5176    178.7018   1.3474266349e+02   2.8830439499e+01    0.2136599    0.2009773  77.40 0.0004903786    1.108    0.097
        40 -13.2022     69.9741    176.5489   1.3733583228e+02   3.0786774621e+01    0.4415813    0.2610171 -41.80  0.001725656    2.333    0.571
        41  -8.8798    117.9756    175.3253   1.2639973796e+02   2.4558413005e+01    0.2173087   0.07487016  51.03 0.0007048857    4.423    0.774
        42  -8.2049    172.5039    174.4797   1.1482849962e+02   1.6126236232e+01    0.1264846    0.1091662  21.94 0.0008095329    1.063    0.059
        43 -11.9232     89.2463    169.0876   1.3205185563e+02   2.9801589940e+01    0.7147096    0.5425021  47.89  0.004465996    1.197    0.164
        44 -10.2254    194.0515    157.8342   1.0757211758e+02   1.4990161809e+01    0.3076514    0.2533524 -69.05  0.001164756    2.107    0.525
        45 -12.5370     66.8697    143.7237   1.3423758210e+02   3.7930888205e+01    0.9140165    0.5379958  71.87  0.004482856    2.142    0.533
        46 -11.8152     57.9134    132.2822   1.3509593284e+02   4.1532653705e+01     0.745693    0.3193767 -81.99  0.002806027    3.462    0.711
        47  -9.1515    103.5132    148.5259   1.2561910502e+02   3.1861054611e+01    0.2468316    0.1676296 -25.40  0.001227294    2.060    0.515
        48 -11.9386     89.8603    152.1606   1.2957065203e+02   3.3112754294e+01    0.2568069     0.233956 -16.55 0.0005531148    1.287    0.223
        49 -12.0862     29.8622    139.8834   1.4355380030e+02   4.2659358850e+01    0.3368978    0.2721186  88.74  0.002283551    1.079    0.074
        50  -9.7135    111.2571    137.5920   1.2175046795e+02   3.2871017192e+01    0.3403449    0.2265016 -16.88  0.001452057    2.334    0.571
        51 -10.8418     98.9615    135.3111   1.2448420470e+02   3.5298720736e+01    0.3153103    0.2305941 -47.81 0.0006269352    1.412    0.292
        52  -8.6356    192.0002    144.0248   1.0513981961e+02   1.7377388052e+01    0.1606758    0.1371793  -4.05 0.0004344321    1.063    0.059
        53  -9.3096    168.7184    132.6833   1.0733983949e+02   2.3487115938e+01     0.236105    0.1954001 -89.91  0.000800874    1.889    0.471
        54 -10.4762    174.5286    137.9313   1.0728546882e+02   2.1525694467e+01    0.4296146    0.3172261  85.31  0.001940741    2.804    0.643
        55  -9.2654     40.6555    128.6893   1.3946239626e+02   4.4185438528e+01    0.1244185    0.0892015 -38.87 0.0005831789    1.703    0.413
        56  -9.1266    108.1275    124.1908   1.1990915807e+02   3.6176340571e+01    0.1907511    0.1788077   0.13 0.0003048017    1.122    0.109
        57  -9.8945    100.8981    152.6429   1.2692773361e+02   3.1421315806e+01    0.2509694    0.2446013 -54.71 0.0007683196    1.096    0.088
        58 -10.4859    168.0683    113.3180   1.0292377573e+02   2.6918094165e+01    0.3282215    0.2936075 -75.04  0.001064992    1.476    0.322
        59  -8.9453    203.4810    111.5184   9.5602689958e+01   2.0054194775e+01    0.1431047    0.1210804   1.38 6.561129e-05    1.067    0.063
        60  -9.1136     42.3352    108.3215   1.3626059749e+02   4.8766463061e+01    0.1330575   0.09025763 -38.85 0.0007050151    1.707    0.414
        61  -8.7890    126.0272     99.4583   1.0929636455e+02   3.8032460395e+01    0.2171226    0.1436924  47.38  0.001000561    1.570    0.363
        62  -8.9807     30.6094     91.3927   1.3755097035e+02   5.3897827585e+01    0.2253748    0.1135084  31.95  0.001113119    2.135    0.532
        63  -9.4885    155.4558     75.4729   9.5216982879e+01   3.6157021161e+01    0.1518555    0.1411183  -2.95 0.0008082943    1.021    0.021
        64  -9.8551     20.0475     67.4155   1.3744591328e+02   6.0497992567e+01    0.2669313    0.1820805  47.07  0.001336852    1.699    0.411
        65 -11.1443     17.7848     56.7780   1.3629683235e+02   6.3200010554e+01    0.5550954    0.1827981  35.00   0.00220633    3.348    0.701
        66  -9.9690    161.8565    248.8548   1.2715308631e+02   7.8734464804e+00    0.1417479    0.1008997  41.33 0.0006959493    1.330    0.248
        67 -11.1231    100.1345    248.9074   1.3781714086e+02   1.5377764411e+01    0.3436662    0.1403332  30.78  0.001968583    2.147    0.534
