#   1 NUMBER                 Running object number                                     
#   2 MAG_AUTO               Kron-like elliptical aperture magnitude                    [mag]
#   3 X_IMAGE                Object position along x                                    [pixel]
#   4 Y_IMAGE                Object position along y                                    [pixel]
#   5 X_WORLD                Barycenter position along world x axis                     [deg]
#   6 Y_WORLD                Barycenter position along world y axis                     [deg]
#   7 A_WORLD                Profile RMS along major axis (world units)                 [deg]
#   8 B_WORLD                Profile RMS along minor axis (world units)                 [deg]
#   9 THETA_WORLD            Position angle (CCW/world-x)                               [deg]
#  10 FWHM_WORLD             FWHM assuming a gaussian core                              [deg]
#  11 ELONGATION             A_IMAGE/B_IMAGE                                           
#  12 ELLIPTICITY            1 - B_IMAGE/A_IMAGE                                       
         1  -9.3006    247.5241     15.6158   4.8837185074e+00   2.1356674808e+01    0.2444464      0.18468  18.13  0.001459901    1.939    0.484
         2  -8.0154    222.3236      6.6854   4.4739289348e+00   2.7780647647e+01    0.1399249   0.07767896 -58.37 0.0007041793    1.663    0.399
         3  -8.5934    243.3999      3.8058   2.4658081533e+00   2.3418105093e+01    0.1613788    0.1110287 -13.97 0.0009446116    1.759    0.432
         4  -9.3210    108.3202    246.5307   7.6855853296e+01   1.1620464702e+01    0.2183062    0.1895612 -75.00  0.001312058    1.474    0.322
         5 -10.0870    248.9235    248.3177   5.1964640249e+01  -7.4328540844e+00     0.482156    0.2499412 -10.23  0.003157153    1.901    0.474
         6  -9.5834    241.4461    247.5780   5.3035548862e+01  -6.4876287801e+00    0.4440963    0.2886173   5.04  0.003319492    1.203    0.168
         7  -8.4052    246.4499    243.0536   5.1582450948e+01  -6.6504643400e+00    0.2372616    0.1185366  -2.47 0.0008894543    2.220    0.549
         8  -8.8960    248.0505    238.9950   5.0725986223e+01  -6.4511611482e+00    0.2907586    0.1425639   8.18  0.001672376    2.185    0.542
         9  -7.4168    226.4881    250.5712   5.5880882515e+01  -4.9654972955e+00    0.1103238   0.07471602  15.29 0.0002551395    1.053    0.050
        10 -10.1236    177.3201    246.1329   6.3805792784e+01   2.0167368811e+00    0.3624516    0.2360702   1.52  0.002288081    1.808    0.447
        11  -8.9911    164.3986    247.7516   6.6376197242e+01   3.6187520250e+00    0.1794077    0.1418067 -11.31  0.001297188    1.471    0.320
        12  -8.7520    156.2516    247.2215   6.7822979245e+01   4.8315182660e+00     0.241022    0.1653035 -10.42  0.001532162    1.958    0.489
        13  -7.6281     94.3163    248.3033   7.9694343974e+01   1.3222622906e+01    0.1026736   0.08116987  13.70 0.0007024296    1.622    0.383
        14  -7.9536    149.7881    246.8614   6.8990158351e+01   5.7906273625e+00    0.2082195    0.1248613 -18.90  0.001140844    2.751    0.637
        15  -7.9475     63.3205    247.7026   8.5518933670e+01   1.7217548877e+01    0.1165833   0.05979756  55.88 0.0007020435    1.618    0.382
        16  -8.9607    205.9407    245.2572   5.8605416174e+01  -1.7778544865e+00    0.1893668    0.1224466  -4.41 0.0009986111    1.598    0.374
        17  -7.5683    219.5174    244.4793   5.6179387486e+01  -3.4662689798e+00    0.1129955   0.07893326  15.35 0.0003861506    1.046    0.044
        18  -9.1721    190.3153    244.3359   6.1226743836e+01   4.3623650458e-01    0.1483921    0.1184846  35.89 0.0005749155    1.347    0.258
        19  -9.7246    187.1085    242.2258   6.1517696082e+01   1.1300848466e+00    0.3095783     0.166268  25.24   0.00182866    1.569    0.363
        20  -8.4532    172.4799    229.9908   6.2549060507e+01   4.7861744318e+00    0.2052326    0.1548621  -5.07 0.0009464189    1.451    0.311
        21  -9.2369    170.7390    234.6986   6.3519684967e+01   4.4109579383e+00     0.252517    0.1572839 -30.34  0.001354967    1.958    0.489
        22  -9.5239    168.5404    243.0696   6.5025358912e+01   3.6336830722e+00    0.2206753    0.1612928 -35.16  0.001098333    1.706    0.414
        23  -9.8439    172.1429    240.0118   6.3961890015e+01   3.5143621854e+00    0.2575183    0.1972442  -3.10  0.001176222    1.412    0.292
        24  -8.7884    210.1155    241.6534   5.7378489656e+01  -1.9341894199e+00    0.2129717    0.1241899  -9.44  0.000877095    1.944    0.486
        25  -7.7162    223.3206    241.3266   5.5087936014e+01  -3.6233465824e+00    0.1158244   0.06595557   9.21 0.0007047313    1.684    0.406
        26 -11.9819    195.4648    234.6116   5.8954403315e+01   8.8154214607e-01    0.7725677    0.5067974 -12.81  0.004983503    1.684    0.406
        27 -11.0949    187.6275    232.5909   6.0089486960e+01   2.2428992468e+00    0.4744525    0.4192029  75.95  0.003306562    1.962    0.490
        28  -9.1969    190.2859    226.8914   5.8777737257e+01   2.5826064054e+00    0.3015898    0.1701884 -27.98   0.00174757    2.050    0.512
        29 -10.9510    194.2071    222.0042   5.7326127668e+01   2.6374483731e+00    0.5784163    0.3887255  27.53   0.00368833    1.187    0.157
        30 -11.2968    200.7129    227.4786   5.6967887255e+01   1.0084205620e+00     1.143861    0.7136492 -61.18  0.005045603    5.114    0.804
        31  -9.7975    182.5852    238.9170   6.1891223723e+01   2.1690400655e+00     0.351231    0.1716035 -23.42   0.00177355    3.027    0.670
        32 -10.0100    159.4900    238.0097   6.6079747634e+01   5.5994653352e+00    0.3532382    0.2583143  -4.49  0.002045177    1.642    0.391
        33 -10.1551    180.2239    223.5355   6.0163582794e+01   4.5083632195e+00    0.3802325     0.170542 -44.82  0.001912049    2.844    0.648
        34  -9.4582    177.1738    237.0609   6.2636125018e+01   3.1738492446e+00    0.3264824    0.2573821 -83.67  0.002003387    2.664    0.625
        35  -9.5331    177.6872    229.9836   6.1565703485e+01   4.0212664784e+00     0.333563    0.2192157 -15.82  0.001519193    1.844    0.458
        36  -9.2255    167.0000    237.9963   6.4659160443e+01   4.5153328571e+00    0.2252488   0.06768093 -44.86 0.0009688018    4.215    0.763
        37  -7.9421    146.3823    237.8354   6.8567849314e+01   7.5256090214e+00    0.1439717    0.1073167 -26.15 0.0009457657    1.714    0.417
        38  -8.0606    244.1608    235.7408   5.0850809420e+01  -5.6630711449e+00    0.1497189   0.09227816   5.36 0.0005208888    1.340    0.254
        39  -7.4774    130.3156    235.3305   7.1406964983e+01   1.0224800142e+01    0.1153532   0.08441523   9.21  0.000349821    1.681    0.405
        40  -8.2281    153.0364    233.9935   6.6806293042e+01   7.0989609446e+00    0.1835019    0.1284321   7.53   0.00112164    1.678    0.404
        41  -8.4434    216.0067    235.6864   5.5501774223e+01  -2.0575440649e+00    0.1593684    0.1146915  19.27   0.00059608    1.045    0.043
        42  -8.0850    241.1811    230.8758   5.0584077717e+01  -4.8022990269e+00    0.1528803   0.09623152   4.90 0.0007013488    1.325    0.245
        43  -8.7450    213.0248    230.7050   5.5275552669e+01  -1.0920973949e+00    0.2465308    0.1435544 -50.75  0.001286605    3.517    0.716
        44 -10.0519    211.0570    225.4368   5.4820164456e+01  -2.0433536384e-01    0.3392688    0.1584607 -18.25  0.001639342    2.962    0.662
        45  -9.6180    211.1067    219.8562   5.3944700408e+01   4.5999266486e-01    0.1804443    0.1764221  14.09  0.001354616    1.600    0.375
        46  -8.2546    158.4732    231.0027   6.5368139986e+01   6.7193161423e+00    0.1622763     0.137443  16.07 0.0006497428    1.145    0.127
        47  -8.8779    161.8533    225.7290   6.4003029851e+01   6.9636958955e+00    0.3014098    0.1833241 -27.95  0.001711766    2.112    0.526
        48  -8.6849    143.8409    229.3344   6.8015845179e+01   9.1384604948e+00    0.2591143    0.1651646 -45.54  0.001571122    1.962    0.490
        49  -7.6735    235.2533    229.6376   5.1356975904e+01  -3.9216281827e+00   0.09060774   0.08321832  -0.81 0.0006960495    1.620    0.383
        50  -8.1441    151.7954    228.8232   6.6383210868e+01   8.0266396555e+00    0.2262322    0.1563172  16.99 0.0008261094    1.492    0.330
        51  -8.3187    154.4706    224.5101   6.5285048787e+01   8.2571824354e+00    0.2420053    0.1090521 -36.78 0.0008516529    2.958    0.662
        52  -9.5753    168.1555    226.0766   6.2830849128e+01   5.9668395077e+00    0.3395815    0.1953045 -25.62  0.001852537    2.302    0.566
        53  -7.8653    222.3363    226.3326   5.3006039806e+01  -1.8586284449e+00    0.1220604    0.0705234   8.40 0.0007052119    1.738    0.425
        54  -8.3936    248.3618    224.5791   4.8450778845e+01  -5.0501889819e+00     0.184567     0.101509  -6.05  0.001132927    1.775    0.436
        55  -9.2159    174.3245    223.9233   6.1341844943e+01   5.3395392725e+00    0.3324477    0.1686355 -36.11  0.001579142    2.354    0.575
        56 -10.0326    185.7872    221.4365   5.8804878457e+01   3.9593232535e+00     0.410378     0.243553 -27.80  0.002385316    1.942    0.485
        57  -9.7281    185.9875    213.6040   5.7570596629e+01   4.9941051056e+00    0.5275772    0.2793337 -24.58  0.002691434    2.382    0.580
        58  -7.8782    126.6978    224.6911   7.0888284138e+01   1.2414871605e+01    0.1164201   0.08828827   9.08 0.0007014515    1.604    0.376
        59  -9.3998    217.2740    221.8904   5.3184136206e+01  -6.5185660869e-01    0.3135838    0.1974125 -54.47  0.001574055    3.808    0.737
        60  -9.1447    148.9562    220.2034   6.5801998948e+01   9.7476479040e+00    0.4433181    0.2516052 -19.43  0.002021659    3.256    0.693
        61 -10.7501    203.9789    219.7698   5.5203286348e+01   1.4951081471e+00     0.387588    0.2461332  36.42   0.00240167    1.422    0.297
        62  -8.1848    140.4396    220.2457   6.7531017493e+01   1.1047676473e+01    0.2021752    0.1199141 -42.86    0.0011278    2.075    0.518
        63  -7.1467    224.6835    219.6546   5.1556192563e+01  -1.4146123870e+00    0.1227882   0.07213315   6.60 0.0007048336    1.720    0.419
        64  -8.7855    159.4039    218.4123   6.3463476295e+01   8.4076904231e+00    0.2562358     0.190226   4.78  0.001305937    1.502    0.334
        65  -9.5265    169.9359    214.3043   6.0781324764e+01   7.3796686117e+00    0.4671726    0.2197537 -39.90  0.002310213    2.496    0.599
        66  -9.2724    180.0438    216.3356   5.9125242807e+01   5.5256045412e+00    0.2035142    0.1554205  -7.00  0.001302562    1.378    0.274
        67  -7.8296    135.4804    217.0303   6.8126200256e+01   1.2323864438e+01    0.1636876    0.1022283 -21.97 0.0008102399    2.589    0.614
        68  -7.4425     35.6561    217.6682   8.9065326023e+01   2.5652486802e+01    0.0989971   0.08680452 -30.64 0.0007050567    1.756    0.431
        69  -9.9118    198.8862    213.9810   5.5218663986e+01   2.9879370714e+00    0.6424859    0.2167313 -31.64  0.002657997    3.718    0.731
        70  -9.1722    199.1368    190.9607   5.1301553819e+01   6.1199168552e+00    0.4146299     0.227582 -10.30  0.001849557    2.716    0.632
        71  -8.8764    195.6453    195.9460   5.2834052323e+01   5.9669679105e+00    0.3732816    0.1574631 -33.93   0.00170057    2.599    0.615
        72  -9.1377    202.7065    197.4758   5.1775697237e+01   4.6292733966e+00    0.3553244    0.2297982 -14.94  0.001929159    1.655    0.396
        73  -9.7120    193.1901    209.2281   5.5515644246e+01   4.4899490253e+00    0.5262594    0.2343914 -37.82  0.002605718    2.516    0.602
        74 -10.0613    197.3703    202.8549   5.3684146810e+01   4.7202950688e+00     0.519235    0.3879337   1.42  0.003186261    1.277    0.217
        75  -8.1062    143.5630    216.2348   6.6357790029e+01   1.1201491523e+01    0.1550057    0.1170795 -27.55 0.0009442676    1.633    0.388
        76  -7.3748    248.6817    215.6394   4.6957428534e+01  -4.1515553242e+00    0.1207684   0.06733639   4.63 0.0007042915    1.765    0.433
        77  -8.4432    154.6246    213.3339   6.3696736395e+01   9.9273891256e+00     0.237425    0.1513989 -36.10  0.001345148    1.881    0.468
        78 -10.5394    210.3563    201.9894   5.1152804877e+01   2.8369934764e+00    0.4871332    0.3055471  24.54  0.002867991    1.382    0.276
        79  -9.5011    206.6366    207.4996   5.2750832595e+01   2.6750290044e+00    0.3432238    0.1879501  35.33  0.001780543    1.582    0.368
        80  -9.4960    178.7592    208.7906   5.8206735778e+01   6.8008094996e+00    0.5298293    0.2965864   8.64  0.002387716    2.766    0.638
        81  -9.0213    162.1281    209.5078   6.1615437540e+01   9.3313770523e+00    0.3710037    0.2366548  -5.73   0.00187513    2.305    0.566
        82  -8.3184    146.4551    210.2276   6.4925344019e+01   1.1712002064e+01    0.2907257    0.1713367 -32.25  0.001272853    2.232    0.552
        83  -8.5240    149.4975    205.4034   6.3591321239e+01   1.2010913315e+01    0.2830045     0.126777 -44.95  0.001314108    2.622    0.619
        84  -8.7710    175.1125    203.4207   5.8068604986e+01   8.1769966512e+00    0.3010786    0.1906271  -6.83  0.001427308    2.151    0.535
        85  -8.4947    156.3397    206.2516   6.2302525108e+01   1.0769497354e+01    0.2492804    0.1548474 -48.77  0.001362314    1.970    0.492
        86  -9.8103    124.0246    206.0086   6.9087744945e+01   1.5972566029e+01    0.1836847     0.153705  38.80            0    1.010    0.010
        87  -7.8403    138.6781    205.6628   6.5903907503e+01   1.3708678154e+01    0.1289619   0.09487639   4.60 0.0007050495    1.713    0.416
        88  -9.4146    186.6474    201.5626   5.5507094119e+01   6.5985437040e+00     0.449601    0.2358272 -36.42  0.002325974    2.110    0.526
        89  -9.4364    167.7520    200.1071   5.9011759121e+01   9.8848939233e+00    0.5206373    0.2170595 -33.14  0.002146586    3.247    0.692
        90  -8.8385    161.0093    200.7056   6.0485729488e+01   1.0897220912e+01    0.3343235    0.1738268 -30.74  0.001556235    2.541    0.607
        91  -7.7960    250.2192    199.3142   4.3955430943e+01  -2.5510126080e+00    0.2154627    0.1178864  -5.56  0.001207657    1.915    0.478
        92  -8.3737    150.3079    199.0306   6.2455824139e+01   1.2935543210e+01    0.2436748     0.166114  14.48  0.001244044    1.702    0.413
        93  -7.9960    242.8211    197.9651   4.4901432226e+01  -1.3866880641e+00     0.150489   0.07727865 -27.50 0.0006004407    1.836    0.455
        94  -9.3470    177.9910    196.3600   5.6335653526e+01   8.7816590706e+00    0.3732771    0.2715257  11.70   0.00203673    1.385    0.278
        95  -7.9369    229.7607    197.4141   4.6967668190e+01   5.3504749633e-01    0.1700351    0.0939834  25.24 0.0009435043    1.645    0.392
        96  -9.2611    204.4641    211.5587   5.3810200400e+01   2.4712209969e+00     0.306082     0.158871 -31.89  0.001491711    2.079    0.519
        97  -7.9623    190.5423    197.5035   5.4074574108e+01   6.5631414378e+00    0.1298302    0.1051792  15.43 0.0002591647    1.041    0.039
        98  -9.6038    123.1182    195.4293   6.7827998050e+01   1.8028212557e+01    0.2168299    0.2105375 -67.07 0.0001364439    1.195    0.163
        99  -8.1903    225.5779    195.7106   4.7382096482e+01   1.3635652045e+00    0.2210506    0.1058061 -26.84  0.001131535    2.110    0.526
       100  -7.9191    220.4850    195.9747   4.8311976708e+01   2.0911200814e+00    0.1518669    0.1054023 -53.58 0.0007903251    2.614    0.617
       101  -8.4056    209.5685    195.6387   5.0198251760e+01   3.8076337449e+00    0.2235886    0.1123908 -28.91  0.001132778    2.088    0.521
       102  -8.6238    156.7230    194.4853   6.0383442816e+01   1.2628927530e+01    0.3212858    0.1678727 -34.80  0.001506755    2.349    0.574
       103  -9.5706    186.7610    191.2055   5.3720353539e+01   8.1159521162e+00    0.4848324    0.2960036 -21.58  0.002519948    1.902    0.474
       104  -8.5066    146.9045    193.1955   6.2268517698e+01   1.4499422046e+01    0.3053234     0.189735  10.91  0.001394737    2.368    0.578
       105  -8.6032    161.8769    191.6243   5.8831798387e+01   1.2235959399e+01     0.285701    0.1676696 -32.35  0.001424411    2.018    0.505
       106  -8.7182    205.9378    190.8727   5.0019345797e+01   5.0373325507e+00    0.3602089    0.1538047 -24.27  0.001483138    3.142    0.682
       107  -8.9525    172.5031    189.7490   5.6317324699e+01   1.0738619438e+01    0.4077034    0.2134898 -28.16  0.001860581    2.437    0.590
       108  -7.9817    155.0186    188.7671   5.9805841493e+01   1.3888107119e+01    0.1873894    0.1374028 -18.57 0.0007637308    1.647    0.393
       109  -8.7361    166.7745    184.6070   5.6607067849e+01   1.2565961121e+01     0.422617    0.1722678 -36.40  0.001705612    2.937    0.659
       110  -8.4571    189.9335    184.4537   5.1897450940e+01   8.6119560651e+00    0.2452399    0.1703938 -12.62   0.00124159    1.576    0.366
       111  -7.2139    224.6932    184.3324   4.5482335804e+01   2.9770140386e+00    0.1059932    0.1020602 -64.06 0.0007039817    1.665    0.399
       112  -9.4714    210.9345    181.9113   4.7471487801e+01   5.4951397556e+00    0.4531439    0.2469887 -31.97  0.002356504    1.849    0.459
       113  -8.7592    211.4924    175.5578   4.6172361523e+01   6.3124391788e+00    0.2824363    0.1823958 -28.83  0.001470019    1.526    0.345
       114  -9.5709    201.5414    182.1948   4.9260097965e+01   7.0014359207e+00    0.4773775    0.2962691  13.95  0.002450993    1.798    0.444
       115  -9.3156    182.6764    182.0534   5.2894842292e+01   1.0226841111e+01     0.375991    0.2278355 -34.82  0.001762502    1.764    0.433
       116  -8.2319    177.4480    183.3463   5.4183027352e+01   1.0923139317e+01    0.2359852    0.1258685 -33.33   0.00111528    2.089    0.521
       117  -8.4105    179.3549    189.9093   5.4959789083e+01   9.5541604571e+00    0.2958886    0.1823002 -17.99  0.001473105    2.048    0.512
       118  -7.6875    162.4711    183.5095   5.7320789144e+01   1.3500626646e+01     0.136885    0.1178951  21.87 0.0001027253    1.038    0.037
       119  -7.7613    154.3027    182.3311   5.8867679619e+01   1.5134024608e+01    0.1373957    0.1011889   3.12 0.0004944119    1.653    0.395
       120  -8.4033    219.4173    179.4211   4.5487701023e+01   4.4732741023e+00    0.2156349    0.1940621  10.27  0.001443426    1.211    0.174
       121  -8.7543    190.3812    177.5837   5.0541787511e+01   9.5984891575e+00    0.4041625     0.263762 -30.93  0.001740809    1.592    0.372
       122  -8.3439    193.0000    172.4265   4.9049329229e+01   9.9502671914e+00    0.3196593    0.1751972 -38.02   0.00152667    1.912    0.477
       123  -8.5509    176.3774    177.6850   5.3369527144e+01   1.2035275409e+01      0.34462    0.2073229  -2.24  0.001454552    2.724    0.633
       124  -8.6131    169.9887    177.4630   5.4653012252e+01   1.3205113132e+01    0.3341852    0.1847057 -25.82  0.001481719    2.360    0.576
       125  -8.5475    231.9166    177.1330   4.2907576039e+01   2.8125597500e+00    0.2284978    0.2004729  35.66  0.001067015    1.424    0.298
       126  -8.0804    163.8229    177.1253   5.5894712671e+01   1.4361724122e+01    0.1880653    0.1529252   1.67   0.00106026    1.303    0.232
       127  -8.6756    219.2844    174.3894   4.4555260554e+01   5.1951318492e+00    0.1978027    0.1509888 -46.04  0.001156533    1.738    0.425
       128  -7.5475    158.3745    173.8159   5.6465459289e+01   1.5924133709e+01     0.186649    0.1274392 -30.14 0.0009427844    1.661    0.398
       129  -8.0223    187.5516    171.9752   5.0034078406e+01   1.0985252681e+01    0.1969857    0.1293741 -35.51  0.001027685    1.592    0.372
       130  -8.6596    182.8982    174.7374   5.1492140726e+01   1.1364358113e+01    0.3189453    0.1668088 -35.71  0.001492598    2.035    0.509
       131  -7.9682    238.5454    170.7928   4.0602693259e+01   2.6220764009e+00     0.163707    0.1063584 -37.27  0.000937455    1.674    0.403
       132  -9.0113    206.3697    169.4222   4.5924548988e+01   8.0833846765e+00    0.4082913    0.1603991 -34.85  0.001713376    2.577    0.612
       133  -8.0421    201.1660    171.2430   4.7253560324e+01   8.7074929652e+00    0.2298577    0.1308639   4.50 0.0009480795    2.793    0.642
       134  -8.2304    177.0037    170.6936   5.1923655860e+01   1.3090290483e+01    0.2365933    0.1791963 -52.79   0.00127215    1.666    0.400
       135  -8.2731    247.1685    169.8962   3.9055606647e+01   1.4266390289e+00    0.1734252    0.1566121 -12.04  0.001161134    1.320    0.243
       136  -8.0502    197.5299    168.7227   4.7453409441e+01   9.7326529431e+00    0.2505114     0.124398 -29.91  0.001124641    2.156    0.536
       137  -7.9261    186.3463    167.8079   4.9464599551e+01   1.1877966949e+01    0.1924653     0.119749 -24.94 0.0007756598    1.767    0.434
       138  -8.1720    170.3266    167.8454   5.2770764431e+01   1.4798178044e+01    0.1946956    0.1232012 -29.44 0.0005826538    1.762    0.432
       139  -8.6849    191.5270    165.6482   4.8011025829e+01   1.1292438307e+01    0.3204513    0.2033209  -9.85  0.001519072    2.002    0.501
       140  -8.5219    212.2852    163.8731   4.3742383199e+01   7.8914926071e+00    0.2484448      0.16438 -13.02   0.00107186    1.585    0.369
       141  -7.7887    159.9761    163.5239   5.4167192744e+01   1.7495423649e+01    0.1951563    0.1161635  18.71 0.0008054159    2.296    0.564
       142  -8.2948    207.3557    161.0613   4.4075095651e+01   9.1785175106e+00    0.2984178    0.1503712 -24.54   0.00131794    2.231    0.552
       143  -8.1467    203.8144    161.1638   4.4753373030e+01   9.7927885861e+00    0.2945834   0.09255758 -42.05  0.001036908    3.512    0.715
       144  -8.1281    182.9799    161.9693   4.8982838023e+01   1.3464915875e+01    0.2208381    0.1580951   1.76 0.0007539997    1.627    0.385
       145  -7.6642    171.7156    162.6435   5.1456234614e+01   1.5451269581e+01    0.1442382    0.1043269   0.37 0.0007019828    1.670    0.401
       146  -7.9467    196.4110    158.2428   4.5562737440e+01   1.1596321921e+01    0.1822586    0.1267791 -43.26  0.000785269    1.605    0.377
       147  -7.7715    183.5580    157.7520   4.8006955021e+01   1.4070457530e+01    0.1858281    0.1327313 -47.55 0.0009469187    1.627    0.385
       148  -7.6283    167.6297    158.2175   5.1440747636e+01   1.7013067499e+01    0.1950252    0.1308078 -29.30 0.0009039445    1.631    0.387
       149  -8.1434    227.2970    157.0272   3.9737479507e+01   6.3206443753e+00     0.233528    0.1462758 -31.17  0.001267997    1.503    0.335
       150  -8.7120    228.3802    152.8363   3.8697315963e+01   6.7344154532e+00    0.2665654    0.1098978 -26.64  0.001041004    2.550    0.608
       151  -8.2903    204.4967    155.7897   4.3523495418e+01   1.0507638918e+01    0.2452178     0.126124 -29.55  0.001109505    1.988    0.497
       152  -7.9184    176.0000    156.0463   4.9215117891e+01   1.5800082795e+01    0.2206787   0.07977775 -40.76 0.0007941261    2.885    0.653
       153  -7.5962    195.2844    154.6456   4.5035063078e+01   1.2387894646e+01    0.1286745    0.1118115 -72.71 0.0003951007    1.665    0.399
       154  -8.4696    188.0000    153.5646   4.6241636580e+01   1.3938453941e+01    0.3061365   0.07777377 -39.19 0.0009450176    4.018    0.751
       155  -9.7792    225.6202    148.1655   3.8187430214e+01   7.8855494064e+00    0.4465791    0.1964503 -20.07  0.001696196    3.143    0.682
       156  -7.2703    179.3434    153.3214   4.7951330157e+01   1.5635651273e+01    0.1496288    0.1052633   7.29 0.0007050116    1.727    0.421
       157  -8.1269    137.4902    151.9961   5.7073373174e+01   2.3999341540e+01    0.1996714    0.1247577 -22.38  0.000699923    2.416    0.586
       158  -7.9762    175.6561    151.1655   4.8266602547e+01   1.6729021094e+01    0.2010143    0.1281869 -27.76 0.0009373695    1.715    0.417
       159  -8.5991    170.5001    150.1832   4.9154738174e+01   1.7913333037e+01    0.3381777    0.1942518  -1.75  0.001078445    4.227    0.763
       160 -10.0868    234.1665    146.9415   3.6526161223e+01   6.5859326819e+00    0.3647399     0.228424 -26.63  0.001497212    1.443    0.307
       161  -8.9911    231.0255    142.3316   3.6063036283e+01   7.7856133350e+00    0.2684458    0.1796349 -27.13  0.001045728    1.352    0.260
       162 -12.1480    217.4306    139.1521   3.7652186087e+01   1.0707950640e+01     1.168655    0.9019869   1.19  0.006602252    1.301    0.232
       163 -10.2176    219.9546    114.2840   3.1601468943e+01   1.4043345607e+01    0.8332722    0.5102467   4.64   0.00355945    2.523    0.604
       164 -11.4214    242.8315    137.8159   3.3255933502e+01   6.3905726078e+00     1.164123    0.4863203 -33.16  0.005310613    2.115    0.527
       165 -11.2523    231.9902    112.7229   2.9370289002e+01   1.1930321483e+01     1.130616    0.5854031 -24.60  0.004987712    1.922    0.480
       166 -11.8361    246.9232     86.0824   2.1215387156e+01   1.2836650275e+01     1.246938    0.6119704 -33.61  0.005424574    1.718    0.418
       167 -10.7992    231.2608    131.0925   3.3599845648e+01   9.3747184266e+00    0.9062099    0.5426973 -13.10  0.004404255    1.898    0.473
       168  -9.7971    240.4611    117.1844   2.9130410083e+01   9.7061250998e+00    0.5768077    0.3426751 -13.16  0.002524662    1.922    0.480
       169  -9.6049    242.7169     91.6415   2.3021150936e+01   1.2881708767e+01    0.4028792    0.2852523  24.31  0.001543147    1.748    0.428
       170 -11.1075    248.7094    127.3770   3.0169691471e+01   6.8294231241e+00     1.276228    0.3026766 -33.68  0.004470991    3.543    0.718
       171 -11.1012    248.6669    114.1029   2.7294556598e+01   8.6624016682e+00     1.173568    0.3809809 -26.88  0.004269466    3.261    0.693
       172 -10.1333    242.4137     98.0736   2.4539940010e+01   1.2042452341e+01    0.5333272    0.3437625 -18.77  0.002145967    1.552    0.356
       173 -10.9462    243.4332    105.9573   2.6195268275e+01   1.0745346872e+01    0.9808173    0.5699153   3.20  0.004197627    2.870    0.652
       174 -10.0566    249.3019     96.1991   2.3222232133e+01   1.1008457895e+01    0.5651568    0.2508895 -31.11  0.002603891    1.927    0.481
       175  -7.8215    191.7859    147.9507   4.4298210093e+01   1.4157756941e+01    0.1813775    0.1098886 -34.28 0.0005199186    1.651    0.394
       176 -10.6137    240.0485    125.0533   3.0928105182e+01   8.6636206572e+00    0.5984593    0.4762419   0.55  0.002179288    1.229    0.186
       177  -7.5328    186.6238    146.2026   4.4945847460e+01   1.5455247371e+01     0.198904    0.1290546 -25.87 0.0009463762    1.631    0.387
       178  -8.9744    200.9260    144.1789   4.1724601757e+01   1.3026585919e+01    0.2633478    0.1839111  20.94   0.00133923    1.529    0.346
       179  -8.0153    195.3090    143.4487   4.2634892913e+01   1.4228583302e+01    0.2403321    0.1233564 -36.59  0.001022329    1.930    0.482
       180  -7.7962    190.2797    143.3540   4.3595724707e+01   1.5225830332e+01    0.1465656    0.1049882   1.13 0.0005657122    1.654    0.395
       181  -8.3430    159.4779    141.0223   4.9600262029e+01   2.1827630480e+01    0.2226496    0.1453406 -40.17  0.001030367    1.587    0.370
       182  -8.7713    203.4752    140.4588   4.0434161466e+01   1.3140462730e+01    0.1907854    0.1330581  50.93 0.0006588958    1.608    0.378
       183  -8.2293    235.4857    138.5157   3.4538192708e+01   7.5537913606e+00    0.2641102    0.1155133 -31.55  0.001182685    2.071    0.517
       184  -9.7452    210.6089    136.2161   3.8200415487e+01   1.2449098465e+01     0.537128    0.2714145 -18.10  0.002101702    2.750    0.636
       185  -9.7269    200.1692    134.1252   3.9634511873e+01   1.4820003406e+01    0.4970265    0.1881928 -36.04  0.001877589    2.571    0.611
       186  -7.7896    172.3728    135.7914   4.5584235914e+01   2.0170388135e+01    0.2100106     0.135282 -27.52 0.0009294162    1.703    0.413
       187  -7.7684    182.5944    133.7425   4.2979106943e+01   1.8436081530e+01    0.1981013    0.1352715 -45.50  0.000943061    1.573    0.364
       188  -7.5665    155.3080    134.6894   4.9130752878e+01   2.3913322798e+01     0.146009    0.1205366  86.61 0.0004145494    1.619    0.382
       189  -7.6499    164.4986    133.5402   4.6784471007e+01   2.2223973520e+01    0.1487966    0.1394895  14.95 0.0001033124    1.018    0.018
       190  -7.7922    178.4013    130.8186   4.3165261262e+01   1.9826102521e+01    0.2092642    0.1353269 -23.91 0.0008760277    1.736    0.424
       191  -8.5548    205.9268    129.9699   3.7632196298e+01   1.4357863946e+01    0.2179569    0.1984173  -4.95 0.0007552704    1.009    0.008
       192  -8.6721    212.4146    128.3515   3.6114168280e+01   1.3340553565e+01    0.2891558    0.2168272 -23.47  0.001229415    1.255    0.203
       193  -8.7121    191.9877    128.7103   3.9947387895e+01   1.7381272515e+01    0.2729093    0.1972392  -4.82  0.001320853    1.636    0.389
       194  -8.4026    173.4976    128.4876   4.3648736496e+01   2.1279713747e+01    0.2678612    0.1399042 -27.58  0.001032658    2.330    0.571
       195  -8.7165    187.5403    135.9740   4.2491835096e+01   1.7037474464e+01    0.2923891    0.1327306 -29.35 0.0008285244    2.556    0.609
       196  -8.0721    165.0000    127.0146   4.5143347800e+01   2.3358569834e+01    0.2464488   0.08483597 -40.72 0.0008034456    2.949    0.661
       197  -9.4642    206.3498    123.3855   3.6036844186e+01   1.5338250002e+01    0.3856067    0.2127644 -11.54  0.001468212    2.864    0.651
       198  -8.7380    181.6904    124.6280   4.1027403635e+01   2.0244882353e+01    0.2775646    0.1751339 -25.26  0.001238091    1.740    0.425
       199  -8.3035    176.5000    123.4831   4.1821874000e+01   2.1557096550e+01     0.256142     0.140938 -26.64  0.001022398    2.143    0.533
       200  -9.3197     45.2799    123.8726   7.7823765184e+01   4.5358984773e+01    0.2279031    0.2012121  55.23 0.0003249607    1.142    0.124
       201  -9.3724    212.4100    121.5120   3.4542121068e+01   1.4421172327e+01    0.3939373    0.2506083 -21.56   0.00129467    1.615    0.381
       202  -8.5937    187.8944    122.3921   3.9252341316e+01   1.9325075294e+01    0.2897173    0.2091439 -25.52  0.001427804    1.404    0.288
       203  -9.0477    195.0590    120.5673   3.7437568790e+01   1.8129310158e+01    0.3411028    0.2037485 -38.59  0.001565165    1.633    0.388
       204  -8.9583    202.3066    119.9884   3.5962616856e+01   1.6717893702e+01    0.3487108    0.1756777 -36.29  0.001330287    1.890    0.471
       205  -8.4457    181.5668    119.3163   3.9768835976e+01   2.1218676417e+01    0.2756706    0.1386562 -40.97 0.0009092849    1.981    0.495
       206  -7.7025    177.4691    117.4762   4.0153950294e+01   2.2438157978e+01    0.1491386    0.1406157   2.78 9.033506e-05    1.024    0.023
       207  -8.1777    199.5443    115.9263   3.5491149687e+01   1.7964911406e+01    0.2037652    0.1225191  -9.04 0.0008072414    2.459    0.593
       208  -9.9627    209.8525    112.0055   3.2733498004e+01   1.6449994711e+01    0.5172887     0.349371 -16.42  0.001768746    1.610    0.379
       209  -8.6322    203.4875    114.3600   3.4404775071e+01   1.7395198536e+01    0.2846129    0.2215335 -10.16  0.001224105    1.353    0.261
       210  -8.6997    183.6922    114.6310   3.8188605350e+01   2.1588651477e+01    0.2690507    0.2281487   3.07  0.001409298    1.254    0.203
       211  -8.9221    193.1672    112.4217   3.5813006490e+01   1.9913310957e+01    0.3923786      0.26857  13.28  0.001765992    1.943    0.485
       212  -8.4465    176.1532    111.5051   3.8929976596e+01   2.3809489063e+01    0.3117836    0.1990434 -17.44  0.001309679    2.001    0.500
       213  -9.5547    200.9846    109.3815   3.3636794126e+01   1.8741035275e+01    0.4458622    0.2373764 -28.64  0.001901298    1.910    0.477
       214  -9.2180    202.6263    103.4002   3.1867413269e+01   1.9365152305e+01    0.3481541    0.2801495 -40.62 0.0009510876    1.219    0.180
       215  -8.9570    217.1167    107.8484   3.0537014038e+01   1.5607075619e+01    0.2972444     0.256747   4.27 0.0009183632    1.178    0.151
       216  -9.6791    220.2514    102.4050   2.8737809331e+01   1.5798860764e+01    0.4511409    0.3310889  21.94  0.002056575    1.593    0.372
       217  -9.1981    225.5242     97.9403   2.6870703090e+01   1.5390421135e+01    0.3296096    0.2185336  -8.48  0.001013008    1.824    0.452
       218  -9.2901    190.0936    106.8028   3.4986661692e+01   2.1542191131e+01     0.484862    0.2702393 -22.42  0.001774918    2.159    0.537
       219  -9.2211    183.0878    107.3658   3.6478562360e+01   2.3001295930e+01    0.4097966     0.213542 -33.44  0.001677374    1.921    0.479
       220  -7.8701    162.4678    109.5174   4.1351642071e+01   2.7248117179e+01     0.152622    0.1460821   7.32 0.0002024088    1.032    0.031
       221  -8.2152    173.4997    107.0253   3.8330748336e+01   2.5218046050e+01    0.2365144    0.1471985 -35.10  0.001034258    1.601    0.375
       222  -8.1400    154.3840    106.7995   4.2476527527e+01   2.9601090786e+01     0.228427    0.1452761 -27.71 0.0009535034    1.796    0.443
       223  -9.3012    212.2369    103.1537   3.0192360140e+01   1.7350857751e+01    0.3610882    0.2811272  -6.69  0.001270074    1.389    0.280
       224 -10.3447    231.0992    100.8430   2.6747058207e+01   1.3842964832e+01    0.5631728    0.3978218  17.38  0.002250128    1.751    0.429
       225  -9.5279    235.1436     94.5633   2.4705191971e+01   1.3949867111e+01    0.4066388    0.2665015  23.99  0.001432466    1.999    0.500
       226  -8.7902    193.7388    100.7297   3.2766961926e+01   2.1759235338e+01    0.3070472    0.1878693 -41.93 0.0008861913    1.608    0.378
       227  -8.6009    187.7069    100.4925   3.3820160197e+01   2.3153793620e+01    0.2613305    0.1809691  -9.35  0.001167413    1.825    0.452
       228  -8.0064    174.5805    100.7921   3.6473214550e+01   2.6097407217e+01    0.2193947    0.1379215 -46.58  0.000950295    1.663    0.399
       229  -8.2925    167.8295     99.3275   3.7487610724e+01   2.7923578834e+01    0.3024503    0.1830879 -26.96  0.001255855    1.848    0.459
       230  -8.6302    208.7285     97.7937   2.9441585202e+01   1.8941389127e+01    0.3199234    0.1905399 -26.06  0.001461231    1.688    0.408
       231  -9.0199    215.1520     97.1871   2.8263248986e+01   1.7661033571e+01    0.2819304    0.2603838 -15.65 0.0008842071    1.032    0.031
       232  -8.8690    216.2000     92.8121   2.7021321982e+01   1.8107096063e+01    0.3074545    0.2092859 -22.82 0.0009548576    1.464    0.317
       233  -8.7394    218.2601     88.9851   2.5762866667e+01   1.8244523548e+01    0.4369813    0.1872408  39.19  0.001610054    3.159    0.683
       234  -8.7126    203.5089     97.5059   3.0236412466e+01   2.0123894162e+01    0.2661848    0.1849287 -22.20  0.001277031    1.478    0.324
       235  -8.4235    197.5849     96.7469   3.1060741092e+01   2.1558981751e+01    0.2923584    0.2003994  -9.40  0.001151855    1.816    0.449
       236  -9.0721    221.5283     94.9073   2.6731055736e+01   1.6666532327e+01    0.4539348    0.2587652 -11.33  0.001887598    2.473    0.596
       237  -9.7269    236.6321     88.0458   2.2972087868e+01   1.4579201905e+01    0.3802342    0.3307735 -43.38  0.001655404    1.120    0.107
       238 -10.0297    239.1642     84.0680   2.1709001833e+01   1.4630348765e+01    0.5010117     0.203981 -26.49  0.001865577    2.457    0.593
       239  -9.8022    235.3755     81.8083   2.1655429230e+01   1.5707962209e+01    0.4094845    0.2307792  20.72  0.001617589    3.345    0.701
       240  -8.9872    227.0899     92.1501   2.5253986728e+01   1.5923514513e+01    0.3042233    0.1926089  44.15  0.001113293    1.741    0.426
       241  -8.9040    231.0567     89.4261   2.4046915882e+01   1.5507098844e+01    0.2897078    0.2192334  -6.39 0.0008605501    1.467    0.318
       242  -8.2912    183.4749     94.9926   3.3176253332e+01   2.5062104730e+01    0.2321488    0.1443422 -33.18  0.001025938    1.579    0.367
       243  -8.2641    188.2816     92.1891   3.1533807455e+01   2.4426725433e+01    0.2863544    0.2236988   3.75  0.001257161    1.537    0.349
       244  -7.8843    164.3965     92.8389   3.6442869936e+01   2.9914683712e+01     0.222837    0.1464849 -23.74 0.0009486206    1.738    0.425
       245  -9.2053    209.3715     90.5785   2.7524390052e+01   1.9928703451e+01     0.377848    0.2532783 -12.03  0.001327032    1.786    0.440
       246  -8.2963    177.1501     92.0410   3.3605208521e+01   2.7045938160e+01    0.2518539    0.1747151  -3.29  0.001072975    1.995    0.499
       247  -8.8098    202.5889     90.2727   2.8543375280e+01   2.1481445858e+01    0.2012598    0.1346746 -21.57 0.0009409967    1.580    0.367
       248  -7.6577    158.3164     90.3634   3.7071518401e+01   3.1813528814e+01    0.1629485    0.1216594   9.77 0.0007040921    1.767    0.434
       249  -8.0778    183.3873     88.7668   3.1519492580e+01   2.6141191705e+01    0.2118812    0.1413286 -22.71 0.0009439573    1.639    0.390
       250  -7.8553    150.2340     87.9938   3.8225625056e+01   3.4184454983e+01    0.2106271    0.1296103 -38.05 0.0008800559    1.630    0.386
       251  -9.5936    226.5924     85.6158   2.3741334180e+01   1.6978222133e+01    0.3912975    0.2562825  -2.87  0.001838986    2.067    0.516
       252  -7.9781    214.3174     87.3296   2.5939731834e+01   1.9344733702e+01    0.1439123    0.1070154  12.09  0.000365369    1.683    0.406
       253  -8.0519    197.4137     87.2510   2.8621336777e+01   2.3135028951e+01    0.2066743    0.1280981 -43.06 0.0003817548    1.578    0.366
       254  -8.0472    164.5077     85.0137   3.4209797248e+01   3.1297001115e+01    0.2380602    0.1506814 -34.65  0.000811831    1.580    0.367
       255  -8.8187    206.0905     84.3075   2.6437650223e+01   2.1627740133e+01    0.3258288    0.2007022 -13.69  0.001240831    2.065    0.516
       256  -8.1332    186.0000     81.9790   2.9188387304e+01   2.6651314298e+01    0.2554561   0.08250697 -33.73 0.0001571471    3.002    0.667
       257  -8.9956    215.2752     78.6833   2.3611936678e+01   2.0426367509e+01    0.4100198    0.2055911  40.86  0.001699182    2.454    0.593
       258  -9.6201    232.3428     79.6237   2.1520854382e+01   1.6636258838e+01    0.2595825    0.1793304  13.03   0.00113951    1.998    0.499
       259  -8.8671    226.2855     79.6029   2.2312319098e+01   1.7908084727e+01    0.3170537    0.1874769  36.14  0.001470419    2.148    0.534
       260  -8.8911    219.6548     82.4754   2.3940427511e+01   1.8910950810e+01    0.2985201     0.202229  22.87  0.001029123    1.974    0.493
       261  -7.6192    194.3304     76.3389   2.6217195798e+01   2.5577760645e+01    0.1525511    0.1127047  17.46  0.000705184    1.739    0.425
       262  -9.9625    220.9592    128.0573   3.4595834483e+01   1.1739939938e+01    0.6763625    0.4596233  -7.53  0.003446918    1.652    0.395
       263  -7.6280    211.7689     74.8073   2.3123482057e+01   2.1780153977e+01    0.2339554    0.1431595  18.67 0.0009405977    2.718    0.632
       264  -7.8654    184.0000     74.9837   2.7600160349e+01   2.8263110479e+01    0.2540998    0.0828187 -33.04 0.0008089212    2.988    0.665
       265  -8.3894    194.2449     80.8699   2.7457075180e+01   2.4885309595e+01    0.2848049    0.1821538  29.27  0.001231899    2.045    0.511
       266 -10.4058    224.5104    121.5003   3.2533296483e+01   1.2056361042e+01    0.7026596    0.4433279  32.17   0.00354236    1.751    0.429
       267  -8.3374    201.0000     75.0080   2.4790910959e+01   2.4218372316e+01    0.2457958   0.07856845 -32.13 0.0008058479    2.966    0.663
       268  -8.3252    250.5196     64.5085   1.5847237128e+01   1.4994403965e+01    0.1284537    0.1096637 -37.01 3.285136e-05    1.014    0.013
       269  -8.4226    246.3855     31.7339   8.6537259937e+00   1.9827468300e+01    0.1712066    0.1117243 -20.89 0.0009457045    1.622    0.383
       270 -10.0541    186.5644    248.0731   6.2392397120e+01   5.1081562270e-01    0.2923419    0.1992118  42.50  0.001981165    1.531    0.347
       271 -10.1216    197.2101    247.1278   6.0382644179e+01  -8.2163578299e-01    0.3331778     0.157887  39.65  0.001919656    1.841    0.457
