#   1 NUMBER                 Running object number                                     
#   2 MAG_AUTO               Kron-like elliptical aperture magnitude                    [mag]
#   3 X_IMAGE                Object position along x                                    [pixel]
#   4 Y_IMAGE                Object position along y                                    [pixel]
#   5 X_WORLD                Barycenter position along world x axis                     [deg]
#   6 Y_WORLD                Barycenter position along world y axis                     [deg]
#   7 A_WORLD                Profile RMS along major axis (world units)                 [deg]
#   8 B_WORLD                Profile RMS along minor axis (world units)                 [deg]
#   9 THETA_WORLD            Position angle (CCW/world-x)                               [deg]
#  10 FWHM_WORLD             FWHM assuming a gaussian core                              [deg]
#  11 ELONGATION             A_IMAGE/B_IMAGE                                           
#  12 ELLIPTICITY            1 - B_IMAGE/A_IMAGE                                       
         1 -13.6771     37.0515     50.4018   8.7530311097e+01   6.3101747675e+01      1.94398    0.8873836 -38.73  0.009217323    1.949    0.487
         2 -12.4948     75.3415     35.4289   6.6317526981e+01   5.9729026373e+01     1.087018     0.536936  20.87  0.003909996    3.305    0.697
         3 -10.0831     33.1864      1.9032   6.7714619144e+01   7.0832679688e+01    0.2700897    0.1892482  37.21  0.001139494    1.481    0.325
         4  -9.8795     14.9584     14.0093   8.3493869158e+01   7.1533655994e+01    0.2232643    0.1525538 -26.27 0.0006324327    1.212    0.175
         5 -12.0018     13.4991      3.7929   7.9117384397e+01   7.3093964570e+01    0.5025678     0.485585  78.30  0.003760452    2.165    0.538
         6 -12.5015      8.3409      8.9162   8.4799501758e+01   7.2899485415e+01     0.411921    0.2217997  27.74  0.001496378    1.950    0.487
         7 -11.5140      9.9598     24.2211   9.0830635130e+01   7.0374399704e+01     1.011359    0.3221164  13.24   0.00384669    4.685    0.787
         8 -11.8432     20.1845     16.3089   8.1739987511e+01   7.0659189849e+01    0.6390923    0.3463068  -7.24  0.003447537    2.082    0.520
         9 -11.8470      9.9644     15.4890   8.7011725563e+01   7.1776563807e+01    0.2504125    0.1773991 -11.12 0.0004069165    1.120    0.107
        10 -11.0210     26.3170      2.5196   7.1435288058e+01   7.1717745011e+01    0.2745075    0.1801426  28.37 0.0009330037    1.389    0.280
        11 -10.7004     23.9260      8.0997   7.5653376496e+01   7.1350395111e+01    0.2160161    0.1544759  18.54 0.0004176053    1.249    0.200
        12 -11.8045     20.9245      4.2604   7.5218070322e+01   7.2193532979e+01     0.406466    0.1957198 -30.78  0.001543277    1.909    0.476
        13 -11.0976    108.4283     17.6155   4.9840428804e+01   5.4874596677e+01    0.3849812    0.2653577  18.83   0.00110253    1.637    0.389
        14  -9.0282     43.6027      8.4622   6.6421555032e+01   6.8553260478e+01    0.4420274    0.2127774 -34.59  0.002005487    2.265    0.559
        15 -11.2316     48.4658     15.7442   6.7919238445e+01   6.6946131504e+01    0.5238968    0.3402505  21.70  0.003121521    1.387    0.279
        16 -11.6209     40.1438     15.4968   7.1442359442e+01   6.8243083726e+01    0.3389811    0.2603736   6.79  0.001005107    1.051    0.049
        17 -10.0449     39.9555     11.0458   6.9333408850e+01   6.8815327706e+01    0.2107579      0.18155  23.42  0.000481676    1.313    0.238
        18 -10.1036     61.8355     15.3283   6.2468783988e+01   6.4727581982e+01    0.2823732    0.1775024  -8.34   0.00157536    1.667    0.400
        19 -11.4818    233.9780     13.0445   3.1906673673e+01   2.6100749393e+01    0.4000765    0.1498221 -32.76  0.001734067    2.633    0.620
        20  -9.7311    156.2148      6.7491   3.7984872681e+01   4.4515413981e+01    0.1881342    0.1605372 -83.20  0.001191269    1.129    0.114
        21 -10.9973    157.0830     11.6589   3.9280465490e+01   4.3858617513e+01    0.3100772    0.1775105 -37.66  0.001540477    1.853    0.460
        22 -11.4227     73.7808     15.4109   5.8392569109e+01   6.2477632501e+01    0.5033114    0.3986461  67.55  0.001725416    1.668    0.401
        23 -10.9388     75.6922     11.3168   5.5996862313e+01   6.2511416369e+01    0.3165279    0.2423583 -65.00  0.001633559    2.151    0.535
        24 -11.0727     79.0584     10.5018   5.4626779120e+01   6.1910925384e+01    0.2587569    0.1844618  37.48 0.0005208428    1.183    0.154
        25 -10.3015    118.0890     11.2235   4.5489729652e+01   5.3240295616e+01    0.3503168    0.1877233 -24.27  0.001749952    2.093    0.522
        26  -9.8944     96.5103     13.9927   5.1312211108e+01   5.7890438842e+01    0.2392674    0.2096504 -41.33  0.001515197    1.373    0.272
        27 -10.6465    100.1329     12.1156   4.9695226292e+01   5.7264560237e+01    0.2628043    0.1832848   4.96 0.0002952497    1.627    0.385
        28 -12.1456    128.7279     11.5405   4.3622131306e+01   5.0700196985e+01     0.392743    0.2816362 -88.58  0.002167604    1.589    0.371
        29 -12.1483      4.0768     17.5521   9.1327837814e+01   7.1924307443e+01    0.4410729    0.4078071 -32.40  0.002558372    1.495    0.331
        30 -10.9272    228.3407     12.0869   3.2131864459e+01   2.7390345477e+01    0.2722477    0.1321629  65.49 0.0009871402    2.010    0.503
        31  -9.8941    138.5276     11.5586   4.1980488739e+01   4.8351303564e+01    0.2198738    0.1057751 -39.27  0.001022481    2.270    0.560
        32  -9.5129     65.4004     11.8311   5.9593123420e+01   6.4446946211e+01    0.1630521    0.1058774  -1.48 0.0003691797    1.612    0.380
        33 -11.3175    164.2687      7.7869   3.7268589076e+01   4.2485037841e+01    0.4200077    0.2389724 -10.71   0.00087689    2.474    0.596
        34 -11.8606    146.0762      7.1171   3.9467577303e+01   4.6926193724e+01    0.4056518    0.2865986   4.09  0.001353943    1.865    0.464
        35 -10.9125    148.4772      1.8791   3.7575180023e+01   4.6786612889e+01    0.3601256    0.1684416  82.87   0.00159877    2.307    0.567
        36 -11.0901    191.2053      7.0571   3.4172091102e+01   3.6180064695e+01    0.3526037    0.3141687 -86.63  0.001553979    1.088    0.081
        37 -11.3119    194.6616      2.2343   3.2697622089e+01   3.5842503658e+01    0.3525449     0.213322 -89.83   0.00147097    1.498    0.333
        38  -9.2907    170.6382      8.6692   3.6752866637e+01   4.0876866641e+01    0.1346796    0.0855318  43.58  0.000282988    1.803    0.445
        39 -11.2404    230.8132      6.4312   3.0775669836e+01   2.7472197582e+01    0.2298395    0.1552187 -61.81 0.0003131482    1.231    0.188
        40 -12.2122     98.0780      4.6868   4.7287044188e+01   5.8354235551e+01      0.34056    0.2634994  14.97  0.001754983    1.347    0.258
        41 -10.1668     91.0441      7.4534   5.0074378165e+01   5.9667020329e+01    0.2905785    0.1426601  51.52  0.001452783    1.673    0.402
        42  -9.9017     93.4770      4.4839   4.8278832603e+01   5.9383183331e+01     0.195947    0.1289554  19.53 8.943934e-06    1.618    0.382
        43 -12.3796    179.1557      4.3599   3.4695496252e+01   3.9252591404e+01    0.3114251     0.220623 -83.34  0.000348859    1.300    0.231
        44 -10.3218     81.2895      5.2141   5.1714048227e+01   6.1920569668e+01    0.2369512    0.2095337 -81.08  0.001545131    1.549    0.355
        45 -10.7639    203.6106      3.1304   3.2140616592e+01   3.3724813402e+01    0.2856446    0.2130758 -15.03  0.001774695    1.811    0.448
        46 -12.1886    214.7892      7.5955   3.2227979618e+01   3.0792541994e+01    0.5774657    0.2411537  67.21  0.002862885    2.170    0.539
        47 -11.1696    243.1879      2.6760   2.9209005735e+01   2.5326107024e+01    0.1944519    0.1636468 -74.74 0.0003357979    1.144    0.126
        48  -9.8879     74.3637      2.6181   5.2547396888e+01   6.3549371635e+01    0.2635784    0.1739356 -45.27  0.001481197    2.136    0.532
        49 -11.7906     67.7817      3.7469   5.5074815676e+01   6.4754027156e+01    0.2233115    0.1718363  36.00 0.0003060164    1.080    0.074
        50 -10.6765    169.1252      2.3716   3.5239550100e+01   4.1805436406e+01     0.354938    0.1715705 -78.73  0.001554028    2.595    0.615
        51 -10.6430    126.5010      2.7227   4.1069977816e+01   5.1965083675e+01    0.2561328    0.2051514  20.47 0.0006451386    1.406    0.289
        52 -10.6014    230.7128      1.6762   2.9811207559e+01   2.7982620242e+01    0.1839223    0.1320818  74.23 0.0001461864    1.371    0.270
        53 -12.4748    212.9876      4.2419   3.1633866558e+01   3.1528096913e+01    0.7873053    0.2943518  88.51  0.003252953    3.124    0.680
        54 -10.7387    108.0604      1.6886   4.4032395847e+01   5.6335892786e+01    0.1890197    0.1533098  51.56 0.0007992176    1.031    0.030
        55  -9.0822     82.3054      1.3006   4.9763907783e+01   6.2022203214e+01    0.1312898   0.07609278  32.59 0.0002871225    1.593    0.372
        56  -9.3210    200.6690    176.3047   7.3596306583e+01   6.4925290884e+00    0.1324437    0.1160382 -88.48 0.0005008228    1.657    0.397
        57  -9.4179    247.6446    250.2834   7.8379118864e+01  -1.1690765762e+01   0.09617749   0.08457813  25.50 0.0005816545    1.665    0.399
        58 -12.3160    226.6724    245.1991   8.1250837142e+01  -8.4427157527e+00    0.6764116    0.3463936   1.64  0.003183597    2.759    0.638
        59 -11.3447    235.1190    248.9133   8.0340351314e+01  -9.9994444848e+00    0.3004048      0.17854 -15.16  0.001839663    1.591    0.371
        60 -11.9559    232.5416    245.4462   8.0235457122e+01  -9.2322768397e+00    0.5736762    0.1877102 -30.76  0.002499496    3.280    0.695
        61 -11.2550     88.9883    249.6372   1.0916264720e+02   1.0921323177e+01    0.2934311    0.2040664  36.24 0.0008028004    1.313    0.238
        62 -10.0283     72.5900    250.1220   1.1246346695e+02   1.3064833447e+01    0.1910675    0.1621293   5.40   0.00126627    1.687    0.407
        63 -13.0128     19.0404    237.3697   1.2182590876e+02   2.1892390309e+01     1.473159    0.3987192  58.70  0.005882071    3.798    0.737
        64 -11.7860      5.1144    235.7369   1.2429699180e+02   2.3590617968e+01    0.6133789    0.2737527  41.37  0.003566579    1.907    0.476
        65 -13.3633      5.8368    245.3039   1.2461874414e+02   2.1667000334e+01    0.9238532    0.5424257  39.68   0.00440585    1.613    0.380
        66 -12.6424     22.3131    249.0612   1.2188259582e+02   1.9284154988e+01    0.7315396    0.2105029  36.86  0.003526878    2.813    0.645
        67 -11.1697     17.4824    247.4832   1.2266432692e+02   2.0089372793e+01    0.2191145    0.1695529  87.99 0.0006885761    1.219    0.180
        68 -11.2121     34.2364    174.1460   1.1354344332e+02   3.4296905735e+01    0.2500668    0.1945479 -71.55 0.0003416732    1.168    0.144
        69 -10.8351     18.1554    173.2524   1.1739763850e+02   3.6067434686e+01    0.3588952    0.1856365  63.71  0.001789521    2.009    0.502
        70  -9.4554     74.5160    171.4725   1.0285471326e+02   2.9957515787e+01    0.1407503    0.1319767 -87.05 4.256765e-06    1.029    0.028
        71 -12.0618     36.1748    165.7305   1.1210626560e+02   3.6143030741e+01     0.685888    0.4245543  85.52  0.003503814    1.664    0.399
        72 -11.3188     40.1421    162.3953   1.1066313740e+02   3.6541635356e+01    0.4078071    0.2670744 -78.90  0.001307028    1.405    0.288
        73  -9.7288     36.6394    157.8232   1.1102259819e+02   3.8045174915e+01    0.2670942    0.1685718 -87.65 0.0004150634    1.576    0.366
        74 -12.0864     50.2074    161.7539   1.0789474009e+02   3.5557350767e+01    0.5830945    0.4054686  66.53  0.001268775    1.528    0.346
        75 -11.4185     44.9196    163.3426   1.0951871983e+02   3.5777651324e+01    0.3281653    0.2219157 -82.84 0.0008675757    1.413    0.292
        76 -10.0371     99.0830    164.9713   9.5268344630e+01   2.7717031725e+01    0.2193478    0.2097222  87.44 0.0003808703    1.020    0.020
        77 -10.4107     10.0684    162.8492   1.1844184203e+02   3.9234347528e+01    0.3168788     0.135974  39.47 0.0009799977    2.339    0.573
        78  -8.8979    200.3113    162.6599   7.0797659641e+01   9.1106048268e+00    0.1398561    0.1165709 -76.02 0.0007045577    1.694    0.410
        79 -12.5725     22.3665    156.7398   1.1469210251e+02   3.9686783543e+01    0.6433989    0.5545807 -28.95  0.004106567    1.448    0.309
        80  -9.5482    157.4956    155.0215   7.8415510276e+01   1.9044847077e+01    0.2299706    0.1295309 -24.47 0.0008102967    2.679    0.627
        81 -10.1606     11.4404    153.7362   1.1723995407e+02   4.1326003280e+01    0.2146658    0.1772794  34.12  0.001397841    1.418    0.295
        82  -9.9623    177.5422    150.9084   7.2948611506e+01   1.5864142286e+01    0.3003917     0.205964  61.00   0.00132212    1.902    0.474
        83  -9.0958      5.5236    149.9948   1.1842242976e+02   4.2668080756e+01    0.1749894    0.1020027 -77.03 7.926513e-05    1.395    0.283
        84  -9.5051    143.5465    148.4813   8.0317856356e+01   2.3304902029e+01     0.154975     0.149429 -11.84 0.0008083122    1.034    0.033
        85 -10.2778     33.0464    148.0907   1.1075230518e+02   4.0829415018e+01    0.1993457    0.1694935 -72.13 0.0004361622    1.038    0.037
        86 -10.3591     17.7417    147.0974   1.1486126940e+02   4.2449169945e+01    0.2622325    0.1754545  -3.18  0.001286729    2.143    0.533
        87 -10.2467    207.0623    146.3383   6.5902617231e+01   1.0910847345e+01     0.195637    0.1860394  20.06 0.0006825326    1.117    0.105
        88  -9.2681     41.0318    146.2357   1.0824085343e+02   4.0474101460e+01    0.1564362     0.116554  28.00 0.0002906836    1.527    0.345
        89  -9.6917    220.4704    143.9549   6.2916361355e+01   8.8083946737e+00    0.2152244    0.1266202 -38.99 0.0008550655    1.530    0.347
        90  -9.3433    216.3831    155.2003   6.6106100065e+01   7.5255628955e+00    0.1917891    0.1229057 -45.67 0.0004133464    1.560    0.359
        91  -9.6634     82.3941    139.8030   9.5070015316e+01   3.6639132145e+01    0.2152593    0.1297007 -47.95 0.0008701624    1.615    0.381
        92  -9.7862     55.7387    138.9762   1.0279741939e+02   4.0601816018e+01    0.3597474    0.1540359  42.45  0.001434987    2.498    0.600
        93 -10.9071      2.7727    137.2954   1.1792199960e+02   4.5925687010e+01    0.2992478    0.1384185 -76.61 0.0009323316    1.775    0.437
        94 -10.2387      9.3219    136.9179   1.1605491396e+02   4.5582929899e+01    0.1869966    0.1309013 -73.05 0.0004022629    1.162    0.139
        95  -9.7089    123.1625    135.3930   8.2557551056e+01   3.0408632757e+01    0.2200456     0.145156  52.02 0.0005292444    1.662    0.398
        96  -9.7478     20.6834    135.2415   1.1259632527e+02   4.5137940060e+01    0.1970056   0.09421638 -62.49 0.0009351361    1.697    0.411
        97 -10.0550    249.3142    134.0035   5.6082325237e+01   5.3810702164e+00    0.1951035    0.1487971 -34.10 0.0009178545    1.101    0.092
        98  -9.3581     48.9115    134.2895   1.0403618676e+02   4.2602111210e+01    0.2300941   0.07382933  47.40 0.0007018677    4.305    0.768
        99 -10.1489    128.0799    132.6814   8.0593788000e+01   3.0052697941e+01    0.2179674    0.2029101  30.59  0.000436889    1.094    0.086
       100 -10.5166    111.9082    132.0325   8.4857300978e+01   3.3392078312e+01     0.341056    0.2310816 -58.10  0.001501793    1.541    0.351
       101 -10.5583     55.3139    132.9179   1.0184667954e+02   4.2180002390e+01     0.329786    0.1702211  40.65  0.001154385    2.071    0.517
       102 -11.3550     73.9810    129.6469   9.5490587070e+01   4.0455970000e+01    0.3383398    0.2990232  69.74  0.001181503    1.235    0.190
       103 -11.4357     37.0460    130.0656   1.0694760292e+02   4.4944268819e+01    0.4258385    0.3120043 -15.99  0.002283225    1.745    0.427
       104 -10.1721     38.3045    126.6244   1.0599174468e+02   4.5677978409e+01    0.2813441    0.1904947  64.97  0.001422388    1.786    0.440
       105  -9.1743     29.6554    129.7095   1.0914843803e+02   4.5740070390e+01    0.1378015   0.09003594 -39.03 0.0006331516    1.656    0.396
       106 -10.4025     24.2231    126.0134   1.1025872825e+02   4.7133573126e+01    0.1928851    0.1847128 -71.24 0.0004096717    1.133    0.117
       107 -11.7075     13.0490    124.7551   1.1349531924e+02   4.8303240721e+01    0.6536941    0.3125378  43.27  0.002389524    2.396    0.583
       108 -11.2899     21.8692    121.2126   1.1027497997e+02   4.8513467976e+01    0.3215165    0.2192322 -24.89            0    1.776    0.437
       109  -9.7264    220.3615    124.2433   5.8523770237e+01   1.2380119514e+01    0.2053536    0.1189853 -45.16 0.0006831279    1.608    0.378
       110 -10.7250      3.1239    122.9287   1.1625485800e+02   4.9387781564e+01    0.2417788    0.1999779  -0.55  0.001174179    1.527    0.345
       111  -9.9730      1.3984    119.0170   1.1631288079e+02   5.0432149472e+01    0.1887219   0.09983779 -74.07 0.0003315806    1.535    0.349
       112  -9.3927     32.2384    121.6420   1.0706620151e+02   4.7510067965e+01     0.163297    0.1273665  -3.84 0.0002524525    1.573    0.364
       113 -10.4005     72.3607    117.4018   9.3308508240e+01   4.3719829353e+01    0.3818443    0.1407602 -60.25   0.00126705    2.932    0.659
       114 -10.1320     86.0054    116.6661   8.8824389618e+01   4.1739428357e+01    0.2046747    0.1977856   6.69 0.0005180807    1.076    0.070
       115  -9.9120    213.9819    115.6607   5.7625375447e+01   1.5203506180e+01    0.1897084    0.1802044  45.29   0.00047561    1.157    0.136
       116 -10.6606     16.2280    115.8743   1.1126400550e+02   5.0252952995e+01    0.2152417    0.1855557 -16.97 0.0005785208    1.352    0.260
       117 -11.1345    249.3535    112.1412   5.1438490161e+01   8.9797810154e+00      0.25928    0.2018291 -44.99 0.0004769694    1.115    0.103
       118  -9.9455     94.9922    112.4797   8.4995866194e+01   4.1172057284e+01    0.2468065    0.2026522 -49.10 0.0009036363    1.175    0.149
       119  -9.9640     42.9135    111.5052   1.0171212789e+02   4.8945836189e+01    0.3270521    0.1674602 -36.30  0.001394805    2.241    0.554
       120 -11.5031     55.1815    110.0736   9.7284549744e+01   4.7867581030e+01    0.3898593    0.2513929 -45.12 0.0007782376    1.435    0.303
       121 -11.4212     36.4287    109.7609   1.0355244198e+02   5.0039753974e+01    0.3651915    0.2768197  83.62 0.0009508508    1.571    0.363
       122 -10.2704      5.6659    106.6519   1.1334588226e+02   5.3167988125e+01    0.2535249    0.1305419 -36.73   0.00115819    2.054    0.513
       123 -10.6428      1.3289    108.8544   1.1506177403e+02   5.2878524014e+01    0.3823501    0.1955463 -89.85  0.001634845    2.151    0.535
       124 -10.0731      2.4776    105.4919   1.1423242645e+02   5.3621234387e+01    0.1869034    0.1710259  51.22 7.704958e-05    1.316    0.240
       125 -12.2730     14.5617    108.5733   1.1069045742e+02   5.2146328350e+01    0.4233306    0.3507009 -19.83  0.001485481    1.372    0.271
       126  -9.2226     83.0000    108.9703   8.7853998957e+01   4.4074867919e+01    0.2544842   0.08185906 -52.13 0.0008033683    2.949    0.661
       127 -11.4992     25.3543    103.6071   1.0617336358e+02   5.2534674911e+01    0.7761616    0.2309817 -65.70  0.002448808    2.974    0.664
       128 -10.0812     51.0061    104.7821   9.7516985577e+01   4.9661353659e+01    0.3992107    0.2124267 -22.01  0.001508642    3.077    0.675
       129 -10.6799    243.8342    104.8520   5.0622569025e+01   1.1187323061e+01    0.1976274    0.1688804 -25.41 0.0005018177    1.196    0.164
       130  -9.1723    186.4741    104.4170   5.9864259716e+01   2.3201616558e+01    0.1483446    0.1416958 -56.41 9.925816e-05    1.030    0.029
       131 -10.3618    119.6458    101.6740   7.4806482195e+01   3.8771871901e+01    0.5238608    0.1932618 -38.28  0.001641667    3.026    0.670
       132  -9.6745     88.0149    104.0383   8.4959937311e+01   4.4373811515e+01    0.1812474    0.1696674 -34.83 0.0004432954    1.012    0.012
       133 -10.0758     31.6464    103.5967   1.0398556938e+02   5.1990842099e+01    0.2656039    0.1768154 -83.98  0.001347545    1.764    0.433
       134 -10.2518     36.1959    102.4740   1.0216836420e+02   5.1831013322e+01    0.3465269    0.1818777  31.83  0.001647547    2.111    0.526
       135 -11.1774    143.5044     98.4955   6.7645111850e+01   3.4184728451e+01    0.4525725     0.376173 -68.81  0.001705142    1.389    0.280
       136  -9.5425    139.9945     98.2368   6.8441894088e+01   3.5032981667e+01    0.3845533    0.2516819  24.86  0.001123918    2.037    0.509
       137 -10.8668     61.9839     98.9635   9.2313220152e+01   4.9630525998e+01    0.3135897    0.2755429 -26.06 0.0009305091    1.111    0.100
       138 -10.3401     50.5005     99.2027   9.6396368570e+01   5.1055348620e+01    0.2161061    0.1922487  14.26 0.0002860444    1.225    0.184
       139 -11.4951     14.7016     97.9730   1.0887820584e+02   5.4681452685e+01    0.4762453    0.1985241 -65.33  0.002071054    1.963    0.491
       140 -10.9309     11.0767     90.7703   1.0888903430e+02   5.6613761058e+01    0.3553048    0.2628911  22.20  0.001043764    1.609    0.379
       141 -11.2073      2.2128     96.7683   1.1305256038e+02   5.5703502726e+01    0.3502124    0.2038627  77.45  0.001089054    2.240    0.554
       142 -10.8553     39.6740     96.2502   9.9576690160e+01   5.2966158940e+01    0.4158971     0.213869  42.24  0.001295166    2.351    0.575
       143  -9.7385    250.1335     95.8674   4.7859713024e+01   1.1459209868e+01    0.1985176    0.1530871 -55.53  0.000529528    1.209    0.173
       144 -10.3834    153.5949     96.2497   6.4622115953e+01   3.2314774565e+01    0.2099238     0.147886 -29.27 0.0003762586    1.535    0.349
       145 -10.7031     66.7923     98.1871   9.0450299038e+01   4.9130407730e+01    0.2561453    0.2234046 -21.10 0.0004025364    1.145    0.127
       146 -11.0858     20.9867     93.0335   1.0569313956e+02   5.5401499464e+01    0.6202444   0.05254123 -53.05  0.001865319    4.360    0.771
       147 -11.7420     26.3466     91.7176   1.0345079184e+02   5.5283201313e+01     0.683303    0.2877044 -72.64    0.0026327    3.005    0.667
       148 -10.9956     22.2153     87.1042   1.0400980677e+02   5.6692117353e+01    0.2695332    0.2278153 -27.18 0.0008615461    1.176    0.149
       149 -12.8610    158.0835     90.1659   6.1920777871e+01   3.2436537116e+01    0.8566406    0.6763049  50.65  0.003368294    1.275    0.216
       150 -12.3779    165.6207     83.6037   5.8493847086e+01   3.1863637685e+01     1.018007    0.7003922  70.08  0.004379558    1.690    0.408
       151  -9.8867    134.5954     93.2429   6.8386365264e+01   3.7260521968e+01    0.2212078    0.1474754 -30.08 0.0007369272    1.639    0.390
       152  -9.6676    108.8155     92.3279   7.5228018875e+01   4.3015094606e+01    0.3005375     0.115177 -46.15  0.001012539    2.616    0.618
       153  -9.8985     58.3180     93.3172   9.2146249779e+01   5.1440864888e+01    0.1491408    0.1008794 -25.04  0.000296289    1.656    0.396
       154  -9.6281     31.4583     93.0228   1.0184857076e+02   5.4528929072e+01     0.198224    0.1165705 -60.79 0.0004022162    1.498    0.332
       155  -9.5232     46.5472     92.5546   9.6203449571e+01   5.3081581061e+01    0.1369279    0.1233068 -46.80 5.885145e-05    1.054    0.051
       156  -9.8264     37.4539     90.9154   9.9154479681e+01   5.4445479117e+01    0.4131219    0.1780513 -30.02    0.0014828    3.455    0.711
       157 -10.3321     58.2383     89.8615   9.1255621781e+01   5.2242513877e+01    0.3604076    0.2027893  28.38  0.001658144    1.928    0.481
       158 -10.4789     96.4692     89.4918   7.8150770721e+01   4.6059124626e+01    0.3094336    0.1481177  40.53  0.001008345    2.133    0.531
       159 -10.0534     82.9450     88.8762   8.2356279752e+01   4.8655901673e+01    0.2257167     0.186838 -15.15 0.0005378198    1.262    0.207
       160 -10.6698     78.5837     88.0333   8.3580096243e+01   4.9580649364e+01    0.3449113    0.2350308 -52.50  0.001384943    1.490    0.329
       161  -9.9536     65.0138     87.4987   8.8165721779e+01   5.1823612795e+01     0.216261    0.1771554  47.73  0.001162663    1.429    0.300
       162 -10.4483     67.7960     84.0432   8.6173392445e+01   5.2170502628e+01    0.4051494    0.2311525 -16.49  0.001535482    2.895    0.655
       163 -10.9246     45.9455     87.1211   9.5050868907e+01   5.4402349192e+01    0.4249266    0.2586606 -61.92  0.001912073    1.678    0.404
       164  -9.9290     42.7740     82.7647   9.5109020051e+01   5.5747606270e+01    0.2758286    0.1441871  40.52  0.001259778    2.290    0.563
       165  -9.3368    139.3116     87.7019   6.5592788534e+01   3.7276470632e+01     0.153281    0.1227293 -82.01 0.0007011869    1.601    0.375
       166  -9.3193    120.7032     87.3104   7.0334722924e+01   4.1532107800e+01    0.1506451    0.1234169 -82.73 0.0005121714    1.596    0.373
       167 -12.1103      5.6309     83.7027   1.0961706379e+02   5.8565137076e+01    0.5656537    0.5122015 -83.76   0.00393987    1.246    0.198
       168 -10.3076     47.7885     56.5386   8.5086675651e+01   6.0625379802e+01    0.2659885    0.1879056   2.24  0.001461015    1.493    0.330
       169 -11.5229     43.1013     37.8650   8.0072501615e+01   6.4566836806e+01     0.580291    0.3150038  48.14  0.002688563    2.890    0.654
       170 -12.9880     11.9061     75.3972   1.0548620901e+02   6.0082991822e+01    0.9811592    0.4772291  26.50  0.004266309    2.361    0.576
       171 -11.5804     20.0330     61.9383   9.8721764925e+01   6.2434634352e+01    0.5134137    0.3191206 -63.02  0.001771192    1.669    0.401
       172 -12.1146     36.9094    243.9277   1.1887685300e+02   1.8663174216e+01    0.6450052    0.3062826 -89.55  0.002972036    2.225    0.551
       173 -11.9850     35.7679     42.3773   8.5153258140e+01   6.4713869114e+01    0.7635773    0.3401956  14.00  0.003103396    3.299    0.697
       174 -11.3239     26.7586     56.1139   9.4022484516e+01   6.3055427298e+01     0.349565    0.2158007 -43.69 0.0004126669    1.352    0.260
       175 -12.1019     26.8134     49.6580   9.1887990437e+01   6.4319957673e+01    0.5304415    0.3428816 -53.11  0.002097067    1.563    0.360
       176 -13.7105     16.2296     67.7515   1.0189987603e+02   6.1478529666e+01    0.5058302    0.3861637 -71.42 0.0007583303    1.460    0.315
       177 -12.9787      4.5236     65.1806   1.0625161890e+02   6.2757846361e+01    0.6416878    0.4194122  87.80  0.003531204    2.219    0.549
       178 -12.2549      5.1861     58.8893   1.0446069396e+02   6.4066268920e+01      0.35801    0.2885027  66.52 0.0003179874    1.785    0.440
       179 -10.2087    114.6017     83.8960   7.1010594477e+01   4.3529085791e+01    0.3345096    0.1999708  51.77  0.001415823    1.788    0.441
       180  -9.2790     56.4293     83.5899   9.0184681501e+01   5.3892200849e+01    0.1387709    0.1240996 -30.44  7.29856e-05    1.009    0.009
       181 -11.1407     30.1036     81.9421   9.9795868770e+01   5.7211985470e+01    0.2926374    0.2361022  15.51  0.001149851    1.381    0.276
       182 -10.3076     35.4276     78.8417   9.6926205118e+01   5.7401298076e+01    0.3575872    0.2105118 -19.65  0.001720417    2.041    0.510
       183  -9.4223    146.5055     81.5185   6.2066505490e+01   3.6764630702e+01    0.1497754    0.1484186  36.41 0.0002070127    1.009    0.009
       184 -10.4526     86.3081     80.4142   7.8664791618e+01   4.9852002279e+01    0.2696439    0.2250373   1.01 0.0007948968    1.262    0.208
       185 -10.9868     22.1290     66.8671   9.9173101806e+01   6.1221684017e+01     0.247828    0.1931432  41.64 0.0003488811    1.649    0.393
       186 -11.4743     20.7276     80.6331   1.0315295019e+02   5.8290244189e+01    0.3667169    0.2600524  41.47  0.002124889    1.760    0.432
       187 -10.9870     60.9608     78.4361   8.6997236964e+01   5.4388322593e+01    0.3202824     0.230967 -59.34 0.0004040356    1.554    0.356
       188 -11.9807     62.4057     71.5429   8.4317831331e+01   5.5621269885e+01     0.363536    0.2622745 -19.48 0.0001718294    1.446    0.308
       189 -12.7224     44.5757     75.2323   9.2326943810e+01   5.7204118683e+01     0.323171    0.2737575  49.64 0.0005559502    1.497    0.332
       190 -10.1824     74.2960     75.3100   8.1178293448e+01   5.2984037862e+01    0.2495128    0.1967978 -19.56 0.0006174343    1.273    0.215
       191 -10.6325     75.9210     70.3358   7.8987212877e+01   5.3708721065e+01    0.5069481    0.3316065  18.07  0.002387893    1.787    0.440
       192 -10.3854     77.2574     64.2845   7.6472037148e+01   5.4639801152e+01    0.3856698    0.2618366 -44.55  0.001936422    1.508    0.337
       193 -10.7014    207.5663     73.3608   4.8497624674e+01   2.3824807401e+01    0.2270921    0.2228349 -51.51 0.0002918419    1.127    0.113
       194  -9.6593    145.6243     74.1965   6.0108064915e+01   3.8283732808e+01    0.2106566      0.14431 -25.00 0.0009449057    1.658    0.397
       195 -10.9511    100.8791     72.6727   7.1517180242e+01   4.8571088750e+01    0.3775952    0.3023712 -86.50  0.000771713    1.840    0.457
       196 -10.5138     93.9744     74.0206   7.4119099496e+01   4.9688571396e+01    0.1775205    0.1659684  -6.76 0.0003756577    1.009    0.009
       197 -10.5439     53.9843     74.0386   8.8305748006e+01   5.6285860249e+01    0.2536471    0.2221941  67.03 0.0004535255    1.548    0.354
       198 -11.6978     50.2947     68.5351   8.8043590073e+01   5.7917817901e+01    0.3833707    0.2703895 -21.78 0.0006325532    1.423    0.297
       199 -11.0163     51.5675     62.8325   8.5686766832e+01   5.8902716079e+01    0.3404676    0.2172788 -32.02  0.001028048    1.470    0.320
       200 -10.1984    129.1350     71.2730   6.3171222127e+01   4.2658420343e+01    0.3564656    0.2170971 -24.16 0.0006081198    1.977    0.494
       201  -9.3608    127.5145     66.5079   6.2076566262e+01   4.3857337560e+01    0.2073095    0.1438899  61.72 0.0006225539    1.570    0.363
       202  -9.7345    194.5309     70.0921   4.9659217446e+01   2.7321375747e+01    0.2089058    0.1362953 -35.03 0.0008074064    1.529    0.346
       203 -11.2818    155.7283     83.1316   6.0456351449e+01   3.4293078310e+01    0.8261801    0.4294217  31.55  0.002834003    3.063    0.674
       204  -9.2921    167.6836     69.7421   5.4218394179e+01   3.3748883640e+01    0.1435027    0.1124784  28.53 0.0002409877    1.537    0.349
       205 -10.1797    110.1682     69.0084   6.7560018915e+01   4.7298606359e+01    0.2135105    0.2022101  10.15 0.0003539531    1.010    0.010
       206 -10.2261     42.7890     68.4789   9.1040287368e+01   5.8848563000e+01    0.2455474    0.2367682  -7.53  0.001589366    1.198    0.165
       207 -10.9991     93.9674     66.3756   7.1582227557e+01   5.1129296059e+01    0.3867932     0.272721  11.51  0.001005449    1.744    0.427
       208 -10.0808     99.4947     65.4409   6.9538466238e+01   5.0184186375e+01    0.2919647    0.2217558 -17.68  0.001467707    1.418    0.295
       209  -9.3929    144.0004     64.2888   5.7485531620e+01   4.0343217480e+01    0.1972669     0.188186  56.81 0.0005650354    1.018    0.018
       210  -9.1837    222.7744     62.9889   4.3978716100e+01   2.2062066300e+01    0.1635282    0.1010678 -38.61 0.0008303079    1.498    0.332
       211 -10.6836    201.8501     62.2250   4.6574766577e+01   2.6845109824e+01    0.2337971    0.2009209 -63.05 0.0005409275    1.081    0.075
       212 -10.3553    108.6540     62.4746   6.5821925747e+01   4.8770905289e+01    0.2830151    0.2211689  43.98  0.001459541    1.242    0.195
       213 -10.5088     84.6829     61.4513   7.2926872213e+01   5.3810885778e+01    0.2574135    0.2114902  21.99  0.001409119    1.183    0.155
       214 -10.8937    155.0735     60.1498   5.3914680610e+01   3.8329569150e+01    0.2376732    0.2068339 -48.50            0    1.175    0.149
       215 -10.4107    119.3462     61.1367   6.2440170043e+01   4.6625747779e+01    0.2482758    0.1911527  35.85 0.0005884811    1.291    0.226
       216  -9.3735     45.3625     61.5514   8.7789688432e+01   5.9955376256e+01    0.1336212    0.1102408 -26.84 2.113498e-05    1.042    0.040
       217  -9.1375     98.3046     60.2983   6.8142739888e+01   5.1329532558e+01    0.1466685    0.1082931   9.69 0.0001735884    1.587    0.370
       218 -10.5752    147.4131     57.4030   5.4653103989e+01   4.0608046562e+01    0.3408409    0.2333899 -64.13  0.001146653    1.846    0.458
       219 -11.0975     59.3370     58.6636   8.1174090952e+01   5.8607278988e+01    0.2723317    0.2656728   0.02  0.001192341    1.240    0.194
       220 -11.3104     75.3198     56.1830   7.4297674231e+01   5.6450823714e+01      0.22955    0.2086323   2.29  0.000295942    1.040    0.038
       221  -9.8045     68.4773     56.4466   7.6889585196e+01   5.7574749115e+01    0.1372437    0.1231231  -4.80 1.340201e-05    1.032    0.031
       222 -10.1141    131.9994     54.5290   5.7146404255e+01   4.4737687942e+01    0.3440777     0.182832  40.38  0.001141983    2.010    0.503
       223 -11.6545      6.2692     51.5722   1.0203988684e+02   6.5521237743e+01    0.3818885    0.2983687 -15.36   0.00223858    1.236    0.191
       224 -11.5912     12.8927     51.5676   9.8948838210e+01   6.5097000491e+01     0.596197    0.2269407 -49.98  0.002875691    1.998    0.499
       225 -10.6541     11.3726     45.0689   9.7672375049e+01   6.6488607310e+01    0.3821836    0.2392531 -48.12  0.001574232    1.330    0.248
       226 -10.4999    120.2915     52.2079   5.9218487752e+01   4.7821889938e+01    0.2630272    0.2020295  25.46 0.0005169656    1.407    0.289
       227 -11.8815    105.1244     52.6440   6.3446800794e+01   5.1144169329e+01    0.3266337    0.2361168  44.47 0.0001529033    1.314    0.239
       228  -9.4979     95.5065     52.7681   6.6344524467e+01   5.3155382892e+01     0.199509     0.132004 -17.30 0.0008934048    1.740    0.425
       229 -11.4168     87.8562     51.4119   6.8273362436e+01   5.4913191427e+01    0.4380032    0.2383152  36.36  0.001975598    1.829    0.453
       230 -10.4481     62.2219     52.3903   7.7783938787e+01   5.9308009813e+01    0.3156193     0.177642 -30.80  0.001509895    1.768    0.434
       231  -9.7100     56.5690     52.9373   8.0214009863e+01   6.0073486882e+01    0.1916991     0.100619 -23.03  0.000589935    2.400    0.583
       232  -9.9653    238.1071     51.6591   3.9712576145e+01   2.0444328882e+01    0.2445908    0.1152158  77.53  0.001108267    2.567    0.610
       233 -11.3340    129.2494     48.9800   5.5978221854e+01   4.6209655770e+01    0.6218187    0.3984213   1.56    0.0026525    2.397    0.583
       234 -10.1657    199.0084     49.3859   4.3760303238e+01   2.9360385188e+01    0.3106022    0.1883509  75.71  0.001519239    1.719    0.418
       235  -9.8062    181.7404     49.9222   4.6360700519e+01   3.3370947895e+01    0.1918346    0.1699054 -59.54 0.0002976407    1.096    0.087
       236 -10.2968     52.9878     50.0947   8.0615331655e+01   6.1104279892e+01    0.2044822    0.1779383  -5.01 0.0005992709    1.047    0.045
       237 -10.1831    152.6251     47.3480   5.0572261891e+01   4.0807614134e+01    0.3022603    0.1363967  43.01 0.0007813515    2.533    0.605
       238  -9.4697    119.9865     47.4636   5.7688922731e+01   4.8592412647e+01    0.2038437    0.1337287  53.98 0.0003931155    1.449    0.310
       239 -10.4411     77.7972     45.9362   6.9603059842e+01   5.7708510033e+01    0.3398875    0.2176836 -55.27 0.0007322585    2.355    0.575
       240 -10.3928    142.8473     45.5291   5.1926041479e+01   4.3437102214e+01    0.2945009    0.2147306 -71.33  0.001446753    1.716    0.417
       241 -10.1579    111.5050     46.3804   5.9487750484e+01   5.0679859399e+01    0.3721963    0.1480318  46.18   0.00142872    2.336    0.572
       242 -10.5141     57.1313     46.1583   7.7437885768e+01   6.1175465670e+01    0.2035311      0.15835  -3.68  0.000359014    1.206    0.171
       243 -10.8996     91.9869     43.8121   6.4140707133e+01   5.5255826092e+01    0.3772759    0.2471571 -47.50  0.001335104    1.869    0.465
       244 -10.6369     96.1416     42.6289   6.2440253833e+01   5.4564140744e+01    0.3118199    0.1627268  32.04  0.001316838    2.184    0.542
       245 -10.4108     50.9638     44.9684   7.9506492075e+01   6.2289155251e+01    0.1961242    0.1659275 -13.50 0.0003854136    1.038    0.037
       246  -9.5212    106.9901     43.0255   5.9506056055e+01   5.2164009662e+01    0.1752826    0.1452983  44.12 0.0003956975    1.124    0.110
       247 -10.3449    250.0228    246.9916   7.7436039362e+01  -1.1573519992e+01    0.1817053    0.1329526   0.12  0.001153774    1.006    0.006
       248 -11.0277     71.0556     41.2636   7.0178856209e+01   5.9657915987e+01    0.3388211    0.2173027  -7.20 0.0009852501    1.869    0.465
       249 -10.9193     69.5004     38.0005   6.9439802555e+01   6.0424826961e+01    0.3800766     0.236568  -4.21  0.001512688    2.017    0.504
       250 -10.3570     23.9825     41.9561   9.0513923895e+01   6.6038477470e+01    0.3149341    0.2448248  15.69  0.002060808    1.350    0.259
       251 -10.5127     18.2082     42.2492   9.3407679830e+01   6.6500986515e+01    0.5094391     0.171177 -36.65  0.001687296    2.764    0.638
       252 -10.9533     30.1208     33.1082   8.4127473482e+01   6.6950096586e+01     0.324475    0.1787477  15.45  0.001369437    1.913    0.477
       253 -11.8863     28.2890     37.9600   8.6947654122e+01   6.6322819074e+01     0.379433    0.2163407  20.59  0.001243145    1.784    0.439
       254 -11.7283     24.3149     35.0919   8.7757107711e+01   6.7231072219e+01    0.4341877    0.2412001  -2.63 0.0007909887    2.106    0.525
       255 -10.9943      6.7009     41.4858   9.8827458898e+01   6.7492221184e+01    0.2794949    0.1509862 -40.98  0.000754389    1.427    0.299
       256 -10.8488    124.8067     42.4020   5.4818291836e+01   4.8175941003e+01      0.39244    0.1778523  69.12   0.00135286    3.302    0.697
       257 -10.3554    142.1550     40.8009   5.0580864659e+01   4.4238765169e+01    0.1952368    0.1512984  41.55 0.0003151077    1.299    0.230
       258 -10.2604     78.3294     39.3448   6.6855446046e+01   5.8606663961e+01    0.3176394    0.1847121 -34.56  0.001573566    1.759    0.432
       259 -11.0435     81.7369     35.0446   6.4008514624e+01   5.8555092947e+01    0.4199854    0.3050034  10.56  0.002295596    1.445    0.308
       260 -10.0533     60.7816     41.2449   7.4054809323e+01   6.1407560034e+01    0.5107684    0.1526335  31.42   0.00153052    4.987    0.799
       261 -11.5816     52.2739     40.0190   7.7003732595e+01   6.2923339716e+01    0.4377339    0.3180521  14.41  0.001190111    1.311    0.237
       262 -10.6064     56.3380     33.0289   7.2443848141e+01   6.3378352747e+01    0.4713405    0.2293824 -46.16   0.00212072    2.671    0.626
       263 -10.7631    232.3413     39.8035   3.7717783515e+01   2.3235315090e+01    0.2031858    0.1774596 -66.49 0.0002854804    1.074    0.069
       264 -11.3075    152.6081     39.1285   4.8101264514e+01   4.1908865829e+01    0.2601779    0.2387487 -64.29 0.0004329895    1.128    0.113
       265 -10.7703    225.1148     38.2942   3.8100356841e+01   2.4974119928e+01    0.2284722    0.1809594 -70.18 0.0004497441    1.102    0.093
       266  -8.9308    160.2707     38.3241   4.6541088045e+01   4.0138054239e+01    0.1355017    0.1038714  29.53 0.0002325833    1.573    0.364
       267  -9.0683     85.7203     38.7241   6.4167722321e+01   5.7256739713e+01    0.1351117   0.09608787  15.84 0.0001809182    1.500    0.333
       268 -10.1607      1.6269     37.4789   1.0011535309e+02   6.8559999706e+01    0.2181337    0.1147784 -47.16   0.00111143    1.453    0.312
       269  -9.7713    134.9195     35.6476   5.0382902576e+01   4.6643357738e+01    0.1972902    0.1711027  61.96   0.00067024    1.077    0.072
       270  -9.9962    100.6648     36.1260   5.8714123396e+01   5.4487413306e+01    0.2576649    0.1622197  67.32 0.0007848392    2.043    0.511
       271 -10.1252     63.8886     35.4022   7.0473468091e+01   6.1783471872e+01    0.2086226    0.1560495  -0.93            0    1.297    0.229
       272 -11.0903     22.2183     25.7125   8.4943500594e+01   6.9007430969e+01    0.3088202    0.2524345 -18.21  0.001123849    1.127    0.113
       273 -10.9611      8.6463     34.2906   9.5405082296e+01   6.8710756046e+01    0.4221493    0.3040687 -59.55  0.002090305    1.650    0.394
       274 -11.6266     16.7465     31.4747   9.0147798890e+01   6.8569517566e+01    0.5954942    0.2688815  16.38  0.002800825    2.384    0.581
       275 -10.3200     95.4299     34.4855   5.9576218972e+01   5.5826744360e+01    0.2229207    0.1989536 -25.50   0.00061843    1.213    0.175
       276 -10.5783     97.4573     31.1898   5.7741385328e+01   5.5809658546e+01    0.3601683    0.2039413  52.63  0.001746756    1.650    0.394
       277 -11.3447    102.0516     28.7597   5.5574552936e+01   5.5100056922e+01    0.4005591    0.3249601  78.94 0.0006457173    1.537    0.349
       278  -9.8178    201.7011     34.0696   3.9641869316e+01   3.0751634070e+01    0.1779994    0.1574025 -63.15 0.0004122346    1.079    0.073
       279 -10.7524    221.7977     32.0984   3.7045011771e+01   2.6477494482e+01    0.2033633    0.1664183 -74.11 0.0003143088    1.049    0.046
       280 -10.5612    205.8145     32.5053   3.8800031341e+01   3.0000364476e+01    0.2143194    0.1681258 -43.35 0.0005149859    1.264    0.209
       281  -9.8143    184.6645     33.3080   4.1545474970e+01   3.4850938014e+01    0.1427598   0.09254033 -69.62 0.0003785706    1.675    0.403
       282  -9.9281    166.4659     32.9791   4.4021599630e+01   3.9287382947e+01    0.1992317    0.1352875 -30.31  0.001033545    1.602    0.376
       283  -9.2170     60.2867     33.5847   7.1107681880e+01   6.2654324623e+01    0.1202631    0.1037798 -64.63 0.0006971365    1.828    0.453
       284  -9.7794    124.5478     33.0000   5.1690708593e+01   4.9440964164e+01    0.3243549   0.07284403  58.93  0.000952061    4.076    0.755
       285 -10.6124     89.3840     31.7459   6.0297420680e+01   5.7447026541e+01    0.2427765    0.1914851  33.21 0.0005629121    1.136    0.120
       286 -10.5625     48.3416     31.7668   7.5237252413e+01   6.4792706308e+01    0.2393012    0.1785356  14.04  0.001460445    1.212    0.175
       287 -10.6769     50.2191     27.8822   7.2749331710e+01   6.5078836316e+01    0.2574855    0.1820365   8.09 0.0009100343    1.335    0.251
       288 -10.5811    236.1918     30.4763   3.5364473021e+01   2.3607649663e+01    0.2161583    0.2064907 -88.45 0.0006205073    1.279    0.218
       289 -10.0900    145.1750     29.1139   4.6360481401e+01   4.4938332305e+01    0.4743433    0.1165384 -39.54  0.001545229    4.058    0.754
       290  -9.2253    175.6560     29.3427   4.1694372683e+01   3.7490067144e+01    0.1462869    0.0921685 -68.16    0.0007047    1.787    0.440
       291 -11.2123     69.6307     26.5038   6.4608037629e+01   6.1981992298e+01    0.4295465    0.2414116  30.00  0.002159858    1.750    0.429
       292 -11.1780    129.0708     26.9847   4.8710490283e+01   4.9065899113e+01    0.4096459    0.2556472  68.96  0.001155557    1.610    0.379
       293  -9.9512    111.6956     27.9438   5.2855312576e+01   5.3026100542e+01    0.1802768    0.1643054  -8.21 0.0003510852    1.171    0.146
       294 -10.8613     55.2329     23.6055   6.8777192076e+01   6.4865879318e+01    0.2447941    0.1965587  44.57  0.001529836    1.479    0.324
       295 -11.1769     59.0559     21.7235   6.6424395870e+01   6.4463844437e+01    0.2919383    0.2047792  -0.85  0.001360066    1.397    0.284
       296 -10.1953     60.1407     27.1379   6.8403826090e+01   6.3579474314e+01    0.1958899    0.1734082 -43.09            0    1.508    0.337
       297 -10.8630     62.2257     23.9965   6.6227819316e+01   6.3629469169e+01    0.2835177    0.1714311 -21.22  0.001039958    1.669    0.401
       298 -10.3674    193.7712     25.9849   3.8562061047e+01   3.3568031119e+01    0.2292682     0.120353 -58.33   0.00107789    2.019    0.505
       299 -10.3096    169.0957     25.8831   4.1650763204e+01   3.9475554846e+01    0.2026976     0.163896 -75.84            0    1.225    0.184
       300 -13.0828     74.2303    238.0046   1.1101897969e+02   1.5167717948e+01    0.8064044    0.5834895 -79.23  0.005030823    1.455    0.313
       301 -10.5150     32.7155     16.7028   7.5524172832e+01   6.9110990461e+01     0.432185    0.1963497  16.93  0.001899688    3.017    0.669
       302 -10.0472     63.0013    242.4605   1.1369482493e+02   1.5778333654e+01    0.1764064    0.1428455  72.99 0.0003589129    1.105    0.095
       303 -10.4819     88.8309    241.3098   1.0834721935e+02   1.2503984058e+01    0.2176461    0.1545783 -33.62  0.001221621    2.106    0.525
       304  -9.2619     50.3235    240.3045   1.1602758382e+02   1.7789836244e+01    0.1030652   0.09307847 -27.76 0.0004398144    1.640    0.390
       305  -9.9312    195.4162    238.7139   8.6082114803e+01  -3.1906719074e+00    0.2271821    0.1357509  14.96  0.001198035    1.748    0.428
       306 -10.8725     25.0631     20.1942   8.1007988885e+01   6.9550547301e+01    0.2906683    0.2036197  -1.12   0.00142876    1.234    0.190
       307 -10.5575    243.8962    237.3643   7.6891080664e+01  -9.6215998669e+00    0.1910469     0.145052 -24.88 0.0008853045    1.353    0.261
       308  -9.9320    135.2907    237.7185   9.8196572009e+01   6.2080780250e+00    0.1922862    0.1028371 -37.66 0.0009032895    2.440    0.590
       309 -10.2943     31.2480    236.9788   1.1949448196e+02   2.0666892430e+01    0.2236805    0.1277553  76.19 0.0008233066    1.601    0.376
       310 -10.5616     29.7348    232.8699   1.1951443971e+02   2.1658787715e+01    0.2707476    0.1533392  64.09  0.001614601    1.516    0.340
       311 -10.2097    159.6161    236.1921   9.2898081342e+01   2.6658210838e+00    0.1680074    0.1173446 -30.15 0.0004894899    1.642    0.391
       312  -9.2918    119.2180     25.4051   5.0234232643e+01   5.1570136226e+01    0.1343699   0.09516612  19.01 0.0006158709    1.649    0.394
       313 -11.7230    164.7422     23.1691   4.1502578143e+01   4.0833043212e+01    0.2866654    0.2147428  64.16  0.001632424    1.210    0.174
       314  -9.9681     98.9897     20.5368   5.3233233278e+01   5.6692276693e+01    0.1860976    0.1554779  43.53 0.0003905589    1.055    0.052
       315 -10.1959     97.8361     23.8466   5.4814166269e+01   5.6587712869e+01    0.2616982    0.1657709  54.72  0.000655451    1.467    0.318
       316 -10.2597     94.6004     22.1900   5.5037656272e+01   5.7471562187e+01     0.300731    0.2058894  21.36  0.001622105    1.541    0.351
       317 -10.1840    186.1956     22.9178   3.8666345846e+01   3.5702410449e+01    0.2047338     0.154234 -69.05  0.000542181    1.277    0.217
       318  -9.9540    225.9797     22.5023   3.4546106438e+01   2.6723260310e+01    0.1772787    0.1091824  75.05 0.0006278259    1.546    0.353
       319  -9.9461    192.4144     21.7051   3.7649936875e+01   3.4372140297e+01    0.2288374    0.1380664  52.15  0.001191941    1.783    0.439
       320 -10.9724    103.8073     19.7729   5.1736459284e+01   5.5701648404e+01    0.3582881    0.2517408 -62.00  0.001796419    2.052    0.513
       321  -9.7590    177.3226    235.3255   8.9139085048e+01   5.7697860184e-02    0.1330479   0.09062134   2.33 0.0007047856    1.686    0.407
       322 -10.2781     68.4035     22.1408   6.3157134351e+01   6.2746459921e+01    0.3053996    0.1513061  48.97 0.0007794658    1.991    0.498
       323 -10.2246     89.6225     20.7591   5.5848257519e+01   5.8688690532e+01    0.2403279    0.1710209  30.97 0.0006877442    1.296    0.228
       324 -11.0587    238.0704     18.3310   3.2684500417e+01   2.4659640912e+01     0.225466    0.1700244 -35.96 0.0002934528    1.432    0.302
       325 -10.2508    172.8079     20.1113   3.9571962639e+01   3.9210469583e+01    0.2044078    0.1598009 -75.45  0.000719216    1.251    0.201
       326  -9.4413    139.3538     20.2937   4.4609370356e+01   4.7308434254e+01    0.1424016   0.08968037  39.48 0.0007031244    1.685    0.407
       327 -11.9704    129.2965     19.2466   4.6083306428e+01   4.9832390467e+01     0.279734     0.245739  52.67 0.0005229556    1.032    0.031
       328 -10.4572    109.4350    242.7610   1.0424513012e+02   9.2372045494e+00    0.2424858    0.1591692  55.65 0.0007180794    1.496    0.332
       329 -10.0847     23.9914    232.4858   1.2059782398e+02   2.2353303614e+01    0.1940483     0.139229 -69.19 0.0006505419    1.498    0.332
       330 -11.1272     41.8136     19.3715   7.2539129770e+01   6.7498844542e+01    0.4795243    0.2041535  42.10  0.002289484    2.501    0.600
       331  -9.3874     44.3050    232.6566   1.1662771594e+02   2.0044334839e+01    0.1300059   0.07170264  64.94  0.000704136    1.687    0.407
       332 -10.1886     38.2291    232.7838   1.1784507306e+02   2.0725954338e+01    0.1755812    0.1282686  67.23  0.000719165    1.115    0.103
       333 -10.0317    151.3968     18.2909   4.2040739347e+01   4.4590656411e+01    0.1785571    0.1165628 -42.85 0.0009416768    1.643    0.391
       334  -9.4818    169.9935    229.0416   8.9643117096e+01   2.2397024894e+00    0.1573552    0.1397555  11.05 0.0005472098    1.055    0.052
       335 -10.8140    154.6425    227.5047   9.2619321662e+01   4.9620041857e+00    0.2767499    0.1754223  59.34  0.001318044    2.240    0.553
       336 -11.1878    120.4977    226.4039   9.9818923544e+01   1.0638113197e+01    0.2261281    0.2023837 -64.66 0.0009150986    1.257    0.205
       337  -9.8671     17.4990    227.5211   1.2154137818e+02   2.4034453111e+01    0.1170484   0.08855468  71.21 0.0002901821    1.016    0.016
       338  -9.5618    190.4959    226.4869   8.5046043046e+01  -5.5205737953e-01    0.1320733    0.1096272  10.19 -4.569383e-05    1.031    0.030
       339 -10.1469     65.9802    226.0936   1.1158562931e+02   1.8681932060e+01     0.187895    0.1638533  64.47 0.0004969589    1.056    0.053
       340 -11.4597     21.1398    222.5113   1.2051838259e+02   2.4702074957e+01    0.2565138     0.169201  74.90 0.0009537888    1.261    0.207
       341 -10.1326    123.6959    221.6840   9.8459337247e+01   1.1052524980e+01     0.217833    0.1621022 -26.88  0.001125923    1.730    0.422
       342 -11.1456      4.7081    226.3978   1.2390732034e+02   2.5499816875e+01    0.3333908    0.1284054  54.63  0.001777708    2.118    0.528
       343 -11.9458      9.8870    217.3443   1.2241903691e+02   2.6892542938e+01    0.3285539    0.1907342  64.08  0.002035042    1.436    0.303
       344  -9.8226     37.9615    217.5290   1.1673106767e+02   2.3944594499e+01    0.1746051     0.110626  37.31 0.0008443382    1.563    0.360
       345 -11.4164     29.9947    215.8661   1.1826074598e+02   2.5182741140e+01    0.3225725    0.2652278  17.43  0.002107869    1.656    0.396
       346 -10.2023     30.9975     12.8219   7.4460321594e+01   6.9849307256e+01    0.1779204    0.1247202   1.34 0.0005349973    1.211    0.174
       347 -11.7086    237.8327    213.4827   7.3776829217e+01  -5.5358266894e+00    0.6072308    0.3049052  13.16  0.002057491    2.758    0.637
       348 -10.2846     23.9284    216.2329   1.1953505961e+02   2.5743927512e+01    0.1689262    0.1361817 -25.75  0.001082262    1.968    0.492
       349  -9.9310     66.9936    215.2097   1.1025909066e+02   2.0857669326e+01    0.1920001    0.1517515 -11.05 0.0009455632    1.954    0.488
       350 -10.4538     21.5064    212.6277   1.1977978766e+02   2.6767284311e+01    0.2871675    0.1094291  57.95  0.001318143    2.529    0.605
       351 -10.0421    208.9196    212.0291   7.8878465743e+01  -1.0725051126e+00     0.202931    0.1647951  -0.18 0.0005315765    1.073    0.068
       352  -9.5287     76.3294    212.3041   1.0785284731e+02   2.0210391535e+01     0.123457    0.1036484 -20.88 0.0004078651    1.652    0.395
       353 -12.2484      5.3588    209.0210   1.2283180304e+02   2.9079338939e+01    0.4873635    0.1998735 -80.03  0.002521388    2.092    0.522
       354 -10.6366     10.8366    208.5141   1.2169330700e+02   2.8691631582e+01    0.2139804    0.1641366 -54.95 0.0005500785    1.615    0.381
       355  -9.2825    188.2537    205.3477   8.1790374202e+01   3.3735593183e+00    0.1380331   0.09741916  -8.12 0.0003347845    1.590    0.371
       356 -10.8191     19.6706    200.8048   1.1931423750e+02   2.9550701644e+01    0.2885033   0.08851723 -72.17  0.001225647    2.781    0.640
       357 -10.2826    175.3180    202.7260   8.4024238515e+01   6.0347635219e+00    0.2228105      0.20153  43.54  0.000531751    1.229    0.186
       358  -9.8089    243.4720    202.4476   7.0755640561e+01  -4.6927686193e+00    0.1263275    0.1015163  -8.69 7.161606e-05    1.014    0.014
       359 -10.3436    108.0255    209.9937   1.0032319445e+02   1.5951416946e+01    0.1705185    0.1527549  48.88 0.0007168595    1.019    0.018
       360  -9.4835    215.5060    194.5512   7.4334905205e+01   7.6437729565e-01    0.1366428    0.1140739  -3.82 6.506011e-05    1.046    0.044
       361 -10.8336     16.7300    193.3741   1.1939566198e+02   3.1507849937e+01    0.2751037    0.2221597  19.44  0.001328024    1.625    0.385
       362  -9.2621      1.7632    188.0029   1.2228838398e+02   3.4025731877e+01    0.1570899   0.08172027 -80.87 0.0007013693    1.581    0.367
       363 -11.2347     16.5305    184.5469   1.1874760439e+02   3.3556062955e+01    0.4143773    0.1972176 -81.13  0.001828162    1.852    0.460
       364 -10.0491     14.6990    180.6651   1.1885295572e+02   3.4624940143e+01    0.2066372    0.1512072 -30.19 0.0007572203    1.971    0.493
       365  -9.6969     61.6429    184.8472   1.0799674265e+02   2.8490876906e+01    0.1984909    0.1192874 -81.56 0.0009471814    1.753    0.429
       366 -10.0808    167.5251    183.5048   8.2078798580e+01   1.1137780312e+01    0.1456299    0.1359155   6.61 0.0001102608    1.001    0.001
       367  -9.6087     58.8253    182.1870   1.0835944352e+02   2.9492201861e+01    0.1805295    0.1580939 -44.02 0.0008438262    1.334    0.251
       368  -9.3836      1.5415    180.5103   1.2183728112e+02   3.5751315184e+01     0.121028   0.09477218  87.31  0.000139532    1.008    0.008
       369  -9.9106    244.4623    178.5046   6.5978770501e+01  -1.1355998886e+00      0.24052    0.1050936 -28.01  0.001026972    2.344    0.573
       370 -10.7879     46.4925    177.7543   1.1089448794e+02   3.2070804348e+01    0.3144115    0.2405272 -79.41  0.001209255    1.180    0.152
       371  -9.7098     69.7503    178.1963   1.0507395556e+02   2.8995317325e+01     0.182541    0.1560115 -41.14 0.0004768053    1.349    0.259
