#   1 NUMBER                 Running object number                                     
#   2 MAG_AUTO               Kron-like elliptical aperture magnitude                    [mag]
#   3 X_IMAGE                Object position along x                                    [pixel]
#   4 Y_IMAGE                Object position along y                                    [pixel]
#   5 X_WORLD                Barycenter position along world x axis                     [deg]
#   6 Y_WORLD                Barycenter position along world y axis                     [deg]
#   7 A_WORLD                Profile RMS along major axis (world units)                 [deg]
#   8 B_WORLD                Profile RMS along minor axis (world units)                 [deg]
#   9 THETA_WORLD            Position angle (CCW/world-x)                               [deg]
#  10 FWHM_WORLD             FWHM assuming a gaussian core                              [deg]
#  11 ELONGATION             A_IMAGE/B_IMAGE                                           
#  12 ELLIPTICITY            1 - B_IMAGE/A_IMAGE                                       
         1 -13.4088     54.5966    146.3612   1.0925416823e+02   3.8650658691e+01     4.552141     1.076941 -61.09   0.01516872    3.352    0.702
         2 -14.9581     68.6705    144.2778   1.0506134732e+02   3.7368630698e+01     5.415356     2.471585  63.13  0.007815034    4.380    0.772
         3 -14.5093    200.5652     38.0469   4.5242845254e+01   3.0671674973e+01     2.075821     1.432834  30.24  0.007398066    2.023    0.506
         4 -14.4690    212.0262     26.3940   4.0911859800e+01   2.9401686471e+01       1.2745     1.033337   6.40  0.004834373    1.714    0.417
         5 -12.6009      3.1131      6.6054   9.3189965708e+01   7.3544167326e+01    0.8325142    0.2756542 -41.56  0.004306469    2.258    0.557
         6 -12.5347    238.7796      3.0211   3.3207152575e+01   2.5995671643e+01    0.5963348    0.3464976  61.73  0.002917032    1.842    0.457
         7 -12.1846    233.9936      2.4956   3.3430898625e+01   2.7082547132e+01    0.4436173    0.2158447  75.61  0.001652219    1.911    0.477
         8 -10.1977     44.3376      6.3300   7.1204465138e+01   6.8993264700e+01    0.1291611   0.07678474   8.30 0.0007051983    1.734    0.423
         9 -13.2311    190.9765     45.1129   4.8466644068e+01   3.2055698967e+01    0.8039321    0.6284356  40.15  0.001044841    1.464    0.317
        10 -11.8581    139.7758    249.3883   1.0381876631e+02   4.2313530174e+00     0.331407     0.253617  59.88   0.00203129    1.404    0.288
        11 -13.4272     50.3401    219.7977   1.1845626755e+02   2.2384326676e+01      2.08996    0.9679467  89.31   0.01005995    2.512    0.602
        12 -15.1425     85.4546    223.3691   1.1168560971e+02   1.7039062983e+01     5.938205    0.9259628  42.54  0.004180713    4.426    0.774
        13 -12.8122     12.6767    189.2743   1.2379638678e+02   3.2862859426e+01    0.2483495     0.194928  68.72 0.0004981784    1.124    0.110
        14 -14.7148     44.2531    201.9644   1.1818345552e+02   2.6857891350e+01      3.75397      1.35332  62.57  0.003553736    3.741    0.733
        15 -10.5827     66.6931    195.5680   1.1266659644e+02   2.5484606812e+01    0.3429171    0.2237606  80.31  0.001592752    1.581    0.367
        16 -11.2906    109.4682    201.8937   1.0386599062e+02   1.7794705461e+01    0.3121727    0.2394156  -7.64 0.0009950142    1.975    0.494
        17 -16.4513      8.4296    242.0462   1.2748489847e+02   2.2591798492e+01         3.93     1.718871  28.96   0.02207979    2.938    0.660
        18  -9.2901     82.0388    194.9924   1.0913600395e+02   2.3486075646e+01     0.195335     0.163122 -27.52  0.001124048    1.642    0.391
        19  -9.3574     24.0822    193.6968   1.2174063106e+02   3.0823108932e+01    0.1595369    0.1255926  72.43 0.0007025156    1.068    0.064
        20 -13.8648     68.4283    243.1334   1.1688662552e+02   1.5575430702e+01    0.6520472    0.4803162  67.84   0.00173063    1.146    0.127
        21  -9.0615     92.4628    184.4272   1.0527898281e+02   2.4299178666e+01    0.1376403     0.124387  71.05 0.0001714745    1.013    0.013
        22 -13.1644     24.5442    225.6061   1.2380649142e+02   2.4112500790e+01    0.6915425    0.3035072  53.50   0.00299728    1.849    0.459
        23 -11.3184    145.1126    180.4193   9.2180134705e+01   1.6145607576e+01    0.4099341    0.3156771  64.70  0.001143909    1.534    0.348
        24 -10.4529     99.4315    180.7151   1.0305529763e+02   2.4047518978e+01    0.2415741    0.2384365  36.11 0.0005689573    1.142    0.125
        25 -10.7024    150.4024    178.7926   9.0657614553e+01   1.5501453855e+01    0.3479774    0.2447103 -72.11  0.001298433    1.975    0.494
        26 -12.1956     67.7889    175.9103   1.1002207333e+02   2.9834722990e+01    0.4295457    0.2674206 -47.26  0.002150133    1.853    0.460
        27 -12.1758     72.4936    170.8990   1.0818590743e+02   3.0376939955e+01    0.4099759    0.3245326 -35.25 0.0007849461    1.600    0.375
        28 -10.7580     42.8356    179.8793   1.1639388637e+02   3.1970699976e+01     0.222638    0.2077417  78.17 0.0003497519    1.185    0.156
        29 -10.0805     45.9700    176.7127   1.1533001245e+02   3.2352169949e+01    0.2213916    0.1955749  86.12 0.0007497736    1.076    0.071
        30  -9.9100    197.1783    176.2015   7.9976159755e+01   7.2018602509e+00     0.261407    0.2312343   1.99   0.00149189    1.048    0.046
        31  -9.5118    204.4619    176.0125   7.8471316617e+01   5.8979400504e+00    0.2170301     0.132696 -37.56  0.001034747    1.605    0.377
        32  -9.6728    188.3374    174.8778   8.1530909370e+01   9.0981605466e+00    0.2204025    0.1821934 -55.09 0.0008881423    1.435    0.303
        33 -13.8499     58.2370    242.1491   1.1870797920e+02   1.7055801407e+01     0.602978    0.3028406  56.26  0.003253466    1.673    0.402
        34 -13.2177     81.3207    161.6585   1.0455726332e+02   3.1324151800e+01     1.476565    0.5313666  52.77 0.0003996702    3.982    0.749
        35 -13.7293     69.3508    157.1107   1.0695417247e+02   3.4126987807e+01    0.6183811    0.5205579 -23.44  0.002500195    1.524    0.344
        36 -15.7129     42.0105    249.6308   1.2214557948e+02   1.7633980059e+01     10.29284     2.852538  28.45   0.02248122   15.988    0.937
        37  -8.9328     35.6396    166.7833   1.1672079348e+02   3.5806943949e+01    0.1119969   0.09422965 -34.13 0.0004017885    1.562    0.360
        38 -12.1462    194.4664    196.8273   8.4577736486e+01   4.0325714647e+00     1.194069    0.7061065 -66.89  0.004081275    4.882    0.795
        39 -10.3543    157.9069    160.4379   8.5221693800e+01   1.7917576363e+01    0.3385739    0.2544944  73.55  0.001205113    1.846    0.458
        40  -9.3301     37.9860    162.0000   1.1562258386e+02   3.6701720117e+01    0.1888247   0.07307735  29.04 0.0007977606    2.910    0.656
        41 -12.3619     88.2772    154.6861   1.0156413649e+02   3.1952765082e+01    0.6362755    0.4565839 -26.35   0.00183224    1.921    0.480
        42 -11.2332    133.6305    144.0640   8.7542359200e+01   2.6379650806e+01     1.125925    0.2959967 -54.39   0.00268884    5.448    0.816
        43  -8.9489    112.5297    150.5017   9.4370959091e+01   2.8876633531e+01    0.1504546    0.1427621  87.46 0.0001764156    1.050    0.048
        44 -10.3075    174.4637    148.7500   7.8874217963e+01   1.6999195706e+01    0.3205903    0.2585428 -87.80  0.001015311    1.734    0.423
        45 -10.7251     38.9982    146.3539   1.1345628090e+02   4.0382377951e+01    0.3046691    0.2368901  77.18 0.0007878366    1.255    0.203
        46 -10.2559     83.4242    142.9691   1.0074413871e+02   3.5562982744e+01    0.2458234    0.1918571  60.77 0.0004447744    1.374    0.272
        47 -10.8684    102.1100    140.0179   9.5001836270e+01   3.3230584935e+01    0.5524487    0.3469464 -28.22  0.002246818    2.281    0.562
        48 -12.3541     89.4468    139.9022   9.8479043404e+01   3.5373098872e+01     0.292639    0.2549873 -47.74 0.0005099096    1.149    0.130
        49 -10.4702    106.1060    130.7518   9.1875413269e+01   3.4752917019e+01    0.3480466    0.3057793 -71.65  0.001514629    1.171    0.146
        50 -10.3990    111.4051    130.3552   9.0313175219e+01   3.3874717978e+01    0.3234088    0.2578105   5.81 0.0007828595    1.592    0.372
        51 -12.6942     43.1874    129.0093   1.0978047322e+02   4.4215949831e+01    0.5628849    0.3075154  43.85  0.002740525    2.016    0.504
        52 -11.1246    135.7924    128.1960   8.3269849129e+01   2.9558769125e+01    0.5004471    0.1975856 -47.87  0.001685475    2.511    0.602
        53 -10.8023    111.9339    197.7308   1.0270843092e+02   1.8273428767e+01    0.2871881    0.2274877  39.18  0.001613696    1.209    0.173
        54 -10.1693    160.7569    127.8575   7.7030192184e+01   2.4300263287e+01    0.3108038    0.2223559 -60.43  0.001363935    1.646    0.392
        55 -10.9325     98.6261    126.4538   9.3014949407e+01   3.7113575994e+01    0.3121371    0.2547893  -6.90 0.0009848828    1.529    0.346
        56  -9.2742     92.9733    125.5006   9.4431214237e+01   3.8309641434e+01    0.2122016    0.1471804  42.01 0.0007831583    1.513    0.339
        57  -9.9978    117.2157    124.5705   8.7339076566e+01   3.4133287890e+01    0.2115223     0.150762  26.34 0.0006981568    1.624    0.384
        58 -10.9461    120.9660    121.2856   8.5499898901e+01   3.4159660225e+01    0.4374311    0.1837269 -34.97  0.001307417    3.481    0.713
        59 -11.0731    134.8552    119.1109   8.1231347849e+01   3.1801636554e+01    0.5093485    0.1628601 -46.87  0.001533788    3.094    0.677
        60 -12.5179     33.9083    118.3281   1.1083314649e+02   4.7753994221e+01    0.4288507    0.2723788 -38.58  0.001840216    1.723    0.419
        61 -11.2466    139.0742    170.9588   9.1799145044e+01   1.9295793341e+01    0.3859575    0.3088327  46.83  0.001340972    1.227    0.185
        62  -9.7073    168.1962    113.0859   7.1540666310e+01   2.5727540012e+01    0.2937698    0.2133887  85.19  0.001219943    2.070    0.517
        63 -12.7496     21.0441    109.4561   1.1340735077e+02   5.0978447225e+01    0.7639911     0.424412  -9.53  0.003665271    2.756    0.637
        64  -9.9857    107.8886    119.0969   8.8614724112e+01   3.7197321891e+01    0.2184095    0.2124385 -39.59 0.0003147831    1.020    0.020
        65 -10.1297    205.4429    110.1559   6.3206044086e+01   1.7902984560e+01    0.3069601    0.2159348  40.32 0.0009452756    1.553    0.356
        66 -10.6044    115.6391    109.1442   8.3850370978e+01   3.8007056859e+01    0.3931004    0.2603924  13.57   0.00155778    2.283    0.562
        67 -10.4398    134.5831    105.2972   7.7621594356e+01   3.4903567046e+01    0.3944092    0.1507098 -41.48  0.001151758    2.609    0.617
        68 -11.8948     41.9892    104.2646   1.0573922584e+02   5.0401647258e+01    0.4383413    0.2724305  47.83  0.001586716    1.940    0.485
        69  -8.9064    141.2607    107.9818   7.6628230616e+01   3.2860855396e+01    0.2038167    0.1349331 -43.33 0.0005033819    1.481    0.325
        70 -10.6549     32.6436     98.7077   1.0776208599e+02   5.2622078507e+01     0.428989    0.2786443 -85.47  0.002214247    1.801    0.445
        71  -8.9322    128.6674     95.7051   7.6490071203e+01   3.8241153656e+01    0.1592428    0.1235335   4.12 0.0007026443    1.639    0.390
        72 -13.9849     52.9632    190.5942   1.1520137151e+02   2.8342802512e+01     1.163472    0.8475724 -69.79    0.0054372    1.311    0.237
        73  -9.9263     41.7616     91.9553   1.0320544573e+02   5.3361158205e+01    0.2074879     0.192937 -11.60 0.0005672853    1.184    0.155
        74 -10.1803     53.1155     90.3636   9.8843075518e+01   5.2483891322e+01    0.2654119    0.1614674 -46.29  0.001112388    1.440    0.306
        75  -9.9933    158.4863     81.8795   6.5058566052e+01   3.4114264918e+01    0.2316905    0.1511206 -37.37 0.0006050472    1.520    0.342
        76  -8.7146     70.2583     81.7153   9.0479217713e+01   5.2160370457e+01    0.1289542    0.1114152 -84.99  0.000172784    1.481    0.325
        77  -9.0375    184.3808     77.2899   5.8469251703e+01   2.8676193902e+01    0.1561698     0.116025  23.65 0.0007016968    1.743    0.426
        78  -9.3175     55.6856     66.0115   9.1047335247e+01   5.7552575261e+01    0.1887711    0.1576627 -38.40 0.0002982951    1.078    0.073
        79 -10.5971     13.4278     59.8724   1.0644602845e+02   6.2894432949e+01    0.2207161    0.1909939 -64.31 0.0004123084    1.239    0.193
        80  -9.9165     44.3425    230.0112   1.2040550899e+02   2.1054867211e+01      0.24582    0.1360897  63.19  0.001457802    1.559    0.359
        81 -10.9502    142.6915     47.8395   5.7983628951e+01   4.3628831154e+01    0.4965787    0.3157675 -79.94  0.001750153    2.693    0.629
        82 -10.3844    145.4785     42.3363   5.5588193451e+01   4.3729198908e+01    0.2694419    0.2364746 -78.82 0.0002389035    1.267    0.211
        83 -16.4326      7.5000    200.8354   1.2556287862e+02   3.0832915093e+01     8.834305      1.02094 -74.62  0.006285658    5.876    0.830
        84 -11.3428      2.2308     29.2491   1.0280628717e+02   6.9693607168e+01    0.2310327    0.1580976 -56.11  0.000898215    1.398    0.285
        85 -10.6764     33.8524    227.3132   1.2218850774e+02   2.2777137555e+01    0.1776818    0.1479518 -82.81  0.000323397    1.288    0.224
        86  -9.5671    189.6935     14.9776   4.0459940313e+01   3.6039803545e+01    0.1804701    0.1647676 -59.40 0.0005869037    1.116    0.104
        87 -11.2510     63.4653    199.9362   1.1385782294e+02   2.4944684655e+01    0.4842407    0.2149341 -61.16 0.0009711607    2.200    0.545
        88 -10.4131    113.4963    207.1250   1.0370825593e+02   1.6063318508e+01     0.230415    0.1701538  59.44  0.001270921    1.339    0.253
        89 -12.8676     28.0299    215.5175   1.2250558648e+02   2.5781238281e+01     0.930258    0.3290743 -88.00  0.003994413    3.256    0.693
