#   1 NUMBER                 Running object number                                     
#   2 MAG_AUTO               Kron-like elliptical aperture magnitude                    [mag]
#   3 X_IMAGE                Object position along x                                    [pixel]
#   4 Y_IMAGE                Object position along y                                    [pixel]
#   5 X_WORLD                Barycenter position along world x axis                     [deg]
#   6 Y_WORLD                Barycenter position along world y axis                     [deg]
#   7 A_WORLD                Profile RMS along major axis (world units)                 [deg]
#   8 B_WORLD                Profile RMS along minor axis (world units)                 [deg]
#   9 THETA_WORLD            Position angle (CCW/world-x)                               [deg]
#  10 FWHM_WORLD             FWHM assuming a gaussian core                              [deg]
#  11 ELONGATION             A_IMAGE/B_IMAGE                                           
#  12 ELLIPTICITY            1 - B_IMAGE/A_IMAGE                                       
         1 -12.3793    193.2778     39.9741   4.8306424448e+01   3.1912759911e+01     1.052395    0.9551979 -68.78  0.003770911    1.041    0.039
         2 -12.5813    201.3461     31.8024   4.5015922841e+01   3.0990159732e+01     0.840142    0.7612603 -34.90  0.001331579    1.178    0.151
         3 -11.5592    227.0593      5.5178   3.5904178068e+01   2.7937669974e+01    0.6345533    0.5150732 -22.29  0.004042553    1.484    0.326
         4 -11.4525    221.1335      5.1469   3.6292930582e+01   2.9327970562e+01    0.6382535    0.3625247 -39.21  0.003155731    1.640    0.390
         5 -11.0682     40.7849      6.5660   7.3896144584e+01   6.9289063675e+01     0.371518    0.2293742  -7.48  0.002206095    1.534    0.348
         6 -10.1226     58.1273      4.3484   6.5667639282e+01   6.6811707349e+01    0.2489614   0.08700798  40.98   0.00109936    2.564    0.610
         7  -9.3559    113.2846    206.0304   1.0506927900e+02   1.6239379410e+01    0.1835418    0.1675543  82.95 0.0005175225    1.094    0.086
         8  -9.4029    140.1599    249.0278   1.0526638684e+02   4.2884933799e+00    0.2952663     0.172171 -61.09  0.001670962    2.274    0.560
         9  -8.9085    116.9323    249.8215   1.0968866740e+02   7.6833240365e+00    0.2250932    0.1403077  75.28  0.001253322    2.142    0.533
        10 -11.0575    117.3184    244.6443   1.0905123553e+02   8.4820342941e+00    0.4734191    0.2240043  47.08  0.002478926    1.749    0.428
        11 -10.4195     74.5215    173.5229   1.0927022537e+02   2.9312533875e+01    0.2995369    0.2408963 -65.76 0.0006194068    1.208    0.172
        12 -10.9637     78.7294    168.5188   1.0754291082e+02   2.9877058038e+01    0.5244764    0.3272681 -38.12  0.002438095    2.215    0.549
        13 -10.0847    112.2822    172.2687   1.0006647097e+02   2.3637564670e+01    0.5655751     0.169933  35.05  0.001725432    3.929    0.745
        14  -9.6439    193.1181    194.5707   8.6402266875e+01   4.4221098583e+00    0.3959863    0.2222815 -61.22  0.001509542    3.629    0.724
        15 -10.5626     92.8751    153.0947   1.0147301539e+02   3.1367273569e+01     0.590786    0.4183601 -24.22  0.002118298    2.096    0.523
        16  -9.8716    134.4740    148.4752   9.0042021219e+01   2.4927642592e+01    0.6416363    0.2360859 -53.16   0.00209809    2.935    0.659
        17  -8.4728    112.6661    150.3137   9.5878745568e+01   2.8634207064e+01    0.1551425    0.1144998  77.91  0.000612834    1.685    0.406
        18  -9.8165    105.3372    138.5366   9.5350911363e+01   3.2740261680e+01     0.560967    0.3046908 -37.45  0.002192648    2.294    0.564
        19 -10.6190     93.2571    138.4824   9.8577118971e+01   3.4827053693e+01    0.2947824    0.2614895 -38.82 0.0005133787    1.213    0.176
        20  -7.8845    134.2788    196.6725   9.9132628517e+01   1.4580481340e+01    0.1366387    0.1037541  75.47  0.000699593    1.595    0.373
        21  -9.3401    105.9334    130.9045   9.3524230565e+01   3.4455974440e+01    0.3647023    0.3213758 -62.62  0.001309837    1.092    0.084
        22  -8.5708     81.9362    194.6581   1.1036037086e+02   2.3481297967e+01    0.2685294     0.203025  63.22  0.001569413    1.210    0.174
        23  -9.8564    113.7206    129.5579   9.1117630897e+01   3.3334124150e+01    0.3495852    0.2937715   7.13 0.0008574502    1.462    0.316
        24  -9.4353    100.9650    125.6456   9.3695113637e+01   3.6602451677e+01    0.2962377    0.2450396 -17.26  0.000841982    1.473    0.321
        25 -10.0668     74.7111    189.4520   1.1131160080e+02   2.5661241447e+01    0.5813547    0.2768397  68.33  0.002278829    3.093    0.677
        26 -10.0803    119.4083    123.5858   8.8172806075e+01   3.3633840902e+01    0.4863077    0.3261269 -13.51  0.001888943    2.484    0.597
        27  -8.2326     94.2913    186.9507   1.0656985841e+02   2.3310501311e+01    0.1853327    0.1639498 -83.85 0.0004232961    1.090    0.082
        28 -11.3382     52.3984    110.5440   1.0471796522e+02   4.7475579286e+01    0.4250442    0.3552721 -69.45  0.002491742    1.096    0.087
        29  -8.5009    109.1825    118.9741   8.9825894059e+01   3.6682471685e+01    0.2333178    0.1972775 -28.69 0.0004904025    1.277    0.217
        30 -10.6383    117.7227    110.1440   8.5208015569e+01   3.7062251377e+01    0.6469589    0.4016742  56.97  0.002677676    1.957    0.489
        31 -10.1759     58.0098    110.1401   1.0289789041e+02   4.6894263916e+01    0.4889054     0.106697 -48.52  0.001422947    4.187    0.761
        32  -8.7295    205.6114    110.3082   6.5140248334e+01   1.7430635608e+01    0.2757677    0.1899014  45.97 0.0006307213    1.550    0.355
        33  -9.2516    134.5943    105.1383   7.9347965130e+01   3.4636817744e+01    0.4909905    0.1457527 -46.90  0.001404648    3.408    0.707
        34  -9.3439     98.9200    181.2368   1.0466564159e+02   2.3849300987e+01    0.3220578    0.2537046 -23.44  0.001691027    1.808    0.447
        35  -8.9198    150.5904    179.3560   9.2506248620e+01   1.5133666054e+01     0.375658    0.2488914 -77.49  0.001592261    2.449    0.592
        36  -8.4217    184.0246     77.0102   6.0250884630e+01   2.8496021604e+01    0.1847781    0.1792386 -58.14 0.0004677633    1.010    0.009
        37 -12.2450    181.6466     50.1192   5.2959735638e+01   3.3389475036e+01    0.9577051    0.7488255  22.86 0.0008550566    1.599    0.375
        38  -7.8206    168.2270    248.0570   9.9893613235e+01   9.5951459769e-02      0.13066    0.1002937 -38.80 0.0002095428    1.573    0.364
        39  -8.0300    144.9786    180.5077   9.3975057376e+01   1.5946121738e+01    0.2238527    0.1357204  40.99  0.001027174    1.573    0.364
        40  -9.4729    153.0898     56.2749   6.0152741109e+01   3.9587327284e+01     0.352808    0.2669332 -81.79  0.001597134    1.687    0.407
        41 -10.1040    109.7837    201.4408   1.0518184211e+02   1.7742336478e+01    0.3436502    0.2206254 -40.50  -7.8346e-06    2.022    0.505
        42  -9.4803    239.0124    175.4988   7.3993042583e+01  -4.3924893347e-01     0.198295    0.1260185  38.08 0.0005322438    1.635    0.388
        43 -19.0750      9.1933    149.7616   1.2216042286e+02   4.2080592400e+01      18.9443     3.331111 -76.52    0.0554836    5.552    0.820
        44  -7.5076    168.7329    234.7090   9.7919213398e+01   2.0061451962e+00    0.1179257   0.08862965   9.11 0.0002430454    1.505    0.336
        45 -10.6526    165.6422    216.0263   9.5673921712e+01   5.5470922033e+00    0.5396487    0.2323845  27.60  0.002004873    3.242    0.692
