#   1 NUMBER                 Running object number                                     
#   2 MAG_AUTO               Kron-like elliptical aperture magnitude                    [mag]
#   3 X_IMAGE                Object position along x                                    [pixel]
#   4 Y_IMAGE                Object position along y                                    [pixel]
#   5 X_WORLD                Barycenter position along world x axis                     [deg]
#   6 Y_WORLD                Barycenter position along world y axis                     [deg]
#   7 A_WORLD                Profile RMS along major axis (world units)                 [deg]
#   8 B_WORLD                Profile RMS along minor axis (world units)                 [deg]
#   9 THETA_WORLD            Position angle (CCW/world-x)                               [deg]
#  10 FWHM_WORLD             FWHM assuming a gaussian core                              [deg]
#  11 ELONGATION             A_IMAGE/B_IMAGE                                           
#  12 ELLIPTICITY            1 - B_IMAGE/A_IMAGE                                       
         1 -14.6464      5.6562     76.3188   1.1585503564e+02   5.9287719625e+01     3.149706     1.989006  66.56   0.01797112    2.176    0.540
         2 -13.8502     24.5137     49.4055   1.0198024891e+02   6.3929345096e+01     1.204398    0.7229511 -31.58  0.006926381    1.497    0.332
         3 -15.5890      9.1686     26.5773   1.0156309689e+02   6.9460650207e+01     3.025297     1.161923 -51.94   0.01555226    2.044    0.511
         4 -13.4315     30.6945     10.7902   8.3599301556e+01   7.0150169539e+01     1.422627     0.482436 -34.37  0.006488403    2.600    0.615
         5 -14.7478     43.9869     41.5571   9.0839164744e+01   6.3537728815e+01     3.573137     1.703921 -38.36   0.01700901    1.805    0.446
         6 -14.5520     96.6049     71.4509   8.1953838627e+01   4.9597058827e+01     2.599201     1.658377   0.76  0.001958337    2.554    0.608
         7 -15.4749     60.3499     71.9037   9.4574984929e+01   5.5385697854e+01     3.657779     2.038082   7.63  0.006464549    2.897    0.655
         8 -14.4847     79.7999     69.7414   8.6975032182e+01   5.2940166348e+01     2.727414     1.467233 -22.51  0.008645288    2.822    0.646
         9 -13.9785     69.2871     55.6492   8.5930183049e+01   5.7431836267e+01     1.195916     1.070006 -69.39  0.007010121    1.488    0.328
        10 -13.6160    138.3348      4.2299   4.6943033854e+01   4.9649779989e+01     4.209175    0.1771709  63.21   0.01006548    6.471    0.845
        11 -11.6889     73.3810      1.4958   6.1142018707e+01   6.4529658692e+01    0.3330567    0.1472929  53.08 0.0006030807    2.193    0.544
        12 -13.3174     83.7255     22.7263   6.7550957835e+01   6.0197068207e+01    0.8164536    0.5637938  44.61 0.0004794915    1.418    0.295
        13 -13.4522    123.6427     10.5287   5.1978836280e+01   5.2692078580e+01     1.587095    0.5605387  50.46 0.0005334437    2.336    0.572
        14 -12.5594     75.8349     13.5542   6.6060996566e+01   6.2822835405e+01    0.4479937    0.3502918 -27.21  0.001054951    1.375    0.272
        15 -14.1526     86.2149     11.7459   6.1902786896e+01   6.0974416270e+01     2.659249    0.4927533  51.64  0.008376342    4.306    0.768
        16 -13.2475    185.8215     12.9470   4.2885480627e+01   3.6801546979e+01     0.844767    0.6084306 -26.37  0.004600286    1.527    0.345
        17 -12.4082    193.0063      5.9187   4.0132715203e+01   3.5703646577e+01    0.5644681    0.3558448 -39.04  0.002199899    1.599    0.375
        18 -11.9438    188.2098      5.4979   4.0536129747e+01   3.6942841758e+01    0.4045209    0.2916956 -30.50  0.001631164    1.498    0.333
        19 -11.7999     64.5912     17.9292   7.2164615050e+01   6.4313611534e+01    0.4362881    0.2899048  21.45  0.001262002    1.424    0.298
        20 -14.2200     86.2833      3.4490   5.8130561836e+01   6.1766289204e+01      2.73956    0.5189016  57.49  0.008030725    5.292    0.811
        21 -12.5142    176.0269     13.0192   4.4144678777e+01   3.9281770035e+01    0.6790172    0.4009712  21.22  0.002966019    2.572    0.611
        22  -9.9704    132.6830     14.4643   5.1609420154e+01   5.0108623781e+01     0.226849    0.1279946 -22.33 0.0008899417    1.929    0.481
        23 -12.0545    169.5066     10.5429   4.4277781898e+01   4.1191465576e+01    0.3342497    0.2681406  83.49  0.001223875    1.180    0.153
        24 -12.4511    149.8232      8.4678   4.6505976859e+01   4.6394702210e+01    0.8291947    0.3337497  69.94  0.003027967    2.400    0.583
        25 -10.2971     49.1395      5.0380   7.2026979863e+01   6.8393384998e+01    0.3344369    0.2000488 -19.76  0.001760889    1.520    0.342
        26 -11.7131    168.3427      2.6029   4.2039987237e+01   4.2223423612e+01    0.3378487    0.2697028  46.12  0.001750901    1.280    0.219
        27  -9.8911    211.9151      1.5063   3.7178839146e+01   3.1509505412e+01    0.1909057    0.1140133  77.24 0.0005790364    1.517    0.341
        28 -10.2506      2.4902    171.0035   1.2701684159e+02   3.7717726712e+01    0.1723814   0.06922783  76.88 0.0008100117    2.513    0.602
        29 -10.0631    185.7847    167.5538   8.4039227532e+01   1.0550921588e+01      0.20669    0.1373539  51.98 0.0009093361    1.670    0.401
        30 -12.2464    234.8491    153.7280   7.1432558434e+01   3.4729993515e+00    0.5758897    0.1893724  41.89  0.002076688    3.192    0.687
        31 -10.8042    114.3050     97.1656   8.4456117396e+01   4.0654889440e+01    0.3288278    0.2744623 -54.81 0.0008289977    1.230    0.187
        32 -11.1790     18.6674    154.0038   1.2207539493e+02   4.0243581535e+01    0.2321577    0.1418123  63.06  0.001352772    1.602    0.376
        33 -12.2199    141.2258     96.3292   7.6876308731e+01   3.4993165306e+01    0.7372014    0.6489471 -54.54  0.003175481    1.184    0.156
        34 -10.8488    188.6841     94.5893   6.5630803201e+01   2.4018258652e+01    0.2960959    0.2579968 -68.29 0.0004851011    1.266    0.210
        35 -12.1472    246.8822    145.6631   6.7589539870e+01   2.5790115902e+00    0.5034004    0.3329507 -39.31  0.002630093    1.449    0.310
        36 -11.5848    117.1222     91.1323   8.1893474042e+01   4.1388721313e+01    0.2745162    0.2165275  27.02 0.0006884922    1.375    0.273
        37 -10.7364    249.3508     86.3432   5.3589181546e+01   1.1661407395e+01    0.3482052    0.2729462 -53.26  0.001957837    1.237    0.191
        38  -9.1373    152.4835     88.4926   7.1791309750e+01   3.3940909596e+01    0.1570483    0.1551106 -39.44 0.0008102663    1.027    0.026
        39 -11.5408    128.0558     82.0254   7.6068869454e+01   4.0909875396e+01    0.4188887    0.3937767 -60.70  0.001066572    1.147    0.128
        40 -12.5244    116.7449     74.4519   7.6827108585e+01   4.4902613606e+01    0.6225079    0.4522468  45.41  0.002949522    1.405    0.288
        41 -13.1353    121.7690     81.2957   7.7578347093e+01   4.2448170151e+01    0.8130929    0.5931218  62.46  0.001870017    1.666    0.400
        42 -11.4480    112.7647     81.8072   8.0324957694e+01   4.4261677656e+01    0.5353464    0.4412681   6.62  0.001871429    1.368    0.269
        43 -12.2445    144.4084     75.8463   6.9909575377e+01   3.8301742246e+01    0.7670141     0.543291 -46.72  0.002864389    1.468    0.319
        44  -9.2845    207.3875     77.8554   5.7708175759e+01   2.2449074075e+01    0.2040744    0.1407232 -22.32 0.0005771361    1.607    0.378
        45 -10.3560    135.0899     93.1662   7.7550150631e+01   3.7046964632e+01    0.3730056    0.2968604 -60.86  0.001320085    1.427    0.299
        46  -9.4992    250.2517     73.9901   5.0579950588e+01   1.3374181635e+01    0.1838802    0.1042346 -35.69 0.0007673053    1.548    0.354
        47 -11.0467    152.7074     73.2816   6.7134239110e+01   3.6757100689e+01    0.4712374    0.2454472  44.93  0.001682208    1.948    0.487
        48 -12.3984    126.4525     72.9503   7.3625069458e+01   4.3045605257e+01    0.8025734    0.3810464  59.29  0.002734291    2.891    0.654
        49  -9.8458    170.7001     72.6901   6.3028757677e+01   3.2390399385e+01    0.3186164    0.1959257  81.54  0.001172674    2.575    0.612
        50  -9.6358    182.6789     71.9128   6.0438099584e+01   2.9521730725e+01    0.2082029    0.1868732 -46.98 0.0003363204    1.101    0.091
        51 -11.5791    116.7774     68.5603   7.4878898192e+01   4.6029744359e+01    0.4256038    0.3487684 -10.25  0.001498381    1.306    0.234
        52 -10.9217    118.7073     63.3617   7.2576837201e+01   4.6564306370e+01    0.3833918    0.2473312 -26.03  0.000589102    1.661    0.398
        53 -10.0347    146.4596     66.4239   6.6434480750e+01   3.9506231104e+01    0.3152366     0.216103   6.24  0.001286134    2.117    0.528
        54 -11.8486     24.4982     65.8900   1.0655687932e+02   6.0436397087e+01    0.3402222    0.1870032 -35.36  0.001811491    1.721    0.419
        55 -11.0166    214.4417     60.9991   5.2153881544e+01   2.3436094700e+01    0.3744691    0.2527028 -28.40  0.001807733    1.524    0.344
        56 -10.7263    169.5676     62.9310   6.0328613203e+01   3.4321098424e+01     0.511448    0.2040251  57.50  0.001682188    2.499    0.600
        57 -10.6066    227.2101     57.4178   4.9489618336e+01   2.0953213897e+01    0.2660529    0.2282882 -51.65 0.0005098574    1.061    0.058
        58 -11.7563    124.7542     57.3248   6.8847638675e+01   4.6248985765e+01    0.4037145    0.2873986  43.94 0.0006218136    1.374    0.272
        59 -11.3699    174.6268     56.4383   5.7396399408e+01   3.4068062850e+01    0.2661074    0.2524007 -86.89  0.000404918    1.058    0.055
        60  -9.9341    137.4805     55.5240   6.4999809231e+01   4.3531743757e+01    0.3842944    0.1565084  41.31    0.0012974    2.742    0.635
        61 -11.8405    133.0703     53.6644   6.5448231595e+01   4.4895465291e+01    0.3960004    0.2915849  51.49 0.0007562649    1.332    0.249
        62 -10.7667    153.4418     53.3198   6.0641629248e+01   3.9931214126e+01    0.5051802    0.2487162  36.78  0.001476626    2.584    0.613
        63 -11.3697    145.4001     50.5754   6.1497400825e+01   4.2366922904e+01    0.3471136    0.3055349 -48.95 0.0008420147    1.212    0.175
        64 -11.5282     98.8064     50.1769   7.3777420627e+01   5.3112368144e+01    0.6571154    0.2866975  44.27  0.002602637    2.275    0.560
        65 -10.9693    135.6990     98.2324   7.8859242224e+01   3.5844475006e+01     0.563977    0.3207342  33.38  0.002162169    2.086    0.521
        66 -11.0858    137.5593     48.3428   6.2539464162e+01   4.4641186320e+01    0.3933248    0.3241625 -64.63  0.001528205    1.456    0.313
        67 -10.7614    139.7111     43.8816   6.0513278726e+01   4.4773653383e+01     0.422877    0.2784195  69.42  0.001454267    1.745    0.427
        68 -10.7215    175.6889     44.3222   5.3559449503e+01   3.5583251826e+01    0.4099544    0.2511351 -44.11  0.001850864    1.669    0.401
        69 -11.0829    181.8300     43.3513   5.2245886653e+01   3.4145563604e+01    0.3099369    0.2438888  51.82 0.0003590132    1.269    0.212
        70 -11.2569    122.2608     43.4988   6.4600805419e+01   4.9028043065e+01    0.2939509    0.2510001  27.15 0.0006088692    1.134    0.118
        71 -10.9542    203.1385     43.7059   4.9142794592e+01   2.8711949829e+01    0.3498796    0.2155747  61.78   0.00160024    1.593    0.372
        72 -11.4545    157.4205     43.4561   5.6639784974e+01   4.0383355266e+01    0.3924551    0.2520548  52.07 0.0008834467    1.477    0.323
        73 -11.2593    196.8782     40.1786   4.9053643503e+01   3.0757364620e+01     0.441274    0.2742587 -53.47  0.002058618    1.675    0.403
        74 -12.6199    216.6418     38.7571   4.6080184095e+01   2.6071608333e+01     0.731231    0.2986458  60.88  0.002993667    2.361    0.576
        75 -11.4093    204.1434     37.4000   4.7302126427e+01   2.9310912289e+01    0.6732622    0.3109134  59.13  0.002495096    2.073    0.517
        76 -10.3439    159.8573     36.2337   5.3853100584e+01   4.0742093159e+01    0.2306201    0.2114872  63.60  0.000349433    1.038    0.036
        77  -9.7163    140.3324     35.3223   5.7423685359e+01   4.5801040776e+01    0.1564359    0.1051779  28.20 0.0003645044    1.702    0.412
        78 -12.6578     80.5503     32.0807   7.2631807848e+01   5.9522190583e+01    0.7415459    0.5751503  48.12  0.002613367    1.462    0.316
        79 -10.1915    189.5139    153.4875   8.0183608462e+01   1.2472503287e+01    0.1500919    0.1409605   2.96 7.542294e-05    1.003    0.003
        80 -11.7754     58.7537    144.5039   1.1081357016e+02   3.8340098325e+01    0.6631573    0.3712043  58.80  0.003081576    2.074    0.518
        81 -12.7872     47.2922    142.1723   1.1350852067e+02   4.0257508925e+01     0.513814    0.4501789  21.26  0.002703981    1.419    0.295
        82  -9.8666     90.3949    145.7626   1.0260423119e+02   3.3525335138e+01    0.2091535    0.1269366 -50.24 0.0009506207    1.630    0.386
        83 -11.5063    213.3057    142.3990   7.2846266489e+01   9.6260907394e+00    0.6361408    0.3412894  58.32  0.002496004    2.608    0.616
        84 -11.7778     76.4938    137.0203   1.0475128809e+02   3.7770997666e+01    0.4203031     0.211752 -52.75  0.001821766    1.850    0.459
        85  -9.8559     97.1399     34.0630   6.8051541782e+01   5.5960999744e+01    0.2223308    0.1740909  13.39 0.0009152287    1.259    0.206
        86 -10.4441    151.2881     31.7199   5.3983431643e+01   4.3505552530e+01    0.4027261    0.2573607  65.65  0.001888328    1.536    0.349
        87  -9.9609    103.9471     29.4847   6.4214995976e+01   5.5130346535e+01      0.21732    0.1283187  48.16  0.001028103    1.589    0.371
        88  -9.6590    216.4785     28.4730   4.3472849345e+01   2.7427140865e+01    0.1349231    0.1228721 -76.65 0.0004249311    1.033    0.032
        89 -10.0658    108.8066     27.8849   6.2239420831e+01   5.4258539778e+01    0.2585341    0.1703457  38.99  0.001290236    1.417    0.294
        90  -9.6674    168.4787     27.5573   4.9637455148e+01   3.9612203397e+01    0.2725726     0.105804  53.63  0.001029379    2.327    0.570
        91 -11.4108    241.7337     22.7104   3.9580718757e+01   2.2260829243e+01    0.3869118    0.2467509 -80.08  0.001090149    1.575    0.365
        92 -10.0784    235.5115     21.4926   3.9857236146e+01   2.3807825579e+01    0.2639359    0.1192991  71.38  0.001213545    2.178    0.541
        93 -11.6100    149.9964     21.5054   5.0816190222e+01   4.5034698606e+01    0.4252493    0.3253267  61.60  0.001532776    1.201    0.167
        94 -11.3042    153.5331     20.5388   4.9877473131e+01   4.4241260723e+01    0.3372401    0.2382458 -42.83 0.0009873632    1.527    0.345
        95 -10.3857    139.4642     21.0159   5.2612491501e+01   4.7741324935e+01    0.2826748    0.1983234  59.37  0.000630074    1.306    0.234
        96 -10.9016    209.0537     19.0447   4.1874390888e+01   3.0348652670e+01    0.3507365    0.2480378 -55.35  0.001469599    1.350    0.259
        97 -10.9556     33.7984    135.9055   1.1624525096e+02   4.3166363048e+01    0.2261497    0.1784995  67.25 0.0009981378    1.290    0.225
        98 -11.5014     82.1351    134.3949   1.0269254470e+02   3.7570666468e+01     0.304662    0.2085684 -66.73  0.001487762    1.420    0.296
        99 -10.6397    225.0139    134.4968   6.8833559104e+01   8.6416021851e+00    0.2168495    0.1435697  45.13  0.001039403    1.609    0.379
       100 -11.2349    249.0809    129.8217   6.3692603342e+01   4.7273413803e+00    0.2710198    0.1972049 -20.58  0.001454914    1.291    0.226
       101 -12.2809    204.5156    125.4522   7.0503636587e+01   1.4598170090e+01    0.6125321    0.3838019 -46.07  0.002704837    1.635    0.388
       102 -10.9177    122.1187    127.2242   9.0130265983e+01   3.2232183848e+01    0.3786232    0.3505868  49.81  0.001328004    1.101    0.091
       103  -9.8969    250.3094    108.3558   5.8588938984e+01   7.9651441463e+00    0.1419598    0.1034933   0.02 0.0007042993    1.728    0.421
       104  -9.9808    124.0077    205.9944   1.0441661439e+02   1.4575946313e+01    0.1843917    0.1638442  52.84  0.001131151    1.011    0.011
       105  -9.1658    246.4791    183.4779   7.5633963699e+01  -3.1601713512e+00    0.1331262    0.1075045  -1.97 0.0008097343    1.029    0.028
       106  -9.7915    240.6510     34.1159   4.2312465018e+01   2.1085704940e+01    0.1828777    0.1534616 -46.71 0.0005925631    1.116    0.104
       107 -10.5443     34.4405    177.0342   1.2062742987e+02   3.3470585874e+01    0.2276751    0.1643156  -3.76  0.001280682    2.469    0.595
       108 -10.8349    176.6210     33.5109   5.0156276646e+01   3.6787401187e+01    0.2935888    0.2457034  66.98 0.0006706999    1.132    0.116
       109 -10.9305    202.7121    173.4431   8.1777915606e+01   6.1817545577e+00    0.2575144    0.1688938 -14.93  0.001129324    1.813    0.449
