#   1 NUMBER                 Running object number                                     
#   2 MAG_AUTO               Kron-like elliptical aperture magnitude                    [mag]
#   3 X_IMAGE                Object position along x                                    [pixel]
#   4 Y_IMAGE                Object position along y                                    [pixel]
#   5 X_WORLD                Barycenter position along world x axis                     [deg]
#   6 Y_WORLD                Barycenter position along world y axis                     [deg]
#   7 A_WORLD                Profile RMS along major axis (world units)                 [deg]
#   8 B_WORLD                Profile RMS along minor axis (world units)                 [deg]
#   9 THETA_WORLD            Position angle (CCW/world-x)                               [deg]
#  10 FWHM_WORLD             FWHM assuming a gaussian core                              [deg]
#  11 ELONGATION             A_IMAGE/B_IMAGE                                           
#  12 ELLIPTICITY            1 - B_IMAGE/A_IMAGE                                       
         1 -14.9308      6.9685      6.8877   3.6000101226e+01   7.7934658577e+01     2.306932     1.363807 -50.56   0.01273424    1.948    0.487
         2 -14.0151     20.3915      5.3947   2.3638630604e+01   7.6183117246e+01     1.221139    0.6587284  28.56  0.006156751    1.944    0.486
         3 -12.3837    175.9035     15.5903   3.4972493278e+02   3.9571399061e+01    0.3470436    0.2591614 -67.76 0.0009049626    1.115    0.103
         4 -12.8767    167.9238     15.7733   3.5043291907e+02   4.1305097502e+01    0.3778035    0.2558039  76.42  0.001046314    1.435    0.303
         5 -12.1835     65.0033      6.1578   3.0555230796e+00   6.6855571821e+01    0.3297811    0.2771841  37.38 0.0008363638    1.183    0.154
         6 -10.9930     81.9145      5.8768   3.5862383763e+02   6.2850996023e+01    0.2961333    0.1551371  37.63  0.001358681    2.263    0.558
         7 -11.9000    154.4246      3.4706   3.4810515725e+02   4.5571060228e+01    0.3415383    0.1489791 -69.74  0.001439493    2.368    0.578
         8 -12.0489    145.7319      2.7728   3.4861724388e+02   4.7645871701e+01    0.2687864     0.150649  63.48  0.001443496    1.761    0.432
         9 -10.7188     82.3117    202.6506   5.3244467146e+01   2.0846334096e+01    0.1438407   0.09636348  58.40 0.0007045676    1.718    0.418
        10 -10.4038    231.6516    194.3197   2.0980405218e+01   3.6481502123e+00    0.0965137   0.08474727 -49.38 0.0007048738    1.736    0.424
        11 -10.6513    186.2473    193.6395   2.8418018748e+01   8.9561999276e+00    0.2231844    0.1390502 -47.51  0.001252651    1.730    0.422
        12 -10.4751     40.3292    192.6880   6.3517901400e+01   2.8021366977e+01    0.1501901   0.08822216  54.92 0.0004935929    1.669    0.401
        13 -11.4749     68.0372    175.5125   5.3707802877e+01   2.9079521641e+01    0.3051518    0.2500204  35.20 0.0007729537    1.164    0.141
        14 -11.3918    219.3018    174.2601   1.9447616651e+01   7.9934009358e+00    0.2171295    0.1824048 -42.86  0.001529296    1.391    0.281
        15 -12.9176     16.0821    163.5906   6.8306797915e+01   3.7738995268e+01    0.6039779    0.2528719  28.73  0.002517009    2.195    0.544
        16 -12.2403     20.0260    154.9905   6.6329393339e+01   3.9723163703e+01    0.4655543    0.2460621 -74.78   0.00206782    1.782    0.439
        17 -12.7809     23.6229    146.3685   6.4287948045e+01   4.1767109290e+01    0.7477272    0.3799804  71.15  0.002982017    2.289    0.563
        18 -12.2023      2.2389    147.3653   7.1670934620e+01   4.3107359526e+01     0.710093    0.6377999 -43.05  0.004227938    1.241    0.194
        19 -11.6926      6.2597    141.9863   6.9919694663e+01   4.4320263436e+01    0.2605767    0.1900369 -76.91 0.0003165507    1.262    0.208
        20 -12.2451      9.5050    141.4881   6.8745805803e+01   4.4236593926e+01    0.5431318    0.2904108  62.82  0.001672262    1.923    0.480
        21 -10.3520     36.6834    145.3434   5.9663884476e+01   4.0776808028e+01    0.1622375    0.1018459  61.17 0.0007048544    1.715    0.417
        22 -10.6273    174.1682    140.1569   2.0600516035e+01   2.0276065918e+01    0.1840372    0.1597119 -62.89  0.001079937    1.327    0.246
        23 -12.8338     17.1476    134.3589   6.5338087494e+01   4.5641061007e+01    0.7289823    0.4286985  89.64  0.003283393    1.707    0.414
        24 -11.6121     12.5011    135.5581   6.7154393640e+01   4.5662895755e+01    0.3563217    0.3125789  56.38 0.0009522648    1.120    0.107
        25 -10.8624    216.0000    135.0246   1.2615108038e+01   1.4638753467e+01    0.2102739   0.05784566 -39.89 0.0007995586    2.923    0.658
        26 -11.3960     81.4935    134.0079   4.2638545804e+01   3.7790608693e+01    0.2395652    0.1494559 -57.82 0.0008031836    1.577    0.366
        27 -10.4268     26.5161    134.5092   6.1917535054e+01   4.4789362911e+01    0.1464593    0.1373736 -77.87  0.000810131    1.036    0.035
        28  -9.9538    237.3338    132.2917   9.2225117035e+00   1.2089145417e+01    0.1132388   0.07911695 -13.07 0.0007022733    1.635    0.388
        29 -11.2659     68.0218    128.8531   4.6066546509e+01   4.1244655631e+01    0.3590894      0.25886   9.20 0.0009969684    1.705    0.414
        30 -10.2125    165.5100    127.9861   1.9636896147e+01   2.4088368261e+01    0.2202249    0.1259897 -43.78  0.001026287    1.574    0.365
        31 -10.9700     20.4158    126.0466   6.3168932015e+01   4.7694100885e+01    0.2815885    0.2109895  68.15   0.00141748    1.359    0.264
        32 -10.0869    132.5038    126.5634   2.6537627587e+01   3.0464463853e+01    0.1472579    0.1400356 -66.50 0.0001284501    1.084    0.077
        33 -10.4556     60.3797    122.6084   4.7507566281e+01   4.4042190476e+01    0.2301906    0.1720905  67.74 0.0007927095    1.534    0.348
        34 -12.0443     67.8100    119.9933   4.4299387323e+01   4.3622728680e+01    0.3811328    0.3226472 -85.20 0.0006550443    1.257    0.204
        35 -10.4108    157.6631    120.2954   1.9454948125e+01   2.7025246167e+01    0.1407081    0.1108227 -80.46 0.0003812239    1.650    0.394
        36 -10.3371     80.3958    117.8036   3.9462540869e+01   4.2133363276e+01    0.2175617    0.1396286 -46.29 0.0003183522    1.568    0.362
        37 -11.1544     53.5653    117.6974   4.9037102531e+01   4.6329396154e+01    0.2726866    0.2453444  53.58  0.000512742    1.133    0.117
        38 -11.9696    208.3405    113.6103   9.3422297394e+00   1.9288329742e+01    0.5948059    0.1868455 -32.33  0.001992797    4.018    0.751
        39 -11.7019     87.2920    117.4066   3.7097446179e+01   4.1030977983e+01    0.3593245    0.2330772  83.02  0.001346532    2.563    0.610
        40 -12.3871     23.6979    115.5705   6.0467615560e+01   5.0337525742e+01    0.3301111    0.2734911  46.19 0.0004620852    1.240    0.193
        41 -12.0956    222.6152    112.9911   7.3080416196e+00   1.7132729224e+01    0.2823773    0.1933677  -5.51   0.00156823    2.183    0.542
        42 -12.4554     38.9079    105.3070   5.2372619529e+01   5.1587344937e+01    0.6116748    0.4300402  74.49  0.001987314    1.695    0.410
        43 -12.2598    136.5736    108.5797   2.1194624563e+01   3.3508031836e+01    0.2637602    0.2493445 -26.88 0.0003593133    1.101    0.092
        44 -11.0086    115.9663    107.2279   2.6004749635e+01   3.7963266158e+01    0.3009343    0.2192107 -41.07 0.0009191979    1.370    0.270
        45 -11.7802     39.5088    111.9691   5.3422359209e+01   4.9692839063e+01    0.4779416    0.3370452 -52.95  0.001409633    1.365    0.267
        46 -11.1561     86.4154    101.8747   3.3452137349e+01   4.5012632130e+01    0.2889679    0.2313702  69.59 0.0006440597    1.447    0.309
        47 -12.2402     10.5475     98.7705   6.3718185304e+01   5.6044448539e+01    0.4613754    0.4054259  86.46  0.001400116    1.124    0.110
        48 -10.9718    240.6023     93.1089   1.2769149245e+00   1.7350044255e+01    0.3699414   0.07350285 -39.82  0.001396648    3.422    0.708
        49 -10.2767    188.0000    110.0112   1.1602725954e+01   2.3360972479e+01    0.2277099   0.06641752 -40.24  0.000800675    2.930    0.659
        50 -11.9167     24.6902     92.5183   5.6109055230e+01   5.6600299705e+01     0.430881    0.2792573 -69.64  0.001390386    1.477    0.323
        51 -10.2634     73.3784     93.1421   3.5613052004e+01   4.9538889560e+01    0.2206429    0.1444677 -68.30 0.0007022989    1.797    0.444
        52 -11.1020    144.8687     90.3689   1.4612856923e+01   3.5411585361e+01    0.2685825    0.1852152 -51.61  0.001242288    1.384    0.278
        53 -10.8274     86.9816     90.5076   3.0068647814e+01   4.7587362275e+01    0.2358688     0.151603  42.65  0.000611636    1.575    0.365
        54 -11.8991     52.2332     89.6890   4.3049581423e+01   5.3922724557e+01    0.2635915     0.201106  15.81   0.00058257    1.466    0.318
        55 -11.4215      2.7213     87.0315   6.5794807701e+01   5.9719606915e+01    0.2493783    0.2036761 -16.13 0.0006356248    1.310    0.236
        56 -11.0200     63.3440     81.7886   3.6155467153e+01   5.4062248340e+01     0.344215    0.2441102 -29.38  0.001017738    1.674    0.402
        57 -12.9977     10.6851     77.5580   6.0153587410e+01   6.1773350691e+01    0.6977053    0.3130127 -58.33  0.002960775    1.906    0.475
        58 -11.9087    138.4781     79.7198   1.3008174897e+01   3.8784313828e+01    0.3026309    0.2542904 -50.49 0.0005909431    1.116    0.104
        59 -10.8773    107.2809     80.0207   2.0660790163e+01   4.5623889640e+01    0.2453499    0.2183495  54.41 0.0004791692    1.137    0.120
        60 -11.4040     34.3680     76.7898   4.7738942361e+01   5.9669046346e+01    0.3560626    0.2806356 -79.84  0.001268823    1.412    0.292
        61 -10.5732     80.8381     76.9316   2.7983021901e+01   5.1869338931e+01     0.224842    0.2036302 -11.85 0.0003746657    1.237    0.192
        62 -11.2040    225.6909     75.0705   3.5910549737e+02   2.2269567469e+01    0.2949632    0.1607606 -43.68  0.001701026    1.405    0.288
        63 -10.8242     55.6162     76.2264   3.7667798289e+01   5.6706427461e+01    0.3130409     0.210992  23.30  0.001420294    1.664    0.399
        64 -10.5432    206.5022     73.4788   8.0283392363e-01   2.5868483918e+01    0.1274734    0.1020539 -50.43 0.0008102664    1.014    0.014
        65 -11.7295     44.3812     70.0861   4.0842160748e+01   5.9946762158e+01    0.4071809    0.2921807  37.62  0.002007757    1.414    0.293
        66 -11.2221     25.6600     68.5319   4.9953793750e+01   6.2761354610e+01     0.326854    0.2018281 -24.84  0.001304739    1.918    0.479
        67 -10.9242      2.9885     68.2831   6.2640359123e+01   6.4677172290e+01    0.1938462    0.1799909 -26.77 0.0009152816    1.085    0.078
        68 -10.4793    203.3878     65.3860   3.5930987247e+02   2.7623533561e+01    0.2390097    0.1119324 -23.53 0.0009585646    3.268    0.694
        69 -12.1730     17.7854     63.1755   5.2877692826e+01   6.4891478864e+01    0.4766565    0.2393935  25.98  0.001079308    2.003    0.501
        70 -11.1412    250.5001     56.0340   3.5315829176e+02   2.0782772386e+01    0.1664518   0.08177916 -38.39 0.0003856083    1.503    0.335
        71 -11.3312     68.4066     55.7410   2.5069995347e+01   5.8797955572e+01    0.4159468    0.2552833  26.99   0.00176286    2.112    0.527
        72 -10.7766     62.1713     55.3873   2.7463493546e+01   6.0107464593e+01    0.3175934     0.208436  50.42  0.001129908    1.577    0.366
        73 -11.0584    198.0044     53.9885   3.5722989438e+02   3.0259343994e+01    0.1892812    0.1534879 -53.94 0.0003267322    1.013    0.013
        74 -11.3252     14.5495     53.6520   5.2076883353e+01   6.7509010809e+01    0.3039121    0.2123628 -21.23  0.001539365    1.491    0.329
        75 -12.0990     87.0016     51.4349   1.6848694530e+01   5.5592637756e+01    0.7990751    0.2661698  45.22   0.00264238    3.147    0.682
        76 -11.0661    245.2976     52.3070   3.5279908296e+02   2.2065256314e+01   0.09651068   0.08109485 -16.40 0.0002219738    1.590    0.371
        77 -11.4423      4.2663     49.7492   5.7668005533e+01   6.9243055120e+01    0.3959898    0.2757571  21.41   0.00217348    1.496    0.332
        78 -13.4559     74.4531     45.5500   1.8697445310e+01   5.9401577011e+01      1.04434    0.6861211  50.80  0.004720093    1.466    0.318
        79 -12.7325     54.3181     45.2010   2.6691882576e+01   6.3601427636e+01    0.6268346    0.4254734  16.87  0.001975758    1.939    0.484
        80 -10.8340    174.7397     44.6032   3.5745315763e+02   3.6331992747e+01    0.3590105   0.06978108 -38.16   0.00120373    3.669    0.727
        81 -11.4736     28.0070     42.6680   3.9615680507e+01   6.8461102907e+01    0.3762216    0.2659503  51.92  0.001929072    1.750    0.429
        82 -11.5224     32.1984     41.0032   3.6367175517e+01   6.8206449729e+01    0.3713967    0.2362981 -24.28  0.001764346    1.898    0.473
        83 -10.7467     16.0204     46.2118   4.8669452510e+01   6.9106859394e+01    0.2205747    0.1419635  49.18 0.0008673543    1.943    0.485
        84 -11.6400    247.4776     39.9975   3.5024056739e+02   2.3206114665e+01    0.1743266   0.08255564 -36.83  0.001041297    1.620    0.383
        85 -12.1399     77.2834     32.4998   1.2133977306e+01   6.0840443793e+01    0.5244079    0.2999955 -31.13  0.002437313    1.919    0.479
        86  -9.8502    117.4176     31.4043   1.8465242365e+00   5.1386880544e+01    0.1353132    0.1229639  89.65 5.890296e-05    1.010    0.010
        87 -10.0204     90.2777     31.3360   7.8541841608e+00   5.7960468091e+01    0.1376669    0.1053654  25.46 0.0006749862    1.611    0.379
        88 -10.6850    183.5185    245.5260   3.6772918087e+01   1.2981719915e+00    0.1968061    0.1500792  -1.28 0.0007714917    1.026    0.026
        89 -11.1730     81.3870    238.9893   5.7333412708e+01   1.3451594656e+01    0.2407607    0.2380933  28.96  0.001561851    1.172    0.147
        90 -11.1230     94.4164     23.2231   3.4633603823e+00   5.8001908556e+01    0.2518518     0.201314 -85.73 0.0006592955    1.296    0.228
        91 -11.3330     33.2917     27.1984   2.8938972797e+01   7.0634746429e+01    0.2498992     0.213448  33.47 0.0007033436    1.133    0.118
        92 -11.8378    107.5905     21.8456   1.6688596761e-01   5.4947575789e+01    0.2373285    0.2052545  78.61 0.0003577232    1.053    0.050
        93 -11.3167    236.8389     21.2306   3.4712655326e+02   2.7107659185e+01    0.2074413   0.06221176 -57.00 0.0009611853    2.904    0.656
        94 -11.5607    154.9071     20.2244   3.5292588360e+02   4.3772033674e+01    0.3038557    0.2170372  56.09  0.001472552    1.573    0.364
        95 -12.1257    240.3793    232.7411   2.5597714786e+01  -2.2363296402e+00     0.303597     0.278973  20.55  0.002582882    1.942    0.485
        96 -10.9738    246.7912    226.8912   2.3812587785e+01  -2.0596593952e+00    0.2277492    0.1121287 -38.85  0.001491478    1.890    0.471
        97 -10.2854    226.5506     26.2022   3.4871925455e+02   2.8355643212e+01    0.2551624    0.0841041 -35.09  0.001247846    2.345    0.574
        98  -9.6702    208.2518     10.6721   3.4640492380e+02   3.3444742238e+01    0.1212319   0.06069034 -54.65 0.0004951096    1.549    0.354
        99 -12.5076    136.8369    218.6907   4.2357701129e+01   1.0742968485e+01    0.4440886    0.2415434 -65.78  0.002002519    3.102    0.678
       100 -10.2274     62.8631    216.8791   5.9734964920e+01   2.0004060842e+01     0.187719    0.1369988  52.56 0.0006420024    1.333    0.250
       101 -10.4661     98.5971    219.7872   5.1254689463e+01   1.5220514821e+01    0.1652969    0.1286953 -78.22 0.0009552915    1.628    0.386
