#   1 NUMBER                 Running object number                                     
#   2 MAG_AUTO               Kron-like elliptical aperture magnitude                    [mag]
#   3 X_IMAGE                Object position along x                                    [pixel]
#   4 Y_IMAGE                Object position along y                                    [pixel]
#   5 X_WORLD                Barycenter position along world x axis                     [deg]
#   6 Y_WORLD                Barycenter position along world y axis                     [deg]
#   7 A_WORLD                Profile RMS along major axis (world units)                 [deg]
#   8 B_WORLD                Profile RMS along minor axis (world units)                 [deg]
#   9 THETA_WORLD            Position angle (CCW/world-x)                               [deg]
#  10 FWHM_WORLD             FWHM assuming a gaussian core                              [deg]
#  11 ELONGATION             A_IMAGE/B_IMAGE                                           
#  12 ELLIPTICITY            1 - B_IMAGE/A_IMAGE                                       
         1 -13.5384    167.7686     74.5089   7.9859608410e+01   3.2958274073e+01     2.408556     1.311349 -38.54  0.005183571    1.862    0.463
         2 -15.7546    245.8579     96.5223   7.1427733655e+01   1.0327112645e+01     8.762358     2.888656 -31.72   0.02920231    3.176    0.685
         3 -17.0521    244.0297     33.3028   5.6596762368e+01   2.0057366842e+01     9.024882     3.014665  64.94   0.03355411    2.834    0.647
         4 -15.5060    210.9194     67.4804   6.9745566232e+01   2.3312940707e+01     5.444396      3.68057  83.37   0.02272843    1.829    0.453
         5 -14.4584    244.8280     13.3482   5.1923285145e+01   2.2301204219e+01    0.6714938    0.5597733  68.58  0.003244018    1.216    0.177
         6 -14.7076    248.3580      6.8475   5.0150022575e+01   2.2210064911e+01        1.115    0.5500451 -66.30  0.004349649    2.242    0.554
         7 -11.4951    111.9727     30.6907   7.9077206226e+01   5.2425677307e+01     0.510052    0.2908285  -1.25  0.002169197    2.582    0.613
         8 -11.7238    207.3106     17.4671   5.7062512305e+01   3.1012707068e+01    0.5376169    0.4848557  52.79  0.001674446    1.168    0.144
         9 -11.0889    205.2496     12.6253   5.6058088575e+01   3.2065871494e+01    0.3393085    0.2173116 -39.22  0.001210807    1.622    0.384
        10 -10.7978     92.2177     14.2669   7.8346763065e+01   5.8289102718e+01    0.5229578    0.2021703 -25.20  0.002268577    2.656    0.623
        11 -10.0803     79.2121      6.9106   7.9222071722e+01   6.1418203888e+01    0.3078199    0.1455098 -23.05  0.001562759    2.078    0.519
        12  -9.2460    180.1016      3.2351   5.6771758311e+01   3.9355413959e+01    0.2170379    0.1856831 -40.84 0.0003843498    1.294    0.227
        13  -7.9832    166.2493      1.3391   5.8196761895e+01   4.2987944826e+01    0.1341328   0.09167014  34.16 0.0003194613    1.566    0.362
        14 -10.6193     85.7342      3.1757   7.5754917763e+01   6.0642679128e+01    0.4165932    0.1625531  37.28  0.001884415    2.414    0.586
        15 -11.9971    243.4062    240.2069   1.0131716633e+02  -1.0036767635e+01    0.2332509     0.186955  32.84 0.0002431597    1.187    0.157
        16 -12.7137     54.6130    157.3715   1.2556999017e+02   3.6389886422e+01    0.7758447    0.6231668 -84.43  0.003127094    1.033    0.032
        17  -9.4620    248.0760    162.1160   8.5909560008e+01  -5.7239997612e-01    0.2019048    0.1821693   2.62 0.0004120821    1.022    0.021
        18  -8.8057    203.8717    160.9376   9.3841853058e+01   8.6328580177e+00    0.2181707    0.1790267 -89.52  0.000750227    1.660    0.398
        19  -8.7140    104.6900    160.0801   1.1492213945e+02   2.8610678393e+01     0.174252    0.1573412 -76.30  0.000252798    1.083    0.077
        20 -11.6865     91.6092    238.4443   1.2748255264e+02   1.5513264818e+01    0.3485336     0.323874  46.75  0.002676256    1.511    0.338
        21 -11.8792     61.1372    152.9831   1.2355432069e+02   3.6537644856e+01    0.5958302    0.3174295 -76.36  0.001259891    1.887    0.470
        22 -10.0704    217.2352    150.7674   8.9053416274e+01   7.5427549531e+00    0.2438368    0.2203848  18.09 0.0003145226    1.071    0.066
        23  -8.7724    134.0000    147.0547   1.0584450745e+02   2.6043643307e+01    0.2383851   0.08199983 -49.52 0.0008052621    2.962    0.662
        24  -8.5792    179.1547    146.4304   9.5734989348e+01   1.6663601703e+01    0.2151829    0.1390159  59.66 0.0009356762    1.722    0.419
        25  -8.4507    103.1555    145.1188   1.1262904668e+02   3.2102850614e+01    0.1767269    0.1461671  81.59 0.0009885889    1.229    0.186
        26  -8.9103    191.8800    144.1010   9.2567551466e+01   1.4287612193e+01    0.2252125    0.2028114  86.38  0.000431085    1.274    0.215
        27  -8.9624    192.9535    139.7012   9.1348503642e+01   1.4868416151e+01     0.267228    0.1818898  45.45 0.0006116391    1.418    0.295
        28 -10.2495    188.8202    137.9952   9.1806477890e+01   1.6118933604e+01    0.3309019    0.2647301  62.44   0.00158541    1.343    0.255
        29  -8.7791    132.5145    137.3269   1.0415445095e+02   2.8397554179e+01    0.3089684     0.142879 -49.05  0.001213948    2.177    0.541
        30 -11.0418    210.3168    136.0253   8.7047216326e+01   1.1637869798e+01    0.4844127    0.3264234  51.18  0.002268323    1.485    0.327
        31  -8.4929     97.1434    131.8486   1.1153190051e+02   3.6007498989e+01    0.1819369    0.1592535 -36.18 0.0004308486    1.291    0.225
        32 -10.4073    189.3801    130.5277   8.9945759682e+01   1.7404058852e+01    0.2746296    0.2501776 -49.88  0.001058716    1.146    0.127
        33 -10.4891    134.5279    123.1523   1.0049747812e+02   3.0998802057e+01     1.064386    0.3628911 -53.95  0.003217963    3.715    0.731
        34  -9.8968    128.7934    114.9833   9.9951530426e+01   3.3885062046e+01    0.4057314    0.2354203 -67.28  0.001395783    2.595    0.615
        35 -11.5863    204.3269    123.7576   8.5314791970e+01   1.5213308055e+01    0.9115346    0.3958823 -31.63  0.003207471    2.663    0.625
        36  -9.7037    197.4672    130.0206   8.8175120403e+01   1.5644620770e+01    0.2482155    0.2001676  49.10 0.0006986268    1.217    0.178
        37  -9.0351    160.7910    128.8803   9.5729736024e+01   2.4200015005e+01    0.2955991    0.2181356 -65.04  0.001258534    1.613    0.380
        38 -11.5358    185.4227    122.0115   8.8719942459e+01   1.9936476084e+01    0.6343254    0.5342507 -27.94  0.003203169    1.253    0.202
        39  -8.5422    198.3382    122.6719   8.6237453801e+01   1.6802772630e+01    0.1568115    0.1525515  24.98 0.0004590443    1.013    0.013
        40 -10.6969    194.9353    118.7724   8.5968633747e+01   1.8320827791e+01    0.4750847    0.3155062  74.47  0.001350983    2.140    0.533
        41  -8.9788     90.9810    116.3229   1.0988255872e+02   4.0401581320e+01    0.3116338    0.1709604 -61.31  0.001157842    1.871    0.466
        42 -10.8645    167.6452    114.0773   9.0584026405e+01   2.5606198058e+01    0.4720773      0.39006  37.42  0.001226107    1.236    0.191
        43  -9.4237    175.3301    114.8771   8.9100260966e+01   2.3664101748e+01    0.2483803    0.1946705 -59.58 0.0009684561    1.431    0.301
        44  -8.8419    158.1293    114.2588   9.2776321300e+01   2.7744432030e+01    0.3466828     0.178117 -62.46  0.001093779    3.499    0.714
        45  -9.8131    134.7511    109.3660   9.7094161951e+01   3.3837128370e+01    0.8647387    0.1722771 -44.91   0.00218789    4.984    0.799
        46  -9.0969    196.0921    111.4983   8.3927552768e+01   1.9392294267e+01     0.235348    0.1496738  51.02 0.0006300496    1.551    0.355
        47  -8.4570    140.4103    105.8478   9.4813319729e+01   3.3359529776e+01    0.2133263    0.1424733 -30.89  0.000935693    1.697    0.411
        48 -10.8536    119.9449    103.2671   9.9270887142e+01   3.8092729823e+01    0.3101509    0.2813407  34.22 0.0007325565    1.150    0.130
        49  -8.3269     93.4726    103.9690   1.0642872923e+02   4.2674259205e+01    0.1939869    0.1190183 -74.55 0.0008090598    2.464    0.594
        50  -9.1008    155.4713    101.9780   9.0223105675e+01   3.0788278671e+01    0.3639095    0.1873832 -54.06  0.001337895    2.399    0.583
        51 -10.2999    155.6175     96.6876   8.8775192842e+01   3.1785497991e+01    0.5064589    0.3073469  33.82  0.001844943    1.947    0.486
        52  -9.3103    146.4906    101.9410   9.2327575360e+01   3.2818329814e+01    0.2830843    0.2322893  14.92 0.0006820717    1.453    0.312
        53 -11.1061    196.5847     96.4956   7.9988408682e+01   2.1994698046e+01    0.4948284     0.422501  12.65  0.001642688    1.346    0.257
        54  -9.4506    133.5613     98.2475   9.4506073105e+01   3.6357793301e+01    0.2943862    0.2343038 -86.00 0.0005429856    1.631    0.387
        55  -9.3983    209.4725     96.9059   7.7655246134e+01   1.8786694541e+01    0.3667912    0.2205117  62.19 0.0006096706    1.821    0.451
        56 -10.2012    139.8808     92.2297   9.1310656022e+01   3.6193410970e+01    0.3661373    0.3068269 -70.98  0.001011486    1.396    0.284
        57 -14.3804    241.2852     45.5475   5.9821901832e+01   1.9077842622e+01     1.166978    0.5814267 -68.55  0.004071306    3.142    0.682
        58 -10.8805    160.9482     87.4343   8.5016639088e+01   3.2290341501e+01    0.4922957    0.2731497 -50.31  0.001276341    2.039    0.509
        59  -9.6131    155.9590    218.0318   1.1351984559e+02   8.3021218685e+00    0.1842775     0.155663  53.36  0.001172055    1.018    0.018
        60 -11.0895    153.3055     87.2977   8.6728563922e+01   3.4108451838e+01    0.3522608    0.2639639 -34.70 0.0006070379    1.366    0.268
        61  -9.6317    138.7189     76.3439   8.7071317412e+01   3.9452968024e+01    0.4130002     0.224131 -50.52  0.001052775    2.137    0.532
        62 -10.2072    153.8039     75.8950   8.3355317798e+01   3.6073515088e+01    0.4417397    0.3153509 -58.94    0.0020111    1.698    0.411
        63  -9.8168    159.2867     75.3125   8.1944988891e+01   3.4873163723e+01    0.2547282    0.2231224  25.28 0.0004975572    1.199    0.166
        64 -10.1144    108.9401     75.0585   9.4466845621e+01   4.5833474912e+01     0.343747    0.1996289 -41.48  0.001458118    1.658    0.397
        65 -10.4353    183.7851     65.6723   7.4092293149e+01   3.0442626636e+01    0.8806862    0.3613397 -50.75  0.002808983    3.369    0.703
        66 -10.2901    109.2134     67.5714   9.2138173451e+01   4.7168202976e+01    0.3415937    0.1340386  42.26   0.00129265    2.625    0.619
        67  -9.1477    249.8281    174.2703   8.8129598249e+01  -2.7008574265e+00    0.2292448    0.1579055  44.29  0.001247274    1.461    0.316
        68  -9.0288    191.8268    192.8287   1.0250089169e+02   5.6630255725e+00    0.3374852    0.1601519 -60.15  0.001081142    4.965    0.799
        69  -9.9944    218.0614    169.4196   9.2883981539e+01   4.2436876378e+00    0.7101871    0.3147918  61.34  0.002069205    5.093    0.804
        70 -10.7314    198.2945     34.2567   6.2805278054e+01   3.1282463828e+01    0.3357688    0.2704607  61.31 0.0005093386    1.161    0.138
        71  -9.7835    199.8382     30.1551   6.1457614328e+01   3.1406761488e+01    0.2230813    0.2001251 -34.31 0.0004184269    1.203    0.169
        72 -11.3486     28.3741    214.9307   1.3600341603e+02   2.7833893287e+01    0.2735483    0.1650981 -62.29  0.001883714    1.885    0.470
        73  -9.5604     39.3427    213.3203   1.3408047380e+02   2.6911863070e+01   0.09394358   0.08039929 -57.48 0.0005141425    1.723    0.420
        74  -9.5780     53.6290     30.3583   9.7124526963e+01   6.2167348840e+01    0.2691167    0.1352856 -37.78  0.001455065    1.739    0.425
        75  -9.0888    160.3139     29.0442   6.7693942121e+01   4.1557436585e+01    0.1919899    0.1850309 -13.50 0.0005729988    1.115    0.103
        76  -8.8024    179.6563     25.2677   6.3176942844e+01   3.7146778478e+01    0.5952803    0.3033323  63.24  0.002595989    1.793    0.442
        77 -10.1511     82.2241    143.6452   1.1728878102e+02   3.5719425025e+01    0.5669179    0.3138562 -88.48  0.002003244    2.917    0.657
        78  -9.2280    159.6024     22.2980   6.5722464076e+01   4.2527421083e+01    0.2413816    0.2169523 -67.10 0.0004203685    1.248    0.199
        79 -10.0788     57.1848     27.0656   9.4634184272e+01   6.2208425887e+01    0.3567096     0.175704 -37.28  0.001904093    1.822    0.451
        80 -12.4070      4.2743    189.2860   1.3825921904e+02   3.5000360512e+01     1.682158    0.4219662 -78.03  0.007645028    3.389    0.705
        81 -13.2623     18.6756    178.1281   1.3490661229e+02   3.5883840674e+01    0.8288812    0.6036735  80.06   0.00381497    1.093    0.085
        82 -10.5834    213.6963    188.1603   9.7445869116e+01   2.1176793688e+00    0.4493514    0.2305135  53.07 0.0007993226    2.136    0.532
        83  -8.7452    165.0828     15.6447   6.2708676878e+01   4.1893647363e+01    0.2077251    0.1504156 -14.83 0.0005842273    1.588    0.370
        84  -8.5113    191.0407    181.2225   1.0048253979e+02   7.7742745479e+00    0.1973951    0.1511932 -63.32 0.0007297682    1.681    0.405
        85 -11.9388    123.6063    246.5927   1.2291417902e+02   9.2478451962e+00    0.5025445    0.3428698  43.09   0.00327943    1.365    0.268
        86 -12.9731     69.3596    144.2812   1.2040027856e+02   3.7374061776e+01     1.280323     1.137149 -81.40  0.005667439    1.047    0.045
        87 -11.5932     47.2769    161.9092   1.2768750470e+02   3.6276710356e+01    0.3063885     0.281668 -42.21 0.0008892806    1.477    0.323
        88 -12.1943    114.9289    246.0946   1.2432606420e+02   1.0704321017e+01    0.4716282    0.3537551  73.61  0.003306445    1.213    0.176
