#   1 NUMBER                 Running object number                                     
#   2 MAG_AUTO               Kron-like elliptical aperture magnitude                    [mag]
#   3 X_IMAGE                Object position along x                                    [pixel]
#   4 Y_IMAGE                Object position along y                                    [pixel]
#   5 X_WORLD                Barycenter position along world x axis                     [deg]
#   6 Y_WORLD                Barycenter position along world y axis                     [deg]
#   7 A_WORLD                Profile RMS along major axis (world units)                 [deg]
#   8 B_WORLD                Profile RMS along minor axis (world units)                 [deg]
#   9 THETA_WORLD            Position angle (CCW/world-x)                               [deg]
#  10 FWHM_WORLD             FWHM assuming a gaussian core                              [deg]
#  11 ELONGATION             A_IMAGE/B_IMAGE                                           
#  12 ELLIPTICITY            1 - B_IMAGE/A_IMAGE                                       
         1  -8.5781     38.5379     17.4939   9.4349764546e+01   6.8689584940e+01    0.3024175    0.1051015 -47.87  0.001301951    2.552    0.608
         2  -8.6276     55.8407     10.2777   8.2958378263e+01   6.7546877958e+01    0.2057901    0.1557823 -37.70 0.0005992539    1.327    0.246
         3  -7.8596     47.4648     10.2398   8.6661171983e+01   6.8775035821e+01      0.16826    0.1063643 -45.40 0.0008484556    1.656    0.396
         4  -8.0878     90.7807      9.0117   6.9559886821e+01   6.1321677177e+01    0.2164057    0.1425762 -50.11 0.0009399508    2.004    0.501
         5  -7.8460    101.4025      8.2214   6.6118580262e+01   5.9105503799e+01    0.1871019    0.1213862 -34.25 0.0004607038    1.593    0.372
         6  -7.8963      5.6979      8.3179   1.0782944470e+02   7.3235421837e+01   0.09780496   0.08281605 -86.72 0.0005395528    1.622    0.384
         7  -8.6535     33.3563      4.9116   9.0797237793e+01   7.1419168260e+01    0.2971726    0.1651621 -56.31  0.001457238    2.761    0.638
         8  -8.6171     79.0605      4.4259   7.1032087043e+01   6.4258371631e+01    0.2493659    0.1660177 -38.46 0.0008024011    1.639    0.390
         9  -7.7599     44.6745      3.2932   8.4284815378e+01   7.0220374347e+01    0.1070478   0.09639295 -57.51 0.0003678923    1.620    0.383
        10  -7.4500    115.2941      2.6121   6.0105249534e+01   5.6454202132e+01     0.144161    0.1023915 -53.97 0.0007013081    1.773    0.436
        11  -8.4355     62.5205      1.6187   7.5582131664e+01   6.7658740753e+01    0.1775366     0.155614  70.64 0.0006549316    1.686    0.407
        12  -7.5502     39.4378      1.5010   8.5835840912e+01   7.1193883027e+01    0.1204339   0.09816223 -18.97 3.037475e-05    1.057    0.054
        13  -9.1143    147.1436    246.2202   1.1135481858e+02   8.5391766123e+00    0.2365935    0.1640787  74.94  0.001624624    1.950    0.487
        14  -8.5410    249.0035    249.2522   9.5514897604e+01  -6.5890296977e+00    0.2724613     0.126509 -13.56  0.001639246    2.780    0.640
        15  -9.4949    248.4592    242.3123   9.4631147826e+01  -5.9471542520e+00    0.2251699    0.1845912 -20.37   0.00083892    1.642    0.391
        16  -9.0964    247.9563    235.4579   9.3724904678e+01  -5.2946587725e+00    0.2278213    0.1867193 -43.74  0.001227432    2.180    0.541
        17  -9.4084    246.4911    229.2961   9.3041504584e+01  -4.5429021460e+00    0.3112212    0.1774065 -27.99    0.0013704    2.053    0.513
        18  -8.4893     93.9157    249.2752   1.2036396770e+02   1.5617445607e+01    0.2442623    0.1217715  71.20  0.001461881    2.425    0.588
        19  -7.2046     86.2983    250.6667   1.2168718038e+02   1.6413135143e+01    0.1065825    0.0559241  62.49  0.000555168    1.648    0.393
        20  -7.7622     72.4708    250.5189   1.2387441556e+02   1.8170098961e+01     0.101142   0.07065628  57.11  2.32643e-05    1.037    0.036
        21  -9.0649    120.2519    245.5011   1.1574322255e+02   1.2531162408e+01    0.2977632    0.1673602  70.49  0.001500866    2.294    0.564
        22  -8.2778     13.5110    247.5278   1.3273446516e+02   2.5058179393e+01    0.0945991   0.05902325  63.26 0.0008098686    1.018    0.017
        23  -8.2170     67.5345    245.0094   1.2432119570e+02   1.9572417206e+01    0.1308503    0.0878223 -84.85  0.000974429    1.586    0.370
        24  -8.8342      9.9895    244.4676   1.3315584618e+02   2.5849265186e+01    0.2479236   0.06911816  76.49  0.001273696    3.778    0.735
        25  -8.8247    201.9942    242.7695   1.0195638757e+02   7.1013440607e-01    0.2201078    0.1574954 -36.33  0.001166683    1.888    0.470
        26  -8.6298    169.1036    243.4020   1.0741185851e+02   5.5961922368e+00    0.1663724    0.1490403  58.87  0.000523082    1.333    0.250
        27  -7.9760    139.3324    244.6599   1.1249347419e+02   9.8864255371e+00    0.1111936   0.06731872  61.60 0.0007051557    1.747    0.428
        28  -9.2989     77.8103    242.9247   1.2252826540e+02   1.8607284824e+01    0.2450296    0.1383376  80.93  0.001676327    1.904    0.475
        29  -7.8975     58.3334    244.6442   1.2576501851e+02   2.0723351184e+01    0.1106398   0.05032101  62.55 0.0007043606    1.794    0.442
        30  -9.4026    160.3465    240.6120   1.0855301222e+02   7.2550806263e+00    0.2875612    0.1993292 -88.34  0.001674772    2.586    0.613
        31  -8.9592    242.9827    246.3396   9.6019713509e+01  -5.5300280134e+00    0.2705364    0.1484614 -12.80  0.001816504    2.141    0.533
        32  -8.3816     88.2751    242.5232   1.2078661071e+02   1.7319853534e+01    0.1636924    0.1047549  84.30 0.0007846709    1.684    0.406
        33  -7.7858     49.6019    242.8022   1.2704586369e+02   2.2004262985e+01    0.1325898   0.07190584  80.23 0.0009494384    1.708    0.414
        34  -9.2660    194.3675    240.0690   1.0285009755e+02   2.1414757664e+00    0.2666756    0.1682818 -43.31  0.001146508    2.215    0.548
        35  -9.4277    183.1018    240.1830   1.0471556701e+02   3.8413911156e+00     0.355479    0.2395774  66.38  0.001694236    2.294    0.564
        36  -7.8069    153.4828    242.0020   1.0985519124e+02   8.1195827213e+00    0.1301823   0.08847556  82.04 0.0007406166    2.401    0.583
        37  -8.4796    146.4473    240.0666   1.1082900570e+02   9.4205212154e+00    0.2261527    0.1333429  62.69 0.0009294634    1.996    0.499
        38  -9.2696    240.7496    239.4053   9.5393375011e+01  -4.6240045452e+00    0.3435286    0.1575422  -7.73  0.001705335    3.721    0.731
        39  -7.9564     40.7148    239.5106   1.2828183499e+02   2.3491530447e+01    0.1503376   0.07431755 -81.86 0.0007526015    2.034    0.508
        40  -9.0840    135.5025    238.9722   1.1256487387e+02   1.1195757873e+01    0.2090798    0.1132703  53.02 0.0007487654    1.545    0.353
        41  -8.2418    129.0943    238.8654   1.1363973626e+02   1.2154311529e+01    0.1858997   0.09440627  58.54  0.001070372    1.995    0.499
        42 -10.0432    231.5522    236.2239   9.6370053940e+01  -3.0179001525e+00    0.3732463    0.2501949   3.70   0.00128721    1.526    0.345
        43  -8.1400    209.1381    238.2239   1.0021063591e+02   1.0504977869e-01     0.139731     0.111824  43.96 0.0007274997    1.343    0.256
        44  -8.5309     25.6363    236.8249   1.3052111811e+02   2.5491266951e+01    0.2117389   0.07061387  71.79  0.001151516    2.975    0.664
        45  -8.2104    214.4903    227.5460   9.7868747021e+01   3.9551857092e-01    0.1438341   0.09860897  -6.91 8.005533e-06    1.702    0.412
        46  -9.0722    216.6818    235.3616   9.8608553519e+01  -7.3786842025e-01     0.213367    0.1561729  43.82  0.000970537    1.367    0.269
        47  -9.5516    213.8875    231.9247   9.8583686244e+01   3.2525903241e-02    0.2453368    0.2096114  73.52  0.001551051    1.980    0.495
        48  -9.0829    203.2057    234.3982   1.0066351798e+02   1.4027612641e+00    0.2813384    0.1740005 -42.99  0.001375245    2.272    0.560
        49  -9.6370    175.6557    233.3425   1.0511602135e+02   5.7833127710e+00    0.3486727    0.2244294 -63.24  0.002134081    2.697    0.629
        50  -9.4382    108.8133    234.5745   1.1669113596e+02   1.5681154105e+01    0.3336475    0.1613407  58.01  0.001236022    1.910    0.476
        51  -7.8433     57.9588    237.0000   1.2538626024e+02   2.1924303978e+01     0.164218    0.0443971  39.51 0.0008043087    2.955    0.662
        52  -8.3684    170.4684    234.8585   1.0617863111e+02   6.4054995913e+00    0.1728221    0.1112159 -35.67  0.001143037    2.115    0.527
        53  -8.3820     99.8202    234.7493   1.1824095106e+02   1.6909869761e+01    0.1969696    0.1097496  71.26  0.001209612    2.021    0.505
        54  -9.1698     78.7264    234.6143   1.2179730456e+02   1.9736387274e+01    0.2426094    0.1193226  61.23  0.001056593    1.753    0.430
        55  -8.2434    122.8416    234.0656   1.1423746745e+02   1.3735641942e+01    0.1707668    0.1053998  72.24 0.0007602326    1.978    0.495
        56  -9.5484     68.5454    232.4746   1.2335489653e+02   2.1348318487e+01    0.4280255    0.1563673  62.23  0.002168047    2.875    0.652
        57  -9.0961      8.3884    233.8355   1.3306358389e+02   2.7628707329e+01    0.1215739   0.06924791 -76.69 0.0009592937    1.848    0.459
        58  -8.4629    194.3497    232.6432   1.0189138453e+02   2.9579829932e+00    0.1892086    0.1445131  58.20 0.0008744756    1.629    0.386
        59  -8.5453    145.0088    233.4933   1.1036481868e+02   1.0498497369e+01    0.2587062     0.119449  62.71  0.001097035    3.962    0.748
        60  -8.5897    140.1200    230.2250   1.1085187777e+02   1.1686741872e+01    0.2422732    0.1274557  57.40  0.000954991    1.938    0.484
        61  -8.5642    132.5894    232.8197   1.1243268128e+02   1.2466833221e+01    0.1832924    0.1309949 -89.35  0.001157929    1.860    0.462
        62  -9.4188    186.3945    230.8033   1.0298076512e+02   4.4070149522e+00    0.2617828    0.1986197  82.63 0.0009422692    2.370    0.578
        63  -8.2957    157.7399    232.1492   1.0802513092e+02   8.7172869113e+00    0.1606869    0.1270619  68.50 0.0007896689    1.490    0.329
        64  -8.2098     92.3478    231.6581   1.1926091493e+02   1.8392831789e+01    0.2277063    0.1082898  68.53  0.001059734    2.558    0.609
        65  -8.9230    236.1173    230.9343   9.4895277903e+01  -3.1904718997e+00    0.1824729    0.1467036  28.19 0.0007613778    1.226    0.184
        66  -8.8553      1.7628    230.9396   1.3398159091e+02   2.8684243612e+01    0.1758118   0.08084442  69.70 0.0008535247    1.545    0.353
        67  -9.9071    149.6327    226.1385   1.0872838734e+02   1.0776363716e+01    0.4999327    0.3005118 -89.73  0.002373272    3.997    0.750
        68  -8.1562    229.7709    228.9569   9.5608638820e+01  -2.0641752800e+00    0.1375751    0.1296702 -89.37 0.0006951331    1.897    0.473
        69  -9.2890      8.6535    228.8312   1.3286034537e+02   2.8394305448e+01     0.212182   0.06362285  70.30  0.001153374    2.944    0.660
        70  -8.5687    162.2455    227.9414   1.0674581856e+02   8.5570115391e+00    0.2762995    0.1427786  57.87  0.001221845    2.349    0.574
        71  -8.7637    128.1030    227.5172   1.1266142819e+02   1.3889560068e+01    0.2367526     0.143562  64.72  0.001215177    1.794    0.443
        72  -8.2309    120.1531    227.7360   1.1407897346e+02   1.5042510752e+01    0.1857745    0.1201669 -88.56 0.0008200781    2.085    0.520
        73  -8.1842    223.3647    227.1667   9.6373615050e+01  -9.2242669952e-01    0.1944984    0.1081631 -20.84 0.0009200945    2.194    0.544
        74  -9.2017    225.5957    221.8870   9.5234441380e+01  -7.2536044024e-01    0.2182643    0.1836717  37.55  0.001250712    1.336    0.252
        75  -7.9945     49.0292    226.7824   1.2626348253e+02   2.4569991130e+01    0.1735825   0.07242511  59.02  0.000805418    1.884    0.469
        76  -9.0115    206.0171    225.2304   9.8936610511e+01   1.9611751737e+00    0.2762594     0.165206 -28.24  0.001750467    2.076    0.518
        77  -8.6162    200.2139    225.8801   9.9996004477e+01   2.8005676048e+00     0.163308    0.1411802 -25.18 0.0006600455    1.464    0.317
        78  -8.9836     94.6679    224.4632   1.1825264095e+02   1.9185481095e+01    0.4014356    0.1659103  62.52  0.001807979    2.952    0.661
        79  -8.8299    180.6125    224.4079   1.0312353984e+02   6.0872438180e+00    0.2451428    0.1626603  56.93 0.0009890213    1.698    0.411
        80  -8.9179    104.7998    223.7506   1.1639983746e+02   1.7873919669e+01    0.2864623    0.1670655  76.78    0.0017042    2.117    0.528
        81  -7.8167     78.3226    225.6528   1.2120292369e+02   2.1184830135e+01     0.116501   0.06064183  64.19 0.0003129802    1.740    0.425
        82  -7.9667     38.6989    225.1337   1.2788980939e+02   2.5983997915e+01    0.1843491   0.06055244  62.67 0.0009529783    2.769    0.639
        83  -8.5700    216.5474    223.3899   9.6932063784e+01   5.1613773646e-01     0.196388    0.1727552  76.53   0.00090173    1.907    0.476
        84  -8.5068    173.3361    223.5065   1.0426257211e+02   7.3644212687e+00    0.2265021    0.1531066  62.08 0.0008482484    1.836    0.455
        85  -7.7732    113.9847    223.9874   1.1479421429e+02   1.6508710922e+01    0.1314883    0.1064878  59.87 0.0004761665    1.091    0.084
        86  -9.4445    192.3565    221.2847   1.0068424307e+02   4.5828821941e+00    0.2710054    0.2256802 -83.01 0.0009694067    1.991    0.498
        87  -8.1763    192.4799    216.4944   9.9984942369e+01   5.1400658821e+00    0.1823882   0.08914373  35.04  0.000973763    1.727    0.421
        88  -9.0945    238.8794    221.6380   9.3071876480e+01  -2.7141217690e+00     0.176249    0.1508272 -13.01 0.0006930918    1.430    0.301
        89  -9.1728    159.7534    221.0256   1.0632496628e+02   9.8676441036e+00    0.3729491    0.1795186  57.54   0.00130578    2.628    0.619
        90  -8.9686      7.5552    222.1445   1.3280793115e+02   2.9573566040e+01    0.2289978   0.04405511  48.44  0.001244498    2.772    0.639
        91  -9.2133    120.4835    219.2045   1.1314180422e+02   1.6269822408e+01    0.4016007    0.2014366  64.66  0.001786741    2.594    0.615
        92  -8.8396     82.8046    220.5242   1.2001367857e+02   2.1419557414e+01    0.2767237    0.1322953  70.49  0.001124951    2.494    0.599
        93  -8.1215     72.8708    220.9893   1.2179969306e+02   2.2636771531e+01    0.1841466   0.09294164  71.48 0.0007842044    2.067    0.516
        94  -8.0757     27.4821    220.4915   1.2951644674e+02   2.7924970215e+01    0.1897909    0.0816486 -82.59  0.001214045    2.185    0.542
        95  -8.1739    202.8060    220.1532   9.8748994983e+01   3.0401333714e+00    0.1635373    0.1344547  38.20 0.0005199009    1.180    0.152
        96  -8.1059     15.3479    220.0004   1.3148131172e+02   2.9200742624e+01    0.2057123   0.05294892  49.70  0.001161665    2.426    0.588
        97  -9.3063    248.5440    217.6274   9.0934561434e+01  -3.7655792254e+00    0.3567644    0.2924799  89.96  0.002126945    3.408    0.707
        98  -8.3777    209.9816    219.1795   9.7401826776e+01   2.0064432485e+00    0.1649136    0.1334949  41.13 0.0005135007    1.256    0.204
        99  -9.2281    132.9506    216.1313   1.1054317402e+02   1.4820835733e+01    0.4278055    0.2389778  72.27  0.002099307    2.949    0.661
       100  -8.3377    111.9621    217.2475   1.1447967136e+02   1.7845109260e+01     0.214629     0.122186  79.97  0.001148501    2.551    0.608
       101  -8.5509     62.2384    217.5840   1.2341740628e+02   2.4524425629e+01    0.2473866    0.1168111  63.63  0.001143084    1.886    0.470
       102  -8.9479     51.5234    217.3105   1.2526894450e+02   2.5842795470e+01    0.2466354    0.1171679  71.41 0.0009426614    1.997    0.499
       103  -8.8760    169.3436    216.1263   1.0398801311e+02   8.9729346867e+00     0.275684    0.2016973 -56.58  0.001192163    1.863    0.463
       104  -8.5564    142.8705    216.5419   1.0879218733e+02   1.3195727851e+01      0.20461    0.1469381  88.19 0.0009066717    1.942    0.485
       105  -8.4231     18.6752    216.5885   1.3079829856e+02   2.9449676142e+01    0.1607996   0.07361575 -85.48  0.001071933    1.953    0.488
       106  -8.6329    232.2654    214.8419   9.3077410290e+01  -1.0292106722e+00    0.1770996     0.169297  38.51 0.0008647184    1.543    0.352
       107  -8.4016    185.6367    214.6362   1.0090854901e+02   6.4915835442e+00    0.2088185    0.1538025  67.95  0.000900703    1.949    0.487
       108  -8.1845    154.2756    215.4293   1.0659395975e+02   1.1523983477e+01    0.1669339   0.08989194  50.07 0.0004893312    1.589    0.371
       109  -8.9813     93.8062    214.4815   1.1751195829e+02   2.0903886657e+01    0.4148649    0.1444736  54.90  0.001894388    2.800    0.643
       110  -9.4705    214.1809    212.4168   9.5680433114e+01   2.0939248121e+00    0.3416841    0.2289952  57.85   0.00142146    2.076    0.518
       111  -9.4917     73.6875    212.3405   1.2098220045e+02   2.3969185974e+01    0.6047398    0.1821721  57.73  0.002450546    3.874    0.742
       112  -8.3898    224.5855    212.3343   9.3937469710e+01   4.3865195465e-01    0.1786292    0.1086571 -34.30 0.0006012924    2.000    0.500
       113  -8.7179    161.8390    212.6011   1.0486021481e+02   1.0686195784e+01    0.1895234    0.1695326  84.06 0.0007755873    1.389    0.280
       114  -8.0207    106.4667    212.9368   1.1504414205e+02   1.9340959182e+01    0.1467616    0.1082437 -78.11 0.0007369473    1.534    0.348
       115  -9.0722    204.4579    210.8470   9.7089746622e+01   3.8592740766e+00    0.2434372     0.224642 -87.71  0.000935417    1.647    0.393
       116  -9.4443    175.6255    210.3373   1.0206955178e+02   8.7106539098e+00    0.3585898    0.2315727  68.32  0.001670895    2.479    0.597
       117  -8.3718    192.4211    210.7176   9.9153402217e+01   5.8635629282e+00    0.1900826    0.1636424 -78.84 0.0009772435    1.794    0.443
       118  -8.8202    147.8959    210.6566   1.0714497889e+02   1.3249818350e+01    0.2395295    0.1738045  67.22  0.001213958    1.558    0.358
       119  -9.0586    116.1857    210.3427   1.1297311834e+02   1.8307367773e+01     0.267901    0.1706548  75.75 0.0009217203    1.888    0.470
       120  -9.1518    236.6655    208.4956   9.1357286445e+01  -1.0559433076e+00    0.2624472    0.2340174 -72.26  0.001203608    2.112    0.526
       121  -8.4554     85.7940    209.6379   1.1853823921e+02   2.2818298499e+01    0.2848646    0.1285253  66.13  0.001394651    2.682    0.627
       122  -7.9585     32.2935    210.6485   1.2821394397e+02   2.9092223243e+01     0.111897   0.05333143  65.49 0.0007030973    1.679    0.404
       123  -8.3801    126.6549    208.3962   1.1080182656e+02   1.6999307345e+01    0.1834303     0.138018 -88.03 0.0005516601    1.593    0.372
       124  -7.8981     46.2974    209.6275   1.2570128821e+02   2.7749538082e+01    0.1160995   0.05696048  66.22 0.0007016766    1.740    0.425
       125  -9.0684      5.8944    208.2219   1.3258695887e+02   3.2051656825e+01      0.24951    0.0793414  77.57  0.001308272    2.973    0.664
       126  -9.3853    246.3882    207.3284   8.9615391762e+01  -2.4398449333e+00    0.2114209    0.1766569  -8.06 0.0004997433    1.319    0.242
       127  -8.0271    156.7530    208.1914   1.0519524984e+02   1.2154186998e+01    0.1870839    0.1157644  71.61 0.0009326021    2.654    0.623
       128  -8.3129    139.0491    207.9111   1.0843236443e+02   1.5098796673e+01    0.1917465    0.1458579  87.05 0.0008060717    1.652    0.395
       129  -9.2155     99.2862    206.0064   1.1567454904e+02   2.1532925187e+01    0.3217549    0.1901679  80.93  0.001395517    2.086    0.521
       130  -8.4823     56.4835    205.3701   1.2357973650e+02   2.7311004353e+01    0.2643398    0.1228278  71.71  0.001141346    2.232    0.552
       131  -9.3801    194.9599    203.7308   9.7650175003e+01   6.3228092379e+00    0.3455324    0.2691156  61.53  0.001844285    1.637    0.389
       132  -9.4725    192.3616    197.4034   9.7119864072e+01   7.5942392213e+00    0.3564442    0.3017485 -48.82  0.001588304    1.546    0.353
       133  -8.9612    183.9826    204.2251   9.9679622235e+01   8.1218514910e+00    0.3175647    0.1934389  61.48  0.001231692    2.308    0.567
       134  -8.8220    131.2774    204.3034   1.0944007342e+02   1.6914571035e+01    0.2799523    0.1699837  70.79  0.001016181    2.184    0.542
       135  -7.9570    109.2204    205.4361   1.1374146601e+02   2.0161907804e+01    0.1663435   0.08636667  52.21 0.0005586427    1.609    0.378
       136  -7.9169    176.6651    204.6650   1.0106440302e+02   9.3055433061e+00    0.1240993   0.08508333  17.64 0.0007052111    1.740    0.425
       137  -9.6368    163.9297    203.0516   1.0316143656e+02   1.1695400574e+01    0.3978572    0.2269182  57.50  0.001104323    1.976    0.494
       138  -9.4822    250.1300    201.8946   8.8121187751e+01  -2.4669756636e+00    0.3131591    0.1581618 -24.08  0.001493845    2.087    0.521
       139  -8.4903    210.9931    202.2659   9.4625746091e+01   3.8024834158e+00    0.1870787    0.1686534 -76.17 0.0006736447    1.756    0.430
       140  -9.1471    243.1616    200.7957   8.9040791821e+01  -1.2700815242e+00    0.2710578    0.1819814 -29.16 0.0009633777    1.702    0.413
       141  -9.0208    140.2740    200.7035   1.0727516677e+02   1.6020050842e+01      0.30699    0.1998882 -84.03  0.001130735    2.424    0.587
       142  -8.5799     80.1383    201.4900   1.1885526414e+02   2.4991758388e+01    0.2592027    0.1297729  66.91  0.001391312    2.125    0.529
       143  -7.5467     73.2679    202.3214   1.2022623831e+02   2.5755024951e+01   0.09177302   0.08807699 -47.93 0.0002279898    1.563    0.360
       144  -8.4129     48.4298    202.1422   1.2482651856e+02   2.8822593806e+01    0.2177063   0.09034909  62.90  0.001177256    2.215    0.549
       145  -8.0912     10.1837    202.6389   1.3164691927e+02   3.2635845448e+01    0.1204817   0.08634198  35.16 0.0007306287    1.714    0.417
       146  -7.8193    222.2526    201.6334   9.2610196415e+01   2.0073049184e+00   0.09955391   0.09468723  81.56 0.0002844972    1.627    0.386
       147  -9.1591    237.0391    198.5552   8.9650416449e+01  -5.6740610769e-02    0.2509958    0.1660209 -31.16  0.001190064    1.747    0.428
       148  -9.4799    149.5188    198.6825   1.0524548048e+02   1.4791519396e+01     0.375192    0.2552758  82.73  0.001452343    2.282    0.562
       149  -8.9015    124.1281    199.3438   1.1019025632e+02   1.8863776076e+01    0.2809002     0.187101  83.96  0.001408406    1.969    0.492
       150  -9.3582    112.9739    198.5019   1.1224166699e+02   2.0756415391e+01    0.3939329    0.2222193  72.48  0.001441219    2.392    0.582
       151  -9.1511     88.6121    198.5440   1.1695403117e+02   2.4345801257e+01    0.3257506     0.178532  74.52  0.001759747    2.156    0.536
       152  -8.6478    176.9331    198.9514   1.0016235002e+02   1.0053556254e+01    0.1827185    0.1718037 -81.60 0.0004716856    1.368    0.269
       153  -8.1884    202.5547    197.8253   9.5375714555e+01   5.7821336258e+00    0.1435295    0.1182814 -49.80 0.0005679156    1.666    0.400
       154  -9.1553     61.5428    197.0940   1.2200546937e+02   2.8175624773e+01    0.3496885    0.1539607  67.78  0.001407624    2.490    0.598
       155  -8.6414     12.6188    197.4238   1.3100216593e+02   3.3338224929e+01    0.2565953    0.0863926  81.06  0.001303028    2.965    0.663
       156  -8.2689     53.5948    196.6012   1.2347069024e+02   2.9221764750e+01    0.2446476   0.09947612  72.01  0.001138876    3.062    0.673
       157  -8.7298    215.8293    195.7242   9.2720989497e+01   3.7778191603e+00    0.1882491    0.1598633 -71.39 0.0007950866    2.003    0.501
       158  -8.1212    132.9609    195.9791   1.0805521843e+02   1.7987415603e+01    0.1929698    0.1312585  69.43 0.0006069643    1.683    0.406
       159  -9.6544    245.8532    193.8491   8.7420151339e+01  -9.6163880477e-01     0.254079    0.2338506 -65.15  0.001365398    1.901    0.474
       160  -8.8498    185.3924    194.8970   9.7983248809e+01   9.1481193272e+00    0.2151275    0.1792142  62.79 0.0007853809    1.442    0.306
       161  -9.1354    161.0218    194.4185   1.0244935467e+02   1.3475847289e+01    0.2751882    0.1978469  69.77 0.0009846237    1.783    0.439
       162  -8.7436     77.0941    193.9355   1.1873728891e+02   2.6752676410e+01    0.2095134    0.1455716  70.48 0.0005202193    1.252    0.201
       163  -8.8241     43.5875    193.1797   1.2511161973e+02   3.0992066715e+01    0.3178287     0.135435  70.59  0.001665766    2.427    0.588
       164  -7.9022      3.5032    194.4761   1.3247795385e+02   3.4666728517e+01    0.1002911   0.07094157  72.87 -1.700024e-06    1.042    0.040
       165  -8.6861    172.3467    191.8738   9.9923301148e+01   1.1874534760e+01    0.2660708    0.2000753  86.61  0.001215022    2.104    0.525
       166  -7.8148    205.4372    191.9362   9.3895288039e+01   6.0387575733e+00    0.1426488    0.1096181 -67.87 0.0004347672    2.291    0.563
       167  -8.3194    199.0537    191.8769   9.5020585810e+01   7.1624818701e+00    0.1780404    0.1552555  51.74 0.0005075238    1.310    0.237
       168  -8.0127    178.9933    191.7297   9.8658563054e+01   1.0721449701e+01    0.1771074     0.140716  39.94 0.0004609696    1.052    0.049
       169  -9.0803    139.6413    190.9015   1.0606289159e+02   1.7707874692e+01    0.3307212    0.2167497  74.98  0.001149268    2.111    0.526
       170 -10.4146     92.1272    188.6853   1.1523081449e+02   2.5617292541e+01    0.8368803    0.2271633  50.55  0.003180646    3.519    0.716
       171  -7.9869     90.6336    181.6912   1.1474818287e+02   2.7132430139e+01    0.1656499    0.1462616  -9.73 0.0008094199    1.760    0.432
       172  -8.5035      6.5383    190.2657   1.3177116205e+02   3.5167298595e+01      0.18725    0.0769773 -89.27  0.001134179    2.040    0.510
       173  -8.7107    148.6307    189.4779   1.0410161224e+02   1.6400353622e+01    0.1938572    0.1475336 -89.23 0.0008665332    1.752    0.429
       174  -8.9826    129.3051    188.8567   1.0781898459e+02   1.9785688770e+01    0.2821344    0.1965023  77.90  0.001031082    1.764    0.433
       175  -8.4048    237.1541    188.4696   8.7884327619e+01   1.0463584162e+00    0.2023417    0.1540061 -15.71 0.0006215834    1.341    0.254
       176  -9.1361    216.6984    187.8676   9.1228747001e+01   4.5957611720e+00     0.267025    0.2100172 -29.91   0.00105809    1.463    0.316
       177  -9.3613    155.9569    187.6401   1.0240059807e+02   1.5415914890e+01    0.2994044    0.2119716 -68.12  0.001020161    1.931    0.482
       178  -9.8469    120.9538    186.7810   1.0920867592e+02   2.1518563707e+01    0.4513834    0.2533125 -80.55  0.002103015    2.895    0.655
       179  -8.5600     34.4172    188.5214   1.2653571139e+02   3.2842766574e+01    0.2471083      0.11332  68.82  0.001086641    1.976    0.494
       180  -8.6949    224.7155    194.2677   9.0962916224e+01   2.4527007453e+00    0.2364391    0.1514967 -45.38   0.00127412    2.242    0.554
       181  -8.2211    230.7269    187.4256   8.8764071123e+01   2.2437316606e+00    0.1917278    0.1443122 -35.69 0.0007276034    1.632    0.387
       182  -8.8525    191.4631    187.4412   9.5654540621e+01   9.1106775356e+00    0.2383385    0.2026847 -83.19 0.0008832852    1.754    0.430
       183  -9.0001    164.9819    186.8704   1.0053702088e+02   1.3937466993e+01    0.2781993    0.2097322 -68.83  0.001073111    1.829    0.453
       184  -9.1330     54.6734    186.9146   1.2250575762e+02   3.0888801960e+01     0.377836     0.170083  69.23   0.00162299    2.395    0.582
       185  -9.0979    109.5261    186.1285   1.1142807422e+02   2.3459531843e+01    0.3284881     0.196143  69.70  0.001077697    1.962    0.490
       186  -9.2335    249.4485    184.4227   8.5172193135e+01  -5.2146368753e-01     0.401151    0.1859551 -27.17  0.001826585    2.219    0.549
       187  -8.7544    182.8212    185.0706   9.6858323028e+01   1.1002649608e+01      0.25344    0.1812419 -43.89 0.0009125826    1.676    0.403
       188  -8.8400    210.3066    184.4613   9.1750040755e+01   6.1522490260e+00    0.2020595    0.1832815  -1.38 0.0005679473    1.188    0.158
       189  -8.5030    202.7893    184.7274   9.3135450941e+01   7.4559572458e+00    0.2058844    0.1734271 -48.35 0.0005257477    1.556    0.357
       190  -8.9621     66.7905    184.5424   1.1989266758e+02   2.9846325290e+01    0.3325092    0.1641296  63.72   0.00101276    1.995    0.499
       191  -8.5157    224.1219    183.6601   8.9208791851e+01   3.8281455688e+00     0.183531    0.1615075 -19.86 0.0005590876    1.308    0.236
       192  -8.1082    196.9704    183.8965   9.4044347283e+01   8.6141920502e+00    0.1828655    0.1534493  74.80 0.0006331398    1.685    0.406
       193  -8.9742    174.1787    183.7136   9.8266409204e+01   1.2768216810e+01    0.2433403    0.2040681  71.42 0.0008169721    1.459    0.315
       194  -8.1477      1.9353    183.9279   1.3233810782e+02   3.6715540179e+01    0.1709624    0.1068677  48.88   0.00130243    1.422    0.297
       195  -9.1749     44.4323    182.3057   1.2416022052e+02   3.2940986778e+01    0.3255549    0.1660009  71.41  0.001174232    1.837    0.456
       196  -8.4030     19.3854    182.5981   1.2903313375e+02   3.5438991931e+01    0.2086648   0.07000935  84.50  0.000952557    3.300    0.697
       197  -9.7061    240.8118    181.0385   8.5946267150e+01   1.2859110703e+00    0.2649921     0.159282 -36.73  0.001472805    1.969    0.492
       198  -9.2217    147.5186    180.7525   1.0300567291e+02   1.8033196738e+01    0.3011609    0.2184693  78.69 0.0009767509    1.822    0.451
       199  -8.6187    235.4583    181.0199   8.6823434061e+01   2.1948324096e+00    0.1756096    0.1141411 -23.65 0.0007442529    1.597    0.374
       200  -9.4860     25.7003    179.2122   1.2762243624e+02   3.5482588277e+01    0.5223134    0.1763557  75.13  0.002217582    3.805    0.737
       201  -8.5611    137.6749    179.4421   1.0479004637e+02   1.9985656698e+01    0.2414614    0.1759604  80.66  0.001183194    1.727    0.421
       202  -8.7501    205.0185    177.8224   9.1511127557e+01   7.9904873498e+00     0.242579    0.1830673 -36.90 0.0007547496    1.536    0.349
       203  -9.5165    191.3787    178.2909   9.4095761797e+01   1.0426768789e+01    0.2523045    0.2288655 -86.22 0.0005707098    1.491    0.329
       204  -8.1388    169.3126    178.5053   9.8337370927e+01   1.4460959142e+01     0.198235    0.1575181 -79.06 0.0007529644    1.769    0.435
       205  -9.0473     35.8646    176.9956   1.2547012045e+02   3.4887670668e+01     0.434887    0.1595345  76.58  0.001831286    3.711    0.731
       206  -9.6417    248.4096    176.6085   8.3898815620e+01   5.1965190075e-01    0.3539186    0.2661103 -38.30  0.001815834    1.720    0.419
       207  -8.6336    250.5203    172.8880   8.2861726704e+01   5.8958309217e-01    0.1883357    0.1571179 -20.70 0.0005034409    1.328    0.247
       208  -8.6087    217.7028    177.1443   8.9135004537e+01   5.7846576933e+00    0.2214902    0.1684043 -41.79  0.000819371    1.646    0.393
       209  -8.6210    129.3809    177.6423   1.0621827727e+02   2.1732779573e+01    0.2746627    0.1848874  72.73  0.001267798    1.810    0.447
       210  -8.5261     97.5012    177.6591   1.1284453449e+02   2.6876726300e+01    0.2097882    0.1539734  10.75  0.001129778    2.385    0.581
       211  -8.4452    231.1791    177.0219   8.6801577392e+01   3.4136744490e+00     0.169154    0.1618428  -6.61 0.0006056048    1.337    0.252
       212  -9.2239    183.2495    176.3030   9.5275881046e+01   1.2224700537e+01    0.2503966     0.221599 -78.53 0.0007109648    1.505    0.336
       213  -9.2853    158.9733    175.2650   9.9833623206e+01   1.6882603466e+01    0.3881171    0.2490864  73.52  0.001510419    2.536    0.606
       214  -9.5107    104.3962    174.9123   1.1104677285e+02   2.6336622520e+01     0.471697    0.2295678  64.48  0.002016306    2.795    0.642
       215  -8.6997     88.9781    176.8666   1.1453100482e+02   2.8290199747e+01    0.2541774    0.1609493  75.35 0.0009383948    1.680    0.405
       216  -9.9862     57.2896    173.2869   1.2078657794e+02   3.3207502788e+01    0.7023885    0.2851163  79.22  0.002652632    4.355    0.770
       217  -8.7277     12.7002    176.6764   1.2999059293e+02   3.7167017231e+01    0.2232626   0.09323458  64.92 0.0009052941    2.009    0.502
       218  -7.7478    211.6926    176.3620   9.0050345621e+01   6.9729631610e+00    0.1176256    0.1031856  87.11 0.0007039492    1.739    0.425
       219  -9.5141     81.5303    154.8886   1.1340942938e+02   3.3757308338e+01    0.4071834     0.246007  75.07  0.001347047    1.887    0.470
       220 -10.7688     75.8903    170.2762   1.1654302250e+02   3.1418135757e+01     1.054494     0.391933 -79.03  0.003747985    4.649    0.785
       221  -8.6058    224.3694    174.2886   8.7450070343e+01   4.9578948533e+00    0.1982369    0.1536482 -34.60 0.0007670262    1.503    0.334
       222  -8.0450    241.4792    174.4711   8.4616868796e+01   1.9383259794e+00    0.1252196    0.1022147  16.01 9.809592e-06    1.019    0.018
       223  -9.2387    175.6876    172.4172   9.6046458418e+01   1.4236362731e+01     0.277681    0.2462157 -80.74 0.0008976448    1.442    0.307
       224  -8.2472    142.9863    172.9130   1.0268987136e+02   2.0187008539e+01    0.2037566    0.1481673  73.51 0.0006258363    1.671    0.402
       225  -9.7866    237.3713    170.5152   8.4541257273e+01   3.1246418822e+00     0.365976    0.1884144 -30.25  0.001887114    2.011    0.503
       226  -8.6254    134.6376    171.8183   1.0424555570e+02   2.1865679626e+01    0.2496141     0.180837  77.00 0.0008715295    1.676    0.403
       227  -9.5639    121.4517    170.5210   1.0682078275e+02   2.4382342111e+01    0.3459342    0.2321204 -87.02  0.001059813    1.958    0.489
       228  -9.0899     44.9304    170.7314   1.2313457547e+02   3.5144995425e+01      0.36946    0.1803555  85.31  0.001477367    2.116    0.527
       229  -9.2191    230.4823    170.2671   8.5646824348e+01   4.3747406265e+00    0.2418842     0.181523   4.67 0.0008163306    1.279    0.218
       230  -8.6234    205.7823    170.1656   8.9962542829e+01   8.9113151455e+00    0.2374056    0.1743719 -45.85 0.0008022911    1.699    0.411
       231  -9.2705    205.2875    163.9418   8.8865615962e+01   9.8891228838e+00    0.3450527    0.2297394 -48.84  0.001038139    1.954    0.488
       232  -8.7456     79.2109    158.5713   1.1441444784e+02   3.3325019763e+01    0.3371768    0.1262319  32.29  0.001207481    3.383    0.704
       233  -8.3930    198.4316    170.2936   9.1335440242e+01   1.0271673662e+01    0.2042214    0.1551055  61.54 0.0005148888    1.635    0.388
       234  -9.2745    167.2173    168.8526   9.7085530250e+01   1.6406068068e+01    0.3519486    0.2357719  65.84  0.001385418    1.942    0.485
       235  -8.6368    149.8051    169.5025   1.0072735080e+02   1.9544556203e+01    0.2454462     0.192577  79.39 0.0008924632    1.558    0.358
       236  -8.0924    244.4750    169.0647   8.3099633610e+01   2.0626694589e+00    0.1793461    0.1139196 -23.45 0.0005928805    1.568    0.362
       237  -8.4029    218.8927    168.4147   8.7288776428e+01   6.7175281874e+00    0.1919703    0.1739291 -20.63  0.000528341    1.253    0.202
       238  -8.7378    111.8808    167.8487   1.0847410206e+02   2.6484146651e+01    0.3628863    0.1986137  73.48  0.001284477    2.954    0.661
       239  -8.3731     88.8140    168.6884   1.1357282027e+02   2.9907147700e+01    0.2344566      0.14009  80.95  0.001002395    2.013    0.503
       240  -7.9025    211.4120    168.2134   8.8576758355e+01   8.1317429770e+00     0.168771    0.1220483 -43.89 0.0008152272    1.700    0.412
       241  -8.7559    158.5989    167.5214   9.8588626963e+01   1.8251985194e+01    0.2048803    0.1868531  56.25 0.0001222164    1.092    0.084
       242  -9.0192    159.5069    164.4818   9.7866689302e+01   1.8600163321e+01    0.2604919    0.2269244  80.63 0.0007360938    1.330    0.248
       243  -8.9310    191.9381    166.6803   9.1875762616e+01   1.2037524597e+01    0.2237967    0.1956731 -40.96 0.0005099507    1.333    0.250
       244  -8.7559    184.9918    166.5339   9.3175281445e+01   1.3390016507e+01    0.2309406    0.1871776 -60.04 0.0006816116    1.608    0.378
       245  -9.9428    136.9266    164.4408   1.0257375602e+02   2.2799007214e+01    0.6180828    0.3310184  60.61  0.002602151    2.313    0.568
       246  -9.9340     94.8780    162.9276   1.1149331954e+02   3.0145196474e+01    0.7919714     0.445651  82.61   0.00320615    2.578    0.612
       247  -8.9839     91.7090    153.9275   1.1094582291e+02   3.2455795145e+01    0.2570474    0.1661011  49.17 0.0006065599    1.421    0.296
       248  -8.9507     20.5042    166.1896   1.2783749690e+02   3.8512768343e+01    0.3031051    0.1052305  58.33  0.001304869    2.596    0.615
       249  -8.4158    233.9455    165.0145   8.4047741327e+01   4.4157231104e+00    0.1917928    0.1674987  10.68 0.0005906714    1.085    0.078
       250  -9.2594     33.5536    163.4387   1.2492892148e+02   3.7812414677e+01    0.4904733    0.1411346  54.91  0.002100378    3.380    0.704
       251  -9.2853    246.0457    163.2224   8.1707577545e+01   2.4878433911e+00    0.2395513    0.1759925 -32.22 0.0005904844    1.509    0.337
       252  -8.7065    242.2931    160.3092   8.1737890938e+01   3.5063124662e+00     0.203489    0.1401884  -1.51 0.0005135802    1.457    0.313
       253  -8.4333    240.0655    164.1467   8.2861998430e+01   3.4295757236e+00    0.1958867    0.1456919  12.30  0.000523009    1.223    0.182
       254  -8.5874    212.8377    163.5236   8.7416230554e+01   8.5142248564e+00    0.2331115     0.181842 -36.96 0.0006796282    1.461    0.315
       255  -8.4594     56.9582    163.9274   1.1995037216e+02   3.5125201976e+01    0.2848513     0.165584  20.21  0.001443346    2.888    0.654
       256  -9.4263      3.2652    162.3606   1.3110941749e+02   4.0722931930e+01    0.3398405    0.1203968  57.24   0.00171796    2.334    0.572
       257  -9.2438    177.5704    160.9269   9.3571359700e+01   1.5715625845e+01    0.2979144    0.2511855  88.90 0.0009908695    1.580    0.367
       258  -9.0882    151.7979    161.1090   9.8860260051e+01   2.0649503009e+01    0.3065025    0.2314498 -81.44  0.001004533    1.786    0.440
       259  -8.8592     60.6587    160.2728   1.1875897580e+02   3.5421652629e+01    0.3180254    0.1641159  73.45  0.001278957    2.211    0.548
       260  -8.5996    227.3792    159.2056   8.4010983580e+01   6.3697648362e+00    0.2222375    0.1939148 -61.83 0.0009951858    1.681    0.405
       261  -9.7039    105.9196    158.2675   1.0836602379e+02   2.9335664014e+01    0.4425417    0.2592175  73.88   0.00140378    2.352    0.575
       262  -9.7084    250.1753    157.8478   7.9978587291e+01   2.4105604401e+00    0.3040783    0.1657258 -25.86 0.0007728369    1.789    0.441
       263  -8.4992    236.8309    158.9980   8.2374271325e+01   4.6554807285e+00     0.182726    0.1715107 -20.34 0.0008586788    1.305    0.233
       264  -9.1758    167.6525    157.4578   9.4906908022e+01   1.8231794416e+01     0.311769    0.2476458 -84.11  0.001023504    1.735    0.424
       265  -8.4778    128.2013    158.9420   1.0353839160e+02   2.5396240947e+01    0.2568378    0.1836838  80.67 0.0008442956    1.742    0.426
       266  -8.4235    196.5340    158.0662   8.9343934605e+01   1.2451691291e+01    0.1994252     0.183492  63.29 0.0006422593    1.287    0.223
       267  -8.4634    188.1737    157.4659   9.0825051510e+01   1.4189444340e+01    0.2722402    0.1903412 -34.58 0.0008054877    1.566    0.361
       268  -8.5252    217.8786    156.6070   8.5143592765e+01   8.5184736598e+00    0.2378787    0.1683576 -48.45 0.0007397401    1.850    0.460
       269  -9.0438    157.5221    156.1902   9.6762332999e+01   2.0426619658e+01    0.2930455    0.2143933 -77.71 0.0009421374    1.951    0.487
       270  -9.5579    119.6610    155.4576   1.0484684995e+02   2.7577199776e+01    0.4107976    0.2608024 -88.48  0.001751556    2.319    0.569
       271  -9.0990     49.6835    155.2181   1.2067888094e+02   3.7772604721e+01    0.4020579    0.1866858  65.38  0.001969214    2.347    0.574
       272  -9.4173    241.9646    154.6483   8.0650100460e+01   4.2717138599e+00    0.3301897     0.226031  69.13  0.001614731    2.674    0.626
       273  -8.1741    204.8286    155.3693   8.7254348271e+01   1.1228623770e+01    0.1744446    0.1631532 -16.90 0.0006360608    1.171    0.146
       274  -8.6415    144.6105    154.9209   9.9271248286e+01   2.3132917097e+01    0.2447254    0.1985293  79.87 0.0009070414    1.427    0.299
       275  -9.7550    132.8076    152.9958   1.0150199974e+02   2.5700920975e+01      0.43053    0.3150857  81.29  0.001338651    1.711    0.415
       276  -9.1875    133.4883    148.4790   1.0053560282e+02   2.6447059123e+01    0.2914686    0.1950449 -47.25  0.001394685    1.631    0.387
       277  -9.7680     67.9133    153.6710   1.1637152868e+02   3.5871418540e+01    0.4337993    0.2286292  73.63  0.001486803    2.315    0.568
       278  -8.2490    233.0992    154.1752   8.2020999956e+01   5.9662503130e+00    0.1615253    0.1598972  51.35 0.0005607624    1.352    0.260
       279  -9.0178    151.8401    152.2445   9.7222148348e+01   2.2238456700e+01    0.3338923    0.1798396 -38.48  0.001476084    2.202    0.546
       280 -10.3300    149.0540    145.1181   9.6449573921e+01   2.4101215669e+01    0.5588093     0.368701  81.30  0.001749037    2.542    0.607
       281  -8.9775     20.0872    152.7073   1.2701082058e+02   4.1275097029e+01    0.1525515    0.1163326  68.62 0.0008546236    1.116    0.104
       282  -8.7310      8.6296    153.1706   1.2950096459e+02   4.2137579119e+01    0.1833304   0.06802875  33.04  0.001000972    2.731    0.634
       283  -8.7843     98.2648    150.8406   1.0897735294e+02   3.2074516461e+01    0.2930591    0.1878185  88.60  0.001005222    1.937    0.484
       284  -9.6006     29.3059    150.6329   1.2481977668e+02   4.0859992609e+01     0.459417    0.1725047  68.62  0.001980146    3.304    0.697
       285  -8.9168      2.7699    150.8254   1.3060723275e+02   4.3061319149e+01    0.2866807    0.1075556  89.15   0.00151085    2.288    0.563
       286  -8.2823    250.3046    141.0024   7.6472079382e+01   4.4642180268e+00    0.2071267    0.1565428   9.79 0.0005346662    1.231    0.188
       287  -9.6872    248.8870    149.4626   7.8472207835e+01   3.6646254463e+00     0.325457    0.1702116 -28.55 0.0009332668    1.853    0.460
       288  -9.1806    247.0920    144.0895   7.7632866061e+01   4.6669241659e+00    0.3043312    0.1919615 -13.50 0.0008694045    1.597    0.374
       289  -9.8637    242.9544    149.8577   7.9504210217e+01   4.6970545036e+00    0.2851022    0.2580363 -32.39  0.001834999    1.349    0.259
       290  -8.9203    189.3761    150.0543   8.9103938968e+01   1.5127431514e+01     0.279422    0.2243069 -60.92 0.0006957511    1.623    0.384
       291  -8.0819    182.3832    151.2323   9.0718277573e+01   1.6346730761e+01    0.1823206    0.1307471 -51.07 0.0004568755    1.664    0.399
       292  -8.3311    162.1877    150.2878   9.4653028846e+01   2.0557014028e+01    0.2533679    0.1792144 -74.54 0.0009561995    2.118    0.528
       293  -9.6251    233.7026    147.8662   8.0612825507e+01   6.6867068042e+00    0.2783758    0.1967132 -24.10 0.0007810579    1.397    0.284
       294  -8.2768    212.9830    149.9621   8.4656225102e+01   1.0415503575e+01    0.1884757    0.1676301 -78.36 0.0004233278    1.589    0.371
       295  -8.4709    198.8504    148.8691   8.7040641611e+01   1.3401268500e+01    0.2233548    0.1848893 -41.90  0.000542253    1.368    0.269
       296 -10.0406     89.2482    146.2525   1.1038853448e+02   3.4429445984e+01    0.6269285    0.3296266  84.71  0.002425633    3.428    0.708
       297  -8.6264     88.3687    138.6278   1.0941537229e+02   3.6185450215e+01    0.3593537    0.2460522 -26.46  0.001724661    2.543    0.607
       298  -9.8277     39.6197    147.4163   1.2219320109e+02   4.0509018314e+01    0.5297468    0.2519351  74.19  0.002043603    2.342    0.573
       299  -9.1125     78.3020    147.2406   1.1311965367e+02   3.5819464596e+01    0.3164685     0.170945  76.08  0.000965856    2.538    0.606
       300 -10.4909     54.5609    144.0267   1.1833658438e+02   3.9577123257e+01    0.8386003    0.3911255  79.75  0.003089119    3.057    0.673
       301  -8.9492     56.9900    135.5019   1.1669818470e+02   4.1136945038e+01    0.2451279     0.127084  27.53  0.001202013    2.481    0.597
       302  -8.3277    223.4583    147.0252   8.2184698066e+01   8.7757572594e+00    0.1912301    0.1884517  64.80 0.0006229074    1.300    0.231
       303 -10.0759    139.1299    145.0510   9.8630920130e+01   2.6043275289e+01    0.4581659    0.3057094 -79.52  0.001249965    2.240    0.554
       304  -9.3276     13.3982    146.3070   1.2802846056e+02   4.3162463829e+01     0.358123    0.1254843  58.30  0.001431343    2.723    0.633
       305  -9.0938    240.3656    145.2439   7.8959197161e+01   5.7724783837e+00     0.239656    0.1670583 -21.98 0.0006259301    1.386    0.278
       306  -9.1818    242.6694    143.3134   7.8176411367e+01   5.5903860420e+00    0.3647561    0.2017787 -12.66  0.001710384    2.099    0.524
       307  -8.1701    206.5725    146.3039   8.5059648657e+01   1.2235232112e+01    0.1784263    0.1294264 -18.02 0.0005973961    1.482    0.325
       308  -8.1251    175.4795    146.1096   9.1062232320e+01   1.8604701767e+01    0.1959137    0.1399353 -41.67 0.0005525153    1.522    0.343
       309 -11.0730     68.6081    139.9492   1.1443746367e+02   3.8705125354e+01    0.9329297    0.4626941 -71.84  0.003638725    2.002    0.501
       310  -8.8494    165.5369    143.9800   9.2683036243e+01   2.1004003008e+01    0.2618887    0.2214294 -86.21 0.0006916716    1.477    0.323
       311  -9.9419    124.9216    142.3762   1.0135577193e+02   2.9238979813e+01    0.5764595    0.3654293 -78.78  0.002011449    2.284    0.562
       312  -8.0395    194.3867    144.1358   8.6899242839e+01   1.5052370427e+01    0.1861785    0.1293915 -48.44 0.0004756129    1.707    0.414
       313  -9.7413      2.5499    141.7547   1.3013684471e+02   4.4930039805e+01    0.3641998    0.1531451  78.81  0.001919934    2.130    0.531
       314  -8.3399    181.9602    141.8238   8.8853404100e+01   1.7997741470e+01    0.2316431    0.2047127 -37.24 0.0006429412    1.221    0.181
       315 -10.2515    106.6818    144.2064   1.0594150750e+02   3.2073256460e+01    0.7007035    0.4309918  88.34  0.002098098    2.388    0.581
       316  -9.8929     23.4204    138.2180   1.2511790661e+02   4.4018999841e+01    0.4861928    0.2007479  66.94  0.001938677    2.665    0.625
       317  -7.8307    218.6258    138.7555   8.1257222365e+01   1.0915804594e+01    0.1779663    0.1249174 -38.68 0.0003700974    1.542    0.351
       318  -8.5696    172.3350    138.5917   9.0131036568e+01   2.0556212633e+01    0.2835282    0.2258385 -88.74  0.001067999    1.728    0.421
       319  -8.3363    207.6266    138.0757   8.3094138356e+01   1.3267943898e+01     0.207073    0.1681854 -48.20 0.0007061404    1.462    0.316
       320  -8.7351    197.6450    137.5860   8.4860392754e+01   1.5420668840e+01    0.2589416    0.2082878 -55.47 0.0008844018    1.543    0.352
       321  -9.2328    140.2624    137.2341   9.6834470627e+01   2.7341574178e+01     0.281707    0.2109579   3.01  0.001342119    2.030    0.507
       322  -8.6755    241.1578    137.2189   7.7111093282e+01   6.6758618767e+00    0.1749857    0.1546172 -37.20 0.0006965522    1.337    0.252
       323  -8.2988    162.7082    136.5653   9.1730776351e+01   2.2922140284e+01    0.2307463    0.1751823 -69.85 0.0006775758    1.716    0.417
       324  -9.0980    151.2844    135.8955   9.4081739231e+01   2.5394520163e+01    0.4173454    0.2464617  31.06  0.001807251    2.036    0.509
       325 -10.4067     83.1744    133.2491   1.0983318747e+02   3.8127799570e+01    0.5915453    0.3235252 -64.80  0.001920384    1.787    0.440
       326  -8.9237     84.9262    123.2681   1.0768323367e+02   4.0057276571e+01    0.5011961    0.3282382  -2.98  0.002000697    3.717    0.731
       327  -9.5504     38.9726    136.0959   1.2119358029e+02   4.3003877929e+01    0.2982334    0.1632938  67.75 0.0008981955    1.849    0.459
       328  -9.2941    250.6754    130.0870   7.4049261486e+01   5.7875572983e+00    0.4572521    0.1196064 -29.05  0.001491738    3.727    0.732
       329  -9.2389    248.3261    135.3690   7.5569574927e+01   5.5517934944e+00    0.2829165    0.2040281 -30.59 0.0007316819    1.385    0.278
       330  -8.4018    246.9067    130.3652   7.4694771807e+01   6.4725140854e+00    0.2362448     0.170619 -37.90 0.0006733199    1.500    0.334
       331  -7.7809    188.1206    136.1324   8.6393197215e+01   1.7660021016e+01    0.1862541    0.1712521 -78.30 0.0005302058    1.324    0.245
       332  -8.7245    179.7506    134.1158   8.7629362566e+01   1.9774266804e+01    0.2729017    0.1952137 -53.13 0.0009344598    1.656    0.396
       333  -8.0571    237.5053    133.9522   7.6989665735e+01   7.8222360384e+00    0.1988039    0.1241923 -30.33  0.001014385    1.565    0.361
       334  -9.1459    112.8845    133.3334   1.0250569936e+02   3.3271015306e+01    0.3279827    0.2248837  77.59 0.0009592185    1.850    0.460
       335  -9.1732    143.1636    131.8764   9.5061745218e+01   2.7812460534e+01    0.3117859    0.2434894 -72.33 0.0008724745    1.523    0.344
       336 -10.1827    132.3149    131.2210   9.7439522020e+01   3.0089993681e+01    0.5834985     0.394239  83.70  0.001993513    2.233    0.552
       337 -10.4269     98.1547    130.2768   1.0556830939e+02   3.6437672153e+01    0.6299103    0.2533691 -57.78  0.001861161    2.494    0.599
       338  -8.1579    204.7607    130.7292   8.1986803948e+01   1.5004474325e+01     0.183593    0.1680383 -72.42 0.0007226428    1.374    0.272
       339  -9.6196    153.0110    129.3977   9.2300091393e+01   2.6275277511e+01    0.4322834    0.2576826 -60.15 0.0008994811    2.196    0.545
       340 -10.0596     73.3276    128.2823   1.1153407848e+02   4.0624396414e+01    0.5695209    0.2951405 -65.62  0.001718126    1.831    0.454
       341 -10.2872     12.6976    128.5574   1.2687011761e+02   4.6963731914e+01    0.5655712    0.2219624  83.54  0.002428219    2.693    0.629
       342  -8.2844    220.5043    130.0104   7.8982460535e+01   1.1808829936e+01    0.2030333    0.1326867 -29.96 0.0004316974    1.527    0.345
       343  -8.1534    192.8712    130.1635   8.4124536209e+01   1.7635406084e+01    0.2081515    0.1957772 -84.13 0.0005471689    1.272    0.214
       344  -9.2183    168.3685    129.3106   8.8929259541e+01   2.3049364879e+01    0.3393655    0.2468146 -51.08 0.0008399867    1.529    0.346
       345  -8.4400    161.4200    130.1976   9.0622792163e+01   2.4362588773e+01    0.2063168    0.1375801 -54.94 0.0009566447    1.744    0.427
       346 -10.7305     44.9696    123.5913   1.1821227472e+02   4.5130990544e+01     1.070915    0.4685657  75.68  0.004019442    3.949    0.747
       347  -7.9306      1.4044    130.1690   1.2967710110e+02   4.7424336775e+01    0.1593877   0.07819975  85.76 0.0009383537    1.676    0.403
       348  -7.8823    231.3818    134.2001   7.8057905463e+01   8.9991811763e+00    0.1807819    0.1204479 -37.67 0.0004726271    1.593    0.372
       349  -8.2132    211.6032    129.2982   8.0404552551e+01   1.3777171855e+01    0.2057162    0.1683673 -67.61 0.0007674167    1.699    0.411
       350 -10.3154     60.0125    125.2106   1.1451169892e+02   4.3043496232e+01    0.6926185    0.3529795  77.28  0.002417075    2.916    0.657
       351  -8.0813     25.9310    130.0000   1.2376457225e+02   4.5568181159e+01    0.1673232    0.0644437  28.97 0.0008077887    2.980    0.664
       352 -10.0376    118.0224    125.5065   9.9698993871e+01   3.3982731585e+01    0.5648817    0.3562413  81.89  0.001481445    2.603    0.616
       353  -7.9484    228.4579    125.5151   7.6595533450e+01   1.0815567599e+01    0.1376066     0.126074   3.69  0.000808603    1.043    0.041
       354  -8.7181    179.2608    124.8465   8.5627740609e+01   2.1488946484e+01    0.2513364    0.2150688 -76.43 0.0006737123    1.461    0.316
       355 -10.5671     28.1452    121.3764   1.2232305883e+02   4.7262416771e+01    0.8575869     0.351274  88.45  0.003701915    2.964    0.663
       356  -7.9780    243.9794    124.4857   7.3839155259e+01   7.8223252803e+00    0.1613936    0.1234551  88.10 0.0004425163    2.251    0.556
       357  -8.0543    188.6318    124.2079   8.3585694890e+01   1.9547689940e+01    0.1958348    0.1373236 -24.51 0.0005788598    1.559    0.359
       358  -7.4366    212.2612    123.6235   7.8978086230e+01   1.4504815519e+01    0.1389046    0.1104224 -60.73 0.0003521306    1.666    0.400
       359  -9.3580    158.6102    121.7656   8.9325552203e+01   2.6538381427e+01    0.3418161    0.2565978 -80.55  0.001064091    1.867    0.464
       360  -7.2941    203.0000    122.0164   8.0301138361e+01   1.6761235016e+01    0.2270844   0.08120285 -34.71 0.0004847914    2.850    0.649
       361  -7.8509    194.9732    122.0060   8.1825665531e+01   1.8522580417e+01    0.1735687    0.1604368 -13.89 0.0003537084    1.086    0.079
       362  -8.4326    172.0710    121.7066   8.6392966420e+01   2.3620722489e+01    0.2364336     0.199703 -56.68   0.00042422    1.330    0.248
       363 -10.1486    131.1601    118.5883   9.4983080061e+01   3.2888594156e+01    0.5657254    0.3822091 -82.83   0.00182697    2.255    0.557
       364  -9.6921     71.2121    119.8311   1.1070647086e+02   4.2795096896e+01    0.4305517    0.2233195 -72.53  0.001598654    2.032    0.508
       365  -7.7279    247.6725    120.3016   7.2317864689e+01   7.6504334763e+00    0.1267682    0.1055802 -60.12 0.0007031564    1.642    0.391
       366 -10.1725    141.5264    118.1526   9.2398590055e+01   3.0861295008e+01    0.5794901    0.2988108 -52.99  0.001153124    2.163    0.538
       367  -9.8339      3.0582    117.5670   1.2838691847e+02   5.0001074629e+01    0.4627942    0.1937536  70.91  0.002375518    2.452    0.592
       368  -7.7828    231.5242    117.9934   7.4345279344e+01   1.1251390111e+01    0.1883237    0.1102131 -51.01 0.0004752395    2.356    0.576
       369 -10.2410    109.2418    113.4899   9.9367102503e+01   3.8152291456e+01    0.7412221    0.3487904 -60.93  0.001996113    2.503    0.601
       370  -7.7439    219.4999    116.5039   7.6020955782e+01   1.4024830583e+01    0.1437931    0.1301033   8.99 -0.0002293439    1.028    0.027
       371  -8.1736    185.6990    116.1216   8.2242986225e+01   2.1574614784e+01    0.2267386    0.1782368 -53.20 0.0005797062    1.456    0.313
       372  -8.7315     59.3633    115.4009   1.1318028555e+02   4.5323886977e+01    0.3722978    0.2257279   4.86  0.001609332    3.517    0.716
       373  -8.2236    193.1838    115.2540   8.0552416904e+01   2.0039949648e+01    0.1944541    0.1695211 -61.13 0.0004860523    1.353    0.261
       374 -10.1240     92.6598    112.5717   1.0357189360e+02   4.1209924698e+01    0.4910687    0.2936378 -73.01  0.001182144    2.003    0.501
       375  -8.9576     92.8680    105.2534   1.0195703205e+02   4.2796172877e+01    0.5110258    0.3135305  10.70  0.001908242    3.658    0.727
       376 -10.0326     78.8209    112.3428   1.0729788803e+02   4.3400657240e+01    0.5455837    0.3316967  84.18  0.001907683    2.347    0.574
       377  -8.7510     78.2536    105.0493   1.0601801484e+02   4.5123225273e+01    0.3191795    0.2555783   5.75  0.001267295    1.744    0.427
       378  -8.2387    167.0701    114.3220   8.5691825459e+01   2.6071777295e+01    0.2119759    0.1945403  51.84 0.0007598444    1.077    0.071
       379 -10.3030    121.9335    112.6152   9.5908788538e+01   3.5950424697e+01    0.4023399    0.2881498 -74.68 0.0008138383    1.730    0.422
       380  -9.9886    133.5823    109.2501   9.2201564569e+01   3.4307378276e+01    0.5811487    0.2859585 -53.21   0.00188417    2.246    0.555
       381 -10.2150     66.4974    109.6815   1.1022958543e+02   4.5711797831e+01    0.6409258    0.2988562 -63.68   0.00228689    1.975    0.494
       382  -9.9730     13.8960    110.9859   1.2499707020e+02   5.0700686390e+01    0.4330294    0.2036271  76.18  0.001722752    2.276    0.561
       383  -9.4726    244.3128     98.6877   6.7744220762e+01   1.1252624165e+01    0.2239329    0.1432149 -61.87 0.0008408458    2.490    0.598
       384 -10.8160    248.6904    108.7987   6.9505952147e+01   8.9795484966e+00    0.5979865     0.317626 -22.38  0.002759198    1.846    0.458
       385  -8.6648    174.7541    111.9068   8.3455875739e+01   2.4783023977e+01      0.26674    0.2008834 -58.13  0.000586758    1.580    0.367
       386  -8.5775    159.3245    111.9895   8.6824161092e+01   2.8229540626e+01    0.2498015    0.2078094  84.51 0.0005065635    1.457    0.314
       387  -8.8433      3.8808    109.4545   1.2752231715e+02   5.1706583813e+01    0.2400913    0.1402279 -17.19  0.001361277    3.029    0.670
       388  -8.4065     43.5245    109.4843   1.1666084067e+02   4.8452011482e+01    0.1888549    0.1258329   9.67  0.001027726    2.300    0.565
       389  -8.3926    189.1307    107.9382   7.9531554066e+01   2.2191406322e+01    0.2695192    0.1983569 -28.25 0.0006800452    1.401    0.286
       390  -9.4892    139.8483    104.5906   8.9512904795e+01   3.3929337481e+01    0.3898136    0.2895674 -83.56 0.0008552183    1.854    0.461
       391 -10.4946     45.6040    102.4435   1.1497948475e+02   4.9832327193e+01    0.7202325    0.3603321  74.76  0.003000422    3.163    0.684
       392  -9.1035     46.2310     92.6975   1.1312201374e+02   5.1985254170e+01    0.3783796    0.2402864  -7.66  0.001846578    2.810    0.644
       393 -10.6345     22.9635    102.7894   1.2158068603e+02   5.1840117900e+01    0.7201467    0.3215538  72.85   0.00294786    3.048    0.672
       394  -8.6282    166.6173    104.5084   8.3324128473e+01   2.7980225755e+01    0.2900329    0.2181453 -55.19 0.0006822491    1.499    0.333
       395  -9.5565    150.5611    103.1135   8.6584526697e+01   3.1877161401e+01    0.4471765    0.2862606 -62.61  0.001143242    2.083    0.520
       396 -10.2400    128.5415    102.3020   9.1740484108e+01   3.6774500767e+01    0.4000448       0.2931  75.22  0.001194107    1.752    0.429
       397  -7.6932    175.5286    102.4540   8.0888101061e+01   2.6292959105e+01     0.148772    0.1461978  44.12 0.0001332516    1.039    0.038
       398 -10.9103    109.5286     99.2903   9.5982048416e+01   4.1158817453e+01    0.7967932    0.4293275  65.89  0.002403485    3.245    0.692
       399  -8.9282    107.6057     92.9039   9.4896105192e+01   4.2889505167e+01    0.4556955    0.2891593  21.91  0.001922114    2.369    0.578
       400  -8.4064    159.8611    101.1064   8.3932464370e+01   3.0159615058e+01    0.2306655    0.2022882 -76.16 0.0004660205    1.309    0.236
       401  -9.4039     81.9655     99.7838   1.0384178805e+02   4.5750074702e+01    0.4289047    0.2481396 -67.73  0.001572333    1.854    0.461
       402 -10.3898     63.7940     96.4118   1.0848668904e+02   4.9074743758e+01    0.7008715    0.3584607 -76.56   0.00210471    2.491    0.599
       403  -8.7257     64.5394     87.9524   1.0646879510e+02   5.0894151865e+01    0.3041229    0.1857354  -4.70  0.001209787    3.662    0.727
       404  -9.2024     94.9851     97.1379   9.9501420225e+01   4.4233063879e+01    0.3086078    0.2264862 -71.74 0.0006138742    1.482    0.325
       405  -8.4300    130.4729     97.1885   8.9931624068e+01   3.7420913173e+01    0.2866565    0.1775945  25.45  0.001145737    2.334    0.571
       406  -9.6333      6.4279    102.5678   1.2621259891e+02   5.3056468430e+01    0.3702544    0.1587155  85.51  0.001391339    2.345    0.574
       407  -8.4402    176.5167     93.2661   7.8236052568e+01   2.7683111762e+01    0.2821335    0.1432757 -41.54 0.0006713482    2.000    0.500
       408  -8.1952    164.7982     94.1851   8.0983668996e+01   3.0296796543e+01    0.2264917    0.2063675 -71.77 0.0005384189    1.214    0.176
       409  -9.3246    139.1396     92.5206   8.6505882968e+01   3.6488243149e+01    0.4031141    0.2821183 -83.97 0.0008545503    2.237    0.553
       410  -9.6964    223.9467     92.0694   6.9231333256e+01   1.6670338774e+01     0.263088    0.2279746  37.43 0.0003780742    1.162    0.139
       411  -7.5524    188.5213     93.5095   7.5892025508e+01   2.4771680046e+01    0.1504421    0.1456959  12.79 0.0001608846    1.001    0.001
       412 -10.7848    124.1030     90.7107   8.9844716002e+01   4.0080649433e+01    0.7593623    0.5889397 -18.90  0.002164752    1.598    0.374
       413  -9.6872      5.3838     92.1645   1.2546246527e+02   5.5415748690e+01    0.2930367    0.1596916  59.82  0.001319976    1.966    0.491
       414  -7.9914    157.8550     91.8523   8.1891302095e+01   3.2354867840e+01    0.2059809    0.1814257 -76.78 0.0004108563    1.295    0.228
       415  -9.8306     34.8385     89.9689   1.1618415092e+02   5.3729412581e+01    0.4602476    0.2311373 -87.73  0.001853007    2.452    0.592
       416  -9.2232     23.0851     90.3907   1.1989677608e+02   5.4621490299e+01    0.2675088    0.2237062  12.96  0.001728859    1.564    0.361
       417  -7.9069    151.1497     89.1684   8.2687431894e+01   3.4418584972e+01    0.2101962    0.1794541 -69.98 0.0004229153    1.336    0.251
       418 -10.1200     86.4002     86.0480   9.9279387593e+01   4.8105268536e+01    0.5880193    0.3731694 -65.16  0.001332019    1.702    0.413
       419  -7.8405    163.5850     87.4785   7.9390298011e+01   3.1805035384e+01    0.1509299    0.1482725   2.08 0.0001382065    1.016    0.015
       420  -9.8134     48.4688     84.2999   1.1080190949e+02   5.3654082306e+01    0.4731957    0.2702717  74.00    0.0015446    2.695    0.629
       421  -8.2037    167.7705     99.0082   8.1633379077e+01   2.8720603166e+01    0.2314125    0.1665737  26.32 0.0007615278    1.638    0.389
       422  -7.7454    179.2754     85.6181   7.5559205361e+01   2.8341574673e+01    0.1589899     0.117716 -64.38 0.0004471247    1.709    0.415
       423  -9.8935    105.0380     83.3793   9.3066771143e+01   4.5400762937e+01    0.4782899    0.3359305 -83.70  0.001231253    2.105    0.525
       424  -8.4425    157.8311     84.1354   7.9719292243e+01   3.3786269531e+01     0.227213    0.2077654 -69.00 0.0004006232    1.189    0.159
       425  -9.1375    140.8579     82.7173   8.3310723393e+01   3.8015603800e+01    0.3024847    0.2154392 -50.65 0.0008235093    1.474    0.322
       426  -9.6430     24.7052     80.7304   1.1790057955e+02   5.6676135051e+01    0.4309421     0.224528  85.93  0.001355454    2.399    0.583
       427  -9.6437      9.8533     81.1358   1.2278263660e+02   5.7603188132e+01    0.3301022    0.1683931  69.03  0.001191386    2.361    0.576
       428  -8.4223    150.1208     80.6616   8.0482249361e+01   3.6255015365e+01    0.2633017    0.2075167 -51.77 0.0006059528    1.342    0.255
       429  -9.0797    119.3810     80.1400   8.8123300079e+01   4.3220575235e+01    0.4074933    0.2418443 -50.89  0.001159473    1.736    0.424
       430  -8.8411     74.6670     80.2988   1.0144720132e+02   5.1195304462e+01    0.3434209    0.2303228 -88.59  0.001054496    2.162    0.538
       431  -8.3295    166.9237     79.9227   7.6497657787e+01   3.2345616191e+01    0.2286512    0.2218114 -41.02 0.0004266647    1.049    0.046
       432  -8.0941    184.0238     78.2109   7.2518835278e+01   2.8416271727e+01    0.2210679    0.1653206  -6.44 0.0006137691    1.593    0.372
       433  -7.7213    174.7636     78.0115   7.4301837413e+01   3.0746110311e+01      0.20405    0.1286081 -33.94 0.0006263753    1.589    0.371
       434 -10.0388     63.6922     74.4408   1.0352762442e+02   5.4031477230e+01    0.6727558    0.2928368 -67.99  0.002472824    3.230    0.690
       435  -9.0780     64.2985     63.8330   1.0044302363e+02   5.6267840825e+01    0.5165157    0.2852828 -25.73  0.002113158    2.963    0.663
       436  -8.7118    140.2114     75.5741   8.1342819187e+01   3.9522734652e+01     0.261934     0.200722 -49.31 0.0006141574    1.351    0.260
       437  -9.4732    128.0979     74.8882   8.4217341794e+01   4.2393819477e+01     0.511321    0.2659878 -42.21  0.001786174    1.894    0.472
       438  -9.7588     82.4003     72.8352   9.6961346015e+01   5.1628503190e+01    0.4381949    0.2984345 -76.35   0.00123527    1.994    0.499
       439  -8.3064    163.4778     73.4367   7.5315418750e+01   3.4323677620e+01    0.2695282    0.1358266 -45.58 0.0009035323    2.122    0.529
       440  -8.7657    115.4965     73.0369   8.7066929249e+01   4.5456466332e+01    0.3134227    0.1385848 -48.38  0.001009309    2.325    0.570
       441  -8.5971    151.4710     73.0782   7.7890071705e+01   3.7319465862e+01    0.2363367    0.1506004 -37.54 0.0007072456    1.566    0.362
       442  -9.4448     95.0826     71.0849   9.2465496764e+01   4.9825691178e+01    0.4446052    0.2186422 -57.53  0.001254889    2.427    0.588
       443  -8.7179     42.4965     72.7586   1.1035174039e+02   5.6887507410e+01    0.2387452    0.1124284 -67.55 0.0005373406    2.007    0.502
       444  -7.7214    175.4906     72.5269   7.2541845980e+01   3.1486182813e+01    0.1518956     0.150814  14.73 5.387209e-05    1.014    0.014
       445  -9.2911    105.8999     71.7050   8.9406655647e+01   4.7659604904e+01    0.2796568    0.2058623 -53.85   0.00056498    1.383    0.277
       446  -9.0402     29.3050     70.2938   1.1444664192e+02   5.8655140724e+01    0.4395392    0.2058938 -26.27  0.001758703    4.126    0.758
       447  -7.5518    170.3105     71.3033   7.3230032218e+01   3.2988474600e+01    0.1585853    0.1191298  19.79 0.0002702453    1.609    0.379
       448  -9.5441     51.3522     69.3987   1.0647768774e+02   5.6678830187e+01    0.4458384    0.2543218 -80.89  0.001685012    2.533    0.605
       449  -9.1307     16.6790     69.9085   1.1881480092e+02   5.9680033568e+01     0.344552    0.1880938 -87.97  0.001657674    1.957    0.489
       450  -8.1576    157.2324     69.9780   7.5629211019e+01   3.6464756564e+01    0.2201221    0.1994403 -30.72 0.0004825444    1.107    0.097
       451  -8.9902    147.0638     67.9825   7.7335167254e+01   3.9294346675e+01    0.4503352    0.2027932 -38.96  0.001297946    2.190    0.543
       452  -9.0757    138.4083     66.0546   7.8811283969e+01   4.1702797756e+01    0.3188627    0.2118463 -53.51 0.0008674077    1.714    0.417
       453  -8.7912    121.5960     66.1565   8.3212211021e+01   4.5501863417e+01    0.3217466     0.233199 -64.04 0.0007481392    1.724    0.420
       454  -7.4144    203.3006     66.7099   6.5759280670e+01   2.5394098349e+01    0.1508301    0.1148829 -64.65 0.0002632817    1.563    0.360
       455  -8.7479     83.7041     65.0770   9.4238463645e+01   5.3057582240e+01    0.3803554    0.2312492   2.17  0.001353636    3.875    0.742
       456  -8.8258     37.3500     64.0610   1.1020345238e+02   5.9330720159e+01    0.3045306    0.1854114 -88.59  0.001031989    2.225    0.551
       457  -9.1411    110.1478     63.4713   8.5554289038e+01   4.8445752667e+01    0.3799133    0.2382727 -48.98 0.0008744406    1.623    0.384
       458  -7.8285    158.0492     61.9746   7.2935474790e+01   3.7628224298e+01    0.1850779    0.1738423 -28.37 0.0003374422    1.067    0.063
       459  -9.5898     97.8287     60.2282   8.8176519238e+01   5.1520517781e+01    0.4245632    0.3053153 -42.64  0.001575784    1.319    0.242
       460  -9.6485     73.2587     59.4075   9.5984453806e+01   5.5908921550e+01    0.4036404    0.2241458 -60.11  0.001011287    2.032    0.508
       461  -7.7957    164.4535     60.4436   7.1086299071e+01   3.6263066806e+01    0.1523698    0.1495726  24.51 5.292496e-05    1.006    0.006
       462  -8.6175     89.0393     59.7773   9.0812891465e+01   5.3226500868e+01    0.2554993    0.1727123 -57.93 0.0007180977    1.626    0.385
       463  -8.0165    147.1314     59.1755   7.4479127076e+01   4.0812116665e+01    0.2124091    0.1766244 -57.35 0.0005066234    1.325    0.245
       464  -9.9887     23.3759     56.4998   1.1373239621e+02   6.2180198467e+01    0.4491885    0.2501586  84.71  0.002004225    2.746    0.636
       465  -9.6585      7.5179     57.2551   1.1996995160e+02   6.3022089352e+01    0.3285651    0.1866285  86.96  0.001262254    1.973    0.493
       466  -8.6718    130.8088     58.0417   7.8083815972e+01   4.4918498280e+01    0.2317408    0.2001343 -61.06 0.0005098705    1.286    0.223
       467  -9.4376    119.2007     55.5254   8.0307538443e+01   4.8004124493e+01    0.4197435    0.2358108 -50.02  0.001256823    1.999    0.500
       468  -9.5150     54.3471     55.7431   1.0167029980e+02   5.9292645252e+01    0.3430552    0.2128673 -67.34  0.001214877    1.818    0.450
       469  -8.7048    139.8960     56.1549   7.5182574242e+01   4.3090596613e+01    0.2336577    0.2033773 -62.38 0.0005435871    1.279    0.218
       470  -8.8187     44.2963     55.6458   1.0544383609e+02   6.0471063169e+01    0.2441201    0.1884643 -89.75  0.000776265    1.614    0.380
       471  -8.7698    105.7489     53.3349   8.3398070918e+01   5.1275224461e+01     0.266485    0.2222492 -68.13 0.0006723512    1.446    0.308
       472  -9.5005     92.4344     50.7371   8.6610109137e+01   5.4377071787e+01    0.3906531    0.2268455 -54.20  0.001079527    1.999    0.500
       473  -8.6902     92.8036     43.4485   8.3801910425e+01   5.5655438727e+01    0.4394757    0.1937045 -28.06  0.001551085    3.046    0.672
       474  -8.4021     75.3806     51.4640   9.2626999831e+01   5.7198422065e+01    0.3273458     0.195101   5.05  0.001234079    3.535    0.717
       475  -8.1857    144.6645     48.8793   7.1569912616e+01   4.3121203189e+01    0.2228963    0.1320625 -41.80 0.0007457099    1.726    0.421
       476  -8.5320    130.0173     49.2817   7.5247267807e+01   4.6615295847e+01    0.2056513    0.2032315  73.44  0.000547863    1.074    0.069
       477  -8.3779      9.3304     49.3018   1.1775453016e+02   6.4656887956e+01    0.1209992   0.06675021 -43.99 0.0003477256    1.649    0.394
       478  -8.7682    120.9764     47.6678   7.7033544283e+01   4.8985060443e+01    0.2521369    0.2059663 -34.08 0.0005072696    1.203    0.169
       479  -8.5575    112.2115     46.8259   7.9158109414e+01   5.1079683192e+01    0.2554611    0.1863855 -45.73 0.0006797443    1.414    0.293
       480  -8.9576     81.9348     46.5810   8.8607645580e+01   5.7059769163e+01    0.2613384    0.1891922 -50.15 0.0006677473    1.393    0.282
       481  -8.4965     45.0574     44.6690   1.0184961708e+02   6.2706171445e+01     0.212712    0.1542755 -59.67 0.0005352059    1.324    0.245
       482  -9.2114     16.6576     44.7349   1.1370429763e+02   6.5200073274e+01    0.2251237    0.1550114 -80.15 0.0006721741    1.515    0.340
       483  -8.3224    220.1611     43.6403   5.6705274890e+01   2.4336229501e+01    0.2398418     0.171132 -20.45 0.0007895601    1.430    0.301
       484  -8.8906    132.9923     43.5816   7.2455758232e+01   4.6832666681e+01    0.2891657    0.2008593 -49.93 0.0008375261    1.609    0.378
       485  -9.1327     58.2842     42.7803   9.5928602801e+01   6.1453879277e+01    0.2862202    0.1942916 -68.28 0.0009281695    1.964    0.491
       486  -7.7829     32.3257     44.3434   1.0700285492e+02   6.4062180739e+01    0.1317991   0.07694741 -35.12 0.0007050824    1.738    0.425
       487  -9.3092     69.6466     41.7945   9.1232421891e+01   5.9993032021e+01    0.3702196    0.2505879 -66.71  0.001207918    2.121    0.529
       488  -9.4683      5.2267     42.1148   1.1796237374e+02   6.6414194414e+01    0.3093944    0.1708972 -87.29  0.001280967    2.088    0.521
       489  -9.3926    105.8723     41.0586   7.8830957440e+01   5.3429938933e+01    0.3885636    0.1897836 -39.70  0.000971801    1.989    0.497
       490  -7.9830    140.4613     41.5149   6.9933990416e+01   4.5317803147e+01    0.1485739    0.1471565   3.39 3.949135e-05    1.035    0.033
       491  -8.6964     36.7635     40.7048   1.0401699895e+02   6.4399473037e+01    0.2436252    0.1508676 -63.03 0.0007748489    1.600    0.375
       492  -8.7722     95.3848     38.0139   8.0862485697e+01   5.6104318606e+01    0.3245486    0.2172663 -50.76  0.001059292    1.698    0.411
       493  -8.0669     80.5278     36.9508   8.5413971121e+01   5.9081784308e+01    0.2086517    0.1256495 -40.14 0.0004523728    1.544    0.352
       494  -9.4403     26.2519     35.4705   1.0694298307e+02   6.6435162433e+01    0.2985416    0.1772906 -67.58 0.0008949131    1.752    0.429
       495  -8.3708    125.9009     35.6649   7.1264179618e+01   4.9762196627e+01    0.2425798    0.1982887 -13.42 0.0002949802    1.259    0.206
       496  -8.2936    111.9710     34.9656   7.4690878345e+01   5.3093616938e+01    0.2261023    0.1754796 -64.32 0.0006095494    1.680    0.405
       497  -8.0948     88.5029     34.5136   8.1695773991e+01   5.8040857351e+01    0.1389095    0.1279821 -16.99 7.496247e-05    1.028    0.027
       498  -8.9012     48.6223     33.6306   9.6491275560e+01   6.4495683912e+01    0.2271125    0.1938536 -52.52 0.0006221388    1.215    0.177
       499  -8.2785    119.0708     33.2618   7.2089438593e+01   5.1734694536e+01    0.1972547    0.1913663  31.20 0.0003999717    1.063    0.059
       500  -8.4730     60.8380     32.7722   9.1123364300e+01   6.3014301882e+01     0.219824    0.1760844 -49.95 0.0004718194    1.290    0.225
       501  -8.1295    139.2186     31.9060   6.6685091856e+01   4.7029834254e+01    0.1994524    0.1199953 -30.07 0.0008633618    1.663    0.399
       502  -8.9962     72.2327     31.4478   8.6173506830e+01   6.1475229528e+01    0.2382466    0.2017877 -62.96 0.0006862931    1.497    0.332
       503  -8.9610     12.9285     30.0490   1.1144769169e+02   6.8518147114e+01    0.3152798     0.149365 -72.94  0.001550054    2.438    0.590
       504  -7.6532     42.2920     30.3011   9.7955412410e+01   6.5888429445e+01    0.1265241   0.08317769 -25.63 0.0002805504    1.568    0.362
       505  -8.3204    101.6002     29.3652   7.5416767975e+01   5.6224986296e+01    0.2015812    0.1663344 -64.54 0.0006275797    1.562    0.360
       506  -9.0314     81.5182     27.5294   8.1143954361e+01   6.0509825466e+01    0.3247406    0.2162938 -51.89  0.000938613    1.832    0.454
       507  -8.7043      3.7349     27.9132   1.1525945476e+02   6.9464623748e+01    0.2001791    0.1333292 -77.95 0.0007329101    1.537    0.350
       508  -7.5967    109.7129     27.3425   7.2231151622e+01   5.4750361202e+01    0.1428645    0.1110956 -60.34 0.0005639094    1.644    0.392
       509  -8.8237     91.8075     26.4554   7.7222153517e+01   5.8698550682e+01     0.305248    0.1843321 -42.32 0.0008721934    1.720    0.418
       510  -8.0143     34.7603     23.5579   9.8738625732e+01   6.7994054097e+01     0.149458    0.1136676  40.55 0.0009440455    1.675    0.403
       511  -7.7341    104.4836     22.5937   7.1698749065e+01   5.6591716468e+01     0.140843    0.1296499  13.11 0.0001118594    1.018    0.018
       512  -8.8681     63.5571     21.1753   8.5037073267e+01   6.4627388529e+01    0.2949894    0.2026895 -51.48  0.000943517    1.738    0.425
       513  -8.9360     48.2869     21.7983   9.1777798631e+01   6.6728612282e+01    0.2258479    0.1952744 -51.51 0.0005823438    1.334    0.250
       514  -8.3308    120.5272     21.0648   6.6793290312e+01   5.3095402967e+01    0.2194848    0.1385282 -28.41  0.001021187    1.577    0.366
       515  -8.2580     19.4734     21.5323   1.0543222924e+02   6.9768661333e+01    0.1168087   0.09379318 -45.00 0.0008086273    1.053    0.050
       516  -8.7941     74.0243     19.5407   8.0249634549e+01   6.3128260757e+01    0.2462798    0.1704382 -45.60 0.0006356413    1.602    0.376
       517  -7.8456     11.6616     20.3448   1.0899802649e+02   7.0551702376e+01     0.106467   0.08456583  82.38 0.0007048543    1.777    0.437
       518  -8.0303     87.9870     17.7414   7.4566056423e+01   6.0750098515e+01    0.1849137    0.1685301  -1.98 0.0004344904    1.036    0.035
       519  -8.9426    218.5897    247.0768   9.9876231480e+01  -2.1499311860e+00    0.2734696    0.1020485 -33.76    0.0015144    3.466    0.711
       520  -7.7594    112.7833     16.9273   6.6997620955e+01   5.5456019039e+01    0.1825509    0.1136157 -22.35 0.0003932903    1.618    0.382
       521  -8.0211     29.9916     16.0583   9.7907302115e+01   6.9869316057e+01    0.1666105    0.1428733 -79.65 0.0006729164    1.704    0.413
       522  -8.0625      7.5924     15.7821   1.0956187583e+02   7.1694715857e+01    0.1544586   0.09325223 -68.07 0.0004892976    1.696    0.410
       523  -8.0481     17.1984     14.3990   1.0386056620e+02   7.1310227384e+01    0.1353512    0.1050268  33.34 0.0006262202    1.656    0.396
       524  -7.6522     83.6209     11.2976   7.2946660992e+01   6.2496358987e+01    0.1290327    0.1066901 -68.45 0.0007023334    1.758    0.431
       525  -9.3510    211.0809    246.6604   1.0100415997e+02  -1.0200253764e+00    0.2095919    0.1906823 -68.13  0.001163862    1.897    0.473
       526  -7.9658    191.2742    249.4487   1.0450713996e+02   1.6131530140e+00    0.1499093   0.07782519  46.98   0.00093146    1.613    0.380
       527  -8.9575    175.6731    247.8567   1.0684328474e+02   4.1017721630e+00    0.2431287    0.1732761  65.70     0.001314    1.906    0.475
       528  -8.7476    132.2271    248.0033   1.1399437775e+02   1.0489847475e+01    0.2106836    0.1363373  61.57 0.0005519448    1.509    0.337
       529  -8.3321    113.1027    248.7023   1.1719804206e+02   1.3102049291e+01     0.165224    0.1209302  75.49 0.0008894023    1.446    0.309
       530  -9.2920    103.9034    247.0161   1.1856572320e+02   1.4595087913e+01    0.3363466    0.1796522 -88.32  0.001974849    2.828    0.646
       531  -8.9425    232.9617    247.4234   9.7694037279e+01  -4.2283692384e+00    0.1819802     0.167808 -41.29  0.001214582    1.861    0.463
       532 -10.0993    224.0919    244.2238   9.8638292444e+01  -2.6787958661e+00    0.3785112    0.2295886 -34.13  0.002061726    2.186    0.543
       533  -8.5216    156.2623    248.0685   1.1004364706e+02   6.9653172522e+00    0.1446682    0.1141026  48.81 0.0004986458    1.140    0.123
       534  -8.3051      7.2841    248.3607   1.3366463544e+02   2.5521358821e+01   0.07341874   0.06273974 -84.72 0.0002767095    1.679    0.404
