#   1 NUMBER                 Running object number                                     
#   2 MAG_AUTO               Kron-like elliptical aperture magnitude                    [mag]
#   3 X_IMAGE                Object position along x                                    [pixel]
#   4 Y_IMAGE                Object position along y                                    [pixel]
#   5 X_WORLD                Barycenter position along world x axis                     [deg]
#   6 Y_WORLD                Barycenter position along world y axis                     [deg]
#   7 A_WORLD                Profile RMS along major axis (world units)                 [deg]
#   8 B_WORLD                Profile RMS along minor axis (world units)                 [deg]
#   9 THETA_WORLD            Position angle (CCW/world-x)                               [deg]
#  10 FWHM_WORLD             FWHM assuming a gaussian core                              [deg]
#  11 ELONGATION             A_IMAGE/B_IMAGE                                           
#  12 ELLIPTICITY            1 - B_IMAGE/A_IMAGE                                       
         1 -14.5913    132.0691     86.7531   4.0798846280e+01   3.8655226925e+01     2.406489     1.966901  63.39  0.005193085    1.272    0.214
         2 -13.6892     57.8543      3.6635   2.5015219904e+01   7.0193230081e+01     2.308257    0.7341433  76.39  0.006785688    4.708    0.788
         3 -14.4235     14.7651     68.8946   8.2393222830e+01   6.4892082320e+01     2.593929     1.767865  -2.47   0.01256332    1.682    0.405
         4 -14.2529    115.8807     65.5170   3.7906878905e+01   4.6591349907e+01     2.504743     1.905707  40.32  0.007161822    1.528    0.346
         5 -14.0459     58.1106     65.7616   5.7773621005e+01   5.9627756558e+01     1.956591     1.401748 -46.63     0.009172    1.408    0.290
         6 -13.3595     63.3397     35.0861   4.1745347556e+01   6.4781867791e+01     2.385212     1.941607 -52.66   0.01259703    1.305    0.234
         7 -14.2924     11.9307     38.7515   7.5496245574e+01   7.2881788050e+01     1.980263     1.317039 -84.52  0.005552561    1.879    0.468
         8 -12.5143     55.1904     22.1376   3.7944030634e+01   6.8689799524e+01     1.816448    0.8485999  68.12  0.006610204    3.002    0.667
         9 -13.8363     35.6494     55.1011   6.5418190760e+01   6.6024854051e+01     1.386705     1.189199  -6.32  0.002397402    1.288    0.223
        10 -13.3689     48.4925     51.0687   5.6537687874e+01   6.4783078481e+01     1.661303    0.7919053 -36.91  0.006115812    2.629    0.620
        11 -13.1305     72.7814     25.2324   3.3064840998e+01   6.4016510588e+01     1.464134    0.5532451 -47.19 0.0007634694    3.186    0.686
        12 -12.3446     79.1870     22.6423   2.9764989114e+01   6.2740436411e+01    0.8043487     0.620283 -62.09  0.002061132    1.393    0.282
        13 -14.2912     43.6572     75.1142   6.7959438797e+01   5.9797220890e+01     1.809479     1.239329 -52.36  0.006065837    1.423    0.297
        14 -13.4484    177.0792     71.5199   2.8387172104e+01   3.1261134597e+01     2.892176    0.9885796 -46.68   0.01076218    2.656    0.624
        15 -13.6521    244.9359     59.9028   1.8749878956e+01   2.0105505302e+01      1.46847     1.023718  12.12  0.007698377    2.680    0.627
        16 -14.0899    188.4171     58.3135   2.3499485366e+01   3.0826188881e+01     1.737929     1.012879 -65.35  0.008635178    1.851    0.460
        17 -14.2671    219.5116     58.1009   2.0373529922e+01   2.4720699580e+01     2.158153     1.251998 -33.93   0.01078327    1.440    0.305
        18 -12.0043    243.0464     21.6872   1.0874334356e+01   2.4841901917e+01    0.6136172    0.4862576 -49.32  0.003901345    1.146    0.127
        19 -13.0064    222.0943     38.7646   1.5756137990e+01   2.6670452596e+01      1.22827    0.5662528 -61.37 0.0009631634    2.119    0.528
        20 -13.1974    225.6252     22.8394   1.1944846609e+01   2.7834076926e+01    0.6315238    0.5556576 -13.91 0.0007804878    1.519    0.342
        21 -14.2169    242.1694      7.1602   7.8822798035e+00   2.6483749614e+01      1.29729    0.3792917 -65.54  0.006013032    3.297    0.697
        22 -11.2362    229.5360     13.9495   9.7926639554e+00   2.8055251296e+01    0.6448143    0.2752756 -35.37 0.0009369724    1.730    0.422
        23 -12.4514    221.4562      8.1440   8.8243350301e+00   3.0158024927e+01    0.6055389    0.1652354 -46.44  0.001898973    2.277    0.561
        24  99.0000     31.5978     23.5508   5.1964273158e+01   7.3389174977e+01     1.912926     1.453135  74.67  0.006150261    1.931    0.482
        25 -11.3087    234.1720     24.6763   1.1921298350e+01   2.6074003181e+01    0.3924127    0.1668795 -36.88 0.0006618126    1.682    0.405
        26 -11.8583    211.0475     21.0867   1.2317762582e+01   3.0833691107e+01     0.557837    0.4049081 -48.63  0.003695721    1.056    0.053
        27 -13.3395    196.5607     40.9886   1.8243067647e+01   3.1446412378e+01     3.068881     1.139628 -36.82   0.01377785    2.088    0.521
        28 -10.5426    176.5491     23.6162   1.5288880580e+01   3.7930104613e+01    0.3979166     0.295044   7.78  0.002074725    2.095    0.523
        29 -11.1780    150.1660     22.1724   1.7271698892e+01   4.4389674740e+01    0.4816152    0.3033102  23.18  0.002030273    2.790    0.642
        30 -11.5387    202.0871     20.6769   1.2736565957e+01   3.2697217254e+01    0.5256597    0.2551065 -67.01  0.002712667    1.945    0.486
        31 -11.1785    203.7300     17.3279   1.1815322322e+01   3.2721444769e+01    0.5086854    0.1981925 -62.61  0.001824402    2.406    0.584
        32 -12.7913     24.5191     39.9514   6.6260516345e+01   7.1156266604e+01     1.183033    0.9989808 -59.15  0.001766916    1.222    0.182
        33 -10.5484    154.3055     15.3700   1.4705914587e+01   4.4110447077e+01    0.3493713    0.2515067  -3.03  0.001856503    1.937    0.484
        34 -12.9671    172.8895      7.6027   1.1026361092e+01   4.0464928913e+01    0.4916187    0.2768566 -18.79  0.001432553    2.086    0.521
        35 -10.8423     56.6665     12.9360   3.1554767239e+01   6.9536229895e+01    0.3708554    0.2245086 -39.56  0.001170381    1.767    0.434
        36 -11.6655    115.6620     10.5323   1.7074124982e+01   5.4475943684e+01    0.4704228    0.3459256  16.61  0.001434438    1.856    0.461
        37 -10.6770    109.7235     10.5947   1.7898891428e+01   5.6037475679e+01    0.3633433    0.2589613 -52.08  0.001671724    1.351    0.260
        38 -11.6543    193.2939      7.9189   1.0001459434e+01   3.5886388607e+01    0.3413239    0.2490934 -15.14  0.002093736    1.714    0.416
        39 -10.8898    131.4645     10.0489   1.5071422046e+01   5.0400102502e+01    0.4865515    0.2869338 -50.24   0.00244097    1.542    0.351
        40 -10.4658     93.9741     11.8721   2.1010392888e+01   6.0086041528e+01    0.2042361    0.1793331  74.06 0.0002781969    1.063    0.059
        41 -10.1767     88.2914     11.5412   2.1948034694e+01   6.1618798978e+01    0.2319168    0.1857382 -36.29  0.000958331    1.318    0.241
        42  -6.1755    124.2069     10.0096   1.5838722979e+01   5.2285870806e+01    0.3463598    0.2444087  21.47  0.001752961    2.001    0.500
        43 -11.4503     26.7099      9.8513   4.5271091338e+01   7.6529908141e+01     0.282297     0.211275  26.59 0.0009812618    1.340    0.254
        44 -10.2488     44.9634     10.0790   3.4551830457e+01   7.2629557658e+01    0.1934246    0.1899579  62.93 0.0009094797    1.087    0.080
        45  -9.1702    101.4774      3.4999   1.5951674490e+01   5.8847208608e+01    0.1961496    0.1169246 -40.03 -3.173533e-05    1.660    0.398
        46 -10.3665    101.0193      6.7434   1.7475423875e+01   5.8694854790e+01    0.2082825     0.166319 -74.25  0.001165688    1.167    0.143
        47  -9.8317     97.4778      4.9795   1.7194206705e+01   5.9784913294e+01    0.2152914    0.1611519 -69.98 0.0005319656    1.284    0.221
        48 -11.1283      2.7065      6.0231   6.6321366894e+01   8.0886119633e+01    0.2438656    0.2156975   7.75  0.000687488    1.083    0.077
        49 -10.3340    146.4443      5.8720   1.2293010714e+01   4.6990125490e+01    0.2161812    0.1643956  64.69  0.000904997    1.418    0.295
        50 -10.1888    120.7012      4.7542   1.4199274775e+01   5.3676676869e+01    0.3302964    0.1817776 -55.11  0.000895766    1.710    0.415
        51  -9.3245     91.2741      6.6753   1.8996927860e+01   6.1282917262e+01    0.1435528    0.0936432 -60.47 0.0004432116    1.581    0.367
        52 -10.5542    150.1675     13.3562   1.4426053895e+01   4.5338851481e+01    0.2366169    0.1686716 -49.34  0.000560983    1.230    0.187
        53  -9.6740    183.4774      3.7245   9.3835044796e+00   3.8437089189e+01    0.2605811    0.1583304 -56.17 0.0009107324    1.295    0.228
        54 -10.6603    187.4424      1.6249   8.6431321729e+00   3.7759748095e+01    0.4182435    0.1624563 -86.73  0.001573193    2.556    0.609
        55 -10.4547    112.2973      3.6671   1.4681222143e+01   5.5973910437e+01    0.3832576    0.2123793  67.96  0.001851165    1.641    0.391
        56 -11.5590    217.2243      2.4236   7.6788280487e+00   3.1532606232e+01    0.2544892    0.1848646  81.81 0.0009497158    1.546    0.353
        57 -10.0404    207.3772      2.3548   8.0162650537e+00   3.3491783721e+01    0.2092799    0.1047812 -21.88  0.001009445    2.189    0.543
        58  -9.4001    142.6985      3.0390   1.1634653172e+01   4.8181087574e+01     0.277666    0.1673811  69.74  0.001446706    1.619    0.382
        59  -9.7534     19.2139      3.6793   4.5697727254e+01   7.8813535284e+01    0.1125558    0.0977468 -59.08 0.0003318961    1.488    0.328
        60 -12.1800     86.1734      1.3600   1.7203257634e+01   6.3065287460e+01    0.4765978    0.1179665  73.37  0.001107208    3.465    0.711
        61 -10.0904    250.1024      1.4347   6.4875239045e+00   2.5684918094e+01    0.1323451   0.08529741 -72.80 0.0003486165    1.437    0.304
        62 -11.1261     13.5147     93.5640   8.7464063014e+01   5.8109253673e+01    0.2417362    0.2270741  21.54 8.995109e-05    1.149    0.130
        63  -9.9858    232.7932     96.5538   2.7493183404e+01   1.7197171082e+01    0.1986943    0.1254318 -31.20   0.00030127    1.310    0.237
        64 -11.4821    199.7663     95.4677   3.1204038414e+01   2.2963188737e+01    0.4812639    0.2319028 -36.85 0.0006890049    1.732    0.423
        65 -10.4419    249.8101     94.7845   2.5437192336e+01   1.4879943604e+01    0.2694362    0.1307406 -41.19  0.001115703    1.520    0.342
        66 -11.9815     48.9689     95.2573   7.0978161507e+01   5.3616006335e+01    0.4186541    0.2861728  33.71 0.0008805115    1.482    0.325
        67 -12.3618     83.3326     83.3861   5.3715718710e+01   5.0360203661e+01    0.5873294    0.3665123 -57.10 0.0005849206    1.655    0.396
        68  -9.4476     17.6888     96.3099   8.5816575418e+01   5.6995363845e+01    0.1584238    0.1022495  59.25 0.0004878753    1.625    0.384
        69  -9.9656    206.6215     94.8587   3.0167712339e+01   2.1819637722e+01    0.1986381   0.09341884 -44.72 0.0009427893    1.794    0.443
        70 -12.6452     56.2983     94.7456   6.7677486819e+01   5.2606148640e+01    0.4867104    0.4110951  75.28  0.000727284    1.246    0.197
        71 -10.0478    172.9419     91.7452   3.4273693170e+01   2.8794349261e+01     0.336395    0.2226335 -73.46  0.001574651    2.036    0.509
        72 -10.4592    168.0809     90.0089   3.4633126501e+01   3.0105248394e+01    0.3134863    0.2132874  63.19 0.0009902534    1.665    0.400
        73 -11.6463     96.8381     90.9629   5.1563644540e+01   4.5691979349e+01    0.6384932    0.4167528  53.20  0.001830029    1.578    0.366
        74 -10.2438     79.5687     90.9257   5.7406912794e+01   4.9322456924e+01    0.2529351    0.2226415  17.20 0.0004325529    1.329    0.247
        75 -13.3173    194.8438     86.0310   2.9633784446e+01   2.5367297688e+01    0.6143858    0.4943502  48.61  0.002290668    1.504    0.335
        76  -9.9096     87.0237     89.4761   5.4336269579e+01   4.8139434939e+01       0.2413    0.2228325   2.37 0.0008081292    1.277    0.217
        77 -12.9755    215.6018     83.4283   2.6514812279e+01   2.1926459936e+01    0.7509159    0.3900464 -64.97  0.003408311    2.860    0.650
        78 -10.9773    224.3289     88.3040   2.6642190665e+01   1.9728421732e+01    0.2300235    0.2226507  42.27  0.001049083    1.330    0.248
        79 -10.7280    225.7970     85.4001   2.5857496807e+01   1.9892647150e+01    0.1852732    0.1614209 -45.48 0.0003769463    1.129    0.114
        80 -11.1952      3.6114     87.5293   9.1736984918e+01   6.0453744179e+01     0.416008    0.2155335 -16.55  0.001719041    2.402    0.584
        81 -12.1356    236.0544     85.9123   2.4937954653e+01   1.8149855164e+01    0.4934793      0.28714  83.81  0.002512288    2.815    0.645
        82 -11.9489    168.5319     80.2496   3.1986122476e+01   3.1681177224e+01    0.4216793    0.3679657 -78.04  0.001394069    1.169    0.144
        83 -11.1084    167.4495     76.5427   3.1159510232e+01   3.2535428095e+01    0.2884949    0.2220146  57.04 0.0006682667    1.444    0.307
        84 -11.9332    234.7354     36.9970   1.4561697776e+01   2.4585563674e+01     1.000187    0.5024367 -66.99  0.004007376    2.035    0.509
        85 -11.2726    137.7713    112.8802   4.6605630975e+01   3.2077043981e+01    0.4504165    0.2393992  33.93   0.00162544    2.466    0.594
        86 -12.7421    166.0631     65.9439   2.8450171177e+01   3.4562225209e+01     2.687648    0.9694877  70.47  0.008872682    4.013    0.751
        87  -9.8169     95.6955    112.3460   5.7861228213e+01   4.0815547658e+01    0.1649397    0.1233231  83.35 0.0006193573    1.692    0.409
        88 -10.6745     38.4632    109.9877   7.8665615821e+01   5.0936925696e+01    0.2431064    0.1466786 -70.18  0.001032778    1.598    0.374
        89 -10.1595    217.9662    108.3474   3.1698274938e+01   1.7849131072e+01    0.2154077     0.141872 -50.20 0.0003296352    1.459    0.315
        90 -13.0561    232.5186     48.7079   1.7255049976e+01   2.3577718259e+01    0.9288391    0.7097618 -63.39  0.003383165    1.225    0.183
        91 -11.8818    210.7910     47.5083   1.8641700630e+01   2.7744803093e+01    0.4693994    0.2739127 -60.04  0.001267074    1.577    0.366
        92 -10.8483    196.2385    107.5085   3.4461857047e+01   2.1674497339e+01    0.3535359    0.2414681 -50.93  0.001785072    1.407    0.289
        93 -11.9506    215.4024     41.9882   1.6975526027e+01   2.7546057702e+01    0.2696689     0.201168 -62.19 0.0003784482    1.177    0.150
        94 -11.5522    191.1529    102.1430   3.3975776281e+01   2.3478450511e+01    0.5489104    0.1768686 -47.70  0.001931923    3.231    0.690
        95 -11.6757    161.7567    107.3872   4.0189825595e+01   2.8262117868e+01    0.4074208     0.181725 -40.77  0.001644704    2.037    0.509
        96 -10.8443    152.9512    108.1981   4.2124643520e+01   2.9896489599e+01    0.2190152    0.1883989 -72.03 0.0004679786    1.258    0.205
        97 -10.2496    210.2704    105.8113   3.2138571567e+01   1.9505424269e+01    0.1928202    0.1782396 -42.44  0.000908311    1.144    0.126
        98 -10.3966    182.9967    103.1974   3.5476722201e+01   2.4837856845e+01     0.270122    0.1792085 -38.33   0.00141772    1.312    0.238
        99 -11.3841    147.4676     83.3426   3.6560555063e+01   3.5800532744e+01      0.65209    0.3950948 -46.64  0.002632589    1.525    0.344
       100 -11.8509    145.1320    103.5073   4.2551800387e+01   3.2447017932e+01    0.5373645    0.3095209  52.95  0.001927902    1.875    0.467
       101 -11.7264    161.6319     84.5190   3.4280296502e+01   3.2444386167e+01    0.7827912    0.4177296  44.91  0.003376537    2.264    0.558
       102 -11.1475    250.0456     82.1678   2.2897415997e+01   1.6489841107e+01    0.2591945    0.1717464  -6.05  0.001343659    2.293    0.564
       103 -12.2762    209.2949     58.4640   2.1382093932e+01   2.6594184995e+01    0.3389693    0.2340623 -65.93  0.002030606    1.423    0.297
       104 -10.2381    155.4630     76.3970   3.3107675499e+01   3.5229172371e+01    0.2556378    0.2175252  85.92 0.0007128398    1.226    0.184
       105 -12.2010    249.9249     75.0392   2.1470418089e+01   1.7420887015e+01    0.2641069    0.1662924 -34.29  0.000479912    1.220    0.180
       106 -10.8730    249.8381     67.7143   1.9991706312e+01   1.8357630396e+01    0.4376128    0.1563039 -29.69  0.002058555    2.498    0.600
       107 -10.5835    225.4886     75.5141   2.3729602551e+01   2.1316289865e+01     0.212475    0.1037114 -25.69  0.001023994    2.189    0.543
       108 -11.5160    199.9081     76.3611   2.6670217123e+01   2.5865865889e+01    0.2961031    0.1630024  67.54  0.001495933    2.209    0.547
       109  -9.8243    151.0566     72.5125   3.2769360143e+01   3.6907670433e+01    0.2211579    0.1727951 -44.63 0.0004870671    1.177    0.151
       110 -12.8828      5.1389     55.7566   8.5775216210e+01   6.9091209269e+01    0.8231877    0.5361322 -33.64  0.002442763    1.559    0.359
       111 -11.2658      3.3265     48.3748   8.5400939187e+01   7.1119317242e+01    0.4211777    0.2852194  64.51  0.001271536    1.735    0.424
       112 -12.0649    127.6360     58.5224   3.2878316171e+01   4.4932970552e+01    0.5085911    0.3001567  43.90  0.001448293    2.050    0.512
       113  -8.7037    161.8156     47.4065   2.3702205034e+01   3.8327797455e+01    0.3903674    0.3221044  83.91  0.002243162    1.218    0.179
       114 -10.9747    161.3182     58.2140   2.6940518511e+01   3.6850896299e+01     0.328007    0.2530529 -59.11 0.0009462488    1.173    0.147
       115 -11.0750    160.0379     54.1363   2.5930839062e+01   3.7766425832e+01    0.5177614    0.3528357 -86.01  0.002019686    1.599    0.374
       116 -10.1774    107.4531     54.0889   3.5912485285e+01   5.0742799345e+01    0.5550621    0.2840021 -57.28  0.001424513    2.404    0.584
       117 -11.3914    100.3125     54.2565   3.7861664987e+01   5.2496004721e+01    0.5914502    0.5240804  60.09  0.001775872    1.126    0.112
       118 -10.3856     69.7992     55.2831   4.8528643749e+01   5.9528733429e+01    0.3362362    0.2618897 -81.68  0.001342167    1.578    0.366
       119 -13.5800    117.7527     96.1174   4.7042434093e+01   3.9937707989e+01     1.280664    0.7029613 -66.18  0.004050508    2.798    0.643
       120 -11.5545     90.4585     51.0695   3.9459972601e+01   5.5503069014e+01    0.2554095    0.2265757  66.70   0.00061117    1.090    0.082
       121 -10.6287    245.2857     50.1013   1.6687355293e+01   2.1242789104e+01    0.1894677    0.1483044 -58.76 0.0002017025    1.192    0.161
       122 -11.9748    246.7034     41.9830   1.4913875365e+01   2.1965979908e+01     0.480688    0.1935484 -54.65  0.002197204    2.132    0.531
       123 -12.4857    106.5611     96.9298   5.0381216827e+01   4.2212086933e+01    0.7083852    0.3722397 -29.82  0.002325531    3.138    0.681
       124  -9.7218    248.0461     47.0000   1.5870395142e+01   2.1159968916e+01    0.2027941   0.07568732  72.39  0.000844793    3.399    0.706
       125 -10.4338    181.2380     31.9831   1.7208826801e+01   3.5882984533e+01    0.4531753     0.266503 -38.28  0.001834228    1.452    0.311
       126 -10.2496    168.6694     36.6553   1.9742810345e+01   3.8171320236e+01    0.3075092     0.221704 -10.65 0.0009737143    1.879    0.468
       127 -10.9878    168.9082     32.8614   1.8617784884e+01   3.8595248936e+01    0.4016544    0.2423834  67.27  0.001897326    1.730    0.422
       128 -12.4982    172.7627     45.2303   2.1742160416e+01   3.6091444791e+01    0.6286019     0.527745  27.83  0.002837722    1.655    0.396
       129 -11.4511    177.7337     37.9995   1.9192521247e+01   3.5919120971e+01    0.4035712    0.2721661 -10.79  0.001134839    2.094    0.522
       130 -10.7845    164.8743     38.8655   2.0806859189e+01   3.8773619079e+01    0.4351869    0.2212484 -68.07 0.0003722404    2.233    0.552
       131 -10.2487    161.4513     40.5043   2.1694576260e+01   3.9366196025e+01    0.2320013    0.2234675 -21.35 0.0007306573    1.273    0.215
       132 -11.4876    160.8043     36.7788   2.0652478058e+01   4.0012759923e+01     0.361921    0.2960952  -0.60  0.002007824    1.678    0.404
       133 -11.3023     99.4251     47.8318   3.5574852548e+01   5.3835245749e+01    0.3713517    0.3018947  29.67  0.001840705    1.523    0.343
       134 -12.3098    107.1274     92.5645   4.8941585787e+01   4.3071667548e+01    0.5805412    0.3163076  42.22  0.001417532    1.956    0.489
       135 -10.0422    132.5027     39.9671   2.5605606621e+01   4.6588691736e+01    0.8591415    0.4258825 -77.93  0.003040951    3.090    0.676
       136 -11.5439    144.3767     45.0812   2.5437346797e+01   4.2877120931e+01    0.5216926    0.3492363  46.60   0.00184338    1.808    0.447
       137 -12.1414    148.6350     40.3065   2.3285348206e+01   4.2497253040e+01    0.7049551    0.3678516 -40.38  0.003204594    1.712    0.416
       138  -9.7761    121.1811     44.9717   2.9443287807e+01   4.8746092895e+01     0.251592    0.1460266 -61.68  0.000656491    1.949    0.487
       139 -13.4442     91.8167     65.8189   4.4765899564e+01   5.2333595270e+01     1.740722     1.587181 -14.89  0.009001679    1.296    0.228
       140  -9.7847    105.0487     43.4403   3.2389948182e+01   5.3120387908e+01    0.2221143    0.1985316 -53.21 0.0009366469    1.112    0.101
       141 -10.5384    100.0635     41.5696   3.2860748994e+01   5.4690720383e+01    0.3540848    0.2983355 -20.99  0.001838741    1.385    0.278
       142 -13.6907    202.5416     60.0813   2.2432634543e+01   2.7691436977e+01    0.9535711    0.4772887 -45.89   0.00126723    1.610    0.379
       143 -10.2027    250.4932     36.6272   1.3602409228e+01   2.1955951369e+01    0.2879063   0.09050012 -34.69 0.0008010346    2.170    0.539
       144 -10.5371    132.5997     34.3646   2.3631165593e+01   4.7330376102e+01    0.5104108    0.2204492 -65.94  0.001681122    3.498    0.714
       145  -9.2472    104.4339     27.4520   2.5946776247e+01   5.5561374236e+01      0.37036    0.1850608 -37.50  0.001341382    1.955    0.489
       146 -10.9634    114.5729     27.9826   2.4233384279e+01   5.2832893789e+01    0.2401154     0.203172  58.05 0.0002862979    1.238    0.192
       147  -9.6818    109.9717     36.0089   2.8318219467e+01   5.2960188299e+01    0.2082628    0.1888903 -75.88 0.0005255665    1.026    0.026
       148 -10.9481    112.9999     32.5457   2.6332928815e+01   5.2649660461e+01    0.3005644    0.2590969  14.38 0.0005435207    1.488    0.328
       149 -10.5735    109.1583     32.3942   2.7033000715e+01   5.3673455905e+01     0.482941    0.2726797 -89.24  0.001970694    2.191    0.544
       150  -9.7355    152.3372     33.7093   2.0709913617e+01   4.2460561550e+01    0.1651827    0.1248723 -31.22 0.0002626497    1.375    0.273
       151 -10.8460    122.3593     33.1292   2.4850739636e+01   5.0134376591e+01    0.3158514    0.2089604 -48.80 0.0006266192    1.439    0.305
       152 -11.0931     92.4795     33.3808   3.1291566067e+01   5.7869845523e+01    0.3278425    0.2968259   9.95   0.00118972    1.326    0.246
       153 -10.6951     74.7434     33.7186   3.6751868573e+01   6.2288048514e+01    0.3053295    0.2411228  60.15  0.000752294    1.204    0.169
       154  -9.7522     80.4874     30.5186   3.3324683299e+01   6.1340205106e+01    0.1462664    0.1363054  57.32 -5.973139e-05    1.072    0.068
       155 -11.2907     86.1041     28.7913   3.0875548882e+01   6.0154908567e+01    0.4643208    0.2368878  57.45  0.001319054    1.810    0.447
       156 -10.1454    162.3056     28.9874   1.8142428130e+01   4.0631592664e+01    0.2049925    0.1690679 -65.20 0.0003185679    1.025    0.024
       157  -9.2745    159.4940     26.4730   1.7665068766e+01   4.1607891916e+01    0.1372648    0.1165147 -65.02  2.76379e-05    1.020    0.020
       158 -10.1953    168.4357     26.6250   1.6848412140e+01   3.9460848756e+01    0.2664802    0.1741669 -57.51   0.00130414    1.313    0.239
       159 -11.1067     21.2729     25.5105   6.1063444527e+01   7.4708846641e+01    0.4912859    0.3343912  20.02   0.00255294    1.548    0.354
       160 -12.2050     75.6360    103.3008   6.2308802189e+01   4.6958931492e+01    0.4121944    0.2725528 -79.72 0.0009271882    1.929    0.482
       161 -11.1505     95.8283    102.5141   5.5217018024e+01   4.3179528962e+01    0.3205828    0.2588066 -25.65  0.001490519    1.510    0.338
       162 -10.5571    135.5775     25.2284   2.0000819219e+01   4.7714818963e+01     0.283636     0.245546 -84.25  0.001644268    1.057    0.054
       163  -9.7479    123.1686     25.1093   2.1705151275e+01   5.0937399149e+01    0.2364619    0.1691367 -19.06    0.0011871    1.658    0.397
       164 -10.0537    103.3597     19.7522   2.2850144487e+01   5.6770695264e+01    0.2694558     0.216594 -17.46 0.0008978169    1.454    0.312
       165  -9.8457    102.6952     23.3306   2.4529848782e+01   5.6529197112e+01    0.2156737    0.1292613 -49.14 0.0007069263    1.677    0.404
       166 -10.4686     98.1336     22.0742   2.4896986720e+01   5.7880559915e+01    0.3914949    0.2298985  60.57   0.00144102    1.582    0.368
       167 -10.2966    165.1234    102.1124   3.8246671415e+01   2.8555311738e+01    0.2172065    0.1897486 -21.25 0.0009245969    1.231    0.188
       168 -10.2343    242.9375    101.0165   2.7351111316e+01   1.5046448660e+01     0.166085    0.1213425 -11.88  0.000382564    1.593    0.372
       169 -10.2574    169.8998     19.9591   1.4783267257e+01   3.9877824428e+01    0.2815063    0.1727262   7.27   0.00110554    3.135    0.681
       170  -9.5399    163.3089     20.9037   1.5617593533e+01   4.1331262475e+01    0.1733236    0.1428522 -50.77 0.0002940334    1.102    0.092
       171  -9.9843    115.9486     20.9420   2.1205300154e+01   5.3314705128e+01     0.241168    0.1468744 -60.83  0.001123539    1.663    0.399
       172  -8.9999    158.4939     19.4848   1.5615825682e+01   4.2647238548e+01    0.1318179    0.1180446 -71.22 0.0008082578    1.107    0.097
       173 -10.3952    129.7161     19.2475   1.8617110351e+01   4.9907342417e+01    0.2464009    0.1708231  84.45 0.0006293589    1.343    0.255
       174 -11.9337    153.5190    100.0035   3.9907527278e+01   3.1353971690e+01    0.3542786    0.2977682 -48.10  0.001395416    1.091    0.084
       175  -8.9103    139.0000     17.5064   1.6907015623e+01   4.7711751962e+01    0.2681474   0.07536865 -25.71 0.0007196675    3.627    0.724
       176  -9.9443    121.6432     17.3958   1.8983739595e+01   5.2210545312e+01    0.2801461    0.1623249 -54.71 0.0008137684    1.666    0.400
       177 -10.1792    192.5559     16.4703   1.2244554690e+01   3.5164928715e+01     0.253771    0.1119708 -63.54 0.0009519021    2.087    0.521
       178 -11.0453    154.1356     96.0984   3.8759715038e+01   3.1960851713e+01    0.6709318    0.2901811  44.90  0.001846823    2.687    0.628
       179 -11.2209     93.9559     16.1994   2.3053678307e+01   5.9645942773e+01    0.3521385    0.1955123  56.57  0.001610593    1.698    0.411
       180  -9.6292    124.9923     16.0161   1.8017852578e+01   5.1481441239e+01    0.2190481    0.1342321 -54.58 0.0004129508    1.538    0.350
       181 -11.0150     36.3387    248.6480   9.2248623509e+01   1.7240984814e+01    0.2151635    0.1428793 -68.48  0.001388404    1.870    0.465
       182  -9.6052    104.5436     15.3633   2.0734324956e+01   5.6933920048e+01    0.2963492    0.1281683  80.07  0.001138613    2.396    0.583
       183 -14.0709     66.8161     83.2039   5.9961947159e+01   5.3735933184e+01     1.551589     1.208601 -43.81  0.004323809    1.338    0.253
       184  -9.7908    159.9934     13.7638   1.3733835984e+01   4.2894000189e+01    0.1794421     0.146041 -78.64  0.000275985    1.098    0.089
       185 -10.3466    187.0358     12.9185   1.1643504643e+01   3.6739455074e+01     0.260507    0.1240724 -65.70 0.0009001992    1.907    0.476
       186 -11.2642    113.5258    246.3192   7.5011229783e+01   9.4775147777e+00    0.2710546      0.19125 -21.52   0.00107977    1.630    0.387
       187 -10.1507    180.4986    243.4960   6.1556692909e+01   2.6717792035e+00    0.1093473   0.08232719   3.82 -0.0001360485    1.027    0.026
       188 -10.8611     88.1888    238.8390   7.9823716569e+01   1.3581866836e+01    0.1638835    0.1300665   3.35 0.0005086461    1.314    0.239
       189 -12.5373    149.9094     64.5004   3.0597988696e+01   3.8526065662e+01     1.376462    0.8478906  37.87  0.005972004    2.311    0.567
       190 -12.4892    141.2565     56.2395   2.9537044540e+01   4.1948854843e+01     1.023154    0.9090286  87.00  0.003679787    1.103    0.094
       191  -9.7462     15.9990    238.4817   9.6454916539e+01   2.1028856709e+01     0.145296   0.09396439  -8.37 0.0004523527    2.277    0.561
       192  -9.7143    212.2049     11.4162   9.9670820540e+00   3.1627484732e+01    0.1561943   0.08945183 -71.12 0.0006312982    1.560    0.359
       193  -9.2480    236.7425    146.0191   3.6799682537e+01   9.6737273238e+00    0.1462967   0.07743382 -34.55 0.0003469339    1.454    0.312
       194  -9.4867    216.1461    131.1593   3.6679647859e+01   1.4681824959e+01    0.1643334    0.1309339 -49.83  0.001066006    1.349    0.259
       195  -9.7901    152.8958    124.1363   4.6011157601e+01   2.6777083079e+01    0.2050731    0.1844604 -65.79 0.0002690804    1.191    0.161
       196 -13.5355     80.8455     41.9069   3.8575571050e+01   5.9462099344e+01     1.661286    0.6372454  59.37  0.005718359    2.709    0.631
       197  -9.5966    206.9985    122.5233   3.6189830539e+01   1.7439420020e+01    0.1534338     0.127966  47.19 -5.777705e-05    1.460    0.315
       198  -9.9938    219.5702    121.4661   3.4238375455e+01   1.5629203687e+01    0.2159325    0.1227214  47.61  0.001210839    2.184    0.542
       199 -10.7912    181.6808    117.8069   3.9101201335e+01   2.2561247741e+01    0.3960623    0.1932228 -46.03  0.001774529    1.895    0.472
       200 -10.5122    203.6513    116.0124   3.5275131664e+01   1.9022078848e+01     0.300555    0.1922623  69.68  0.001550774    2.435    0.589
       201 -13.0311     79.7408     59.1363   4.6308389680e+01   5.6503155129e+01    0.9092802    0.6393095  36.70  0.003245891    1.600    0.375
       202 -13.1728     79.2814     50.5750   4.2934676610e+01   5.8288016207e+01    0.8882989    0.5690642  42.77  0.003940957    1.645    0.392
       203 -12.7825     85.7492     98.7945   5.7502401154e+01   4.6139651748e+01    0.7782469    0.3961808  34.19  0.002853105    2.244    0.554
       204 -10.3383     89.2901     93.9232   5.4900924504e+01   4.6601354254e+01    0.2208119    0.1990675 -53.41 0.0003116367    1.107    0.097
       205 -11.5067     33.9468    100.5269   7.8887256538e+01   5.4156406977e+01    0.2839444    0.2685836  84.57 -2.094504e-05    1.012    0.012
       206 -10.9617    158.9878     99.2121   3.8644375425e+01   3.0354040059e+01    0.2557391    0.1899434 -48.58 0.0002970381    1.238    0.192
       207 -10.6594    170.5182     97.8656   3.6227452848e+01   2.8221606971e+01    0.3089132    0.2419644 -47.29  0.001694965    1.142    0.124
       208 -11.7102    226.5458     97.4590   2.8363978183e+01   1.8059924819e+01    0.3043246    0.2582697 -72.73  0.002119957    1.402    0.287
       209 -11.4868     89.3605    115.3067   6.0623021114e+01   4.1307400161e+01    0.4885074    0.2630614  50.42  0.001873885    1.995    0.499
       210 -13.5581     61.6063     91.8006   6.4655347431e+01   5.2487943684e+01    0.9226844    0.5705895 -73.27  0.003501366    1.913    0.477
       211 -11.5927     11.9770     97.3143   8.8722527959e+01   5.7153557683e+01     0.347705    0.2744431 -47.40  0.001108103    1.301    0.231
