#   1 NUMBER                 Running object number                                     
#   2 MAG_AUTO               Kron-like elliptical aperture magnitude                    [mag]
#   3 X_IMAGE                Object position along x                                    [pixel]
#   4 Y_IMAGE                Object position along y                                    [pixel]
#   5 X_WORLD                Barycenter position along world x axis                     [deg]
#   6 Y_WORLD                Barycenter position along world y axis                     [deg]
#   7 A_WORLD                Profile RMS along major axis (world units)                 [deg]
#   8 B_WORLD                Profile RMS along minor axis (world units)                 [deg]
#   9 THETA_WORLD            Position angle (CCW/world-x)                               [deg]
#  10 FWHM_WORLD             FWHM assuming a gaussian core                              [deg]
#  11 ELONGATION             A_IMAGE/B_IMAGE                                           
#  12 ELLIPTICITY            1 - B_IMAGE/A_IMAGE                                       
         1 -11.7192      3.2931     16.4667   7.1635514924e+01   7.1035442386e+01    0.3925278    0.2675614 -67.90  0.002068657    2.256    0.557
         2 -11.4957    130.2026     12.6561   2.4014229697e+01   5.0628791812e+01    0.4472637    0.2689506 -39.87   0.00220889    1.893    0.472
         3 -12.4737    133.0034     18.8708   2.5634443297e+01   4.9311323875e+01    0.3891831    0.2824618  17.75 0.0004000377    1.569    0.362
         4 -10.8678    128.6743     20.7269   2.7196814949e+01   5.0158421389e+01    0.4766118    0.2574426 -15.20  0.002117026    2.239    0.553
         5 -11.2065     77.5408     10.0237   3.6394988346e+01   6.2412435835e+01    0.7716426    0.1584999  45.63  0.002641793    3.885    0.743
         6 -11.6489     73.2584     16.4142   4.0648375313e+01   6.2483261034e+01    0.4940612    0.3175901 -47.20  0.002091425    2.241    0.554
         7 -11.8409     31.2304     13.5692   5.6439121927e+01   6.9058785814e+01    0.3537269    0.2520515 -40.76 0.0006261843    1.578    0.366
         8 -11.1780     19.5639     16.6337   6.3448265083e+01   6.9781111813e+01    0.3095119    0.2500036  -9.38  0.002298586    1.145    0.126
         9 -12.1139    238.1024     17.6599   1.0960656183e+01   2.3336230593e+01    0.2494193    0.1962909 -57.64 0.0002891606    1.124    0.110
        10 -11.2567     11.4483     14.5174   6.6639429061e+01   7.0792223526e+01    0.4786835    0.1795599 -23.89  0.002015956    3.717    0.731
        11 -11.1316     59.6678     13.5503   4.4280861398e+01   6.5149862121e+01    0.2446761    0.2072654  22.19  0.001214083    1.190    0.159
        12 -12.4759    155.3180      9.6440   1.8573276282e+01   4.4679771531e+01    0.5182702    0.2842038 -31.91  0.001777645    1.968    0.492
        13 -10.3264    138.5216     11.5254   2.2029210087e+01   4.8703505805e+01    0.2359054    0.1122242 -37.56  0.001030432    2.311    0.567
        14 -11.7953    176.6555     10.6758   1.5831137456e+01   3.9152651291e+01    0.3354905    0.2183503  50.18  0.001155216    1.519    0.342
        15 -12.0693    145.7346      8.1094   1.9624492169e+01   4.7233338344e+01    0.4481023    0.3140191  -8.74  0.002392348    1.702    0.412
        16 -11.9338      9.1875      8.0129   6.4988934309e+01   7.1979556292e+01    0.2662448    0.2164664   6.87 0.0009212242    1.363    0.266
        17 -11.0392     11.4881      2.8305   6.1309309349e+01   7.2552436991e+01    0.2825031    0.1547044 -33.56  0.001836361    1.451    0.311
        18 -11.1569     36.7633      7.9672   5.1205445856e+01   6.9157795562e+01     0.286383    0.2410621  24.73 0.0008200699    1.420    0.296
        19 -10.6883    213.2459      7.8706   1.0970931949e+01   3.0298866881e+01    0.2330634    0.1929826  11.55  0.001381538    1.678    0.404
        20  -9.8603    118.4116      7.4953   2.4571032018e+01   5.3922805995e+01    0.1332041    0.1163322  41.42 0.0001610541    1.016    0.016
        21  -9.6810     91.7512      7.1518   3.0911778327e+01   5.9870742907e+01    0.1775178    0.1238992  28.49 0.0003686396    1.296    0.228
        22 -11.5418    230.0747      5.5952   8.9310478467e+00   2.6543493486e+01    0.3388971    0.1958862 -89.18 0.0003791119    1.642    0.391
        23 -10.6801    222.9888      5.1896   9.4414727863e+00   2.8247553339e+01    0.2466378    0.1865596 -19.75  0.001227812    1.659    0.397
        24 -10.8483    171.9557      4.9706   1.4803230130e+01   4.0899269767e+01    0.2180685    0.1451699 -66.33  0.000531652    1.657    0.396
        25 -11.1369    164.3712      4.7763   1.5755522344e+01   4.2840416194e+01    0.2486397    0.2409363  69.06 0.0005500983    1.119    0.106
        26 -10.6498    168.0558      1.9451   1.4426708787e+01   4.2161750084e+01    0.2002814    0.1727626  77.20 0.0003162986    1.020    0.020
        27 -11.1845     18.3231      4.1407   5.8321470544e+01   7.1741986080e+01    0.3802314    0.2712991  33.15  0.002656413    1.833    0.454
        28 -10.2507    201.1831      3.8018   1.1149267397e+01   3.3669300930e+01     0.174721    0.1450765  51.71 0.0003884952    1.333    0.250
        29 -11.2203    178.9915      3.8315   1.3602808387e+01   3.9223328264e+01    0.2026499    0.1921903 -67.58  0.000286724    1.140    0.123
        30  -9.6176    106.0331      3.9651   2.5975641654e+01   5.7068932167e+01    0.1526677    0.1230687  45.94            0    1.075    0.070
        31 -11.7504     27.3178      3.0614   5.3229196150e+01   7.0930909944e+01    0.2405944    0.2168972 -11.35  0.001847219    1.479    0.324
        32 -10.6213     34.3254      1.3909   4.9023037338e+01   7.0284823311e+01    0.3925808     0.101362  41.44  0.001556402    4.387    0.772
        33 -10.0839     22.4908      1.5238   5.4857202646e+01   7.1665149950e+01    0.1700317    0.1036584  -7.76 0.0005972209    1.477    0.323
        34  -9.9331    243.6255      3.3082   7.3651099241e+00   2.3706082209e+01    0.1384762   0.07330018 -65.72 0.0007030918    1.775    0.437
        35 -10.6899    129.7743      1.8312   2.0270799812e+01   5.1705146799e+01    0.2072188    0.1691499  78.50 0.0003904362    1.265    0.209
        36 -10.6395    126.2299      2.5709   2.1192374098e+01   5.2496997620e+01    0.2586928    0.1762063  41.50 0.0005175492    1.339    0.253
        37  -9.7236     90.8746      2.1255   2.9012978257e+01   6.0509449176e+01    0.1681208    0.1234308  22.80 0.0002684482    1.242    0.195
        38 -10.9273    164.9433     11.9790   1.7839181285e+01   4.2007296484e+01    0.2157543    0.1958037  72.53 0.0008846578    1.024    0.024
        39 -10.0936     73.7785      1.5180   3.3740252424e+01   6.3964486101e+01    0.1781539    0.1073794  46.36  0.001000699    1.497    0.332
        40  -9.8551     61.6434    184.7606   8.6684105621e+01   2.8914536904e+01    0.1806839    0.1073261 -81.92 0.0009440635    1.647    0.393
        41 -10.3555    109.8692    249.8888   8.4070339108e+01   9.1311810912e+00    0.1742254    0.1455063  44.44 0.0007918526    1.208    0.172
        42 -11.5442     89.4824    249.4303   8.7722888254e+01   1.2250863591e+01    0.3046878    0.2048784  43.75  0.001131368    1.316    0.240
        43  -9.5781     72.2732    250.3695   9.0849437192e+01   1.4513003695e+01   0.09296819    0.0890283 -39.22 0.0007002145    1.675    0.403
        44 -12.8687      6.7044    245.0352   1.0137983989e+02   2.3222203589e+01    0.6750733    0.3214819  37.41  0.003001673    2.210    0.548
        45 -12.2333     22.4954    248.6656   9.9067034337e+01   2.0934280192e+01    0.4502895    0.1600574  52.47  0.002399788    2.020    0.505
        46 -11.3316     17.3568    247.2723   9.9813242510e+01   2.1731489069e+01    0.2040587     0.130007  54.79 0.0005460355    1.262    0.208
        47 -10.4669     12.0260    250.5832   1.0080021539e+02   2.1714167888e+01     0.140416   0.07715264  47.52 0.0003834558    1.537    0.349
        48 -12.7501     17.5553    181.5961   9.5765113634e+01   3.4599042852e+01    0.5020759    0.2664278  37.30  0.002332321    1.995    0.499
        49 -10.3384    244.1674    178.8611   4.6781990014e+01  -2.6232601867e+00    0.1907714    0.1384451  -5.18 0.0007375848    1.356    0.263
        50 -10.7817     22.9438    179.9438   9.4521175751e+01   3.4437154997e+01     0.335419    0.1226277  60.51  0.001349353    3.012    0.668
        51 -11.2669     18.1827    172.8277   9.4934930073e+01   3.6448175649e+01    0.2876894    0.1252382  60.84   0.00144026    2.320    0.569
        52  -9.7407    176.9798    168.7419   5.7814511479e+01   1.1939214937e+01    0.1921258    0.1218666  42.23 0.0003737322    1.495    0.331
        53 -10.9952      5.3383    167.9780   9.7271309819e+01   3.8621968616e+01    0.1701197     0.117953 -85.12 0.0008400085    1.113    0.101
        54 -10.9773     35.2757    161.1054   9.0005561749e+01   3.7396221247e+01    0.2312482    0.2045392  21.48  0.000239309    1.506    0.336
        55 -10.9108     36.9728    165.7466   9.0114807804e+01   3.6156989857e+01    0.2676758    0.2082376  81.95 0.0005833964    1.095    0.086
        56 -10.6274     33.1731    166.1665   9.1024495859e+01   3.6463380072e+01    0.1947058    0.1471282 -80.25 0.0002900221    1.113    0.102
        57 -10.7951     51.6530    161.3631   8.6165834614e+01   3.5488447186e+01    0.4498862    0.2158969 -69.21  0.002151732    1.870    0.465
        58 -10.0856     48.2948    159.0144   8.6676506657e+01   3.6433372791e+01    0.1913749    0.1609133  55.11 0.0003197926    1.228    0.186
        59 -10.2922      8.5916    162.8883   9.6185608095e+01   3.9473944346e+01    0.1669763    0.1638038   8.50 0.0006296316    1.461    0.316
        60  -9.7939    222.1148    161.3686   4.7128219221e+01   4.1918629764e+00    0.3073511    0.1331121  48.78   0.00120594    2.505    0.601
        61  -9.3890     66.2564    161.7096   8.2687653192e+01   3.3531588920e+01      0.13236   0.09185291  77.03 0.0002873821    1.487    0.328
        62 -11.2858     21.0951    156.8926   9.2857083987e+01   3.9741216929e+01    0.3019347    0.2706855 -50.67   0.00176199    1.400    0.286
        63  -9.5953    216.2994    154.6668   4.6769076066e+01   6.4967371822e+00    0.1388275    0.1161302 -73.13 0.0006316857    1.650    0.394
        64 -11.1634     10.9291    153.0904   9.4835540002e+01   4.1467921512e+01    0.2654188    0.1862947  43.43   0.00129979    1.565    0.361
        65 -10.0689     21.1616    147.8730   9.1926869779e+01   4.1793198574e+01    0.1585905    0.1221839 -61.37 0.0003615244    1.286    0.222
        66  -9.2838    176.6677    150.2932   5.3911095793e+01   1.5639343616e+01    0.1511409    0.1223479  84.77 0.0005471942    1.635    0.388
        67  -9.9898    234.3643    146.8041   4.1719829779e+01   4.2653188597e+00     0.204613    0.1237302 -25.67 0.0009465834    1.678    0.404
        68 -10.7841      7.5780    145.5829   9.4932995500e+01   4.3418692205e+01    0.1876535    0.1427531  64.80  0.001293608    1.298    0.230
        69 -10.0226    187.6911    144.0647   5.0121238441e+01   1.4479841726e+01    0.2079763     0.193939  -6.69 0.0004621951    1.075    0.070
        70 -10.2121     13.8052    139.8111   9.2871738983e+01   4.4253294926e+01    0.1662304    0.1170502  77.89 0.0004533296    1.321    0.243
        71 -10.6812      9.3454    136.4505   9.3625908539e+01   4.5359192763e+01    0.1998295   0.08918589 -73.94  0.000186423    1.759    0.431
        72 -12.6485    241.9154    133.4850   3.7455680509e+01   5.0100628041e+00    0.4310293    0.2841233 -13.69  0.001371376    1.788    0.441
        73 -10.0076     20.6345    134.7168   9.0591791513e+01   4.4873802859e+01    0.1775491   0.09676825 -82.33 0.0006502102    1.643    0.391
        74 -11.8539     36.6572    131.3011   8.5933316764e+01   4.4207316970e+01    0.4121544    0.2013831 -58.57 0.0008976015    1.733    0.423
        75 -10.5365     53.9392    132.4067   8.1411772876e+01   4.2046163747e+01     0.232346    0.1370713  19.03  0.001100057    2.366    0.577
        76 -10.7105     73.5097    129.0702   7.5403671257e+01   4.0258805573e+01    0.2790221    0.2248269  55.75  0.001100174    1.310    0.237
        77 -11.4165      4.4815    130.0331   9.4189323562e+01   4.7159063412e+01    0.1973573      0.15182 -37.36  0.001060685    1.613    0.380
        78 -10.2081     56.7307    126.8300   7.9693111057e+01   4.3037545888e+01    0.1989251    0.1811322   6.59 0.0002679506    1.347    0.258
        79 -11.8511     15.1851    125.5508   9.0921529352e+01   4.7427227027e+01    0.3847973    0.1682175  32.65  0.001984811    2.566    0.610
        80 -11.5815     10.7711    122.3783   9.1718765940e+01   4.8478014257e+01    0.2998096     0.184764 -86.25  0.001714005    1.445    0.308
        81 -11.6156    243.7058    122.0479   3.4572630511e+01   6.5523229293e+00    0.2066637    0.1698064 -30.99 0.0008005909    1.103    0.093
        82 -11.9998     24.3209    119.0656   8.7578331941e+01   4.8209111955e+01    0.4726321    0.1898889 -70.76   0.00215794    2.115    0.527
        83 -10.5004     19.9825    120.5801   8.8992632119e+01   4.8208340546e+01    0.2679352    0.1264474 -59.08  0.001385299    1.709    0.415
        84 -10.9985      1.3972    118.5623   9.3785079426e+01   4.9955103778e+01    0.2208992   0.08773234 -72.45 0.0002017354    1.906    0.475
        85 -11.5390    249.7549    117.6965   3.2639700261e+01   6.0626586297e+00    0.2735071    0.2127016 -39.90 0.0008342287    1.177    0.150
        86 -10.5256      7.4507    118.0728   9.2104366609e+01   4.9688337553e+01    0.1861272    0.0942049 -74.11 0.0007509688    1.563    0.360
        87 -10.9277     52.5904    115.7049   7.8865637409e+01   4.6182321787e+01    0.3364568    0.2064046 -67.67  0.001108767    1.502    0.334
        88 -10.8039    182.2711    114.5438   4.4085327455e+01   2.1518294572e+01    0.3821553    0.2686021  33.80  0.001347397    1.585    0.369
        89  -9.8357    105.8171    115.1428   6.3237121831e+01   3.8185715337e+01    0.2073522    0.1794212 -20.83 0.0006105136    1.307    0.235
        90 -11.6039     24.5631    106.4194   8.5597152485e+01   5.1129286551e+01    0.4177821    0.2813947 -10.06  0.002384656    2.071    0.517
        91 -10.8113     15.8791    115.1400   8.9406546738e+01   4.9779384580e+01    0.1876491    0.1481979 -74.82  0.000399542    1.032    0.031
        92 -12.4107     14.7167    110.0474   8.9040482181e+01   5.1035715622e+01    0.3848974     0.262268 -77.82  0.002023925    1.249    0.199
        93 -12.6341    248.3659    112.2797   3.1618406038e+01   7.2230667049e+00    0.5110088    0.3305273  37.75  0.001855153    1.808    0.447
        94 -10.1958     94.6093    112.2232   6.5724072039e+01   4.0886635513e+01    0.2675063    0.1744049 -44.79 0.0008915029    1.497    0.332
        95 -11.3413     55.0075    109.5915   7.6951857775e+01   4.7339523046e+01    0.2885163    0.1772754 -60.80 0.0005706518    1.433    0.302
        96 -12.2429     36.5041    108.8862   8.2421090399e+01   4.9501388693e+01    0.6991807    0.2864655  37.98  0.003176487    2.701    0.630
        97 -11.4829      2.6373    106.9823   9.2100244981e+01   5.2503406580e+01    0.3993281    0.1924975 -66.29  0.002236763    1.543    0.352
        98 -12.4141    249.7064     92.7924   2.6948994550e+01   1.0096099318e+01    0.5924453    0.1328652 -34.58  0.001743474    4.145    0.759
        99 -10.5704     37.8013    102.3621   8.0832245548e+01   5.0896949066e+01    0.3293957    0.2059941  75.15  0.001618785    2.267    0.559
       100 -10.1934     33.7645     97.8227   8.1239257318e+01   5.2325272677e+01    0.2847402    0.1493743 -53.15  0.001462833    1.570    0.363
       101 -11.4135     62.4149     98.8682   7.2323089098e+01   4.8909166614e+01    0.3957236    0.2994675 -28.17  0.001827717    1.466    0.318
       102 -10.7748     21.4730     98.6176   8.5256620684e+01   5.3166672908e+01    0.2351124    0.1764739 -81.72 0.0006674676    1.288    0.224
       103 -10.7421      9.7960     99.1581   8.8936149992e+01   5.3848183525e+01    0.1708697     0.133537 -83.44 0.0004421298    1.199    0.166
       104 -10.4417     41.3153     96.9051   7.8641754380e+01   5.1810525575e+01    0.1899684    0.1434509 -58.73 0.0005615434    1.122    0.109
       105 -10.9851     15.9798     96.8313   8.6673758938e+01   5.3970893556e+01    0.2888441    0.1876906  15.77  0.001748063    1.960    0.490
       106 -11.0482    241.3909     96.2118   2.8933342248e+01   1.1300049334e+01    0.2143152    0.1166911 -44.32 0.0009553129    1.705    0.413
       107  -9.8613    104.0721     95.4538   5.8604308524e+01   4.2943693946e+01    0.2293586    0.1484631  37.59  0.001028314    1.621    0.383
       108 -11.0055    158.4575     90.1723   4.2764922202e+01   3.2009309534e+01     0.490128    0.2918287  32.17  0.001885521    2.147    0.534
       109  -9.2981     73.6907     91.6609   6.6937417003e+01   4.8969060142e+01    0.1471553    0.1033062 -24.30 0.0007044033    1.687    0.407
       110 -10.1256     56.5249     90.4816   7.2236455053e+01   5.1571922202e+01    0.2504723    0.1013672 -47.04 0.0008116301    2.189    0.543
       111 -10.0697     38.2044     91.1608   7.8454677974e+01   5.3432128923e+01    0.1961654     0.146254 -44.00 0.0004213388    1.217    0.178
       112 -11.3959     10.5098     90.8045   8.7422056681e+01   5.5687502028e+01    0.2004017    0.1683996 -58.81 0.0003238564    1.084    0.078
       113 -10.3944      9.6988     86.1607   8.6914601835e+01   5.6773627782e+01    0.2603914    0.1452731  51.00  0.001157345    2.399    0.583
       114 -10.6048     83.8773     89.1947   6.3026004960e+01   4.7917271182e+01    0.3188455     0.242938  43.59  0.001656787    1.424    0.298
       115  -9.5322     47.4859     88.3805   7.4743308269e+01   5.3101410763e+01    0.1296211    0.1139476 -47.05 0.0001061481    1.030    0.029
       116 -10.9773     21.8920     87.0963   8.3050404132e+01   5.5747328464e+01     0.187856    0.1533405 -83.43  0.001228195    1.287    0.223
       117  -9.6323     54.0311     85.9650   7.1957881671e+01   5.2889082456e+01    0.1541824    0.1328468 -47.34 0.0009263331    1.013    0.013
       118  -9.7635     38.8319     86.3559   7.7196232583e+01   5.4456386412e+01    0.1553149    0.1185882  -2.96 0.0009127131    1.575    0.365
       119 -10.8229    107.2489     84.7356   5.4585405125e+01   4.4608757980e+01    0.2389865    0.2246632  25.86  0.000314764    1.079    0.073
       120 -10.8209     68.6105     82.3987   6.6111495838e+01   5.1754882219e+01    0.2732004    0.2174239 -17.28 0.0001050711    1.364    0.267
       121 -11.5983     30.6425     81.6122   7.8947806331e+01   5.6268255462e+01    0.2921356    0.2152192 -41.62 0.0007780622    1.217    0.178
       122 -10.4557     15.5999     83.1533   8.4414486686e+01   5.7070759717e+01    0.2011453    0.1602565  50.76 0.0007862796    1.564    0.361
       123  -9.5198     62.4559     82.4429   6.8195072328e+01   5.2597827601e+01    0.1373249    0.1204492 -37.66 0.0001620223    1.028    0.027
       124  -9.4682     42.4812     82.4945   7.5053247476e+01   5.4951350540e+01    0.1298411     0.112276 -53.41 6.851446e-06    1.056    0.053
       125  -9.6786     75.3439     81.6792   6.3671321848e+01   5.0909511578e+01    0.1387682    0.1120247  83.73 0.0007049908    1.727    0.421
       126 -11.1057     21.9302     80.8729   8.1805123222e+01   5.7131199082e+01    0.2008856    0.1372403 -44.35 0.0009020749    1.275    0.216
       127 -10.7848     88.0841     77.3196   5.8235579555e+01   4.9733461382e+01    0.2479657    0.1943695 -46.72 0.0002281424    1.242    0.195
       128  -9.6763      2.9922     77.9810   8.7761759520e+01   5.8943195791e+01    0.1494244    0.1001282 -63.32 0.0004004241    1.145    0.127
       129 -10.7361    100.0002     76.7548   5.4331643330e+01   4.7660387019e+01     0.276948    0.2380501 -63.88 0.0009460189    1.346    0.257
       130 -14.3891     16.7456     67.5219   8.0789421480e+01   6.0397204145e+01     0.589964     0.399263 -64.05  0.001354002    1.313    0.238
       131 -12.7851     12.3334     48.5049   7.7806384262e+01   6.4599286267e+01    0.8461524    0.2457906 -60.87  0.001803299    3.146    0.682
       132 -13.2291      4.4225     67.3331   8.5298141528e+01   6.1164429900e+01     1.231259    0.5601001 -75.96  0.006067588    2.408    0.585
       133 -11.0810     10.9445     61.8939   8.1700928164e+01   6.1952684396e+01    0.2757856    0.2215036  79.56 0.0004016542    1.648    0.393
       134 -11.6285     44.7456     74.8718   7.2346572069e+01   5.6380206871e+01    0.2094515    0.1962783 -30.04   0.00019498    1.116    0.104
       135 -11.7855    167.7404     73.4291   3.5880170695e+01   3.2794121229e+01    0.2661565    0.2543052 -64.81 0.0002834815    1.063    0.059
       136  -9.5256     61.5034     73.4606   6.6011967007e+01   5.4653981516e+01    0.1358369    0.1198445 -34.24 7.626732e-05    1.005    0.005
       137 -10.8350     53.9739     72.0250   6.8265334566e+01   5.5924859246e+01    0.1967834    0.1714342 -35.34            0    1.012    0.012
       138 -11.8834     50.2757     68.3642   6.8553939871e+01   5.7137413000e+01    0.3443134    0.2424604 -48.01 0.0005889966    1.244    0.196
       139 -11.9530    247.0709     84.4975   2.5389984242e+01   1.1966049017e+01     0.234293    0.2157496  67.78 0.0009195548    1.189    0.159
       140  -9.4947     77.7853     68.9982   5.9037731491e+01   5.3159440266e+01    0.1913645     0.106064 -44.66 0.0008674763    1.686    0.407
       141 -11.1008    122.7162     67.2658   4.4731662780e+01   4.4733647279e+01    0.2517555    0.2366425  -6.87   0.00025823    1.053    0.050
       142 -10.5164    139.7746     66.4218   4.0068517869e+01   4.0918947937e+01    0.2556184    0.2515894 -32.73   0.00139956    1.048    0.045
       143 -11.5011    155.9702     63.5528   3.5435418174e+01   3.7431952634e+01    0.2762594    0.2323241 -40.44 0.0001769364    1.220    0.180
       144  -9.8078    106.2430     63.9857   4.8327427696e+01   4.8874412849e+01     0.196293    0.1788048 -18.49 -0.000430966    1.062    0.058
       145 -11.0123     32.0910     63.5713   7.4011733360e+01   6.0025432335e+01    0.3272673     0.203617  32.63 0.0009990586    1.897    0.473
       146 -11.1561     28.3868     60.8317   7.4695631924e+01   6.0917325246e+01     0.526022     0.250987   8.92  0.002390981    2.934    0.659
       147  -9.9565    202.0979     62.3486   2.6461304762e+01   2.5956213585e+01    0.1961824    0.1817077 -86.47  0.001080437    1.042    0.041
       148 -10.6714     76.9699     62.1010   5.7074553171e+01   5.4644507551e+01     0.201841    0.1836024 -15.55            0    1.020    0.020
       149 -11.0449     46.4277     60.4645   6.7642431388e+01   5.9200794326e+01    0.3046428    0.2006461 -33.11 5.942839e-05    1.385    0.278
       150  -9.5470    135.2495     58.1666   3.8521297265e+01   4.3404050278e+01    0.2947298     0.104899  51.64 0.0009879097    2.666    0.625
       151  -9.9366    114.9152     60.0625   4.4503137578e+01   4.7737770287e+01    0.3027597    0.1797202  25.30  0.001219674    2.242    0.554
       152 -10.7958    231.2365     58.2560   2.1242179469e+01   1.9533618695e+01    0.2338822   0.08806297 -43.76 0.0008867229    2.415    0.586
       153 -10.2926     80.5039     56.1279   5.3829288007e+01   5.5170699342e+01    0.4186398     0.239531 -12.27  0.001639189    2.899    0.655
       154 -10.9066     58.6186     58.9913   6.2597576475e+01   5.7979407271e+01    0.3072112    0.1858099  11.96  0.001078896    2.134    0.531
       155 -10.1766     74.9835     55.9978   5.5687571599e+01   5.6116144813e+01    0.2055268    0.1743435 -11.11 0.0004844567    1.103    0.093
       156  -9.4620     46.3617     55.2728   6.6040685153e+01   6.0237363143e+01    0.1322661   0.08691914 -17.79 0.0002463633    1.657    0.396
       157 -12.5524    105.0158     52.4382   4.4723516248e+01   5.1146529311e+01    0.2827111    0.2613997 -11.47 0.0003493602    1.055    0.052
       158 -12.7763     38.0183     49.6964   6.7543335727e+01   6.2230884795e+01    0.6250488    0.4401383 -36.67  0.003011338    1.177    0.151
       159 -11.0807     27.3153     49.6766   7.1915778099e+01   6.3250956079e+01    0.2812111      0.22996 -69.37  0.001664585    1.524    0.344
       160 -10.3444      7.0116     41.6099   7.8165417025e+01   6.6268571356e+01     0.303448    0.1383908 -51.35  0.001719932    1.612    0.379
       161 -10.7617      7.5236     51.4969   8.0574738102e+01   6.4286357034e+01    0.2119457    0.1622755 -60.86 0.0009489401    1.225    0.184
       162 -12.0326      4.0666     48.8035   8.1325322178e+01   6.5012003095e+01    0.5646936    0.2262994 -56.35  0.002534536    1.812    0.448
       163 -11.4107    129.5310     50.0007   3.7215370297e+01   4.6068467727e+01    0.5066591    0.3737564  36.37  0.001228089    1.355    0.262
       164 -11.0348     27.7902     53.2054   7.2778692542e+01   6.2513983902e+01    0.3422206    0.1944086 -28.08  0.001401461    1.769    0.435
       165 -11.7630     44.5628     43.2891   6.2686576713e+01   6.2700672778e+01    0.3103105    0.2306083 -50.39   0.00110861    1.456    0.313
       166 -11.6179     44.8536     38.1075   6.0661187498e+01   6.3582786784e+01    0.2131847    0.1841604 -22.79            0    1.119    0.107
       167 -10.4338     78.4934     47.0863   5.1270940090e+01   5.7106282096e+01     0.197283    0.1259562 -36.21 0.0003928995    1.496    0.332
       168 -11.6114     51.7742     46.2281   6.0851488365e+01   6.1281505756e+01    0.3944067    0.2008441 -48.84  0.001329808    1.960    0.490
       169 -10.6758     69.0853     48.0647   5.4964428481e+01   5.8484832132e+01    0.1952322    0.1698246 -10.06 0.0003426765    1.013    0.013
       170  -9.8240     82.5293     47.5304   5.0056818484e+01   5.6323922993e+01    0.1379998    0.1228433  -3.78  0.000383062    1.000    0.000
       171  -9.4067     89.3679     54.6877   5.0374703212e+01   5.3846827218e+01    0.1363169    0.1148604 -88.18  0.000703718    1.768    0.434
       172  -9.5444    143.4260     45.5540   3.2472021162e+01   4.3370984596e+01    0.1484106    0.1363406  35.10 0.0001262248    1.065    0.061
       173  -9.8089    112.4779     45.4759   4.0109812805e+01   5.0659615876e+01    0.1447274    0.1324092  18.51 0.0001911172    1.019    0.019
       174 -10.9044     18.3067     42.3833   7.3479054095e+01   6.5381263993e+01    0.5480458    0.1070891 -44.00  0.002047925    3.608    0.723
       175 -11.6232     17.6307     30.9054   6.9964613662e+01   6.7548647233e+01    0.3765645    0.3201885  -0.80  0.002802434    1.268    0.211
       176 -11.1352     23.9814     41.7795   7.0830918919e+01   6.5048039890e+01    0.4410806     0.161193 -49.27  0.001598619    2.150    0.535
       177 -13.3615     27.0659     37.1312   6.7910272075e+01   6.5636865367e+01    0.3857187    0.3620799  63.87  0.001366218    1.604    0.377
       178 -11.0074     34.8161     42.3934   6.6411505013e+01   6.3931672239e+01    0.3974163    0.1993615 -16.38  0.001757147    2.944    0.660
       179 -10.2339     37.4872     39.5124   6.4263718388e+01   6.4175784355e+01    0.2224065    0.1362974 -41.29 0.0008588735    1.390    0.281
       180 -10.9716     72.4540     42.4860   5.1668802801e+01   5.8894018283e+01    0.3504651     0.239625 -33.94  0.001914367    1.380    0.275
       181 -11.8776     75.1608     34.6952   4.7668290388e+01   5.9668929860e+01    0.4732825    0.3501392 -10.15  0.001172063    1.319    0.242
       182 -10.5291     67.1256     42.1360   5.3472017621e+01   5.9807980020e+01    0.2778111    0.1524645 -34.02  0.001122369    1.706    0.414
       183 -10.7372     89.5315     41.2885   4.5409731728e+01   5.6037939659e+01    0.2805937    0.1948341  30.43 0.0007213489    1.417    0.294
       184 -10.6809     80.6745     41.8963   4.8572379453e+01   5.7579989486e+01    0.2780308    0.2069007  20.75 0.0008095251    1.336    0.252
       185 -10.9106     83.0343     36.4594   4.5672381913e+01   5.7995955764e+01    0.4303046    0.2184394 -11.89  0.001570771    3.469    0.712
       186 -10.4804    235.9924     39.7228   1.6246418263e+01   2.1043281348e+01    0.1851308    0.1624132 -84.62 0.0004185076    1.076    0.070
       187  -9.8891    226.5368     40.4888   1.7498667111e+01   2.3155243650e+01     0.138482    0.1216631 -70.48 0.0001160674    1.014    0.014
       188  -9.5632    130.6488     39.8317   3.3461829713e+01   4.7299011348e+01    0.2015426    0.1280207 -41.50 0.0004583798    1.712    0.416
       189 -10.0322    159.2923     38.1493   2.6858833110e+01   4.0405592364e+01    0.1901494    0.1814248  84.10  0.000353734    1.055    0.052
       190 -12.2301     57.4351     34.2020   5.4060429892e+01   6.2564350737e+01     0.394034     0.275728  -2.17 0.0005361746    1.465    0.317
       191  -9.9404      1.4746     37.0330   7.9321902671e+01   6.7441412833e+01    0.1706619   0.08366222 -54.01  0.001008047    1.535    0.348
       192 -10.5842    248.1290     36.1789   1.4177968372e+01   1.8768120228e+01    0.1790291    0.1726773 -77.69 0.0005305114    1.206    0.171
       193  -9.5242    194.3823     36.4815   2.0618346721e+01   3.1627465171e+01    0.1401658    0.1300792 -80.87   9.9627e-05    1.028    0.027
       194  -9.6140    128.7426     35.9666   3.2567565973e+01   4.8282603822e+01    0.1720677    0.1247011 -24.94 0.0003531493    1.464    0.317
       195  -9.7950    101.7011     36.0819   3.9703622205e+01   5.4361918795e+01    0.1883761     0.167744  -3.33 0.0004241446    1.082    0.076
       196  -9.8537    135.0561     34.9481   3.0768480481e+01   4.6894801171e+01    0.2193006    0.1716307 -73.97 0.0007390077    1.639    0.390
       197 -11.4762    111.2975     34.6778   3.6493084809e+01   5.2481301811e+01    0.2657832    0.2330249  42.76 0.0003824769    1.100    0.091
       198 -11.7525      8.2647     31.6391   7.4570947414e+01   6.8070625085e+01    0.3785095     0.221339 -61.76  0.001430707    1.848    0.459
       199  -9.6275    177.4572     34.5030   2.2610354952e+01   3.6218445179e+01    0.1438316    0.1335148  76.12 -1.890534e-05    1.009    0.009
       200 -10.6188    122.5328     33.4719   3.3172617931e+01   5.0079901100e+01    0.2767969    0.2216256  32.67 0.0008269643    1.199    0.166
       201  -9.8082     14.0397     34.5001   7.2849289472e+01   6.7164638161e+01    0.1460542    0.1056591   6.07 0.0003837502    1.483    0.326
       202  -9.4235    140.5017     33.6144   2.9132750997e+01   4.5730886994e+01    0.1448603    0.1295948  48.72 9.718176e-05    1.032    0.031
       203 -10.0824     60.6893     40.2334   5.5163157326e+01   6.1101950296e+01    0.2469916    0.1793464  -8.42 0.0008081284    1.372    0.271
       204 -10.4323     34.4688     33.5503   6.3351193589e+01   6.5544132347e+01    0.1536352    0.1115182  34.96 0.0001576131    1.699    0.411
       205 -10.8282     96.3130     42.5293   4.3745965010e+01   5.4515829098e+01    0.3235289    0.2153339   5.22 0.0008670466    1.905    0.475
       206 -10.8264    221.6605     31.7428   1.5923934382e+01   2.5471640385e+01       0.2385    0.1938204 -65.37 0.0002431594    1.126    0.112
       207 -10.3586    207.9929     30.7167   1.7279632094e+01   2.8946397460e+01    0.1956507    0.1641378  76.96 0.0004447884    1.117    0.105
       208 -10.4277    166.5002     30.8899   2.3332151830e+01   3.9492746748e+01    0.2012746    0.1443024 -28.15 0.0005570768    1.517    0.341
       209 -11.0422    144.9643     30.0677   2.7029856968e+01   4.5066767836e+01    0.2482192    0.2048233 -35.94 0.0003291779    1.305    0.234
       210  -9.4047    146.6925     26.6835   2.5572041260e+01   4.5041764911e+01    0.2455611    0.1842318  33.10  0.000873634    1.407    0.289
       211 -10.5547    100.9269     28.0507   3.6836367384e+01   5.5608481893e+01    0.2762082    0.2090611 -46.90  0.001052443    1.626    0.385
       212 -10.8630     49.4527     29.2050   5.5238590343e+01   6.4467020572e+01    0.3622372    0.1756058 -32.23  0.001345417    1.898    0.473
       213  -9.9670      1.4070     30.9450   7.7557536243e+01   6.8586814097e+01     0.160776   0.08306646 -52.52  0.000371313    1.489    0.328
       214 -10.3606    217.1204     29.8328   1.5969313498e+01   2.6812955801e+01    0.2140292    0.1621257 -68.10 0.0006305439    1.256    0.204
       215 -12.2481    156.7917     28.2338   2.4197476150e+01   4.2301494789e+01    0.2613273     0.241308  79.22 0.0003580084    1.069    0.064
       216 -10.8388     79.4150     28.5021   4.3692514038e+01   5.9807179697e+01    0.3061189    0.2075124  -3.42 -0.0007919301    1.593    0.372
       217 -10.7179    238.3123     27.9584   1.3278074465e+01   2.2036447883e+01    0.1817122    0.1500048 -53.95 0.0003292144    1.111    0.100
       218 -10.7568    197.6513     28.1143   1.7906930180e+01   3.1861539018e+01    0.2434857    0.1766949  83.21 0.0006372308    1.331    0.249
       219 -11.0407    112.4738     26.8777   3.3267308016e+01   5.3227249057e+01    0.4058661    0.2447281 -12.23  0.001786358    1.959    0.490
       220  -9.3548    119.5108     27.5050   3.1744047300e+01   5.1539932146e+01    0.1404426    0.1272299  35.18 -5.748385e-05    1.008    0.008
       221 -10.8374    226.1837     24.3932   1.3660042844e+01   2.5307453387e+01    0.4572927    0.1639872 -45.17  0.001605937    2.528    0.604
       222 -11.2581    215.7243     25.1610   1.4965973100e+01   2.7731229996e+01    0.3580396    0.2025082  67.99  0.001750524    1.658    0.397
       223 -11.0456     10.2895     24.4754   7.1129295706e+01   6.9215687136e+01     0.423849     0.219341   5.57  0.002249247    2.191    0.544
       224 -11.0285    224.4433    248.0055   6.2728659356e+01  -8.7801706033e+00    0.2874723    0.1107679 -35.50  0.001418846    2.991    0.666
       225 -10.6714      1.6904     25.6736   7.5736632972e+01   6.9530669556e+01    0.1996527    0.1424947 -13.54 0.0009594535    1.336    0.251
       226 -10.9213      2.4606     22.5210   7.4281931519e+01   7.0046622437e+01    0.2211399     0.171723 -12.90  0.001190539    1.239    0.193
       227 -10.4293     83.4694    248.1426   8.8685371644e+01   1.3335167037e+01    0.2516444    0.1075271  54.19 0.0009918159    1.954    0.488
       228 -10.9918     28.3497    245.0281   9.7928747469e+01   2.0927376069e+01    0.2529056    0.1084967 -75.54  0.001519146    2.199    0.545
       229 -10.4822    250.5006    245.0060   5.7735874802e+01  -1.2170160638e+01    0.1593111   0.08142854  -5.24 0.0008103309    2.528    0.604
       230 -10.7611     22.0684     24.2243   6.5369013562e+01   6.8329112374e+01    0.2257657    0.1506231  -8.40 0.0009088783    1.421    0.296
       231 -10.1338     54.2928     23.3752   5.0794557333e+01   6.4665997550e+01    0.1896995    0.1462445 -45.80  0.001088918    1.683    0.406
       232 -10.2057     82.7161     22.1605   3.9969265263e+01   6.0026017159e+01    0.2329045     0.179176  32.43  0.001374466    1.180    0.153
       233 -10.1297     34.6585     21.2263   5.8271372571e+01   6.7533892619e+01    0.2682231    0.1545983 -43.04  0.001194178    1.729    0.422
       234  -9.6339    155.6998     21.6893   2.2316283784e+01   4.3337445714e+01    0.1452189   0.09936491  35.32 0.0003124823    1.603    0.376
       235 -11.0026     72.8570    244.8609   9.0300254677e+01   1.5392813450e+01     0.245914    0.1989016  51.93  0.001293289    1.235    0.190
       236 -12.8273     76.0954    238.4965   8.9172593887e+01   1.6080158869e+01    0.5130578     0.439494 -82.46  0.003442512    1.318    0.241
       237 -10.9962     65.7998     20.3446   4.5031859907e+01   6.3283559625e+01    0.3480983    0.2061365  61.61  0.001246261    3.392    0.705
       238 -11.3637     58.6933     20.8214   4.7934932771e+01   6.4361987333e+01     0.225208    0.1921712  -2.62 0.0005176117    1.091    0.083
       239 -10.2465    181.2607     19.8194   1.7815620054e+01   3.7006289345e+01    0.1992029    0.1736839 -75.08 0.0004701338    1.127    0.113
       240 -10.2434    161.5262     20.5063   2.0971895536e+01   4.1983520306e+01    0.1412197    0.1273217  64.58 0.0003245264    1.014    0.014
       241  -9.8455     87.3989     20.2538   3.7695344013e+01   5.9349575947e+01    0.1999277    0.1619103  70.33 0.0007024865    1.699    0.412
       242  -9.8994     48.3082     19.9725   5.1755907808e+01   6.6001655786e+01    0.1715874    0.1520328   1.31 0.0005272675    1.222    0.182
       243 -10.6505     50.6715     17.3382   4.9590047047e+01   6.6033901337e+01    0.1769965    0.1537027  39.86  0.001187945    1.531    0.347
       244 -11.4741     28.6581     19.6126   6.0346478138e+01   6.8435124373e+01    0.2478273    0.1708361 -17.62 0.0002489096    1.207    0.172
       245 -10.0173     35.4846    238.5009   9.6355158982e+01   2.1288585724e+01    0.1121843   0.07924612  69.25 0.0003095183    1.020    0.020
       246 -10.1620     24.1656     20.1859   6.2720020344e+01   6.8793073487e+01    0.1659831    0.1460865 -20.29 0.0008171532    1.283    0.221
       247  -9.6920    134.7019    237.6489   7.8007596852e+01   7.2000530226e+00    0.1172252   0.09450047   9.36 0.0007035786    1.689    0.408
       248 -11.3695     18.2592    236.6600   9.9132228735e+01   2.3534447703e+01    0.4090747    0.1140141  53.90  0.002067055    2.656    0.623
       249 -10.5580    107.9681     18.3674   3.1164304745e+01   5.5226639264e+01    0.2391771    0.1844231   1.98 0.0007259533    1.354    0.261
       250 -10.6763     41.4516     18.8351   5.4187881437e+01   6.7073652253e+01    0.2403755     0.201705 -20.77  0.001405767    1.215    0.177
       251 -10.8344    194.3114     16.6225   1.5250170755e+01   3.4044693960e+01    0.2637555    0.2053872  87.86  0.000951939    1.185    0.156
       252 -11.1295    165.3288     16.5672   1.9168636611e+01   4.1437173572e+01    0.2265091      0.16472  21.44 0.0006097146    1.720    0.419
       253 -10.1023    103.3193     17.0649   3.1855708611e+01   5.6394246359e+01    0.1737246    0.1587515   4.32   0.00038717    1.113    0.102
       254 -10.7460    233.1022     15.5516   1.0930867067e+01   2.4732908512e+01    0.2369182     0.179965  -5.80  0.001336717    1.906    0.475
       255  -9.7947    143.4644     16.4921   2.2797220955e+01   4.6979984718e+01    0.1411138    0.1231046  49.36 0.0002568707    1.053    0.050
       256 -10.4230    160.0017    235.5076   7.2835034290e+01   3.3109011138e+00    0.1981856    0.1048644  39.96 0.0004661506    1.551    0.355
       257  -9.8018     15.4152     13.4800   6.4165058357e+01   7.0635417615e+01    0.1624191    0.1152586 -23.46 0.0001735949    1.058    0.055
       258 -10.0877    185.4610     14.4545   1.5756682587e+01   3.6520921359e+01     0.137585    0.1215533  82.85 0.0001237391    1.001    0.001
       259 -10.0376     99.5977     13.8014   3.1534688995e+01   5.7547895117e+01    0.1704322    0.1195268 -33.40  0.000541421    1.591    0.372
       260  -9.5574    250.6609    238.3297   5.6610235987e+01  -1.1452321119e+01   0.09851862   0.09089486  42.04   0.00070518    1.738    0.425
       261 -10.8590     30.2967    233.9777   9.6961218388e+01   2.2714522811e+01     0.286799    0.1025635  87.16   0.00128132    3.465    0.711
       262 -11.3020    184.8732    228.1680   6.6934063165e+01   2.0100746392e-01    0.4555469    0.2519061 -23.95  0.002158499    2.664    0.625
       263 -10.8688     86.8920    233.3639   8.6686106567e+01   1.5465928378e+01    0.2495535   0.07912897  46.77   0.00108373    2.495    0.599
       264  -9.7076     24.0180    232.2483   9.7927675698e+01   2.3730447863e+01    0.1275653   0.07627383  46.67 0.0003525861    1.504    0.335
       265  -9.9702    151.5132    228.4865   7.3504209659e+01   5.8881814977e+00    0.1305499    0.1082062  44.36 0.0002010384    1.017    0.016
       266 -10.3678    191.2184    226.4421   6.5439377698e+01  -6.2339690437e-01    0.2178816    0.1821423 -32.19   0.00139568    1.386    0.279
       267 -10.2347      3.5601    226.2368   1.0103455760e+02   2.6936950689e+01    0.1896123   0.07946201 -86.66  0.000868913    1.990    0.497
       268  -9.7248    195.4440    238.5115   6.6532854635e+01  -3.0459111274e+00    0.1248666    0.1000935  27.48 0.0001554585    1.007    0.007
       269 -10.4970     76.4687     15.5069   3.9165969082e+01   6.2004066654e+01    0.2179919    0.1837855 -38.78  0.001362365    1.485    0.327
       270 -11.5886     14.2247    222.1831   9.9032643016e+01   2.6657170139e+01    0.2743097     0.154291  40.04  0.001032334    1.810    0.447
       271  -9.7248    230.2108    221.9433   5.7404634174e+01  -6.4159592927e+00    0.1511618   0.09423696 -30.93 0.0008627676    1.696    0.410
       272 -10.0959    211.9876    218.5351   6.0169291293e+01  -2.9859934861e+00    0.1933606     0.160251 -17.09  0.001159141    1.257    0.205
       273  -9.5082    120.5789    219.4889   7.8480449770e+01   1.2738130735e+01    0.1283318    0.1114635  51.72 0.0002579622    1.066    0.062
       274 -10.3038     50.4733    217.9918   9.2194025149e+01   2.3384898765e+01    0.1725395    0.1012523 -75.35  0.001037329    1.617    0.382
       275  -9.6671    136.3123    216.3126   7.4832985115e+01   1.0637545455e+01    0.1258375    0.1018619   9.32 0.0003149256    1.633    0.388
       276 -10.6927     29.2525    215.6679   9.5967841124e+01   2.6339352462e+01    0.1953112     0.161751  55.00   0.00100001    1.319    0.242
       277 -10.3318     24.0022    216.2391   9.6958036316e+01   2.6795296871e+01    0.1555592    0.1127843  71.30 0.0004002163    1.041    0.039
       278 -11.3017     14.2364    215.4543   9.8651228669e+01   2.7956873561e+01    0.2143566    0.1325098  32.22  0.001352688    2.027    0.507
       279 -12.1885     11.4629    209.6491   9.8808165822e+01   2.9372844095e+01    0.4558372    0.1861375  83.42  0.002396399    2.309    0.567
       280 -10.5862    217.2390    210.9961   5.7855369546e+01  -2.7848493533e+00    0.2861957    0.1552217 -27.86  0.001425601    2.031    0.508
       281 -12.4773      5.6894    208.4140   9.9767791153e+01   3.0164691315e+01    0.4320144    0.1550275 -76.44  0.002333221    2.297    0.565
       282 -10.8751      1.9417    206.0401   1.0030466884e+02   3.0976519941e+01     0.169844    0.1389143 -37.41  0.001260538    2.099    0.524
       283  -9.6630    236.7947    209.0008   5.3906861817e+01  -5.7260736499e+00    0.1578366   0.09368677 -30.39  0.000534679    1.699    0.411
       284 -10.9867    175.3502    202.3942   6.4561262826e+01   6.0633654883e+00    0.2592762    0.2215018  27.29 0.0005013003    1.080    0.074
       285 -11.0944     20.0357    200.6236   9.6656642973e+01   3.0348549528e+01    0.4007586    0.1190767 -65.33  0.001871709    2.946    0.661
       286  -9.2494     64.3242    196.6564   8.7422537663e+01   2.5973807027e+01    0.1376031   0.08004162  69.82  0.000705062    1.735    0.424
       287  -9.8497    215.4010    193.7804   5.5007648720e+01   1.3478317912e-01    0.1825616    0.1210474 -21.74   0.00094201    1.609    0.378
       288 -11.6476     15.4794    193.2053   9.7020957818e+01   3.2334115462e+01    0.2672764    0.1903003  34.82  0.001327716    1.702    0.412
