#   1 NUMBER                 Running object number                                     
#   2 MAG_AUTO               Kron-like elliptical aperture magnitude                    [mag]
#   3 X_IMAGE                Object position along x                                    [pixel]
#   4 Y_IMAGE                Object position along y                                    [pixel]
#   5 X_WORLD                Barycenter position along world x axis                     [deg]
#   6 Y_WORLD                Barycenter position along world y axis                     [deg]
#   7 A_WORLD                Profile RMS along major axis (world units)                 [deg]
#   8 B_WORLD                Profile RMS along minor axis (world units)                 [deg]
#   9 THETA_WORLD            Position angle (CCW/world-x)                               [deg]
#  10 FWHM_WORLD             FWHM assuming a gaussian core                              [deg]
#  11 ELONGATION             A_IMAGE/B_IMAGE                                           
#  12 ELLIPTICITY            1 - B_IMAGE/A_IMAGE                                       
         1 -13.4296    225.7355     28.0329   3.8114947534e+01   2.5939402061e+01     1.000276    0.7039488  45.82  0.005667635    1.856    0.461
         2 -11.0689      2.0000     20.5886   9.8492957461e+01   7.1468683201e+01    0.4872006   0.05267615 -55.56  0.001345723    7.980    0.875
         3 -11.1514    250.0440      3.3166   3.1019674392e+01   2.3593696390e+01    0.3631085    0.1813382 -37.52  0.002075996    1.864    0.463
         4  -9.9737      2.1523      2.3966   9.0497417746e+01   7.4395043259e+01    0.1742194     0.110311 -39.59  0.001201656    1.442    0.307
         5 -12.9152     16.8001    211.0733   1.2284063894e+02   2.7827873514e+01    0.5566759    0.3959021 -63.39  0.000791744    1.582    0.368
         6 -12.2433    132.9967    247.3554   1.0239699756e+02   5.1033160470e+00     0.490143    0.2142594  41.61  0.002067702    1.853    0.460
         7 -13.3431     77.7513    248.5932   1.1357860853e+02   1.3013885241e+01     1.448184    0.5122029  29.50  0.005509652    3.917    0.745
         8 -13.2032    104.0944    248.6285   1.0836990952e+02   9.2582207463e+00    0.9998919    0.3644969  36.62  0.004444649    2.332    0.571
         9 -13.3883    117.0766    247.1273   1.0559329637e+02   7.5809228114e+00    0.8561229    0.5722601  48.14  0.005116971    1.259    0.205
        10 -13.4018     10.3565    206.7002   1.2386761289e+02   2.9370143609e+01    0.8776319    0.6943198  46.42  0.004013234    1.335    0.251
        11 -11.1777     48.6086    182.9441   1.1350202957e+02   3.0689458274e+01    0.3068839    0.2564543 -33.74 0.0005443813    1.598    0.374
        12 -11.2215     55.8845    176.2642   1.1095715936e+02   3.1381762164e+01    0.2689475    0.2430535 -50.95 0.0005136006    1.289    0.224
        13 -10.4799     67.7156    165.9497   1.0655930627e+02   3.2321930187e+01    0.2498595    0.2245358 -61.89 0.0003820879    1.155    0.134
        14  -8.7626    136.7756    165.5739   8.8592065352e+01   2.0768236023e+01    0.1998629     0.139694  50.22 0.0003044044    1.453    0.312
        15 -12.7226     53.5431    162.5902   1.0982413387e+02   3.4981276356e+01     0.517813    0.3053884 -42.50  0.001698432    2.099    0.524
        16 -11.6674     76.0485    158.6631   1.0322072352e+02   3.2927621887e+01    0.5235772    0.4930177 -50.73  0.003061554    1.156    0.135
        17 -12.4458     67.9391    143.9513   1.0303059574e+02   3.7731853916e+01    0.7387819    0.4692093  62.23  0.002602663    1.865    0.464
        18  -9.7037     91.9870    144.9739   9.6360709154e+01   3.3817291001e+01    0.2633649      0.24939 -21.30 0.0007456127    1.171    0.146
        19  -9.1450     95.2111    141.5760   9.4771097132e+01   3.4110280152e+01    0.2465953    0.1811015  -7.13 0.0005457873    1.998    0.499
        20 -11.4953     79.6749    143.1715   9.9520467576e+01   3.6222634353e+01    0.3132284    0.2571665 -55.84 0.0006476694    1.178    0.151
        21  -8.6948    133.3516    143.6724   8.4826145412e+01   2.6443383121e+01    0.1636724    0.1238643  79.63 0.0007047839    1.765    0.434
        22 -14.8424      3.8575    243.1545   1.2687653025e+02   2.2676465843e+01     3.891325     1.854027 -82.15   0.02456638    1.867    0.464
        23 -14.3313     24.6321    203.8065   1.2075102484e+02   2.8605031815e+01     1.816131     1.030257  76.74   0.00608596    1.592    0.372
        24 -10.2256    106.1917    131.9901   8.9584775313e+01   3.4492550772e+01    0.3707343    0.3355607  -7.77  0.001214331    1.243    0.196
        25 -10.0717     92.1997    129.0822   9.3005029296e+01   3.7685871738e+01     0.272259    0.2419182 -19.50 0.0003757157    1.260    0.206
        26 -13.0190    127.2345    230.9204   1.0149927972e+02   8.9067268006e+00    0.6993043    0.4140471  55.10  0.003542545    1.781    0.438
        27 -11.6494    143.6816    228.0938   9.7615825455e+01   6.7547814230e+00    0.3557604    0.1761582  32.06  0.001630865    1.911    0.477
        28  -9.1184    103.9940    120.6432   8.7569217879e+01   3.7619046117e+01     0.205118    0.1941472  36.57 0.0008653631    1.081    0.075
        29 -11.5258     53.3101    117.1738   1.0257726800e+02   4.6287180832e+01    0.5506603    0.2746453 -78.20   0.00209172    2.806    0.644
        30 -10.4856     27.4623    112.4180   1.1010039515e+02   5.0076097666e+01    0.3050157    0.1608511  79.23  0.001259518    2.923    0.658
        31 -12.6511    118.7087    229.6440   1.0314825530e+02   1.0502334030e+01    0.5454792    0.4046956  25.09  0.003131279    1.439    0.305
        32  -9.9122     52.6170     89.8656   9.6784349179e+01   5.2919555239e+01     0.225442    0.1885551  -2.84 0.0006778502    1.294    0.227
        33  -8.3575     63.3157     83.6562   9.1249409748e+01   5.2929925322e+01    0.1381662    0.1119988  81.24 0.0007048129    1.714    0.417
        34 -12.6320    104.6072    229.5594   1.0614280999e+02   1.2716385317e+01     1.154963    0.1185559  42.23  0.003028553    5.941    0.832
        35  -9.5752     13.4840     60.4765   1.0496330726e+02   6.3042530500e+01    0.1233154   0.09904326 -43.55 2.803004e-05    1.014    0.014
        36  -9.0866    249.3200     55.3194   4.1732542672e+01   1.7255918885e+01    0.1156467    0.1006879  16.03 0.0005349534    1.665    0.399
        37 -10.5434     82.5971    230.7531   1.1091624294e+02   1.5739407153e+01    0.2495163    0.1760962  81.06 0.0008866152    1.475    0.322
        38 -12.0849     83.4576    225.7708   1.1021873944e+02   1.6611994062e+01    0.4991897    0.3562977  72.59  0.002943347    1.388    0.280
        39 -15.4848     19.9545    169.0734   1.1903631262e+02   3.6960391191e+01     8.446512     2.889905 -89.94   0.02935252    4.027    0.752
