#   1 NUMBER                 Running object number                                     
#   2 MAG_AUTO               Kron-like elliptical aperture magnitude                    [mag]
#   3 X_IMAGE                Object position along x                                    [pixel]
#   4 Y_IMAGE                Object position along y                                    [pixel]
#   5 X_WORLD                Barycenter position along world x axis                     [deg]
#   6 Y_WORLD                Barycenter position along world y axis                     [deg]
#   7 A_WORLD                Profile RMS along major axis (world units)                 [deg]
#   8 B_WORLD                Profile RMS along minor axis (world units)                 [deg]
#   9 THETA_WORLD            Position angle (CCW/world-x)                               [deg]
#  10 FWHM_WORLD             FWHM assuming a gaussian core                              [deg]
#  11 ELONGATION             A_IMAGE/B_IMAGE                                           
#  12 ELLIPTICITY            1 - B_IMAGE/A_IMAGE                                       
         1 -14.2904    167.2612     45.9444   7.1537570263e+01   3.7593693262e+01     1.428595     1.150053  -5.13  0.004140451    1.433    0.302
         2 -14.4188    185.4118     12.9876   5.8786197367e+01   3.7049967156e+01     2.173167     1.248936  63.98  0.007165028    1.532    0.347
         3 -13.8056    102.8514    239.6860   1.2571031003e+02   1.3616818381e+01    0.5388106    0.2161982 -57.50  0.002774877    2.873    0.652
         4 -19.8495     64.2675    165.3816   1.2454037243e+02   3.3477300755e+01     17.30764     4.568033 -64.89   0.06406522    3.572    0.720
         5  -9.2439    120.7318    196.8290   1.1725254223e+02   1.8376563071e+01    0.1680307    0.1266469  68.43 0.0005137394    1.249    0.199
         6 -10.0181    112.9264    195.6999   1.1864177903e+02   1.9925657475e+01    0.3818408    0.2815847 -16.63  0.001891918    2.766    0.639
         7  -9.6217    111.2240    191.4812   1.1839001762e+02   2.1036984353e+01    0.4952736    0.2267217  57.66  0.001644107    2.380    0.580
         8 -10.9445    159.5751    194.7833   1.0919060590e+02   1.1627391624e+01     0.261642    0.1996216  62.52 0.0007305195    1.315    0.240
         9 -11.0976    164.6823    187.2455   1.0687079193e+02   1.1993804560e+01    0.2493498    0.2206945  64.73 0.0005306019    1.120    0.107
        10 -11.3352    153.7123    184.9582   1.0870057541e+02   1.4563168465e+01    0.3360599    0.2559578 -83.55  0.001460464    1.630    0.386
        11 -10.2037     98.4714    247.6669   1.2721433032e+02   1.2975779481e+01    0.1261472   0.09705254  86.62 0.0002383688    1.255    0.203
        12 -10.5086     25.9506    184.9665   1.3414420245e+02   3.3817079029e+01     0.147906    0.1160884  88.84            0    1.096    0.087
        13 -11.9418     29.6578    183.1070   1.3330796149e+02   3.3810056848e+01    0.2377319    0.1472213  58.07 0.0004659384    1.481    0.325
        14  -9.9833    169.3092    184.6316   1.0546841344e+02   1.1551163512e+01    0.1425125    0.1074313  83.10   0.00070362    1.761    0.432
        15  -9.3818    135.0853    240.9757   1.2031011595e+02   8.2465225599e+00    0.1327577     0.117026  52.35 0.0009430414    1.189    0.159
        16 -11.0154    149.1373    179.7654   1.0873676923e+02   1.6440125079e+01    0.2908031    0.2363637  86.46  0.000711195    1.383    0.277
        17 -10.0557    185.4896    169.0161   9.9193243249e+01   1.1074470846e+01    0.3383448    0.2339265 -57.64 0.0009517804    1.772    0.436
        18 -11.6031    189.2200    178.5557   1.0032888988e+02   8.6067063755e+00    0.4560899    0.3711406  68.55  0.001334338    1.428    0.300
        19 -10.5905    188.3908    174.1760   9.9637284565e+01   9.5468173522e+00    0.3556349     0.263121 -74.57  0.001397296    1.971    0.493
        20 -10.7965    161.5184    236.9660   1.1514726743e+02   4.3465168712e+00    0.3729551     0.304565  63.07  0.001267097    1.202    0.168
        21  -9.2942    150.8165    239.2657   1.1734401462e+02   5.8513563562e+00    0.1469008    0.1259372  35.23 0.0006773749    1.274    0.215
        22 -11.8454    145.1223    174.5651   1.0865443417e+02   1.8233866471e+01    0.8371441     0.504246 -36.96  0.003832185    2.129    0.530
        23 -11.4539    137.9927    172.2761   1.0976046294e+02   2.0063610432e+01    0.4482351    0.2860011 -89.50  0.001918843    2.476    0.596
        24 -12.0587    141.5737    169.9657   1.0857885134e+02   1.9837417990e+01    0.4435264    0.3520788  71.06  0.001367645    1.315    0.240
        25 -11.1638      4.6845    177.9556   1.3741451518e+02   3.7157754160e+01    0.2050755    0.1540357  76.73 0.0008801359    1.136    0.120
        26 -10.4643    225.5288    176.9848   9.3034804257e+01   1.5407345642e+00    0.2006172    0.1333364 -35.21   0.00102557    1.581    0.368
        27  -9.4252    203.5106    173.9772   9.6608211982e+01   6.4639193265e+00    0.2047521    0.1404909 -38.52 0.0006517313    1.566    0.362
        28 -10.1830    195.4138    172.8844   9.7979755250e+01   8.3209081502e+00    0.3028181    0.2462099 -30.53  0.001066331    1.333    0.250
        29  -9.8571     11.2949    174.3063   1.3595235321e+02   3.7312875279e+01   0.09816948    0.0694878 -59.79 0.0006999815    1.584    0.369
        30  -9.9469    207.7804    171.6622   9.5310416991e+01   5.9769777453e+00    0.3541057    0.1841173 -48.97   0.00149245    2.353    0.575
        31 -11.5676    125.3443    171.8530   1.1239603306e+02   2.2514458012e+01    0.2986782    0.1975349  68.87  0.001165339    1.732    0.423
        32 -10.5474    125.2818    237.5423   1.2162027576e+02   1.0410590027e+01    0.1718256    0.1323183 -74.26 0.0006155972    1.465    0.317
        33 -10.0260    229.6668    166.3064   9.0074890355e+01   2.3985693723e+00    0.1322595    0.1131579 -87.31 0.0003995066    1.666    0.400
        34  -9.9138     24.5461    165.2793   1.3265858579e+02   3.7934427214e+01    0.1673924    0.1421312  61.67 0.0008883938    1.298    0.230
        35 -10.6262    140.2503    163.1121   1.0759486212e+02   2.1481758563e+01     0.242986     0.214325  72.96 0.0003586241    1.110    0.099
        36  -8.9661     13.3372    163.2422   1.3465608714e+02   3.9362254534e+01   0.09458449   0.07400559 -54.95 0.0002279645    1.552    0.356
        37 -11.7823    129.9897    160.9965   1.0945521414e+02   2.3893088068e+01     0.700481    0.2475429  35.70  0.002182073    4.011    0.751
        38  -8.9501    177.7143    156.2498   9.8162659401e+01   1.5097095967e+01    0.1391611    0.1137091  78.76 0.0001684581    1.470    0.320
        39 -11.4388     13.8743    240.1767   1.3972523720e+02   2.4919364054e+01    0.2306104   0.05346431 -78.93  0.001048827    4.187    0.761
        40 -11.0110    188.8053    154.2905   9.5444408607e+01   1.3068466938e+01    0.5061268    0.3697974  57.32  0.002472072    1.430    0.301
        41 -10.5984    164.3850    152.4785   1.0020398147e+02   1.8682481705e+01     0.295682    0.2640742  76.69 0.0008674614    1.186    0.157
        42  -9.4904    174.8674    149.1002   9.7229918987e+01   1.7086532303e+01    0.2279073    0.2010234  82.49 0.0005630806    1.270    0.213
        43 -11.5132     28.1669    234.9710   1.3733653809e+02   2.4288847230e+01    0.1567675    0.1008421 -85.94 0.0009837337    1.304    0.233
        44  -9.2650    106.1710    229.4930   1.2407043383e+02   1.4824709827e+01    0.1014151   0.08176595 -46.97 0.0006559286    1.759    0.431
        45 -11.7787    207.9027    226.7733   1.0531782709e+02  -2.4223560220e+00    0.2598084    0.1666755 -50.40  0.001449277    2.147    0.534
        46 -11.7671     13.3885    137.2856   1.3214300533e+02   4.4721856362e+01    0.2951895    0.2273495 -10.24  0.001196913    2.064    0.516
        47 -11.4825      7.5838    141.2121   1.3378549559e+02   4.4347629498e+01    0.2406424    0.1847736 -55.82  0.001816723    1.417    0.294
        48 -12.0220      5.4900    137.3869   1.3385269876e+02   4.5291900444e+01    0.3487283    0.2857048 -50.80  0.001429071    1.451    0.311
        49 -11.8713      2.8338    126.9597   1.3336948536e+02   4.7632924600e+01    0.6556978    0.2198851 -75.34  0.003223441    2.433    0.589
        50 -11.8468      9.0377    127.7904   1.3207075188e+02   4.7032558435e+01    0.2948832    0.1518597 -74.17  0.001080785    1.499    0.333
        51 -13.0763      6.2735    120.0936   1.3183128411e+02   4.8829511555e+01    0.5780606    0.3575551 -86.88  0.003656315    1.433    0.302
        52 -10.9219    160.7411    127.6997   9.5462142500e+01   2.4449783057e+01    0.4547093    0.3320015 -73.22  0.001763354    1.805    0.446
        53 -11.6747      2.8524    112.8628   1.3178984728e+02   5.0551956361e+01      0.28467    0.1908622 -73.71  0.001433331    1.121    0.108
        54 -10.1071    231.2805    113.7912   7.7939463223e+01   1.0769775325e+01    0.2630489     0.234236  41.18 0.0007456892    1.141    0.123
        55 -10.0989    168.2257    113.3197   9.0264002753e+01   2.5620818577e+01    0.3927681    0.2685203 -78.40  0.001271177    2.321    0.569
        56  -9.2894    126.3027    227.7824   1.2028627910e+02   1.1851344320e+01    0.1701504    0.1283154  80.82  0.001076056    1.364    0.267
        57  -9.9589    205.3098    110.2309   8.1804451756e+01   1.7429551784e+01    0.3225163    0.2088212  46.59  0.001096717    1.535    0.349
        58 -10.6594    108.0758    250.1349   1.2587199198e+02   1.1130621648e+01    0.1305168    0.1026895  71.09  0.000946179    1.110    0.099
        59 -11.8904      7.2198    110.9609   1.3050092829e+02   5.0669493571e+01    0.2850559    0.2082548 -68.00  0.001116025    1.052    0.050
        60 -10.3861    218.4445    220.7524   1.0243945337e+02  -3.4834206600e+00    0.2912878    0.1174151 -43.92  0.001275661    3.200    0.688
        61 -11.0358      7.1633    102.1782   1.2935629138e+02   5.2498094788e+01    0.2183859    0.1940965  59.61  0.001024468    1.369    0.270
        62 -12.4356     22.8988    219.6445   1.3719114783e+02   2.7557935177e+01    0.2504449    0.1179385 -66.92  0.001605919    2.045    0.511
        63 -11.7157    200.0915    213.5558   1.0456565757e+02   8.5255446183e-01    0.2593678    0.2026241 -31.71  0.001571889    1.483    0.326
        64  -9.5335    119.4889    212.4251   1.1961463654e+02   1.5679976528e+01    0.1276903    0.1039642  63.46     8.63e-05    1.019    0.019
        65  -9.4289    143.0442    208.7957   1.1462484837e+02   1.2215935897e+01    0.2076684    0.1552817  68.29  0.001200654    1.347    0.258
        66 -10.2884    113.2965    207.7218   1.2018032971e+02   1.7577949271e+01    0.1977138    0.1529185  80.00 0.0006054789    1.234    0.190
        67 -11.5438     11.5708    205.8418   1.3811833170e+02   3.1217481293e+01    0.2128119    0.1583007  62.06  0.000985269    1.286    0.222
        68 -13.4529    155.2033     60.1049   7.8343136191e+01   3.8411758192e+01     1.146973    0.9646947  45.69 0.0009300763    1.144    0.126
        69 -10.2691    163.6866    248.8102   1.1631047866e+02   2.2670154620e+00    0.1732661    0.1515473 -43.56  0.001011995    1.490    0.329
        70 -12.4508    171.9295     37.8780   6.8230726709e+01   3.7528753566e+01    0.4671754     0.394641  49.57 0.0008909506    1.116    0.104
        71 -10.0533     13.5352     59.9544   1.2005749457e+02   6.0616167887e+01    0.1629148    0.1498855  70.26 0.0004414204    1.446    0.308
        72 -10.8550    151.8437    194.7285   1.1072327830e+02   1.3112761270e+01    0.6733196    0.4831596  15.67   0.00334479    2.120    0.528
