#   1 NUMBER                 Running object number                                     
#   2 MAG_AUTO               Kron-like elliptical aperture magnitude                    [mag]
#   3 X_IMAGE                Object position along x                                    [pixel]
#   4 Y_IMAGE                Object position along y                                    [pixel]
#   5 X_WORLD                Barycenter position along world x axis                     [deg]
#   6 Y_WORLD                Barycenter position along world y axis                     [deg]
#   7 A_WORLD                Profile RMS along major axis (world units)                 [deg]
#   8 B_WORLD                Profile RMS along minor axis (world units)                 [deg]
#   9 THETA_WORLD            Position angle (CCW/world-x)                               [deg]
#  10 FWHM_WORLD             FWHM assuming a gaussian core                              [deg]
#  11 ELONGATION             A_IMAGE/B_IMAGE                                           
#  12 ELLIPTICITY            1 - B_IMAGE/A_IMAGE                                       
         1 -13.6791    190.8310     26.9963   7.2674655464e+01   3.3718225688e+01     1.411823     1.332069  50.92  0.006472494    1.070    0.065
         2 -13.8682    205.5591      8.2942   6.5529324279e+01   3.1948961347e+01     1.637719     1.117776  46.63  0.008592077    1.565    0.361
         3 -12.8688      2.2686     11.0964   1.2201606853e+02   7.1734403710e+01     1.607729    0.2004261 -51.92  0.005187206    5.898    0.830
         4 -12.6111      2.5785      3.7846   1.1863282578e+02   7.2902158576e+01    0.5782934    0.4728333  36.13  0.004465496    1.887    0.470
         5 -10.4478     99.2208    249.1384   1.3842861397e+02   1.3457019621e+01    0.2202109    0.1023186  59.53  0.001240502    2.050    0.512
         6 -11.3058    248.6664    248.9774   1.1378650841e+02  -9.0755946291e+00    0.3400071    0.1807301  37.76   0.00219164    1.524    0.344
         7 -11.0155    139.3097    246.4401   1.3148339974e+02   7.9365748536e+00    0.2430649    0.1768697 -56.69  0.001636981    1.745    0.427
         8 -11.4305    124.8019    250.1089   1.3430412948e+02   9.6151606944e+00     0.488932    0.1275399  41.57  0.002085922    3.126    0.680
         9  -8.5959     67.3245    250.7073   1.4366240714e+02   1.7462309550e+01    0.1089903   0.05700655  64.29 0.0005107565    1.617    0.381
        10 -12.3679     20.9303    200.5339   1.4791226878e+02   3.1412504997e+01    0.7007167    0.1450464  50.26  0.002878162    3.656    0.727
        11 -14.3200      8.4010    207.0517   1.5042612387e+02   3.1402952101e+01     7.718413          nan  41.01  0.005177506    6.175    0.838
        12 -12.4157      2.2579    182.1518   1.5007952467e+02   3.6627878619e+01     1.092957    0.3579496 -74.47 0.0006322128    2.392    0.582
        13 -11.5105      2.6606    152.8463   1.4802176144e+02   4.2486817869e+01    0.4853011    0.2587443 -87.69  0.001956738    1.491    0.329
        14 -15.0957     11.9467    156.5521   1.4639530533e+02   4.0977626513e+01     5.780437     1.779045 -85.66   0.02277679    3.916    0.745
        15 -12.9700     40.1973    235.2120   1.4690943759e+02   2.3201948345e+01    0.4912204    0.2704967 -54.57 0.0007779854    2.715    0.632
        16  -9.6839    187.3049    241.6311   1.2273833264e+02   1.0003216599e+00    0.1084008   0.08408024  66.54  0.000703442    1.751    0.429
        17 -11.5506      2.3523    249.0943   1.5323503162e+02   2.4849919216e+01    0.5950882    0.2248116  47.37  0.004162585    1.961    0.490
        18 -10.3857     13.1898    240.5036   1.5132381497e+02   2.5179492864e+01    0.1688259    0.1044877  88.58 0.0008798677    1.322    0.243
        19 -11.1840      1.8584    241.3924   1.5300980850e+02   2.6120230116e+01    0.4594514    0.1334665 -69.22  0.002684343    3.279    0.695
        20 -10.7256    154.3363    229.1822   1.2678535846e+02   8.0091942316e+00    0.3005559    0.1383016  32.97   0.00141884    2.419    0.587
        21 -10.8179      4.8066    228.4231   1.5203567409e+02   2.7986525991e+01    0.2611708    0.1435017  52.50  0.001729699    1.462    0.316
        22 -11.5692      8.7942    226.5985   1.5134451653e+02   2.7921547630e+01    0.4154052     0.155478 -85.90  0.002502856    2.353    0.575
        23  -9.5847    177.1193    227.0869   1.2245957380e+02   4.5377730767e+00    0.1814556    0.1345521  64.95  0.001099223    1.700    0.412
        24 -14.1529     46.5737    228.0152   1.4541014861e+02   2.3689898420e+01     2.079473    0.9473417  41.35  0.008743812    2.019    0.505
        25 -10.5272    172.7724    222.0413   1.2250294896e+02   5.9676417738e+00    0.2359641    0.1955549  -2.70  0.001018542    1.447    0.309
        26  -9.0059    152.3801    213.0273   1.2492258507e+02   1.0780708012e+01    0.1568799    0.1456738  56.39 0.0004741875    1.115    0.103
        27  -9.8021    171.4594    247.4689   1.2618170222e+02   2.7859835913e+00    0.1146494   0.08840868  41.60 1.069354e-05    1.027    0.026
        28 -11.6022     65.4166    200.2176   1.3980207556e+02   2.6409666720e+01    0.2778695    0.2080141 -54.96 0.0006324342    1.665    0.400
        29 -10.1988    193.2247    195.6938   1.1452160730e+02   6.2091453722e+00    0.7561529    0.3599688 -59.63  0.002032332    8.632    0.884
        30  -8.7865     51.4813    197.4425   1.4215455685e+02   2.8672314159e+01    0.1153109   0.08749857  74.50 0.0001826421    1.044    0.042
        31  -9.8521     43.7505    192.6923   1.4318606170e+02   3.0492267227e+01     0.265689     0.218886 -48.30 0.0009961051    1.737    0.424
        32 -11.9115     71.1374    191.9972   1.3786061365e+02   2.7241445245e+01    0.2413658     0.206911 -68.36 0.0004512612    1.314    0.239
        33 -13.3812     67.7731    177.0344   1.3684913263e+02   3.0682646988e+01    0.4624217    0.2688213 -46.57  0.002207297    2.283    0.562
        34  -8.7464    103.9442    180.0711   1.2971281967e+02   2.4784176776e+01    0.1507986    0.1307334  67.41 0.0003463636    1.024    0.024
        35 -10.9694     80.5987    179.0208   1.3443288309e+02   2.8520408818e+01    0.2208105    0.1900628  89.37  0.000418264    1.068    0.063
        36  -8.7513    251.0000    171.9600   9.9804295332e+01  -8.7305407061e-01    0.1985734   0.06722862 -31.23 0.0003927901    2.854    0.650
        37 -11.8996     87.8150    169.4055   1.3160993716e+02   2.9442492255e+01    0.6074839    0.5289928  57.20  0.003930679    1.137    0.121
        38  -9.7998    235.5156    160.4905   1.0001284373e+02   3.4845163736e+00    0.1362144     0.117039   6.07 7.293715e-05    1.015    0.015
        39  -9.2126    193.0215    156.5540   1.0694736310e+02   1.2481088485e+01    0.2742875    0.1787594 -73.96  0.001033382    3.447    0.710
        40 -13.8735     54.6141    215.0926   1.4308306854e+02   2.5007832414e+01     4.676072     1.131603  46.04   0.02120475    3.116    0.679
        41 -10.1964     99.5794    153.0993   1.2642774402e+02   3.1046683339e+01    0.2981839    0.2451812 -65.04 0.0008484603    1.180    0.153
        42  -9.4637    102.3236    148.9636   1.2506727017e+02   3.1480574561e+01    0.2184515    0.1926919  -2.65 0.0003809751    1.500    0.333
        43 -12.0697     88.3605    152.6207   1.2893311788e+02   3.2914728638e+01    0.2655605    0.2340712 -46.35 0.0004516405    1.301    0.231
        44  -9.6056    198.3175    246.3195   1.2153520624e+02  -1.2896769752e+00     0.115157   0.07364979  19.34 0.0002997143    1.660    0.398
        45 -12.6207     67.0131    143.7981   1.3254780839e+02   3.7878793169e+01    0.7122147    0.4591126  72.04  0.003410876    1.764    0.433
        46 -11.5975     57.5773    131.8135   1.3298093515e+02   4.1742162104e+01     1.558498     0.498706 -73.93  0.003704198    8.333    0.880
        47 -11.1139     33.4996    140.7224   1.4005169816e+02   4.2410418567e+01    0.2504257    0.1460961 -65.94  0.001474347    1.438    0.305
        48  -9.9227    110.5663    137.8316   1.2099912718e+02   3.2462673742e+01    0.3337572    0.2346278 -24.89  0.001212411    2.059    0.514
        49  -9.7479     87.1791    136.8674   1.2649849544e+02   3.6537844835e+01    0.2183175    0.1688117  65.13 0.0006071348    1.353    0.261
        50  -8.7641     40.2755    245.6336   1.4752120493e+02   2.1489164230e+01    0.1068133   0.05304425  68.86 0.0007006312    1.673    0.402
        51 -10.6781     98.0511    135.2143   1.2351757051e+02   3.5170682623e+01    0.2510695    0.2258236 -35.18 0.0005022309    1.264    0.209
        52 -10.7788     33.2758    131.9672   1.3901285491e+02   4.4359623955e+01    0.3379818    0.1230406 -72.10  0.001490552    2.478    0.597
        53  -8.5182    192.2572    144.3061   1.0441012961e+02   1.4737061853e+01    0.1423496    0.1093969   4.83 0.0002684424    1.516    0.341
        54  -9.4584    107.7002    124.2759   1.1884986061e+02   3.5908530544e+01    0.1901921    0.1768944 -84.25 0.0004096374    1.064    0.060
        55  -9.7509     82.9052    243.9477   1.4065250031e+02   1.6492772378e+01     0.179446    0.0980964  66.17  0.001126213    1.709    0.415
        56  -9.1623     47.4473    249.5388   1.4665802816e+02   2.0048958860e+01    0.1012897    0.0711403  66.58 0.0003421868    1.007    0.007
        57 -10.4833    168.0774    113.1757   1.0188177035e+02   2.5743228827e+01    0.3367158    0.2820749 -78.75 0.0007079313    1.481    0.325
        58  -9.5279    203.6603    111.3161   9.4273500013e+01   1.7913710312e+01    0.2942568    0.1792361 -10.07  0.001153583    2.349    0.574
        59  -8.9070     34.2230     93.3351   1.3265207909e+02   5.2885751358e+01    0.1565752    0.1091496  42.64   0.00094578    1.701    0.412
        60  -8.4978    184.6862     77.6443   8.8710842603e+01   2.8121504404e+01    0.1620536    0.1180166  15.59 0.0007044686    1.739    0.425
        61  -8.9402    156.3137     75.6817   9.3919547376e+01   3.5400778686e+01    0.1559173    0.1213584 -70.98 0.0006297673    1.648    0.393
        62 -10.4260     13.6392     65.3074   1.3356224512e+02   6.0602485435e+01    0.2982659    0.1899046  54.21  0.001787689    2.213    0.548
        63 -11.4219      7.1767     63.1586   1.3535938798e+02   6.1460680881e+01    0.3257412    0.1966537  39.61  0.001682267    2.162    0.537
        64  -9.6058     29.9223     61.2735   1.2683472098e+02   6.0182468886e+01    0.2005895    0.1556453  41.67 0.0005896508    1.638    0.390
        65 -11.1511    139.7619    250.4213   1.3184697684e+02   7.3187351207e+00    0.3885635    0.1352044  45.05  0.001932187    2.191    0.544
        66 -10.0405     81.6701    248.6650   1.4123382318e+02   1.5924089310e+01    0.2265157    0.1115879  67.02    0.0013348    2.082    0.520
        67 -10.0827    152.7570    249.0291   1.2951474734e+02   5.5076866350e+00    0.1529014    0.1245123  46.59 0.0004090087    1.062    0.058
