#   1 NUMBER                 Running object number                                     
#   2 MAG_AUTO               Kron-like elliptical aperture magnitude                    [mag]
#   3 X_IMAGE                Object position along x                                    [pixel]
#   4 Y_IMAGE                Object position along y                                    [pixel]
#   5 X_WORLD                Barycenter position along world x axis                     [deg]
#   6 Y_WORLD                Barycenter position along world y axis                     [deg]
#   7 A_WORLD                Profile RMS along major axis (world units)                 [deg]
#   8 B_WORLD                Profile RMS along minor axis (world units)                 [deg]
#   9 THETA_WORLD            Position angle (CCW/world-x)                               [deg]
#  10 FWHM_WORLD             FWHM assuming a gaussian core                              [deg]
#  11 ELONGATION             A_IMAGE/B_IMAGE                                           
#  12 ELLIPTICITY            1 - B_IMAGE/A_IMAGE                                       
         1 -14.3437    192.8917     41.8294   4.6250159548e+01   3.1646878215e+01    0.9328865    0.8776448   3.70   0.00402038    1.299    0.230
         2 -14.3910    219.0037     11.0439   3.6689598614e+01   2.9470298688e+01    0.8184051    0.6939991 -61.10  0.003934092    1.093    0.085
         3 -12.4997     32.8793     13.0075   7.7668187376e+01   7.1018689948e+01    0.2866055    0.1317073 -27.34  0.001358462    2.266    0.559
         4 -11.5927     56.6068      4.2022   6.1445107404e+01   6.7752702825e+01    0.1767631    0.1121644  -0.88 0.0009599419    1.717    0.417
         5 -10.3064     71.1679    210.3747   1.1264975335e+02   2.1127485131e+01    0.2759838    0.2459891 -31.40    0.0017012    1.301    0.232
         6 -17.4606     71.1516    146.7219   1.0368797180e+02   3.6404339339e+01     12.87757     6.856679  73.19   0.03862743    4.395    0.772
         7 -12.0919     52.1043    199.7942   1.1633362065e+02   2.5793331506e+01    0.2644397    0.2425493   4.66 0.0004338879    1.240    0.194
         8 -13.1376     56.6720    193.3542   1.1448051719e+02   2.6752059078e+01    0.5532611    0.3196516 -42.03  0.001366507    2.125    0.529
         9 -11.9794    192.9520    194.8831   8.1414386760e+01   6.0412459090e+00    0.8661119    0.4763286 -61.24  0.002656733    6.449    0.845
        10 -11.4725     38.4487    199.2753   1.1973794691e+02   2.7397356789e+01    0.2306805    0.1631176  51.55 0.0002082219    1.291    0.225
        11 -19.0822     10.1641     99.4195   1.1741461492e+02   5.4804312966e+01     16.82109    0.8016946 -71.38   0.02464683   18.021    0.945
        12  -9.7032     44.5811    198.2259   1.1809637317e+02   2.6989962583e+01    0.1416562   0.07949196  50.38 0.0004319125    1.690    0.408
        13 -10.4896     34.0243    197.0107   1.2065784296e+02   2.8367103120e+01    0.1439901    0.1247621  49.13 0.0009055705    1.077    0.071
        14 -13.5713    148.1105    188.9936   9.0240193874e+01   1.4230479007e+01    0.7835379    0.4597804 -65.52  0.003088239    3.058    0.673
        15 -11.5769     75.5758    247.2121   1.1525699604e+02   1.3165068559e+01    0.4645609    0.1603039 -57.63  0.002093274    3.241    0.691
        16 -11.4084     71.8566    243.5332   1.1574802376e+02   1.4300457661e+01     0.298122    0.2165504  86.92  0.001032268    1.637    0.389
        17 -10.8837     37.8813    176.6030   1.1776305311e+02   3.2840433134e+01    0.3493379     0.167496  38.07  0.001594055    1.938    0.484
        18 -11.4938    186.2275    174.1624   7.8786913692e+01   1.0745091593e+01    0.3301961    0.3023553  12.77  0.001098422    1.170    0.145
        19 -11.1958    148.2885    174.6799   8.7477408598e+01   1.7113505649e+01    0.2443343    0.2104185 -52.97 0.0006656006    1.349    0.259
        20 -11.8275    146.3126    171.6651   8.7361973066e+01   1.8084413462e+01    0.2779843    0.2492645 -62.26  0.000797348    1.366    0.268
        21 -11.6870     55.9247    174.6985   1.1249432516e+02   3.1321699939e+01    0.3504646    0.2111482  44.60   0.00108045    1.618    0.382
        22 -11.6716     45.4414    172.9692   1.1525446301e+02   3.2942779259e+01    0.6094113    0.2779724  37.03  0.002655168    2.039    0.510
        23 -12.0577    246.1450    172.5568   6.7538837153e+01   2.0036198007e+00    0.2221826    0.1238764 -28.99  0.001237496    1.468    0.319
        24  -9.5644    192.9764    169.7626   7.6504870255e+01   1.0423710665e+01    0.1724126    0.1119006  32.60 0.0005686383    1.554    0.356
        25 -13.0635    133.8766    145.5812   8.4997983254e+01   2.6012885222e+01     1.265029    0.3502952 -53.54  0.003033341    5.608    0.822
        26 -12.5777    112.4919    150.9598   9.2054643204e+01   2.8718954824e+01    0.4343919     0.320455  65.47  0.001519533    1.826    0.452
        27 -13.7108     95.4294    150.1012   9.6857574295e+01   3.1844489758e+01     0.707123    0.5583652 -18.66  0.003417587    1.437    0.304
        28 -10.3612    174.6989    149.0345   7.5930043115e+01   1.7517899831e+01    0.2113128    0.1815725 -29.30 0.0006154049    1.109    0.098
        29 -13.3158    106.9575    136.6770   9.0546298992e+01   3.3107265478e+01    0.7816336    0.4202843 -29.77  0.002762336    2.594    0.615
        30 -12.3503    105.9460    130.9071   8.9515867054e+01   3.4670019120e+01    0.4286709    0.4045304 -70.35  0.001222737    1.173    0.148
        31 -12.7053     94.9039    136.4609   9.4166221964e+01   3.5283318704e+01    0.3332943    0.2944649 -31.26 0.0004114764    1.136    0.119
        32 -11.9198    117.8888    134.3957   8.6821478130e+01   3.1610385705e+01    0.4036413    0.2333003  55.80  0.001212992    2.372    0.578
        33 -11.9273    135.7938    128.9217   8.0562427839e+01   2.9320518691e+01    0.5175526    0.1247439 -46.37  0.001360968    4.221    0.763
        34 -11.2809    102.0043    124.1028   8.9093621006e+01   3.7019644616e+01    0.3315847    0.2632648  -8.14 0.0008252898    1.447    0.309
        35 -12.4006    120.2831    122.8921   8.3328344668e+01   3.3784711924e+01     0.472369    0.2942735 -18.35  0.001767007    2.386    0.581
        36 -12.0807    114.4921    128.5050   8.6396915017e+01   3.3628771611e+01    0.3421502    0.2765101   6.06 0.0006923028    1.373    0.272
        37 -10.9240    109.9276    117.9732   8.5123716252e+01   3.6955220141e+01    0.2349838     0.225638  -4.03 0.0003702658    1.009    0.009
        38 -10.8136    231.2536    113.8186   5.7881679722e+01   1.3381878464e+01    0.2204675    0.1999837 -16.74 0.0007410668    1.114    0.102
        39 -11.5147    134.5494    105.7922   7.4880458791e+01   3.4525291381e+01    0.4613072    0.1496062 -46.20  0.001389238    3.254    0.693
        40 -10.4343    167.3771    112.8292   6.8915260211e+01   2.6023373765e+01    0.2790478     0.211463  76.55  0.001289323    1.855    0.461
        41 -13.1341    118.5600    110.1441   8.0493046646e+01   3.6988598630e+01    0.6306348    0.4795497  67.85   0.00240267    1.756    0.431
        42 -10.3199    205.4862    110.2458   6.1054178854e+01   1.8696995892e+01     0.231727    0.1939545  46.06 0.0006668923    1.320    0.242
        43 -18.4334     31.7671    235.1453   1.2388417582e+02   2.0382204213e+01     7.403321     4.463444  32.55    0.0333273    1.469    0.319
        44 -11.2388     60.5562    187.5765   1.1278970155e+02   2.7646393245e+01    0.2518537    0.2054126  72.47 7.749251e-05    1.260    0.206
        45 -14.0476    177.4471     55.2728   5.1822939215e+01   3.3401525521e+01     1.473166    0.8532623  31.40  0.004941284    2.711    0.631
        46 -12.0180     43.2644    209.1562   1.1939028119e+02   2.4662479998e+01    0.4785151    0.2377604  51.63   0.00158725    1.909    0.476
        47 -13.4951    197.7421     36.4013   4.4357700999e+01   3.1229984232e+01    0.4990781    0.4444579 -77.08  0.001332784    1.029    0.028
        48 -11.8866    197.9325     23.3899   4.1196275260e+01   3.2672678459e+01    0.2297907    0.1834146 -27.49 0.0009380686    1.409    0.290
        49 -11.5760     87.2378    203.7404   1.0781725650e+02   2.0455985405e+01    0.3314815    0.2804881  66.92  0.001470977    1.279    0.218
        50 -10.4573     81.0392     15.5410   5.8627556320e+01   6.1412374470e+01    0.1837566    0.1173178  83.13 0.0008092395    2.598    0.615
        51  -9.6994    189.6668     14.7070   3.9864835856e+01   3.5425207837e+01    0.1197052   0.08848256  45.82 0.0004711602    1.636    0.389
        52 -11.9060     89.4815    211.2901   1.0821544821e+02   1.8517930244e+01    0.3475518    0.2661113  80.92  0.001043603    1.607    0.378
