#   1 NUMBER                 Running object number                                     
#   2 MAG_AUTO               Kron-like elliptical aperture magnitude                    [mag]
#   3 X_IMAGE                Object position along x                                    [pixel]
#   4 Y_IMAGE                Object position along y                                    [pixel]
#   5 X_WORLD                Barycenter position along world x axis                     [deg]
#   6 Y_WORLD                Barycenter position along world y axis                     [deg]
#   7 A_WORLD                Profile RMS along major axis (world units)                 [deg]
#   8 B_WORLD                Profile RMS along minor axis (world units)                 [deg]
#   9 THETA_WORLD            Position angle (CCW/world-x)                               [deg]
#  10 FWHM_WORLD             FWHM assuming a gaussian core                              [deg]
#  11 ELONGATION             A_IMAGE/B_IMAGE                                           
#  12 ELLIPTICITY            1 - B_IMAGE/A_IMAGE                                       
         1  -9.7393     75.0900     17.8488   7.4391070744e+01   6.2377136879e+01    0.3046381    0.2525336 -48.05 0.0005561115    1.596    0.373
         2  -9.1544     80.0003     12.3163   7.0204939246e+01   6.2167664566e+01     0.264133    0.2342716 -57.97  0.001135485    1.604    0.376
         3  -8.5824    142.1550     12.0792   5.4776492033e+01   4.8225962884e+01    0.2165937    0.1739996  32.72 0.0004436375    1.230    0.187
         4  -8.0050    114.3199      9.6980   5.9603721449e+01   5.5207371208e+01     0.130898    0.1059993 -64.40 0.0001654964    1.626    0.385
         5  -7.5779    171.5562      4.5601   4.7615907026e+01   4.1376266247e+01    0.1393421    0.1255586  61.59 0.0001635858    1.048    0.046
         6  -8.8162    138.1286      3.7489   5.2454199018e+01   5.0020771687e+01    0.2152879    0.1837993 -34.92 0.0004629169    1.288    0.224
         7  -8.3708     16.8643      2.3354   9.1816420306e+01   7.2449648856e+01    0.1468026    0.1283921   3.83 0.0006573998    1.402    0.287
         8  -8.7679    109.5044    245.9208   1.1645534821e+02   1.1145394354e+01    0.2547525    0.1107468 -62.66  0.001378878    2.812    0.644
         9 -12.7265    155.2659    224.9246   1.0582890528e+02   7.1120625947e+00     2.169966      1.98606 -27.38   0.01525785    1.360    0.265
        10 -12.5586    186.0726    210.2353   9.7869587818e+01   3.9938504324e+00     2.999539      1.92468 -59.70   0.01552608    2.397    0.583
        11 -12.3661    179.5929    239.8781   1.0347218671e+02   9.3085771827e-01     2.176833     1.310353  26.23   0.01255383    1.751    0.429
        12  -8.4842    143.8934    249.5368   1.1091342439e+02   5.3405653090e+00    0.2093527    0.1498053  65.93  0.001400655    1.487    0.328
        13  -8.5096     40.5770    244.2392   1.2768937467e+02   2.0593482507e+01    0.1664732   0.07876691 -64.96  0.001055216    2.402    0.584
        14  -7.4473     45.4602    246.4788   1.2705390425e+02   1.9650512079e+01    0.1052543   0.07316934  67.27 0.0008089403    1.009    0.009
        15 -10.2317    143.8343    238.1774   1.0960459341e+02   6.9925790797e+00    0.4970126    0.3173538  50.43  0.001832603    1.279    0.218
        16 -10.2601    248.9552    239.5199   9.1599169208e+01  -9.8039744176e+00    0.3328432    0.1611912 -31.54  0.001958004    2.332    0.571
        17  -8.9364    158.8387    240.5263   1.0722577575e+02   4.2223841959e+00    0.2968689    0.1623662  55.17  0.001353821    1.843    0.458
        18  -7.7269     55.3716    247.5807   1.2555669430e+02   1.8271836435e+01    0.2214556   0.04294914  50.21 0.0009586896    3.424    0.708
        19  -7.5746     71.7443    240.9247   1.2242122630e+02   1.7279084070e+01    0.1465845     0.111802  78.53 0.0006257177    1.158    0.137
        20 -11.0576    202.0959    248.8841   1.0081895831e+02  -3.7665688826e+00     1.580326    0.3158296  43.17  0.005761665    3.982    0.749
        21  -9.4047     89.9359    238.0310   1.1909166206e+02   1.5262470164e+01    0.2333976    0.1714174 -46.02  0.001555234    2.109    0.526
        22  -9.9524    216.2206    239.0070   9.6980838084e+01  -4.8319552717e+00    0.3841682    0.2843085 -49.19  0.001788801    2.062    0.515
        23  -7.4317     97.7253    237.3730   1.1767953318e+02   1.4249212564e+01    0.1569135   0.09263076  39.45 0.0007032366    1.631    0.387
        24  -7.6426    108.4665    236.0303   1.1566111860e+02   1.2874216722e+01    0.1830676    0.1230911  48.98 0.0005586661    1.194    0.163
        25  -8.8241     49.7294    235.8055   1.2570435534e+02   2.0941721699e+01    0.1517456    0.1245682 -79.28   0.00120481    1.455    0.313
        26  -8.6352    113.8059    231.7169   1.1425772528e+02   1.2765896625e+01    0.3288604    0.1371152  39.35  0.001605284    2.195    0.544
        27  -8.1148     71.8715    231.3609   1.2164430534e+02   1.8893411023e+01    0.1854636    0.1216012  76.58 0.0005834733    1.340    0.254
        28  -7.9647    138.2751    240.6951   1.1088843038e+02   7.5077860160e+00    0.1562523    0.1074425 -73.29 0.0005045924    1.928    0.481
        29  -8.5506    220.7428    240.2299   9.6396267873e+01  -5.6728680653e+00    0.2380344    0.1455764 -18.75   0.00146696    1.927    0.481
        30  -9.5004    139.5690    227.4039   1.0905477578e+02   9.3456256238e+00    0.4928624    0.3260376  32.72  0.002907046    1.566    0.362
        31  -7.7639     82.4815    229.4931   1.1963156297e+02   1.7766697439e+01    0.2677573   0.04467605  50.91 0.0008106108    5.781    0.827
        32 -10.9830    190.6385    233.9994   1.0069206637e+02  -1.0731918855e-01    0.9131994    0.4060932  31.49  0.003309223    2.298    0.565
        33  -9.5060    104.1448    223.8497   1.1517303642e+02   1.5581904724e+01    0.3651504    0.1982702 -37.58  0.001608255    4.182    0.761
        34  -8.6784    249.6772    223.1112   8.8785635574e+01  -8.1858262294e+00    0.2056602   0.09643726 -36.35   0.00109326    2.516    0.603
        35  -8.2930    112.5340    226.2048   1.1388846383e+02   1.3884842504e+01    0.1983204    0.1244658  42.39  0.001055005    1.412    0.292
        36  -8.1593    127.3128    217.7802   1.1013501410e+02   1.2954718053e+01    0.1751411    0.1271818  52.90 0.0006493593    1.147    0.128
        37  -7.7182     55.0510    215.8354   1.2335343385e+02   2.3876391230e+01    0.2096428   0.09083697  62.52  0.001091118    2.166    0.538
        38  -8.0102    122.3445    221.6174   1.1154260211e+02   1.3109328773e+01    0.2737407    0.1853946  12.52  0.001343668    2.982    0.665
        39  -7.1844    110.6471    215.7088   1.1304719182e+02   1.6007382563e+01    0.1122125   0.09530024  16.45 0.0006003469    1.677    0.404
        40 -12.6071    166.5910    204.4341   1.0065433115e+02   8.3914646465e+00     1.710671     1.293034 -48.81  0.008437537    1.548    0.354
        41  -9.0868    151.8791    212.4060   1.0471080749e+02   9.6901372459e+00    0.1862405    0.1777972  71.93 0.0003610666    1.158    0.137
        42 -11.3622    127.5326    206.2636   1.0858636574e+02   1.4942273909e+01     1.001888    0.6272821 -28.45  0.004665055    3.072    0.675
        43  -8.5854    123.4931    203.5085   1.0901130132e+02   1.6124993130e+01    0.2194461    0.1148919  33.99 0.0007207177    2.144    0.534
        44 -10.2418    138.0344    199.6986   1.0556683346e+02   1.4317273100e+01    0.5286611    0.3152882 -41.70  0.002688005    2.109    0.526
        45  -8.1735    103.9810    211.6607   1.1384850573e+02   1.7785173238e+01    0.3078496    0.1438182  50.40  0.001274798    1.830    0.454
        46  -7.9333    140.2125    211.2157   1.0679196622e+02   1.1909645658e+01    0.1786516    0.1340108  64.81  0.001060097    1.350    0.259
        47  -9.7516    111.2392    210.5069   1.1231339094e+02   1.6851997938e+01     0.351545     0.203719  53.05  0.001389953    1.489    0.329
        48  -9.8517    110.0784    205.8055   1.1196115126e+02   1.7904998720e+01    0.3272074    0.2566442  12.61  0.001889008    2.010    0.503
        49  -7.4664     21.3140    211.6718   1.2895880425e+02   2.8487899081e+01     0.115888   0.05627915  67.98 0.0007043811    1.672    0.402
        50  -8.8455    240.8637    209.8384   8.7958062343e+01  -5.2903145967e+00    0.1921744    0.1346954  14.56 0.0004908154    1.260    0.206
        51  -9.5444    157.2872    203.7059   1.0235567333e+02   1.0187493411e+01    0.2668797    0.1971354  37.77  0.000366128    1.227    0.185
        52  -7.7857     68.6340    203.3273   1.1974698301e+02   2.4511924948e+01    0.1323422   0.07157374  67.74 0.0007037051    1.805    0.446
        53  -9.8358    151.3817    201.0849   1.0311414743e+02   1.1697177397e+01    0.4097759    0.2489759  56.60  0.002082497    1.692    0.409
        54  -8.7354     65.6286    211.2207   1.2104398677e+02   2.3390362602e+01    0.1470375   0.09700122 -66.95 0.0007117856    1.600    0.375
        55  -9.0190    108.9194    201.4928   1.1164703048e+02   1.8903420715e+01    0.1962462    0.1108798  44.11  0.001028051    1.576    0.365
        56  -9.2755    103.0507    196.8427   1.1223292886e+02   2.0738231438e+01    0.4218653    0.2425826 -37.50  0.001909538    3.129    0.680
        57  -7.8623     67.4770    197.5061   1.1939978704e+02   2.5817760220e+01    0.3630066      0.14562  68.13  0.001365578    3.947    0.747
        58  -7.8216     70.4963    195.9883   1.1865259553e+02   2.5714656371e+01    0.1859991     0.133905 -27.10 0.0009782683    2.898    0.655
        59  -8.7740     17.4226    194.8688   1.2862871374e+02   3.2111612171e+01    0.4058122    0.1701331 -58.94  0.002204187    2.759    0.638
        60  -8.7314    239.6193    192.8113   8.5041185294e+01  -2.9322068106e+00    0.2059054    0.1517517 -30.69 0.0007837148    1.450    0.310
        61 -11.1451    142.0138    164.7104   9.8874653108e+01   2.0322488116e+01    0.5368265    0.4691426 -23.96  0.002987726    1.364    0.267
        62 -11.2930    143.4537    176.3751   1.0067844256e+02   1.7723811772e+01    0.8816529    0.5262642  23.77  0.003712839    2.535    0.605
        63 -10.7874    149.5749    166.3531   9.7527476868e+01   1.8519068243e+01    0.8219073    0.6046125 -24.54  0.004059921    1.789    0.441
        64  -9.0914    249.3158    186.7036   8.2209962667e+01  -3.7613596018e+00    0.2605438    0.1384269  -8.46  0.001180304    2.493    0.599
        65  -8.5957    227.3122    187.0514   8.6102827898e+01  -7.6261131839e-03    0.2856082    0.1683717  43.17  0.001075585    1.629    0.386
        66  -6.9458    210.3260    187.2850   8.9254350786e+01   3.0452967639e+00    0.1372054   0.09446555  14.39  0.000281177    1.604    0.377
        67  -8.1567     41.5578    176.2543   1.2253532231e+02   3.3411837670e+01    0.3002037    0.1468069 -54.38  0.001561744    2.374    0.579
        68  -7.3358    228.2246    177.3504   8.4027776485e+01   1.2248207312e+00    0.1720113    0.1186275  46.09 0.0002792233    1.513    0.339
        69 -10.8388    149.4545    179.6519   9.9979798778e+01   1.5957590783e+01    0.6626105    0.2969503 -46.94  0.002783894    2.445    0.591
        70  -7.7286     24.5808    177.2292   1.2604232425e+02   3.4995307235e+01    0.2373182    0.1075683 -54.00  0.001221456    2.742    0.635
        71  -7.9823     28.3318    175.1521   1.2512745668e+02   3.5056249718e+01    0.2072655    0.1361096  61.14  0.001364365    1.343    0.255
        72 -10.2803    101.0089    176.0004   1.0981966571e+02   2.5298928279e+01    0.1893484    0.1655079  73.93  0.001161403    1.002    0.002
        73  -9.1634    196.1120    174.1068   8.9406943180e+01   7.8529153661e+00    0.2291334    0.1991412  46.28 0.0003620637    1.175    0.149
        74  -9.2156    114.8247    191.1764   1.0906303209e+02   1.9926223895e+01    0.3181762   0.09058501 -53.73  0.001151366    3.712    0.731
        75  -6.9077     81.5388    175.4358   1.1397786525e+02   2.8424208168e+01    0.1267738    0.1120771  81.57 9.458046e-05    1.078    0.073
        76  -7.6085    104.2011    187.7529   1.1079746814e+02   2.2358263521e+01    0.1595582    0.1560901 -23.06 0.0004841095    1.346    0.257
        77  -7.4625     68.4623    172.4738   1.1644066179e+02   3.0902547342e+01    0.1285938    0.1051189  81.09  5.15663e-07    1.025    0.025
        78  -8.1265     78.8992    170.6535   1.1392622393e+02   2.9839183474e+01    0.1789232     0.147922  69.27 0.0003692806    1.081    0.075
        79  -9.8237     56.6795    155.8585   1.1701187637e+02   3.6100855104e+01    0.2610166    0.2332047 -43.33 0.0004723966    1.458    0.314
        80 -12.0443     54.9038    149.8036   1.1664468042e+02   3.7687859556e+01     1.255391    0.6601354  21.24  0.005685137    3.148    0.682
        81  -8.8466     29.5466    158.3003   1.2337069074e+02   3.8564134455e+01    0.3136363    0.1382859  46.50  0.001662456    2.193    0.544
        82 -11.0000     35.9739    161.4829   1.2228464674e+02   3.7210841647e+01    0.5920436    0.3899951 -47.04  0.003519484    1.991    0.498
        83 -10.4502     35.6465    155.2040   1.2171255224e+02   3.8631853811e+01      1.97567    0.5752211 -49.46  0.006332651    6.014    0.834
        84 -10.4107     47.6752    155.5619   1.1903716361e+02   3.7239901054e+01     1.505948    0.3702942 -73.88  0.004368642    5.706    0.825
        85  -7.6995     56.8297    167.3985   1.1837304983e+02   3.3518879849e+01    0.1502761    0.1203676  29.45 0.0009088207    1.623    0.384
        86  -7.1144     93.2770    166.7261   1.1016334152e+02   2.8523319320e+01    0.1328724   0.09311944  74.57 0.0003333863    1.492    0.330
        87  -9.3925    125.6015    165.5012   1.0267366005e+02   2.3256718384e+01    0.3553173    0.1328999  41.60  0.001323162    2.586    0.613
        88 -10.6627     35.1594    147.0062   1.2093188341e+02   4.0517367624e+01     0.481464    0.3890687 -34.31 0.0009976712    1.747    0.428
        89  -9.8667    110.5558    160.3544   1.0519731043e+02   2.7047857640e+01     0.314514    0.2857575  23.19  0.001837235    1.333    0.250
        90 -10.0170     39.8870    145.5839   1.1966034051e+02   4.0349896393e+01    0.4618541    0.2612885  76.61  0.001569288    1.896    0.473
        91  -8.4755     14.4258    160.4100   1.2678100761e+02   3.9504986903e+01    0.2271025    0.2024901  55.03 0.0009696054    1.380    0.276
        92  -8.6176    119.7177    157.9202   1.0265471313e+02   2.5944919020e+01    0.1952216    0.1765706 -78.63 0.0004410334    1.086    0.079
        93  -7.4766    216.2695    157.6203   8.2103398147e+01   6.5746948967e+00    0.1359714    0.1119385 -65.59 0.0006993117    1.691    0.409
        94 -10.8090    157.4063    168.7286   9.6291250792e+01   1.6511548545e+01      1.14168    0.7221193 -33.03  0.005303698    1.941    0.485
        95 -12.0209    141.6244    186.5955   1.0279371941e+02   1.6099068822e+01     1.087829    0.7447567  27.03  0.005533241    1.758    0.431
        96  -8.3970    244.1623    153.9933   7.6344725650e+01   1.7225050592e+00    0.2834059    0.1602025  65.71  0.001067633    3.793    0.736
        97  -8.6588    115.7890    153.7757   1.0281085208e+02   2.7557485153e+01    0.2064216    0.1624235  80.39  0.001079035    1.373    0.271
        98 -10.4455    136.2114    151.7994   9.7677814846e+01   2.4133931374e+01    0.4273434    0.3037848  55.81  0.002093683    1.423    0.297
        99  -8.4893     21.0391    150.9163   1.2454025863e+02   4.0990399535e+01    0.1689606    0.1314493 -89.49            0    1.025    0.025
       100  -7.5127    121.6121    170.7051   1.0445733854e+02   2.2892841722e+01    0.1355697    0.1109711   3.20 0.0007013446    1.775    0.437
       101  -7.8826     72.3093    154.3278   1.1316692899e+02   3.4396629077e+01    0.1257231   0.09937562 -38.83 0.0002207592    1.660    0.398
       102  -7.5634     91.9898    147.0180   1.0729325819e+02   3.3122397288e+01     0.165819    0.1468025 -82.72            0    1.030    0.029
       103  -8.4965    137.4483    145.7136   9.6144568085e+01   2.5184008370e+01    0.2074218    0.1402568 -37.97 0.0009501831    1.664    0.399
       104  -9.7301     75.3464    144.9417   1.1101440433e+02   3.6110755649e+01    0.3817666    0.2157595  42.68  0.001032167    1.818    0.450
       105 -10.6662     68.6374    143.8645   1.1249123806e+02   3.7289425820e+01    0.3868119    0.2952784 -68.17  0.001821908    1.178    0.151
       106 -10.7201     23.1918    157.5006   1.2467396840e+02   3.9348374801e+01     1.616112    0.4476441 -60.34  0.007018654    3.083    0.676
       107  -8.2974    242.7885    145.6336   7.4738563736e+01   3.2421225705e+00    0.1844576    0.1315359  55.83  0.000947737    1.721    0.419
       108  -8.4827    122.4095    144.2097   9.9394016311e+01   2.8437917677e+01    0.2105105     0.136672 -64.78 0.0009560763    1.691    0.409
       109 -10.6352     56.0679    141.9610   1.1529367060e+02   3.9342091547e+01    0.8254299    0.4794947 -21.29  0.002967806    5.222    0.809
       110  -9.8891     58.3432    135.1537   1.1372183756e+02   4.0638775416e+01    0.3524857    0.3283868 -79.64  0.001934226    1.151    0.131
       111  -9.1017     55.4630    137.9654   1.1486755634e+02   4.0338163174e+01    0.3054134    0.1814261  83.99  0.001510566    1.942    0.485
       112  -8.5448     54.0115    133.6507   1.1459359726e+02   4.1512829058e+01    0.2907392    0.2063571 -57.65 0.0007939925    1.329    0.248
       113  -8.0369    241.0078    168.5217   7.9970805916e+01   1.7665387819e-01    0.1951563   0.09943385  24.01 0.0008091518    2.521    0.603
       114  -7.6841    116.3066    141.6730   1.0035798107e+02   3.0141203718e+01    0.1501107    0.1105104  82.89 0.0007036717    1.652    0.395
       115  -9.9102      7.0903    166.6094   1.2873452689e+02   3.8809351894e+01    0.2585619     0.150537 -80.73 0.0004032517    1.328    0.247
       116  -8.3149     47.1732    136.1832   1.1668213001e+02   4.1712736948e+01    0.1786967    0.1509349 -69.16 0.0004238695    1.137    0.120
       117  -9.6393     68.5184    130.7166   1.1038652322e+02   4.0358524721e+01    0.5592287    0.5120799  75.50  0.003522939    1.119    0.107
       118  -9.3714    110.0816    132.1876   9.9951612668e+01   3.3418759250e+01    0.2439933    0.2217976 -72.32 0.0003083385    1.048    0.046
       119  -7.2743     84.4852    133.4896   1.0675032605e+02   3.7409945029e+01    0.1397077    0.1250067 -80.71 0.0002148458    1.004    0.004
       120  -7.2512    160.0764    107.9813   8.1806310275e+01   2.8227059758e+01    0.1769912    0.1744116 -37.54            0    1.008    0.008
       121  -8.5541    216.1584    102.9605   6.9110184124e+01   1.5898149529e+01    0.2419173    0.2148862  46.24 0.0003721653    1.173    0.148
       122 -10.5339    166.1355    248.1631   1.0690353942e+02   2.0074851816e+00    0.9144809    0.3267992  40.01  0.004357507    2.236    0.553
       123  -7.4866    184.4188     78.1999   6.8220146141e+01   2.7936592395e+01    0.2161442     0.142523 -44.83 0.0005034927    1.525    0.344
       124  -9.3434    118.7448     65.1750   7.9411736398e+01   4.6116496755e+01    0.2530923    0.2465039 -14.76 0.0002522798    1.040    0.039
       125  -8.2503    214.8716     54.7039   5.6376059790e+01   2.3990266735e+01    0.2593548    0.2025554 -17.19 0.0009936613    1.410    0.291
       126  -8.0533     94.6660     52.3543   8.2010303143e+01   5.3370351159e+01    0.2240035    0.2031424 -53.61 0.0004128777    1.262    0.208
       127  -7.9976     77.4052     29.7569   7.8830215670e+01   6.0276380270e+01    0.1917788    0.1153963 -22.23 0.0006792945    1.647    0.393
       128  -7.1556     18.2937     27.3083   1.0200868983e+02   6.8169206625e+01    0.1212366   0.06755387 -30.54 0.0003241957    1.585    0.369
       129  -9.1037     84.7262     21.1527   7.2672665459e+01   6.0163991423e+01     0.327394    0.1958341 -34.89  0.001281961    1.678    0.404
       130  -7.7757     30.1555     22.1394   9.4510763311e+01   6.8030288570e+01    0.1462577    0.1246976 -36.76 0.0002951374    1.265    0.210
       131 -10.1378    244.6072    247.9945   9.3622365216e+01  -1.0023928373e+01    0.2909794    0.1987623 -19.41  0.002083796    1.584    0.369
       132  -8.8408    139.9876    247.0232   1.1130726591e+02   6.3102278647e+00    0.2874435    0.1936215 -13.14  0.001490845    3.469    0.712
       133  -8.6813    134.0406    248.1743   1.1246329039e+02   7.0722792410e+00    0.2989325    0.1655454  72.13  0.001507387    2.878    0.653
       134  -8.0376    104.4666     11.5414   6.2782647854e+01   5.7240264516e+01    0.1366028    0.1194326  22.48 5.200022e-05    1.007    0.007
       135  -8.1539    129.4972    242.2787   1.1261305604e+02   8.6541117788e+00    0.3285659     0.193962  71.87  0.001168289    2.250    0.556
       136  -8.5899    104.9302    247.3186   1.1736699777e+02   1.1603041592e+01    0.2266461     0.168171  60.87  0.001113748    1.064    0.060
       137 -10.2420    238.2329    246.6578   9.4456805071e+01  -8.9762392605e+00    0.3425904    0.1886256  41.69  0.002125383    1.643    0.391
