#   1 NUMBER                 Running object number                                     
#   2 MAG_AUTO               Kron-like elliptical aperture magnitude                    [mag]
#   3 X_IMAGE                Object position along x                                    [pixel]
#   4 Y_IMAGE                Object position along y                                    [pixel]
#   5 X_WORLD                Barycenter position along world x axis                     [deg]
#   6 Y_WORLD                Barycenter position along world y axis                     [deg]
#   7 A_WORLD                Profile RMS along major axis (world units)                 [deg]
#   8 B_WORLD                Profile RMS along minor axis (world units)                 [deg]
#   9 THETA_WORLD            Position angle (CCW/world-x)                               [deg]
#  10 FWHM_WORLD             FWHM assuming a gaussian core                              [deg]
#  11 ELONGATION             A_IMAGE/B_IMAGE                                           
#  12 ELLIPTICITY            1 - B_IMAGE/A_IMAGE                                       
         1 -13.5500    166.6792     56.3819   6.5112071441e+01   3.6116552848e+01     2.063523     1.352232  22.42  0.005965577    2.095    0.523
         2 -13.2799    180.5658     41.9083   5.7998287128e+01   3.4667212916e+01    0.9768606    0.8765582 -37.62  0.003051199    1.126    0.112
         3 -11.4414    189.8003     14.7155   4.8357449345e+01   3.5597726980e+01    0.3628452    0.3068808  44.83  0.001104105    1.248    0.199
         4 -13.9267    201.6297     10.4964   4.5735127273e+01   3.2981604393e+01     1.267015     1.081273  -8.87  0.004919851    1.369    0.269
         5 -13.0659    225.7424      3.6291   4.1543425665e+01   2.7642416412e+01     2.054403    0.4874475  75.02  0.006416121    4.384    0.772
         6 -11.1419     15.7116    213.5261   1.3000582608e+02   2.8706625372e+01    0.1254477     0.108051  64.43 0.0008752836    1.407    0.289
         7 -11.0453    248.6944    249.9132   9.3255689936e+01  -1.0784068092e+01    0.5219285    0.1395577  41.41  0.002341939    3.136    0.681
         8 -12.0106    248.6584    244.9625   9.2501366638e+01  -1.0301621259e+01    0.4691825    0.2674285  15.81  0.002949234    1.628    0.386
         9 -18.8112     46.6254    238.0773   1.2635662764e+02   2.0924067783e+01     5.761076     4.537794  77.52   0.03749176    1.191    0.160
        10 -10.6860    153.3318    184.2820   9.9974497879e+01   1.4356345968e+01    0.2781076    0.1718289 -58.29  0.001347173    1.933    0.483
        11 -11.1622    204.2558    200.6250   9.2836554919e+01   2.1692860469e+00    0.2492164    0.1483399  33.53  0.001298217    1.515    0.340
        12 -11.7409    145.8097    182.6632   1.0126474624e+02   1.6070589996e+01    0.3888135    0.2590172  54.17  0.001317639    1.450    0.310
        13 -12.5470    142.7238    173.7168   1.0036574317e+02   1.8383602646e+01    0.7210953    0.5078985 -62.38  0.002873697    1.603    0.376
        14 -11.1762    188.8704    176.6189   9.1329653899e+01   8.8503795286e+00    0.6910489    0.3813288 -54.62  0.002405067    2.536    0.606
        15  -9.8360    223.1270    198.1450   8.8943696010e+01  -8.1678200337e-01    0.2020493    0.1532193  12.79 0.0006132759    1.228    0.186
        16 -11.0277      1.6260    177.1482   1.3045805198e+02   3.7082106928e+01     0.138128   0.09501714 -88.37 0.0002695005    1.113    0.101
        17  -9.4955    240.3394    169.3127   8.0250301426e+01   1.8388495357e-01    0.1414541   0.09307432  10.07 0.0002586407    1.696    0.410
        18  -9.7788    187.0733    165.9331   8.9554228064e+01   1.1064203615e+01    0.3441957    0.1963177 -50.66  0.001491006    2.100    0.524
        19 -11.8811    151.2668    195.8415   1.0231340437e+02   1.2640235963e+01    0.4359871    0.2622443  45.54  0.002236303    1.461    0.316
        20 -10.7751    160.8008    205.9886   1.0202393937e+02   9.1758204592e+00    0.2413849    0.1683103  42.60 0.0006557156    1.231    0.188
        21 -11.1790     96.8739    156.5491   1.0773647900e+02   3.0189467263e+01    0.2680598    0.2408861 -84.29 0.0003493074    1.048    0.046
        22 -12.2641    101.3792    150.4099   1.0561989820e+02   3.0816659891e+01    0.6847027    0.4637315 -42.30   0.00338567    1.736    0.424
        23 -10.3748    113.5824    151.8918   1.0298304766e+02   2.8367753847e+01    0.3845428    0.2437804  81.68  0.001488146    2.322    0.569
        24 -11.1464    133.8760    145.4285   9.6921341731e+01   2.5954697801e+01     1.168585    0.2949513 -54.63  0.002912811    5.634    0.823
        25  -9.5113    174.8686    149.1377   8.8520772298e+01   1.6705611604e+01    0.2227639    0.2026126  84.86 0.0006166514    1.262    0.207
        26 -10.4531    143.7263    146.6540   9.4888084070e+01   2.3719437156e+01    0.4048569    0.1997913 -55.40  0.001572826    2.299    0.565
        27 -10.1851    156.8876    190.0130   1.0022076873e+02   1.2646004895e+01    0.2020395    0.1821373  45.05 0.0003331412    1.016    0.016
        28 -11.5747    111.1231    137.2377   1.0073587824e+02   3.2085603825e+01    0.5189995    0.3767633 -34.55  0.002177235    1.683    0.406
        29 -11.8136    100.2448    136.2275   1.0325796386e+02   3.4227223771e+01    0.2612242    0.2492204  74.34 0.0003818331    1.080    0.074
        30 -11.2141    106.0440    130.8645   1.0069966801e+02   3.4445573189e+01    0.3937243    0.3213561 -72.86  0.001211881    1.224    0.183
        31 -10.1499    135.7599    128.8342   9.2825649553e+01   2.9172671644e+01    0.3541784     0.126526 -49.23  0.001165996    2.838    0.648
        32 -10.4368    117.2700    128.4643   9.7329026224e+01   3.2925212655e+01     0.287873    0.2439583 -24.07 0.0006722907    1.418    0.295
        33 -10.1045    160.7772    127.6320   8.6653912364e+01   2.4053793448e+01    0.3086745    0.2569873 -64.31  0.001381096    1.336    0.251
        34 -10.4154    105.3018    123.9687   9.9412398382e+01   3.6155650904e+01     0.284155    0.2307017 -35.65 0.0007266587    1.378    0.274
        35  -9.8638    121.2129    122.7960   9.5039265703e+01   3.3436682541e+01    0.3060203    0.2165547  -9.85  0.001270704    2.369    0.578
        36  -9.3925    135.0000    119.9810   9.0901053282e+01   3.1258987114e+01     0.254997   0.08601947 -46.35 0.0008003948    2.928    0.659
        37  -9.5344    111.9525    117.9740   9.6305639202e+01   3.6301919336e+01    0.2167273    0.2127327 -67.02 0.0003422725    1.054    0.051
        38  -9.8913    231.2213    113.7908   6.9243150968e+01   1.0689675798e+01    0.2500588    0.2329168  21.80  0.000787463    1.102    0.092
        39 -10.0727    168.2059    113.0162   8.1299822872e+01   2.5326040548e+01    0.3812473    0.2824199 -69.37  0.001382185    1.754    0.430
        40 -10.5805    134.7262    105.7023   8.7315392059e+01   3.4405375777e+01     0.682084    0.1409244 -45.62  0.001683466    4.784    0.791
        41 -11.0524    117.5003    109.5754   9.2790936843e+01   3.7121553882e+01    0.3916211    0.2660436  61.21  0.001753615    1.754    0.430
        42  -9.7867    205.5846    110.0927   7.2869124327e+01   1.7111468095e+01    0.2857773    0.2207517  41.72 0.0006482226    1.329    0.248
        43  -9.3026     78.0051    104.7460   1.0261137077e+02   4.5087888056e+01    0.1867166    0.1772688 -68.06 0.0004133421    1.064    0.060
        44 -11.4305    192.0102    204.8050   9.5851409960e+01   3.7474593757e+00    0.5077685    0.1355726  36.80  0.001580875    4.313    0.768
        45  -9.2825    127.5923     95.2016   8.6270676384e+01   3.8177532818e+01    0.2135737    0.1436635 -33.01  0.000570626    1.585    0.369
        46 -10.1936     78.8717     75.1636   9.4622304134e+01   5.1584968850e+01    0.2598613    0.1892669  52.47  0.001142049    1.665    0.399
        47  -9.4035    162.7652    235.1782   1.0583532759e+02   4.3377521259e+00    0.1722073    0.1519907 -56.47 0.0007812429    1.433    0.302
        48 -11.3713    192.5516    194.3453   9.3924402650e+01   5.2518893436e+00    0.9889013    0.5224121 -62.46  0.003323334    5.244    0.809
        49 -12.6510    185.5956     34.9405   5.5042118898e+01   3.4290250970e+01    0.5974993    0.5274193   7.79  0.001478105    1.281    0.219
        50  -9.2665     13.6477     59.9526   1.1342104768e+02   6.1951971379e+01    0.1673485    0.1159027 -59.50 0.0003979259    1.124    0.110
        51 -10.7558    167.3394    227.2198   1.0392227049e+02   4.7251609229e+00    0.2996275     0.187808 -43.51  0.001304966    1.963    0.491
        52 -19.1582     34.4972    103.9425   1.1516447936e+02   5.0494593997e+01     16.51077    0.6839296 -65.19   0.02562996   17.758    0.944
