#   1 NUMBER                 Running object number                                     
#   2 MAG_AUTO               Kron-like elliptical aperture magnitude                    [mag]
#   3 X_IMAGE                Object position along x                                    [pixel]
#   4 Y_IMAGE                Object position along y                                    [pixel]
#   5 X_WORLD                Barycenter position along world x axis                     [deg]
#   6 Y_WORLD                Barycenter position along world y axis                     [deg]
#   7 A_WORLD                Profile RMS along major axis (world units)                 [deg]
#   8 B_WORLD                Profile RMS along minor axis (world units)                 [deg]
#   9 THETA_WORLD            Position angle (CCW/world-x)                               [deg]
#  10 FWHM_WORLD             FWHM assuming a gaussian core                              [deg]
#  11 ELONGATION             A_IMAGE/B_IMAGE                                           
#  12 ELLIPTICITY            1 - B_IMAGE/A_IMAGE                                       
         1  -8.8401     48.3862     21.2305   6.1336264230e+01   6.5488192953e+01    0.2253005     0.189925 -17.66  0.001032112    1.317    0.241
         2  -8.4577     38.7750     16.9965   6.3681564048e+01   6.7454008317e+01    0.3132247    0.1460933 -40.99  0.001498604    2.752    0.637
         3  -8.2290     97.3260     14.9048   4.2920823634e+01   5.6864918437e+01     0.210352    0.1048993 -34.77 0.0009565064    2.347    0.574
         4  -8.4740     55.9227      9.9238   5.3474617297e+01   6.5472056937e+01     0.157432    0.1464623  71.88 0.0004774296    1.635    0.388
         5  -8.2193     90.8447      8.7626   4.2326145571e+01   5.8784406740e+01    0.1584006    0.1379197  78.61 0.0005831588    1.364    0.267
         6  -8.0869     28.0227      9.5203   6.5358918483e+01   6.9830727196e+01    0.1367077   0.09531841  48.93  0.000551194    2.337    0.572
         7  -9.0591      5.8567      8.3133   7.6930050709e+01   7.2453378776e+01    0.1619502    0.1204029  18.93  0.001173395    1.442    0.307
         8  -7.4592    101.3270      7.7078   3.9500264762e+01   5.6631310668e+01    0.1164514   0.09116399 -85.32 0.0006735937    1.621    0.383
         9  -8.4329     33.1717      4.3130   6.0382665369e+01   6.9688595734e+01    0.1843511    0.1489447 -46.94  0.001224089    2.185    0.542
        10  -8.2311     79.1757      3.7927   4.3502299574e+01   6.1598453388e+01    0.1830211    0.1568098 -31.34  0.001265977    1.470    0.320
        11  -7.5266    115.6533      2.3197   3.4883710337e+01   5.3903789333e+01    0.1212768   0.08641834 -78.29 0.0007049114    1.731    0.422
        12  -7.8091     44.3783      2.7088   5.4720892055e+01   6.8111247358e+01    0.1016833   0.09050972  60.46  0.000701988    1.739    0.425
        13  -8.0321     62.7031      1.5016   4.7481753694e+01   6.4991391610e+01    0.1501562    0.1019018  56.65    0.0009222    1.525    0.344
        14  -9.3860    120.1606    245.2170   9.2534135077e+01   5.8977026916e+00    0.4042595     0.267121  76.81  0.001801938    2.523    0.604
        15  -9.9459    246.5558    228.9338   6.3640495161e+01  -8.6510680810e+00    0.4597936    0.1986766 -38.25  0.001958793    2.023    0.506
        16 -10.3299    248.5809    241.9709   6.5493426556e+01  -1.0781130751e+01    0.4550844    0.1876528 -41.76  0.002159356    2.445    0.591
        17  -8.2354    191.7857    249.7533   7.7629321562e+01  -5.1011472753e+00    0.1611394    0.1393867  29.56 0.0006259984    1.370    0.270
        18  -9.1029     68.2432    245.8977   1.0421552160e+02   1.2950907001e+01    0.3791194    0.1914587  72.49  0.001615852    2.931    0.659
        19  -9.7642     11.0406    245.7245   1.1605905144e+02   1.9434868562e+01    0.4469756    0.1750393  63.73  0.002137439    2.521    0.603
        20  -8.6973    139.4852    244.4527   8.8083143332e+01   3.2118667124e+00    0.2048312     0.135012 -68.14 0.0009271863    2.217    0.549
        21  -8.6773    201.8901    243.0118   7.4483486904e+01  -5.3492628978e+00    0.2654657    0.1689953 -48.83 0.0008360564    2.009    0.502
        22  -8.9182    169.2142    243.2586   8.1354685888e+01  -8.9786616439e-01    0.2303416    0.1979454  41.17 0.0007169913    1.371    0.271
        23  -9.3584     78.0106    243.2185   1.0178896529e+02   1.2229672011e+01     0.347021    0.1794367  59.98  0.001387552    2.316    0.568
        24  -8.3380     58.3502    244.0323   1.0619289657e+02   1.4585667198e+01    0.2055078   0.09029498  81.56 0.0007047774    4.429    0.774
        25  -9.8928    160.0040    241.0029   8.3010045404e+01   8.3689246632e-01    0.4590237    0.2360226 -52.42  0.001388738    2.348    0.574
        26  -8.2316     49.5104    242.9831   1.0800477864e+02   1.5876181845e+01    0.1801793   0.09016219  75.06 0.0008096633    2.533    0.605
        27  -9.0094    194.4369    240.3143   7.5555826499e+01  -3.9149458699e+00    0.3625564    0.2109156 -51.51  0.001466749    2.295    0.564
        28  -9.2843    183.0168    239.7851   7.7849617960e+01  -2.2502991190e+00    0.3544545    0.2806245  66.09  0.001714529    2.234    0.552
        29  -8.0800    184.3490    235.3393   7.6836076572e+01  -1.6686861545e+00    0.1396422    0.1158163   2.17 0.0008415877    1.014    0.014
        30  -8.4555     88.1488    241.9692   9.9376458184e+01   1.1114140586e+01     0.200441    0.1585591  64.90 0.0007546142    1.301    0.232
        31  -7.5863    153.3358    241.6684   8.4584873349e+01   1.6926651563e+00    0.1314514    0.1015612  57.81  0.000705216    1.734    0.423
        32  -9.1071    241.4082    238.0872   6.6115096457e+01  -9.4277073644e+00    0.5062997    0.1974923 -22.86  0.002034493    3.461    0.711
        33  -8.2486    146.2054    239.2047   8.5804069560e+01   3.2079105515e+00    0.1757357    0.1555742  57.61 0.0005248495    1.380    0.275
        34  -9.0393    135.7865    238.5421   8.8061939684e+01   4.8903600114e+00    0.2355163    0.1866997 -84.68 0.0009410904    1.803    0.445
        35  -7.7150     41.0000    239.0374   1.0949998173e+02   1.7703062024e+01    0.1869147   0.06623796 -71.85 0.0005261585    2.848    0.649
        36  -8.7953    230.7814    236.9117   6.7857293406e+01  -8.0171782632e+00    0.2478324     0.213291 -73.91  0.001234708    2.444    0.591
        37  -8.0499    209.1622    238.1867   7.2226155090e+01  -5.5219627207e+00    0.1573849    0.1455621 -18.40 0.0006066373    1.378    0.274
        38  -8.5225     25.7037    236.8536   1.1256138527e+02   1.9834310561e+01    0.2842965    0.1162994  73.06  0.001177483    3.129    0.680
        39  -9.1492    217.3260    235.6858   7.0202606049e+01  -6.1702960745e+00     0.226056    0.2013586  49.31  0.001459314    1.788    0.441
        40  -9.4160    213.6630    231.6178   7.0220280516e+01  -5.0444074829e+00    0.3288777    0.2814789 -73.81  0.001003345    2.179    0.541
        41  -8.9888    203.2980    234.6222   7.2796543154e+01  -4.1655995503e+00    0.3055405     0.209694 -53.93  0.001125928    2.093    0.522
        42  -9.8524    175.6688    233.1526   7.8330181083e+01  -3.1719913594e-02    0.4886946    0.2734886 -57.54  0.002139418    2.665    0.625
        43  -8.2749    170.1767    235.7009   7.9940320978e+01   3.1046172359e-01    0.2015532     0.154936  39.56 0.0006223467    1.406    0.289
        44  -8.1410     18.9994    236.2471   1.1390487831e+02   2.0646088028e+01    0.1521059   0.09254932  34.76 0.0008908336    1.608    0.378
        45  -8.6922    195.2553    233.4069   7.4231861587e+01  -2.8645915905e+00    0.3946038    0.2884856  75.29  0.001710009    3.856    0.741
        46  -8.3062    152.8335    234.8830   8.3650341187e+01   3.0363716991e+00    0.1751968    0.1590519  48.04 0.0006152523    1.297    0.229
        47  -9.6278    108.8935    234.1705   9.3647823382e+01   9.7778701804e+00    0.5135469    0.2675286  53.00  0.001157112    2.287    0.563
        48  -8.7724     99.7942    234.1124   9.5758663232e+01   1.1116617446e+01    0.2578276    0.1885891 -88.81  0.001364997    1.721    0.419
        49  -9.1775     78.6673    234.4049   1.0068335425e+02   1.4010830534e+01    0.2782385    0.1958017  67.62  0.001508299    1.537    0.350
        50  -8.6742    122.8797    233.5771   9.0311995216e+01   7.8172722557e+00    0.2555517    0.1871432 -85.82  0.000960677    1.964    0.491
        51  -9.6762     68.6176    232.2520   1.0275371834e+02   1.5812217936e+01    0.5387141    0.2423054  62.11  0.002058605    3.216    0.689
        52 -10.8190      9.1694    231.0928   1.1559272765e+02   2.2698867965e+01    0.4793899    0.2553592 -77.90  0.002732902    1.702    0.412
        53  -9.0324    140.2409    230.1171   8.5775697079e+01   5.8763477926e+00    0.3948268    0.3362393 -64.85  0.001599169    1.438    0.305
        54  -8.6408    132.8529    233.0038   8.7918514461e+01   6.4257671782e+00    0.2098909    0.1800914  56.00 0.0009403238    1.324    0.245
        55  -8.6053     92.8186    231.8090   9.7096063280e+01   1.2607507576e+01    0.4125402     0.209855  63.44  0.001151698    3.141    0.682
        56  -8.3037    157.7828    231.8091   8.2051477421e+01   2.8750496763e+00    0.1771302    0.1567611  47.86 0.0004740357    1.340    0.254
        57  -9.0835    236.2418    230.0188   6.5672484142e+01  -7.6134306410e+00    0.4046874     0.180564 -35.69  0.001284774    1.957    0.489
        58  -9.0008      1.6571    230.5313   1.1707436064e+02   2.3495042730e+01    0.2100542    0.1070812  74.42  0.001154809    1.788    0.441
        59  -9.9068    149.8005    226.1704   8.2951690778e+01   5.1891798078e+00     0.642704     0.414696 -85.12  0.002433884    3.873    0.742
        60  -9.8271    127.9331    228.6610   8.8415765971e+01   8.0583848339e+00    0.3997589    0.2543967 -61.52  0.001420953    1.894    0.472
        61  -7.9853    229.6108    228.2693   6.6591055240e+01  -6.5355905556e+00     0.173357    0.0985625 -29.21 0.0008025392    1.536    0.349
        62  -9.1237    162.3694    227.7326   8.0359084269e+01   2.9563964217e+00    0.3123516    0.2219753  55.37  0.001310746    1.950    0.487
        63  -8.7569    206.0128    225.8397   7.0736047829e+01  -3.0577699714e+00    0.2635355    0.1738105 -55.43 0.0006571556    2.242    0.554
        64  -8.0662    119.9875    227.0453   9.0047351571e+01   9.6093429481e+00    0.2185116    0.1619112  63.75 0.0006559151    1.674    0.402
        65  -8.1578     49.3877    226.4013   1.0655708151e+02   1.9505123763e+01    0.2625251    0.1384468  63.70  0.001229599    2.094    0.523
        66  -8.2937    200.0223    225.8335   7.1949603361e+01  -2.2265512887e+00    0.2157149    0.1634371 -48.87 0.0006746069    1.635    0.388
        67  -8.6956    180.7657    224.0215   7.5683265261e+01   8.8110613310e-01    0.2917069    0.2468881  64.99  0.001070645    1.796    0.443
        68  -9.0640     93.8997    223.6896   9.5804062390e+01   1.4226948102e+01    0.4159218    0.2438096  66.01  0.001528385    2.384    0.581
        69  -7.7756     71.5067    225.4952   1.0134775498e+02   1.6931860820e+01    0.1319702    0.1224781  56.33 0.0008103346    1.039    0.037
        70  -8.8527    216.4940    223.2049   6.8200308279e+01  -4.0302741017e+00     0.256402    0.2061644 -59.06 0.0009297204    1.946    0.486
        71  -8.7306    173.1547    222.9204   7.7152205153e+01   2.2306437169e+00    0.2518931    0.1909731 -58.04 0.0008332103    1.726    0.420
        72  -8.0383    113.9628    223.9443   9.1029268048e+01   1.1187541030e+01    0.2209733    0.1603151  62.96 0.0006431153    1.672    0.402
        73  -9.0672    104.7580    223.4084   9.3159498193e+01   1.2691880707e+01     0.346847    0.2258262  72.88  0.001569909    2.226    0.551
        74  -8.3590     38.3973    224.2693   1.0884546111e+02   2.1245661629e+01     0.175842    0.1093636  88.70 0.0005796971    1.615    0.381
        75  -9.1783    158.9236    220.1509   7.9866429448e+01   4.9623573518e+00     0.289026    0.2308109  68.21  0.000609058    1.848    0.459
        76  -8.4007    140.5719    222.7304   8.4535320874e+01   7.3199867147e+00    0.1762731    0.1397272 -66.44 0.0006325401    1.581    0.368
        77  -8.3003     59.6922    223.3699   1.0388453692e+02   1.8935023538e+01    0.2174822    0.1326685  61.36 0.0007326343    1.708    0.415
        78  -9.2843    239.2352    221.2681   6.3606131539e+01  -6.6116124165e+00    0.3386223    0.2414674 -31.18  0.001438916    1.252    0.201
        79  -9.3272    225.4735    221.5356   6.6185383350e+01  -4.9314958066e+00    0.2254598    0.1905024 -31.82 0.0006729464    1.322    0.243
        80  -9.2091    192.3572    221.2033   7.2724190533e+01  -3.1363657735e-01    0.2895472    0.2501685 -71.60  0.001134965    1.802    0.445
        81  -9.4226    186.6391    230.6860   7.5570174401e+01  -1.1786082228e+00    0.3763942    0.2891147 -79.28  0.001607814    2.629    0.620
        82  -9.1379    120.7604    219.2802   8.8703146406e+01   1.1148770963e+01    0.5123665    0.2776117  60.19  0.001917806    3.082    0.676
        83  -8.8653     82.7931    220.3152   9.8043456274e+01   1.6565462214e+01    0.2982881    0.1995021  71.89  0.001211068    1.809    0.447
        84  -8.5248     73.4639    220.9503   1.0036177964e+02   1.7699098446e+01    0.2918174    0.1269725  58.72    0.0010357    3.345    0.701
        85  -8.2062     27.5643    220.7752   1.1097321361e+02   2.3194659776e+01    0.2272738     0.106412 -69.33  0.001030496    1.986    0.497
        86  -8.2341    202.6783    220.0015   7.0379751343e+01  -1.5836688371e+00    0.1867847    0.1509157 -21.20 0.0003659853    1.115    0.103
        87  -8.5548    210.1452    218.8995   6.8682621270e+01  -2.4380954120e+00    0.2237722     0.200887 -29.78 0.0008443043    1.302    0.232
        88  -8.7173    249.2124    249.5978   6.6642403045e+01  -1.1915019998e+01    0.2593654    0.1443768 -11.53  0.001528305    1.667    0.400
        89  -8.3422    151.1628    218.0101   8.1288603585e+01   6.6152530416e+00    0.2214285    0.1809485 -10.24  0.001036571    1.249    0.199
        90  -9.2170    132.9846    215.8077   8.5215040240e+01   9.9699275054e+00    0.5161933    0.3311039  77.24   0.00198636    3.246    0.692
        91  -8.6982     62.2484    217.2024   1.0261772004e+02   2.0027904892e+01    0.3449005    0.1777311  67.02 0.0009569735    2.596    0.615
        92  -9.0211     51.4661    217.2204   1.0518098644e+02   2.1354683231e+01     0.250633    0.1992191 -87.31 0.0007317144    1.213    0.175
        93  -8.0244    179.1820    217.2357   7.4839250202e+01   2.3877613115e+00    0.1743722    0.1685652  64.44 0.0007992646    1.389    0.280
        94  -8.6967    169.4836    216.1502   7.6789501957e+01   4.0968312595e+00    0.2857332    0.2288257 -78.52  0.001243717    1.976    0.494
        95  -8.7006    142.9511    216.1618   8.2900946293e+01   8.3040170137e+00    0.3027156    0.2278537  84.67   0.00130968    2.133    0.531
        96  -8.2643    111.8267    216.9582   9.0518712340e+01   1.3041530640e+01    0.2332253     0.163963  78.39  0.001082398    2.029    0.507
        97  -8.2405    144.3649    232.6796   8.5225593640e+01   4.7408146103e+00     0.234965    0.1504772  55.85  0.001092059    2.142    0.533
        98  -8.8851    232.3995    214.3430   6.3614445305e+01  -4.6451761503e+00    0.2609277     0.194315 -45.67  0.001011428    1.597    0.374
        99  -8.1963    154.7962    215.0464   7.9940957415e+01   6.6407469992e+00    0.2142837    0.1697117  86.02  0.001057486    2.001    0.500
       100  -9.1848     93.4173    213.8225   9.4590210562e+01   1.6525893779e+01    0.4958512    0.2525584  58.41  0.001632582    2.733    0.634
       101  -8.1651     41.3876    215.2026   1.0734726648e+02   2.2992052917e+01    0.1895933    0.1130462 -89.11 0.0009526655    1.741    0.426
       102  -8.3537    185.4989    214.0989   7.2912009139e+01   2.0160680817e+00    0.1984789    0.1914356  31.30  0.000723733    1.307    0.235
       103  -9.4807     73.0441    211.7206   9.9349743570e+01   1.9893140071e+01    0.6308167    0.2612114  57.96  0.002074417    3.846    0.740
       104  -9.4585    213.9568    211.7806   6.6644678927e+01  -1.7342189653e+00     0.343471    0.3120952 -62.77  0.001399976    1.630    0.386
       105  -8.0333    224.6544    211.9201   6.4615556488e+01  -3.2249832190e+00    0.1757935    0.1092075 -45.62 0.0006339971    1.742    0.426
       106  -9.1983    204.5044    210.8910   6.8363470412e+01  -2.2671040925e-01    0.3141553    0.2610032 -61.32 0.0007835553    1.743    0.426
       107  -8.8577    161.7180    211.9601   7.7807943862e+01   6.1596967776e+00    0.2378659    0.1998524 -67.90 0.0008486093    1.570    0.363
       108  -7.9162    106.7025    212.5767   9.1123256288e+01   1.4812473201e+01    0.2042809    0.1236691  42.92 0.0009377113    1.587    0.370
       109  -8.4345      8.3340    211.6757   1.1454521904e+02   2.7099083544e+01     0.216479   0.09119017  62.00 0.0007062186    2.448    0.592
       110  -9.1452      5.8487    208.0124   1.1484575297e+02   2.8153661525e+01    0.2625263    0.1232602  70.62  0.001096404    2.180    0.541
       111  -8.3317    192.4847    210.4626   7.0765989426e+01   1.6364736590e+00    0.2233173    0.1300295 -53.62 0.0007199562    2.201    0.546
       112  -9.3752    175.4736    209.6689   7.4296742271e+01   4.4240351898e+00    0.3882201    0.3008794  73.70   0.00150406    2.235    0.552
       113  -8.6575    148.0753    210.5039   8.0727295599e+01   8.6645617740e+00    0.2823473    0.2267663  82.75  0.001172937    1.842    0.457
       114  -9.1063    116.1881    210.0212   8.8381907787e+01   1.3911785227e+01    0.3264206     0.243631  82.23 0.0008601953    1.837    0.456
       115  -8.0346     32.3877    210.1864   1.0898870354e+02   2.5142728083e+01    0.1894664    0.1083728  88.18 0.0008987613    1.797    0.443
       116  -9.2139    236.4822    207.8786   6.1706283453e+01  -4.1067278889e+00    0.3120402    0.1959384 -47.54 0.0009711292    1.825    0.452
       117  -8.2849     85.3855    208.9449   9.5917264240e+01   1.8827268160e+01    0.2848209    0.1857573  78.70 0.0007977826    2.042    0.510
       118  -8.2318     46.3688    209.2150   1.0557924804e+02   2.3833702848e+01    0.1903383    0.1162735 -87.37  0.000605051    1.718    0.418
       119  -9.4443    246.3677    206.9931   5.9808276047e+01  -5.2118795979e+00    0.3124005    0.1753931 -38.82 0.0006324972    1.554    0.357
       120  -9.4848    250.2184    201.4586   5.8153365499e+01  -4.7959377076e+00    0.4323396    0.1588423 -37.53  0.001765177    2.253    0.556
       121  -8.2398    139.1763    207.7445   8.2375784818e+01   1.0706183355e+01    0.2570172    0.1749517 -70.90  0.000776813    2.080    0.519
       122  -8.1779    126.6529    208.1503   8.5496482776e+01   1.2656653698e+01    0.2182224    0.1864208 -89.28   0.00111052    1.452    0.311
       123  -9.0883     99.3429    205.5445   9.1910361804e+01   1.7560196961e+01    0.4363458    0.2731355  87.11  0.001181776    2.532    0.605
       124  -8.7057    131.1832    203.9113   8.3666237887e+01   1.2861312636e+01    0.3210449    0.2329247  87.89  0.000956047    2.155    0.536
       125  -8.1974    109.1726    205.1653   8.9368061374e+01   1.6126464064e+01    0.2019731    0.1692744  70.00 0.0007844848    1.359    0.264
       126  -9.3931    194.8783    203.2859   6.8933405689e+01   2.6188176717e+00    0.3922096    0.2709582 -27.51  0.001447031    1.367    0.268
       127  -9.7868    192.4423    197.1126   6.8275751315e+01   4.1810719836e+00    0.4322006    0.3402255 -70.66 0.0009955782    1.966    0.491
       128  -8.9011    183.7867    203.6115   7.1356988407e+01   4.2922831258e+00    0.2848106    0.2357779  58.14  0.001073606    1.669    0.401
       129  -9.5725    163.6090    202.6789   7.5696908126e+01   7.7514543491e+00    0.4002245    0.2832892  52.99  0.001011842    1.802    0.445
       130  -9.1090    243.1829    200.6325   5.9203696753e+01  -3.7730593022e+00    0.3323605    0.1672096 -40.79  0.000957153    1.747    0.428
       131  -8.4686    210.9563    201.6683   6.5362513776e+01   4.9471278840e-01     0.248965    0.1712116 -54.93 0.0007305908    1.919    0.479
       132  -8.9086    140.5938    200.9991   8.0849487430e+01   1.1945035212e+01    0.3604389    0.2703299  75.95  0.001332847    2.025    0.506
       133  -8.4617     80.1607    201.2151   9.6176186503e+01   2.1414653401e+01    0.3803088    0.2101097  71.02  0.001027289    2.900    0.655
       134  -8.2470    222.0844    201.0654   6.3101473664e+01  -1.0011017337e+00    0.1841843      0.16207 -63.43 0.0006978456    1.669    0.401
       135  -9.2732    237.1645    198.2331   5.9815743532e+01  -2.5836974049e+00    0.3435606    0.1562359 -44.43  0.001260312    2.102    0.524
       136  -9.4108    149.5788    198.5149   7.8227091468e+01   1.0978002667e+01    0.4384785    0.3103496 -83.28  0.001262401    2.462    0.594
       137  -8.7162    124.1197    199.1080   8.4598785869e+01   1.5111581265e+01    0.3366765    0.2476408  83.80  0.001140976    1.999    0.500
       138  -9.3953    112.9412    198.2235   8.7285422121e+01   1.7142354212e+01    0.4716015    0.2957253  67.67  0.001686901    2.489    0.598
       139  -8.8954    176.9656    198.5132   7.1894326962e+01   6.4040851585e+00    0.2545707    0.2004595 -59.54 0.0006302336    1.598    0.374
       140  -8.3718     56.6220    205.2942   1.0264664962e+02   2.3547570098e+01    0.3759087    0.1889895  62.43  0.001540191    2.520    0.603
       141  -9.1888     88.8046    198.0846   9.3493314846e+01   2.0920438530e+01    0.4358843    0.2825857  84.81  0.001416285    2.165    0.538
       142  -8.4423    202.4907    197.6830   6.6303795071e+01   2.5021873809e+00    0.2375421    0.2104035  72.15  0.000801394    1.709    0.415
       143  -9.4613     61.3174    196.9533   1.0045695027e+02   2.4988981977e+01    0.4325768    0.2512593  67.89  0.001663414    2.161    0.537
       144  -7.9574     29.4620    197.4925   1.0852268086e+02   2.8477279387e+01    0.1333795    0.1125545  78.13 0.0001130108    1.065    0.061
       145  -8.8030     12.3838    196.4858   1.1252622243e+02   3.0305960631e+01    0.3118622    0.1103981 -82.55  0.001232472    2.868    0.651
       146  -9.8399    246.0389    192.9487   5.7302366495e+01  -2.8678691834e+00    0.4656594    0.2458179 -42.65  0.002090294    1.708    0.415
       147  -8.7698    215.9846    195.5029   6.3216747780e+01   8.7098034863e-01    0.2444888    0.1778417 -51.68 0.0008091481    1.648    0.393
       148  -7.5184     36.2925    196.6277   1.0675679199e+02   2.7984856577e+01    0.1445405   0.08879173  68.06  0.000702478    1.728    0.421
       149  -8.8133    224.5921    193.6914   6.1244562797e+01  -5.6840507272e-02    0.3400448    0.1415287 -46.93  0.001418575    2.492    0.599
       150  -8.7418    185.3717    194.6697   6.9316510020e+01   5.7982753225e+00    0.2525677    0.2229274 -51.05 0.0006648565    1.323    0.244
       151  -9.0975    161.0859    194.2079   7.4694962475e+01   9.9522720106e+00    0.3403049    0.2538931  73.18  0.001296868    2.196    0.545
       152  -8.4788    230.9109    194.0981   6.0163364302e+01  -1.0218139022e+00    0.1900842    0.1635482 -37.30 0.0005362277    1.270    0.213
       153  -8.8542     77.0977    193.7750   9.5920880260e+01   2.3661587044e+01    0.2766952    0.2256557  69.17 0.0005459564    1.291    0.226
       154  -8.9560     43.9140    192.9617   1.0444522273e+02   2.8056956684e+01     0.450124     0.240045  70.67  0.001702703    2.384    0.580
       155  -8.2523    199.0797    191.8240   6.5874602929e+01   4.1469863399e+00    0.1946704    0.1898182 -60.31 0.0005640484    1.327    0.246
       156  -8.2767    179.1467    191.4753   7.0058732587e+01   7.4693443870e+00     0.223928    0.1973186 -59.01 0.0005746375    1.378    0.274
       157  -8.4787    172.7849    191.7196   7.1527601149e+01   8.4892072678e+00    0.2529207     0.196331 -77.21  0.001189159    1.998    0.500
       158  -9.1455    139.6607    190.5413   7.9166607019e+01   1.4438476362e+01    0.4002905    0.2887419  79.88  0.001125241    2.281    0.562
       159  -7.9407    205.1240    191.2310   6.4532220567e+01   3.3091824019e+00    0.1748946    0.1634374 -51.53 0.0007266434    1.339    0.253
       160 -10.4200     92.3946    188.7109   9.1093949587e+01   2.2668335182e+01     1.060525    0.2946316  44.01  0.003085535    3.940    0.746
       161  -8.8743      6.4825    189.9619   1.1341399616e+02   3.2356362545e+01    0.1968488    0.1071244 -78.82 0.0008097054    1.581    0.367
       162  -8.6898    237.1991    188.2651   5.7947262512e+01  -8.8469552247e-01    0.2714734    0.1459792 -40.32 0.0005341604    1.608    0.378
       163  -9.0297    216.6177    187.7505   6.1607940974e+01   2.1910124681e+00    0.2851188    0.2389774 -62.23   0.00115309    1.630    0.387
       164  -8.4337    148.5138    189.1054   7.6718583152e+01   1.3226722158e+01    0.2318532    0.2094236  68.13  0.001163863    1.341    0.254
       165  -8.7777    129.3085    188.5217   8.1393975021e+01   1.6682661926e+01    0.3038356    0.2356434  73.54 0.0007427812    1.742    0.426
       166  -8.8033     34.1866    187.6014   1.0634790621e+02   3.0430111851e+01    0.4271528    0.2064571  84.02  0.001702549    2.732    0.634
       167  -8.8685     14.4187    187.7750   1.1132351677e+02   3.2236287664e+01    0.4805551    0.1964683  67.98   0.00183941    3.287    0.696
       168  -8.8397    191.4807    187.1550   6.6544682272e+01   6.2875722987e+00    0.3011802    0.2264232 -66.29 0.0008877545    1.930    0.482
       169  -9.3028    156.0639    187.3102   7.4552433602e+01   1.2306510993e+01    0.3421179    0.2557712 -59.97 0.0008239584    1.579    0.367
       170  -9.5329    120.6703    186.0135   8.3156250375e+01   1.8745440199e+01    0.5429639    0.3148119 -72.85  0.002026731    2.691    0.628
       171  -9.1153     54.8094    186.7392   1.0085752118e+02   2.8338964129e+01    0.4714589    0.2587789  79.96  0.001590591    2.577    0.612
       172  -8.3202    230.3351    187.0058   5.8924038413e+01   3.0256282229e-01    0.1930043    0.1464868 -33.45 0.0007065915    1.145    0.126
       173  -8.7000    164.8743    186.6371   7.2346076429e+01   1.0916377472e+01    0.2737868    0.2141267 -55.63 0.0005945963    1.444    0.308
       174  -9.1954    109.6846    186.0253   8.6041232251e+01   2.0578814304e+01    0.4120357    0.2738725  70.21  0.001273203    2.226    0.551
       175  -9.0108    249.5158    184.9927   5.5248519022e+01  -1.9946847263e+00    0.3238339    0.1822544 -43.74  0.001124941    1.618    0.382
       176  -9.0586    210.2155    183.7904   6.2071628251e+01   3.9163731283e+00    0.3251522    0.1793103 -38.33 0.0006560365    1.632    0.387
       177  -8.4887    202.8703    184.4306   6.3655408624e+01   4.9632642531e+00    0.2457859    0.1861703 -54.76 0.0006427386    1.576    0.366
       178  -9.1288    183.1414    184.9032   6.7888196016e+01   8.1358000585e+00    0.2552258    0.2323065 -60.60 0.0008918149    1.334    0.250
       179  -9.2504     66.8844    184.3335   9.7292434069e+01   2.7412002390e+01    0.4122021     0.238822  59.52  0.001181661    2.097    0.523
       180  -8.5349    223.9408    183.1530   5.9345312828e+01   1.9282876344e+00    0.2618254    0.1579335 -42.77  0.000672026    1.523    0.343
       181  -8.2592    197.1306    183.7027   6.4681659786e+01   6.0381462419e+00    0.2096271    0.1572207 -88.84 0.0006591295    2.649    0.622
       182  -8.8726    174.3014    183.5011   6.9567105500e+01   9.9427661903e+00    0.2865921    0.2462771 -75.56 0.0007934525    1.558    0.358
       183  -9.0633     44.6439    182.2483   1.0299999413e+02   3.0655226306e+01    0.3959087     0.214651  64.51   0.00103871    2.298    0.565
       184  -8.1926      1.8066    183.3410   1.1402859027e+02   3.4307687655e+01    0.1904324    0.1313401  54.01 0.0009296182    1.435    0.303
       185  -9.0825    241.2428    180.8652   5.5852546170e+01  -1.6842169937e-01    0.3842116    0.1952995 -58.17  0.001428885    4.084    0.755
       186  -7.4889     83.3205    182.2941   9.2511017071e+01   2.5625645081e+01    0.1493156    0.1134093 -23.12 0.0002619853    1.611    0.379
       187  -8.1485     19.3599    182.6609   1.0963214870e+02   3.3066950529e+01    0.1445757   0.08382828  63.66 0.0001591211    1.823    0.451
       188  -8.1660    235.3826    180.7653   5.6838877431e+01   6.7837478514e-01    0.2448977    0.1395084 -32.67  0.000981211    1.527    0.345
       189  -9.1949    147.6027    180.3940   7.5242239574e+01   1.5339758700e+01    0.3597855    0.2894256  70.53  0.001100062    1.670    0.401
       190  -9.4306     25.5080    178.6628   1.0765263274e+02   3.3509592414e+01    0.6575777    0.2794246  77.97  0.002237663    3.901    0.744
       191  -8.8356    137.6333    179.1193   7.7481241120e+01   1.7410680660e+01    0.3253288    0.2568367  87.41  0.001080406    1.783    0.439
       192  -8.3937    244.6475    169.1053   5.3046279074e+01   1.3877421884e+00    0.2741648    0.1937292 -67.63  0.001043117    2.348    0.574
       193  -8.7189    250.5217    172.4902   5.2744904727e+01  -1.8821980344e-02    0.2304424    0.1474195 -36.09 0.0005155686    1.265    0.210
       194  -9.3941    249.0771    177.3317   5.3888040926e+01  -6.4362752542e-01    0.3459863     0.218452 -43.88  0.001123581    1.444    0.308
       195  -8.4935    247.4809    173.5310   5.3429469796e+01   2.2433132286e-01    0.2200197    0.1042273 -39.67 0.0006141553    1.736    0.424
       196  -9.4524    191.5471    178.2108   6.4743642873e+01   8.0622789132e+00    0.3068887    0.2803372 -85.55 0.0006762148    1.465    0.317
       197  -9.1380     35.9103    176.2876   1.0462642764e+02   3.3097869924e+01     0.627214    0.2809982  78.96  0.002064147    4.018    0.751
       198  -8.8223    205.0922    177.6059   6.1852824122e+01   5.9195045046e+00    0.2467068     0.179193 -47.16 0.0006856055    1.402    0.287
       199  -7.9886    169.0586    178.0218   6.9654090716e+01   1.2025712598e+01    0.2211457    0.1865806 -88.53 0.0005823512    1.666    0.400
       200  -8.7264    129.2621    177.0623   7.9225543890e+01   1.9379045230e+01    0.3737557    0.2576124 -88.64  0.001084344    2.451    0.592
       201  -8.7387    231.0240    176.5897   5.6796794651e+01   2.0557711759e+00    0.2477793    0.1661132 -49.48 0.0006978379    1.583    0.368
       202  -8.5449    217.3403    176.8216   5.9331514581e+01   4.1039777780e+00     0.237427    0.1917201 -57.04 0.0007043764    1.518    0.341
       203  -8.1315     97.7996    177.1827   8.7678964157e+01   2.4681571597e+01    0.2121027     0.177701  -9.95 0.0007161009    1.368    0.269
       204  -8.8988     89.2478    176.5614   8.9929445263e+01   2.6176968375e+01    0.3321483    0.2487305  84.60 0.0009110431    1.659    0.397
       205  -9.3669     59.0900    175.5918   9.8175884046e+01   3.0640219685e+01    0.5532823    0.2785402  63.50  0.002007671    3.040    0.671
       206  -9.2918     55.8217    170.4453   9.8346764351e+01   3.2365647607e+01    0.4331917    0.2477586  78.80  0.001719805    2.550    0.608
       207  -9.0672     13.1012    176.5518   1.1065649192e+02   3.5107354743e+01    0.2634932    0.1716249  69.97 0.0009687374    1.550    0.355
       208  -8.3912    211.5371    175.9748   6.0266406475e+01   5.1859510678e+00    0.2128202    0.1239528 -42.17 0.0008880044    1.562    0.360
       209  -9.2472    182.9484    175.5740   6.6046621550e+01   1.0085167882e+01    0.3100533    0.2000016 -46.96 0.0007918354    1.539    0.350
       210  -9.1593    158.8881    174.7551   7.1365982231e+01   1.4566780252e+01    0.3843754    0.2880571 -86.31  0.001056489    2.162    0.537
       211  -9.1740    104.3989    174.6510   8.5410094883e+01   2.4237712326e+01    0.5534765    0.3001832  59.46  0.001786992    2.889    0.654
       212  -8.9292    224.7342    174.2262   5.7457042905e+01   3.4344607473e+00    0.2471017    0.1692434 -57.18  0.001039289    1.864    0.464
       213 -10.7183     75.9077    169.8789   9.2546225879e+01   2.9852213152e+01     1.385154    0.5412134 -73.07   0.00385116    4.586    0.782
       214  -8.4661     79.5018    158.0026   8.9415776502e+01   3.2379993294e+01    0.3949786    0.2148105  16.80  0.001482878    2.448    0.591
       215  -9.3545     81.8996    154.6924   8.8083116142e+01   3.2870389861e+01    0.5245692    0.3309354  68.98   0.00167888    2.413    0.586
       216  -9.7077    175.9869    171.8518   6.6814207923e+01   1.2100116304e+01    0.4339078    0.2420487 -42.36 0.0008893003    1.710    0.415
       217  -8.4183    142.9931    172.5200   7.4801991863e+01   1.7970061348e+01    0.2895743     0.216565 -67.13 0.0007534841    1.652    0.395
       218  -8.8069    134.8663    171.6026   7.6685311882e+01   1.9662750623e+01    0.2957409    0.2274773 -61.99 0.0008515837    1.458    0.314
       219  -9.1720     45.1604    170.9560   1.0141707514e+02   3.3475157869e+01    0.3938402    0.2252275  80.96  0.001378576    2.302    0.566
       220  -9.0807    230.0459    168.8701   5.5459390790e+01   3.5945408509e+00    0.5294524    0.1640206 -48.54  0.001768612    3.707    0.730
       221  -8.6185    205.8461    170.2417   6.0215850233e+01   7.2223837008e+00    0.2943171    0.1868397 -54.52 0.0008441524    1.843    0.457
       222  -9.4414    121.4068    170.2387   7.9948818146e+01   2.2403033856e+01    0.3924538    0.2989338  84.51 0.0009466752    1.839    0.456
       223  -8.4595    237.3736    169.2371   5.4275016338e+01   2.4245469492e+00    0.2312193    0.1424632 -44.80 0.0006912035    1.481    0.325
       224  -8.5417    198.4903    170.0315   6.1639853914e+01   8.5107876407e+00    0.2142524    0.2007221 -73.81 0.0006505137    1.334    0.251
       225  -8.4290    149.9312    169.4795   7.2445494478e+01   1.7391447731e+01    0.2779672    0.2183926 -69.08 0.0008262169    1.588    0.370
       226  -9.1686    167.0374    168.3749   6.8123142384e+01   1.4475636825e+01     0.370075    0.2741665  71.39  0.001212942    2.081    0.519
       227  -8.3279     88.7314    168.5844   8.8672919424e+01   2.8274473600e+01    0.2565065    0.1881066 -89.73   0.00106294    1.726    0.421
       228  -8.4973    218.8378    168.1273   5.7319546122e+01   5.4920506299e+00    0.2032776    0.1765298 -49.07 0.0006160568    1.258    0.205
       229  -8.0386    211.4304    168.1737   5.8715638870e+01   6.6919012956e+00    0.2021632    0.1224119 -51.64 0.0008738061    1.794    0.442
       230  -8.8957    111.5866    166.8554   8.1942872209e+01   2.4949873839e+01      0.39981    0.2594129 -77.30  0.001080705    2.242    0.554
       231  -9.2934    191.9950    166.6844   6.2280868545e+01   1.0314082963e+01    0.2787467    0.2204556 -55.54  0.000526656    1.418    0.295
       232  -8.7747    185.0236    166.4090   6.3696325588e+01   1.1613724789e+01    0.2671351    0.1967371 -56.79 0.0005330638    1.557    0.358
       233  -9.0525     20.6637    166.0888   1.0760647194e+02   3.7109567389e+01     0.343058    0.1761846  54.63  0.001371028    2.208    0.547
       234  -7.9479     13.2975    167.6553   1.0975673359e+02   3.7311680686e+01    0.1377782   0.08709645  68.71  0.000703451    1.672    0.402
       235  -9.7397    136.8984    164.1729   7.4622796426e+01   2.1036118968e+01    0.7057099    0.3690029  56.68  0.002084746    3.016    0.668
       236  -9.9683     95.0354    162.1469   8.5675239350e+01   2.8907349987e+01    0.9539538    0.6163109  85.54  0.003173695    2.575    0.612
       237  -8.3703    233.9803    164.5297   5.3928928993e+01   3.7755724127e+00    0.2159568     0.148991 -38.23 0.0005913236    1.228    0.186
       238  -8.7437    159.5534    164.1321   6.8981486707e+01   1.6800502202e+01    0.3243729    0.2555504 -79.18  0.001005891    1.773    0.436
       239  -9.5201     33.6665    163.2845   1.0365207988e+02   3.6643543471e+01    0.5890446    0.2448996  53.07  0.002184065    3.153    0.683
       240  -8.7690    212.9404    163.5311   5.7484271124e+01   7.3294334620e+00    0.2681596    0.1840447 -45.83 0.0006217602    1.384    0.277
       241  -8.1983     56.5288    163.9228   9.7166811245e+01   3.3962876034e+01    0.3624398    0.2005298  -3.87  0.001308029    3.319    0.699
       242  -8.7282    246.0326    162.8256   5.1619125136e+01   2.2783579839e+00    0.2273167    0.1550371 -38.58 0.0004699151    1.209    0.173
       243  -8.0734    240.0458    163.5261   5.2721112620e+01   3.0380010653e+00    0.1668084    0.1298465  35.45 0.0004501498    1.506    0.336
       244  -8.6668    204.8537    162.3490   5.8787607827e+01   8.9317811027e+00    0.3155239    0.1682936 -49.23 0.0008742579    1.902    0.474
       245  -9.4491      3.4325    162.1994   1.1186308124e+02   3.9385831084e+01    0.4384146    0.2134521  52.18  0.001805438    2.267    0.559
       246  -9.1522    177.6678    160.5925   6.4061590416e+01   1.4178160170e+01    0.3324031    0.2738938 -83.75  0.001017587    1.686    0.407
       247  -8.6248    151.5282    160.5380   7.0152500453e+01   1.9123856776e+01     0.320915    0.2341772  86.64  0.001118416    2.285    0.562
       248  -8.5201     61.0654    160.4713   9.5293301565e+01   3.4288522577e+01    0.2954233    0.2171551  71.94  0.001427627    1.609    0.379
       249  -8.7100    227.5150    159.0020   5.3938562460e+01   5.7918846247e+00    0.2888465    0.1692194 -54.52 0.0009674453    1.997    0.499
       250  -9.8077    233.5106    147.2207   5.0567884564e+01   6.9710932490e+00    0.3165689    0.1968718 -41.44 0.0008771064    1.365    0.267
       251  -9.6765    242.0552    154.1318   5.0565043310e+01   4.3931824415e+00    0.4646747    0.3278602  79.18  0.001755421    2.774    0.639
       252  -9.6982    250.1835    157.6983   4.9987721689e+01   2.5617891453e+00    0.3325925    0.1510143 -41.93 0.0008489714    1.804    0.446
       253  -8.3515    246.5561    155.4764   5.0120340994e+01   3.4793700331e+00     0.180907    0.1628361   6.39 0.0005362736    1.247    0.198
       254  -8.2615    237.2600    158.6198   5.2219135574e+01   4.3314836976e+00    0.2441497    0.1381319 -47.56 0.0006686923    1.660    0.398
       255  -8.8501    196.5464    157.9071   5.9502650679e+01   1.1275892581e+01     0.290695    0.2326257 -72.44  0.000851655    1.685    0.407
       256  -9.4923    167.7351    157.1475   6.5553997921e+01   1.6789043565e+01    0.3935386    0.2940654 -79.34  0.001236862    2.030    0.507
       257  -8.2998    128.1157    158.8455   7.5800192651e+01   2.3931403124e+01    0.2384218     0.211516  78.66  0.000651069    1.337    0.252
       258  -9.5105    105.8864    157.8239   8.1718304519e+01   2.8175915283e+01    0.5219828    0.3334249  66.37  0.001235515    2.412    0.585
       259  -8.3799    188.1581    157.6716   6.1176938162e+01   1.2847815696e+01    0.2617595    0.1856522 -51.00 0.0006857163    1.450    0.310
       260  -8.6668    218.0141    156.1883   5.5046428847e+01   7.8748794121e+00    0.3171684    0.1680252 -55.23 0.0008977614    2.363    0.577
       261  -8.6651    157.8095    156.0035   6.7636152576e+01   1.8943451147e+01    0.2738678    0.2177526 -68.36 0.0007296586    1.546    0.353
       262  -9.2657    119.5050    154.8686   7.7284806119e+01   2.6479271909e+01    0.4526918    0.3060803 -75.88  0.001311595    2.135    0.532
       263  -9.1291     49.8336    155.1784   9.7783513315e+01   3.7024991558e+01     0.443722    0.2441458  60.08  0.001795859    2.469    0.595
       264  -7.8855    204.9672    155.4793   5.7331426689e+01   1.0258538322e+01    0.1908225     0.141967  43.05 0.0005075301    1.497    0.332
       265  -8.6252    144.4713    154.5987   7.0615791781e+01   2.1833127879e+01    0.2864515    0.2287055  69.79 0.0006789513    1.624    0.384
       266  -9.5191     68.0071    153.2792   9.1990685374e+01   3.5234929668e+01    0.5078983    0.3290872  85.59  0.002079246    2.199    0.545
       267 -10.7409    241.2665    144.3828   4.8773334986e+01   6.2358153453e+00    0.7738413    0.3215932 -29.35   0.00284745    3.370    0.703
       268  -9.6782    132.7919    152.6244   7.3203786860e+01   2.4533199203e+01    0.4701512    0.3752984  76.66  0.001146119    1.670    0.401
       269  -9.4403    133.3340    148.3470   7.2105399139e+01   2.5438595055e+01    0.4539699    0.2496146 -37.70  0.001682668    1.957    0.489
       270  -8.2180    151.8280    152.8131   6.8383263643e+01   2.0817666371e+01    0.2095432    0.1876564 -84.17 0.0007343644    1.339    0.253
       271  -9.6583     29.5242    150.4944   1.0317286823e+02   4.0322351008e+01    0.5489627    0.2679423  62.99   0.00210856    3.058    0.673
       272  -8.7364     20.0266    152.0522   1.0617044960e+02   4.0733121315e+01     0.219288    0.1452922  69.50  0.001052127    1.702    0.412
       273  -8.9257      2.8631    150.6422   1.1091693748e+02   4.2305050343e+01    0.4342859    0.1604295 -77.35  0.001794014    2.416    0.586
       274  -9.5534    248.7843    149.1922   4.8565134842e+01   4.2366521413e+00    0.3168417    0.1702708 -40.52 0.0007917105    1.520    0.342
       275  -8.2262    182.6172    151.1048   6.0926759307e+01   1.5242890213e+01    0.2326537    0.1783198 -58.62 0.0007508488    1.468    0.319
       276  -8.6312     98.3153    150.6497   8.2418036716e+01   3.1265324215e+01    0.3126439    0.2453417  77.45 0.0008768637    1.643    0.391
       277  -8.8676    189.3562    149.7511   5.9216258463e+01   1.4250236561e+01    0.2878238    0.2275757 -70.54 0.0007608613    1.631    0.387
       278  -8.4387    162.6304    150.1635   6.5195523558e+01   1.9302271468e+01    0.2393743    0.1904698 -60.20 0.0006475981    1.407    0.289
       279  -8.0623    213.0171    149.3667   5.4540140919e+01   1.0028460530e+01    0.1853568    0.1733949 -37.35 0.0004832797    1.089    0.082
       280  -8.3652    198.9785    148.8264   5.7080982556e+01   1.2650439247e+01    0.2109786    0.1887245 -71.43 0.0005765849    1.319    0.242
       281  -9.9602     89.4335    146.2695   8.4143952592e+01   3.3838556259e+01    0.7100414    0.4310206  89.57  0.002403744    3.315    0.698
       282  -9.7683     39.8745    147.7090   9.9642208693e+01   4.0042952856e+01    0.5677766    0.2948141  61.40  0.002023445    2.836    0.647
       283 -10.1823    106.6357    143.7951   7.8509784239e+01   3.1525257460e+01    0.8738503    0.5874907  84.69  0.002354283    2.638    0.621
       284  -9.3383     57.3576    146.6925   9.4080050923e+01   3.8327022141e+01    0.3516703    0.2512812  64.39 0.0008489009    1.713    0.416
       285 -10.1915     53.9121    143.7692   9.4639915264e+01   3.9503283965e+01      1.16918    0.4170085 -60.09  0.004211849    2.485    0.598
       286  -8.3550    223.2080    146.6669   5.2176643278e+01   8.7816960675e+00    0.1852845    0.1682184  86.01 0.0004069332    1.388    0.279
       287 -10.2730    149.0702    144.8197   6.7258956043e+01   2.3168301830e+01    0.5964668    0.4189582 -89.81  0.001578313    2.515    0.602
       288  -8.7638     78.2576    147.0960   8.7706269635e+01   3.5365041914e+01     0.295683    0.1865409  58.94 0.0008564212    2.098    0.523
       289  -9.1547     13.5512    146.0541   1.0734528815e+02   4.2749361297e+01    0.3577071    0.2135181  59.04  0.001357684    1.967    0.492
       290  -7.8533    206.5658    146.0409   5.5030665089e+01   1.1816940665e+01    0.2122305    0.1271412 -42.27 0.0006680519    1.503    0.335
       291  -8.1921    175.7507    145.9498   6.1271717884e+01   1.7647182541e+01    0.2368147    0.1699104 -69.11 0.0006076159    1.906    0.475
       292  -9.8816    139.0117    144.8420   6.9819371564e+01   2.5151255379e+01    0.4359145    0.3147731 -80.74  0.001297942    2.105    0.525
       293  -9.7970    125.0786    142.4630   7.2991065428e+01   2.8420661017e+01    0.5552834    0.3847086 -84.19  0.001499016    2.391    0.582
       294  -9.0115    247.0896    143.6719   4.7749123629e+01   5.4513593140e+00    0.2775179    0.1681513 -31.80 0.0006162334    1.532    0.347
       295  -8.1956    250.5057    140.8803   4.6704652745e+01   5.4088685280e+00    0.1958595    0.1046957 -42.28 0.0006224839    1.524    0.344
       296  -7.7493    194.2451    143.9380   5.6956194393e+01   1.4508517151e+01    0.1884157    0.1156331 -43.84 0.0006588039    1.507    0.337
       297  -8.8636    165.5774    143.7666   6.3065730001e+01   2.0118204073e+01    0.2814513    0.2445289 -71.44 0.0008013617    1.343    0.255
       298 -10.5100     69.6363    140.7489   8.9126040966e+01   3.8238327057e+01    0.6129841    0.4053926  89.57  0.002082483    2.205    0.547
       299  -9.9428     70.2288    133.7434   8.7513133651e+01   3.9940215788e+01    0.4290418    0.2313766  17.66  0.001559294    2.331    0.571
       300  -9.7646      2.7869    141.0713   1.0994523631e+02   4.4702588150e+01    0.5417999     0.259501  86.53  0.002374621    2.429    0.588
       301  -7.5216    230.6664    142.3107   5.0040147200e+01   8.3273816518e+00     0.131103    0.1007939 -69.59 0.0007043586    1.677    0.404
       302  -8.2492    182.0056    141.3131   5.8884607792e+01   1.7396022159e+01    0.2007198    0.1966784 -38.71  0.000424891    1.069    0.064
       303  -8.2095     39.3476    141.3020   9.8802233117e+01   4.1750527969e+01    0.1503387    0.0970904 -34.26 0.0007039272    1.690    0.408
       304  -9.0140    243.2666    149.5684   4.9482445130e+01   5.0106081920e+00    0.3302821    0.1552472 -40.96  0.001125389    1.762    0.433
       305  -8.4315    172.1624    138.1849   6.0302668420e+01   1.9999537043e+01    0.2705825    0.1914548 -68.94 0.0007137384    1.921    0.479
       306  -9.8483     23.3245    137.9005   1.0331678137e+02   4.4080956868e+01    0.4802316    0.2659501  61.53  0.002007385    2.426    0.588
       307  -8.0249    218.4941    138.1118   5.1210904398e+01   1.1193872924e+01    0.2104979    0.1217543 -43.17 0.0008274206    1.521    0.343
       308  -8.3785    207.7900    137.7640   5.3033174698e+01   1.3194939680e+01      0.24768    0.1701309 -64.17 0.0006623291    1.856    0.461
       309  -8.6843    197.5237    137.3064   5.4859125540e+01   1.5208448670e+01    0.2839591    0.2050432 -67.86 0.0008100778    1.805    0.446
       310  -8.9011    243.4480    159.0111   5.1293885840e+01   3.3250245298e+00    0.3374923    0.1702472  27.21  0.001501233    2.960    0.662
       311 -10.4235     83.2216    133.2175   8.3257716918e+01   3.8119766467e+01    0.6678923    0.4005436 -54.91  0.001589268    1.621    0.383
       312  -9.0182    248.4838    134.8152   4.5820746559e+01   6.7651239241e+00    0.2654114    0.1750042 -47.55 0.0008076875    1.312    0.238
       313  -8.9465    250.8025    129.8493   4.4528487652e+01   7.2495572031e+00    0.4570868    0.1049221 -41.57  0.001564185    3.549    0.718
       314  -8.9375    150.4973    135.8587   6.4819187379e+01   2.4890839249e+01    0.5251519    0.3339895   4.75  0.001866461    2.921    0.658
       315  -8.3114    162.7838    136.1203   6.1947512308e+01   2.2333426782e+01    0.2333672    0.2068857 -72.55 0.0007187075    1.284    0.221
       316  -9.3038     39.2419    135.7608   9.7926941382e+01   4.3185807190e+01    0.2859255    0.2093261  66.74 0.0007131075    1.661    0.398
       317  -8.1842    125.9504    135.3635   7.1092485264e+01   2.9927587723e+01     0.263521    0.1341539  17.80 0.0007040579    4.501    0.778
       318  -8.0043    231.3959    133.8072   4.8194122488e+01   9.7409305176e+00    0.1877198    0.1118038 -33.71 0.0003599803    1.589    0.371
       319  -8.6440    179.5034    133.8189   5.7714020809e+01   1.9439265578e+01    0.2745211    0.2271107 -74.52 0.0006808573    1.466    0.318
       320  -8.9433    112.7887    132.9647   7.4233072070e+01   3.3027133993e+01    0.3417014    0.2752694  82.48 0.0009265157    1.652    0.395
       321  -8.1938    237.5080    133.1021   4.7104845098e+01   8.8385381267e+00    0.2061779    0.1108296 -44.13  0.001015737    1.574    0.365
       322 -10.9014    132.0457    119.7712   6.5612038219e+01   3.2259379746e+01    0.8989226    0.5728785 -79.60  0.002878602    3.275    0.695
       323 -10.3734     98.2923    128.5658   7.7501421543e+01   3.6737231012e+01     1.230381      0.39923 -47.57   0.00386051    2.944    0.660
       324  -9.5067    143.1130    131.3202   6.5582188599e+01   2.7409627898e+01    0.3974562    0.2647385 -58.38 0.0007687244    1.714    0.417
       325 -10.1133     12.7883    128.2513   1.0530502861e+02   4.7296002497e+01    0.6572256    0.3252837 -86.72  0.002423983    2.428    0.588
       326  -8.8137    246.9906    129.8918   4.5073405016e+01   7.8489181856e+00    0.2282221    0.1540736 -42.91 0.0005368782    1.218    0.179
       327  -8.1235    192.7000    129.9712   5.4163162896e+01   1.7592708805e+01    0.2089764    0.1739773 -46.47  0.000421366    1.128    0.113
       328  -9.3592    168.2142    129.3167   5.9116754768e+01   2.2670451931e+01    0.3297146    0.2668383 -75.48 0.0004503532    1.531    0.347
       329  -9.3099    152.8204    128.9168   6.2595372474e+01   2.5939965363e+01    0.4149248    0.2350011 -52.00 0.0006625716    1.866    0.464
       330  -9.8177     73.3375    128.5435   8.5393121692e+01   4.0800281383e+01    0.5948184    0.3105353 -59.76  0.001599017    1.954    0.488
       331  -8.5020      1.7722    130.1824   1.0902233574e+02   4.7473454895e+01    0.2159319    0.1070732  61.46 0.0009417816    2.750    0.636
       332  -7.6224    220.5358    129.5776   4.9074199564e+01   1.2412257086e+01     0.136176    0.1203704 -42.20 0.0001681257    1.010    0.010
       333  -8.1196    211.8863    128.9826   5.0415042564e+01   1.4106150835e+01    0.2171548    0.1612667 -70.18 0.0007160821    1.694    0.410
       334 -10.8073     45.0087    123.3048   9.3762473083e+01   4.5750517833e+01     1.162456    0.6350793  75.96  0.003820768    4.246    0.765
       335 -10.5059     59.9472    124.6681   8.8984853119e+01   4.3626871793e+01    0.7822536    0.4882797  75.80   0.00290506    2.891    0.654
       336  -9.7649    117.6809    124.8943   7.0866628567e+01   3.3989025094e+01    0.4709513    0.3486672  82.69  0.001346851    2.074    0.518
       337 -10.1963    132.0650    130.6175   6.8294631295e+01   2.9812134807e+01     0.619566    0.4004989 -70.65  0.001635357    2.362    0.577
       338  -7.7400    228.4686    125.4678   4.6943258160e+01   1.1744977697e+01    0.1346965    0.1160748 -42.79 0.0003569053    1.009    0.009
       339  -8.8512    179.3223    124.4794   5.5592521168e+01   2.1381169087e+01    0.2968161    0.2357836 -69.45  0.000786912    1.484    0.326
       340 -10.3154     28.6000    122.0694   9.9121096542e+01   4.7653914799e+01    0.7498531    0.3989472  73.03   0.00277503    3.549    0.718
       341  -7.9411    204.5242    130.0719   5.1960360573e+01   1.5284495975e+01    0.2139497    0.1285373 -43.94  0.000602443    1.510    0.338
       342  -7.8266    188.5908    123.8296   5.3573215982e+01   1.9623992136e+01    0.2036209    0.1296609 -52.99 0.0003450434    1.614    0.380
       343  -8.7082     84.1270    123.0531   8.0640834090e+01   4.0485106918e+01     0.337115    0.2117675 -19.27  0.001230431    2.232    0.552
       344 -10.1814    158.7307    121.0441   5.9285140713e+01   2.6385597096e+01    0.5380122    0.3500653 -56.42  0.001583608    1.718    0.418
       345  -7.7327    203.0283    121.9616   5.0445582771e+01   1.7119066133e+01    0.1716866    0.1508934 -44.38 0.0004596757    1.036    0.035
       346  -7.9739    195.1607    122.1415   5.1928550524e+01   1.8635673410e+01    0.1996057    0.1604079 -62.87 0.0005037017    1.335    0.251
       347  -9.5544    171.1954    120.1595   5.6288259620e+01   2.3943112766e+01    0.4443098    0.2896258 -57.59   0.00151201    1.735    0.424
       348  -9.7905     71.4335    119.2628   8.3924531189e+01   4.3377448181e+01    0.5367631    0.3193089 -64.08   0.00188782    1.903    0.475
       349 -10.1303    141.6062    117.7241   6.2608307494e+01   3.0711236244e+01    0.6652859    0.3399429 -52.25  0.001522122    2.150    0.535
       350  -9.6805      3.0721    117.1277   1.0695773398e+02   5.0628188571e+01    0.5064476    0.2605768  72.36  0.002184117    2.918    0.657
       351  -8.0275    231.4872    117.4947   4.4843242073e+01   1.2623385241e+01    0.1341507    0.1130702 -51.72 3.670133e-05    1.063    0.059
       352  -8.0686    185.8228    115.8150   5.2263669168e+01   2.1756965168e+01    0.1979893    0.1638087 -65.51 0.0004000511    1.297    0.229
       353  -9.9038    109.3001    113.9736   7.0537117795e+01   3.8125321660e+01    0.5039134    0.3552511 -75.53  0.001349994    2.135    0.532
       354  -8.2382    250.1047    114.6854   4.1682365044e+01   9.9185299936e+00    0.1624398    0.1532048 -56.20  0.001126685    1.160    0.138
       355  -8.3562    192.9666    115.1403   5.0746861590e+01   2.0420940952e+01    0.2179339    0.1841697 -67.52 0.0004731072    1.257    0.204
       356  -7.8969    153.2881    115.6424   5.9224240187e+01   2.8671366202e+01    0.1559648    0.1215321 -78.91 0.0007024658    1.681    0.405
       357 -10.1312     92.6360    112.3876   7.5267312048e+01   4.1579883714e+01    0.5503934     0.367457 -61.06  0.001599038    1.745    0.427
       358  -8.9392     94.5441    103.6703   7.2353592920e+01   4.3217951350e+01    0.4980599    0.2635677  14.50  0.001555177    3.743    0.733
       359  -9.8464     78.9074    112.3725   7.9755599506e+01   4.3892663993e+01    0.5250159    0.3862868  86.24  0.001906924    2.140    0.533
       360  -8.8522     59.4240    114.8536   8.7009898096e+01   4.6124983078e+01    0.3449322    0.1995862   0.09  0.001360986    2.544    0.607
       361  -8.1808    167.2120    114.1749   5.5703684788e+01   2.5996207081e+01    0.2066671    0.1764345 -76.45 0.0003893491    1.337    0.252
       362  -8.1985    242.6973    113.3144   4.2404086842e+01   1.1390663087e+01    0.1287954   0.08888587 -65.14 0.0004824332    1.616    0.381
       363 -10.3190    133.8126    109.0610   6.2386677900e+01   3.4209264748e+01    0.7325334    0.3258564 -49.24  0.002277046    2.388    0.581
       364  -9.9013    121.9525    112.3466   6.6459704002e+01   3.5970511735e+01    0.3543513    0.3076828 -79.92 0.0006895873    1.392    0.281
       365  -8.5769    174.7696    111.4807   5.3451361679e+01   2.4921050571e+01    0.2724394    0.1952528 -45.19 0.0005679634    1.342    0.255
       366  -8.7632    159.2602    111.5447   5.6818411708e+01   2.8232293016e+01    0.2824413    0.1972042 -46.52 0.0006339832    1.413    0.292
       367 -10.2943     66.2706    109.7848   8.3432759202e+01   4.6414261151e+01    0.6050568    0.3666924 -60.08  0.002242353    1.755    0.430
       368 -10.2723     14.2120    110.9322   1.0221949210e+02   5.1497054877e+01    0.4280655    0.2905274  66.70  0.001980636    1.954    0.488
       369 -10.7989    248.8747    107.8865   4.0521101619e+01   1.1250514566e+01    0.7395171    0.2289982 -49.02  0.002837792    3.047    0.672
       370  -9.7486    249.8045    102.5954   3.9377387384e+01   1.1959894718e+01    0.4270219    0.1500144 -44.34  0.001859001    2.308    0.567
       371  -9.1062     42.9935    109.0163   9.1537123879e+01   4.9502832693e+01    0.3167211     0.175576   0.64  0.001327282    2.437    0.590
       372  -8.0228    189.4625    107.9001   4.9726963775e+01   2.2511380475e+01    0.2176735    0.1330265 -44.70 0.0005885487    1.537    0.350
       373  -8.8422    109.4371    107.2705   6.8727739404e+01   3.9595852647e+01     0.367735    0.2273122   2.77  0.001228394    3.088    0.676
       374 -10.8053    109.4687     98.9724   6.6454241593e+01   4.1378416929e+01     1.286528    0.7333772  69.51  0.002128253    4.874    0.795
       375  -8.9922    107.6027     92.4874   6.5184048236e+01   4.3097816801e+01    0.4844385    0.2837329  24.82  0.001934969    2.168    0.539
       376  -9.7716    139.9619    103.9041   5.9455758324e+01   3.3963080162e+01    0.5843191    0.3254787 -52.78  0.001493132    2.019    0.505
       377 -10.2905     75.7963    105.6490   7.9098834941e+01   4.5959792894e+01    0.4148961    0.2895601  19.70  0.001964145    1.535    0.348
       378 -10.5420     45.5567    101.9035   8.8999474154e+01   5.0927040374e+01    0.7816753    0.4979669  72.82  0.003098961    3.023    0.669
       379  -9.3996     45.5852     92.5352   8.6711642292e+01   5.3098626679e+01    0.4837264    0.2540701  -4.83  0.001865403    2.950    0.661
       380 -10.7720     23.0476    102.4765   9.7504040435e+01   5.2918937129e+01     0.755073    0.4549741  70.14  0.002454676    2.825    0.646
       381  -9.5929    150.7089    103.0709   5.6635016017e+01   3.1791327258e+01    0.4923776    0.3058682 -66.02  0.001564724    2.380    0.580
       382  -8.4818    166.8309    104.0863   5.3300585264e+01   2.8069578795e+01    0.2312583    0.1945411 -71.83 0.0006577595    1.318    0.241
       383 -10.2125    128.5355    101.3982   6.1743064517e+01   3.6929252902e+01    0.4514049    0.2966709 -45.62  0.001437372    1.545    0.353
       384  -9.0973      6.9511    102.8186   1.0347941068e+02   5.3892791201e+01    0.2636816    0.1914253  83.96 0.0008942103    1.669    0.401
       385  -8.0423    175.5449    101.9989   5.0997109475e+01   2.6577669808e+01    0.2214299    0.1382824 -43.82 0.0004953839    1.546    0.353
       386  -8.4083    159.8739    100.7863   5.3971186226e+01   3.0228810959e+01    0.2696432    0.1839839 -66.41 0.0006482651    1.895    0.472
       387  -9.2636     82.2032    100.0569   7.5431110810e+01   4.6188856300e+01    0.3480952    0.2625432 -72.77 0.0009156473    1.817    0.450
       388  -9.2805     95.0399     96.8828   7.0323251157e+01   4.4609260803e+01    0.3174942    0.2392116 -59.24 0.0006761026    1.558    0.358
       389 -10.1787     63.9058     95.5868   8.0648703617e+01   5.0044727654e+01    0.5864715    0.4125281  88.63  0.001809285    2.641    0.621
       390  -9.3283     65.3830     87.2491   7.7803981493e+01   5.1662850033e+01    0.7781669    0.3478397  16.74   0.00253623    3.771    0.735
       391  -7.6334    184.2796     96.6748   4.8039981381e+01   2.5678294496e+01    0.1448995    0.1070348 -71.48 0.0004627707    1.592    0.372
       392  -7.8732    182.8403    109.5524   5.1374293831e+01   2.3585871626e+01    0.1843725    0.1403353  68.92 0.0009110493    1.519    0.342
       393  -8.6792    151.1876     95.0340   5.4429835330e+01   3.3251149948e+01    0.2418374    0.1763668  -7.39  0.001065533    1.961    0.490
       394  -8.2119    164.9604     93.9601   5.1151654644e+01   3.0397001729e+01    0.2254265    0.1739583 -77.66 0.0004424271    1.583    0.368
       395  -7.5743    188.6786     93.3381   4.6455377638e+01   2.5332836309e+01    0.1482074    0.1054597 -73.60 0.0006587653    1.714    0.416
       396  -8.4953    176.6617     93.0825   4.8601085309e+01   2.7979517616e+01    0.2345486    0.1675642 -58.13 0.0008519912    1.479    0.324
       397  -9.5421    139.0745     91.6929   5.6404272817e+01   3.6570942939e+01    0.4720961    0.2722873 -49.14 0.0007633559    1.856    0.461
       398 -10.2323    124.0390     90.9309   6.0065262901e+01   3.9991848945e+01    0.5745806    0.4533274  35.02  0.001487463    1.266    0.210
       399  -9.7097      5.1041     91.5636   1.0223865377e+02   5.6644211497e+01    0.3567896    0.2328648  75.64  0.001320962    2.220    0.549
       400  -8.3796    157.8685     91.3655   5.1987993018e+01   3.2453162926e+01    0.2522861     0.192236 -53.66 0.0005865108    1.362    0.266
       401  -9.4355     22.8879     89.8357   9.4942055019e+01   5.5901223966e+01     0.376659    0.2311726 -30.10  0.001069964    1.548    0.354
       402  -9.3914     34.8239     89.6518   9.0183831975e+01   5.4896113659e+01    0.4199324     0.275605 -81.97   0.00148115    2.338    0.572
       403  -8.5051     34.5203     83.9703   8.8892250790e+01   5.6201891902e+01    0.3355911    0.1204229 -43.77  0.001327765    2.412    0.585
       404  -8.5226    246.6611     89.3148   3.7184115649e+01   1.4629280126e+01    0.1291546    0.0822669 -67.41  0.000704754    1.699    0.412
       405  -7.8902    151.3273     89.1430   5.2844116071e+01   3.4324631444e+01    0.2149819    0.1296181 -50.20 0.0006577856    1.767    0.434
       406 -10.1391     86.3882     85.7817   6.9960022330e+01   4.8513901326e+01    0.6208431    0.3860667 -55.42  0.001735641    1.940    0.484
       407  -7.8825    163.9896     86.9461   4.9564478533e+01   3.1887269006e+01    0.1747888     0.162634 -51.32 0.0005144273    1.071    0.066
       408  -9.9042     48.6051     83.5181   8.3152029026e+01   5.4744336713e+01    0.6400607    0.4380268 -68.06  0.002577003    1.956    0.489
       409  -7.5241    179.6304     85.3282   4.6152954737e+01   2.8696756398e+01    0.1516094    0.1062726 -77.79 0.0007032725    1.819    0.450
       410  -9.7930    104.8788     82.8822   6.3202443909e+01   4.5551057202e+01    0.4447254    0.3239123 -79.17 0.0009591645    2.309    0.567
       411  -9.1719    105.0643     77.0085   6.1381434848e+01   4.6619961891e+01    0.4554814    0.2384513  30.17  0.001784804    2.308    0.567
       412  -8.0502      8.4471     85.2493   9.9730071862e+01   5.7917215442e+01    0.1735684    0.1143876 -74.98 0.0009459566    1.666    0.400
       413  -8.3590    158.0775     83.7267   4.9952690769e+01   3.3785893844e+01    0.2448762    0.1873868 -51.82 0.0004230591    1.343    0.255
       414  -8.8998    140.9873     82.8346   5.3516639986e+01   3.7790984362e+01    0.3102378    0.2104478 -54.27 0.0008890986    1.661    0.398
       415  -7.3842    185.6296     82.3169   4.4368419688e+01   2.7895507151e+01    0.1487326    0.1033053 -77.24 0.0007035173    1.788    0.441
       416  -7.8644     64.1495     82.4118   7.6862688787e+01   5.2870644430e+01    0.1896385    0.1283652  41.48 0.0004165687    1.646    0.392
       417  -9.7284     24.6349     80.3359   9.2024430032e+01   5.7901526919e+01    0.4116668    0.2840275 -87.82  0.001386227    2.305    0.566
       418  -9.7536      9.7602     80.6233   9.8242993501e+01   5.8885539147e+01    0.3495027    0.2442854  67.51  0.001380985    2.210    0.548
       419  -8.5561    150.6006     80.5768   5.0717624679e+01   3.6027178841e+01    0.2824859    0.1999292 -77.17 0.0008619768    1.963    0.490
       420  -8.7741    119.3550     80.0478   5.8213206694e+01   4.3060833202e+01     0.340481    0.2337236 -65.95 0.0009091567    2.109    0.526
       421  -8.8614     74.6390     80.0431   7.2312716593e+01   5.1706928804e+01    0.3708915    0.2743193 -73.65   0.00142083    2.181    0.542
       422  -8.3822    166.9329     79.4869   4.7072562846e+01   3.2524846312e+01    0.2135973    0.1825352 -45.54 0.0004610105    1.175    0.149
       423  -7.9542    184.2027     78.0391   4.3585957819e+01   2.8920287722e+01    0.1857156    0.1064485 -39.42 0.0006099306    1.730    0.422
       424  -7.8055    175.0000     77.9737   4.5182053660e+01   3.0970268738e+01    0.2227682   0.07820871 -38.58 0.0005700157    2.851    0.649
       425  -8.4679     92.0347     79.0000   6.6050538758e+01   4.8815077414e+01     0.237345   0.08014166  41.14  0.000535498    2.876    0.652
       426  -7.8078    189.2393     76.3040   4.2338037936e+01   2.8101939054e+01    0.2210434   0.09534368 -48.53 0.0008892791    2.330    0.571
       427  -7.9729    157.1645     76.1956   4.8160307307e+01   3.5291114527e+01    0.1950976    0.1635627 -82.84 0.0004102273    1.316    0.240
       428  -9.4548    128.0916     74.7351   5.4371798509e+01   4.2100712660e+01    0.4410242    0.2520538 -44.09  0.001742677    1.854    0.461
       429  -8.4905    140.4938     75.1272   5.1492012798e+01   3.9255144699e+01    0.2288829    0.1970744  88.42 0.0006003269    1.313    0.238
       430  -9.9787     63.0876     73.2453   7.4489299163e+01   5.4890664488e+01    0.4636626    0.2865393 -55.21  0.001126915    1.971    0.493
       431  -9.6319     82.4739     72.5466   6.7234855486e+01   5.1806942044e+01    0.3747374    0.3022434 -82.40  0.001030611    1.979    0.495
       432  -8.2427    163.4998     73.0493   4.6078958025e+01   3.4374166711e+01    0.2103236    0.1367651 -41.60  0.001019037    1.558    0.358
       433  -8.0484    151.4147     73.2075   4.8555598041e+01   3.7098842364e+01    0.2001711    0.1300714 -51.31 0.0006942433    1.664    0.399
       434  -8.5123    115.8179     72.8882   5.7055157493e+01   4.5103201022e+01    0.2470504    0.1955543 -44.24 0.0005147444    1.354    0.262
       435  -9.3267     95.2263     71.1562   6.2590914744e+01   4.9657484898e+01    0.3840201    0.2452898 -55.76  0.001093739    2.092    0.522
       436  -8.2779     42.8643     72.7306   8.2387181718e+01   5.7708649820e+01     0.223946    0.1809819 -87.91 0.0007549021    1.997    0.499
       437  -7.7781    175.5256     72.4817   4.3724662648e+01   3.1751559590e+01    0.1368575    0.1298646 -89.24 0.0002819822    1.031    0.030
       438  -9.1044    106.0594     71.5639   5.9419650295e+01   4.7396279020e+01    0.2746909    0.2238786 -72.71 0.0007264755    1.672    0.402
       439  -9.5718     51.6528     69.5229   7.7818079866e+01   5.7252876328e+01    0.4471693    0.2822293 -68.10    0.0015836    2.817    0.645
       440  -9.1948     29.0785     70.2363   8.7495466004e+01   5.9676630796e+01    0.3568957    0.1505765 -26.08  0.001358466    3.132    0.681
       441  -9.0560     16.6440     69.8997   9.2812162249e+01   6.0776247761e+01    0.2650571    0.2093579 -80.92 0.0009982972    1.732    0.423
       442  -7.8640    157.2209     69.9641   4.6497644693e+01   3.6304881932e+01    0.1820773    0.1149361 -39.44 0.0006711433    1.634    0.388
       443  -8.8912    147.2674     68.0727   4.8032561502e+01   3.8884041049e+01     0.330115    0.2229463 -61.81 0.0007730617    1.825    0.452
       444  -8.9153    121.7478     65.9390   5.3388327651e+01   4.4985778940e+01    0.3160647    0.2130358 -54.61 0.0007311373    1.818    0.450
       445  -7.4840    203.2768     66.6932   3.8023644454e+01   2.6591737474e+01    0.1333777   0.09054128 -68.98 0.0003866789    1.551    0.355
       446  -8.6005    138.7465     65.9210   4.9294006488e+01   4.1172126270e+01    0.2585144    0.1869387 -58.27 0.0007352276    1.619    0.383
       447  -8.5169     63.4981     63.9885   7.1356371182e+01   5.6587481459e+01    0.3030522    0.1576161 -22.84  0.001226511    2.586    0.613
       448  -9.0857     37.3026     63.7885   8.2034576766e+01   6.0139291637e+01    0.3121133    0.2264268 -70.55  0.001239805    2.144    0.534
       449  -8.9437    110.0734     63.5397   5.5776295006e+01   4.7912469037e+01    0.2456321    0.1979956 -55.27 0.0006045763    1.485    0.327
       450  -9.4559     97.4472     60.8693   5.8605042807e+01   5.0977381749e+01    0.3980788    0.3065133 -18.39  0.002012172    1.401    0.286
       451  -8.7366     17.5615     63.4271   9.0688163213e+01   6.2056229768e+01    0.3583487    0.1467799 -26.44  0.001483091    2.817    0.645
       452  -8.1729    158.4387     61.8969   4.4120939440e+01   3.7287279157e+01     0.197211    0.1332476 -41.96 0.0008107027    1.530    0.346
       453  -9.6902     73.3308     59.1217   6.6048501308e+01   5.5826003779e+01    0.4428023    0.2417686 -46.81  0.001178049    2.123    0.529
       454  -8.2175     51.8454     61.4216   7.5133272317e+01   5.8776530429e+01    0.1966006    0.1175134  15.31 0.0009524234    1.777    0.437
       455  -8.1458    147.2276     59.0142   4.5537753484e+01   4.0296816838e+01    0.1757697    0.1162624 -36.06  0.000434434    1.619    0.383
       456  -8.4124     89.0475     59.3151   6.0730922641e+01   5.2898926315e+01    0.1959134    0.1725336  30.69 0.0005507151    1.074    0.069
       457  -8.1483    130.8012     57.7393   4.8734954070e+01   4.4242621623e+01     0.189589    0.1619319 -83.26 0.0006647731    1.363    0.267
       458 -10.0020     23.3866     56.1465   8.5892960926e+01   6.3023392371e+01    0.3979048    0.3013278  79.51  0.001996867    2.683    0.627
       459  -9.6260      7.4146     56.6640   9.3521919272e+01   6.4115348596e+01     0.310524    0.2363123  85.13   0.00123961    2.192    0.544
       460  -9.3412    119.1945     55.3311   5.0804600498e+01   4.7205301020e+01    0.3778498    0.2222875 -49.60  0.001341642    2.069    0.517
       461  -7.5996    216.5158     56.5564   3.4132395707e+01   2.5323981111e+01     0.125375    0.1065235 -72.65  0.000236521    1.006    0.006
       462  -7.5997    193.5317     56.5010   3.7069719636e+01   3.0187953825e+01     0.130081    0.1161493 -81.01 7.973074e-05    1.016    0.015
       463  -8.3405    140.0519     56.0387   4.6192338011e+01   4.2384532697e+01    0.2157186    0.1631514 -74.74 0.0005704067    1.643    0.391
       464  -8.9298     44.0495     55.1298   7.6291955497e+01   6.0964099902e+01    0.2747157    0.1856719 -50.84 0.0009266137    1.739    0.425
       465  -9.2522     62.8971     54.4609   6.8341303875e+01   5.8358800000e+01    0.3256439    0.2097202 -49.31 0.0006584384    1.921    0.479
       466  -8.9930     54.0490     53.6093   7.1563378184e+01   5.9860259837e+01    0.3630526    0.1910512 -53.06  0.001397912    2.670    0.626
       467  -8.3270    105.8251     53.0296   5.3611812289e+01   5.0455526775e+01    0.1994087    0.1860351 -81.16 0.0005622831    1.300    0.231
       468  -9.6205     92.5616     50.3330   5.6596217937e+01   5.3606786851e+01    0.4006381    0.2456103 -50.37  0.001082331    2.176    0.540
       469  -8.3615     75.7553     51.0061   6.2369440919e+01   5.6724047728e+01    0.3917215    0.1513805  29.63  0.001312083    3.649    0.726
       470  -8.2840    144.6440     48.7963   4.3204704385e+01   4.2352173583e+01    0.1819011    0.1219299 -46.48  0.000488562    1.616    0.381
       471  -8.3993    129.9867     48.9559   4.6313668611e+01   4.5691724949e+01     0.213347    0.1628675 -75.49 0.0006726289    1.678    0.404
       472  -8.4511    120.8657     47.1633   4.7868760708e+01   4.7997786485e+01    0.1971842    0.1828941  86.07 0.0005691194    1.192    0.161
       473  -8.3577    112.3313     46.8573   4.9881917206e+01   4.9931638829e+01    0.2364556    0.1974825 -68.14 0.0007353615    1.520    0.342
       474  -8.9252     82.2704     46.3491   5.8497065402e+01   5.6215202930e+01    0.2653939    0.2257929 -55.91 0.0006462716    1.580    0.367
       475  -8.4568     45.0186     44.4801   7.2080464947e+01   6.2665531394e+01    0.2103439    0.1743015 -45.13 0.0007241787    1.532    0.347
       476  -9.2199     16.5513     44.2420   8.5334222761e+01   6.5838287892e+01    0.2333408    0.1961112 -77.37 0.0009380819    1.961    0.490
       477  -8.4874    132.8584     43.1326   4.3965184805e+01   4.5815597467e+01    0.1982843     0.176027 -86.47 0.0004235593    1.220    0.180
       478  -9.5694     69.5864     41.3929   6.1096803744e+01   5.9271009977e+01    0.3383522    0.2513117 -53.17  0.001135143    1.956    0.489
       479  -8.8962     58.2417     42.3556   6.5772752534e+01   6.1041095227e+01    0.2803747    0.2199962 -55.63 0.0009629079    1.921    0.479
       480  -9.5195      5.2812     41.5679   9.0152917044e+01   6.7150069971e+01    0.3106208    0.2146357 -75.69  0.001550174    2.452    0.592
       481  -8.7324     93.0362     42.2323   5.3670307603e+01   5.4660197645e+01     0.195801    0.1404365  10.89 0.0008089525    1.596    0.374
       482  -8.0670    140.3939     41.1821   4.1878510679e+01   4.4334908471e+01    0.1785902    0.1190278 -48.83 0.0004356987    1.678    0.404
       483  -8.8394    105.8358     40.8320   4.9607618185e+01   5.2150980686e+01    0.2413879    0.1827524 -44.73 0.0006314503    1.555    0.357
       484  -8.6794     36.8764     40.5915   7.4267980073e+01   6.4357602006e+01    0.2206381    0.1714901 -36.62 0.0007099584    1.387    0.279
       485  -7.6122    156.2890     39.2907   3.8495499326e+01   4.0905949822e+01     0.127097   0.09613721  36.73  0.000261385    1.542    0.352
       486  -8.7950     95.7103     37.8630   5.1377253959e+01   5.4682778251e+01    0.2238206    0.1772899 -51.34 0.0007133805    1.615    0.381
       487  -8.3927     80.7340     36.4102   5.5418709602e+01   5.7884555437e+01    0.2143315    0.1556253 -40.80 0.0006699009    1.654    0.395
       488  -8.5112    125.9801     35.4670   4.3119200783e+01   4.8340837500e+01    0.1846644    0.1785034 -17.38 0.0003271552    1.169    0.145
       489  -9.4149     26.2579     34.9635   7.7175861444e+01   6.6499162329e+01    0.3092352    0.1964614 -47.85 0.0008923761    1.859    0.462
       490  -8.4384    111.8425     34.5621   4.6034682564e+01   5.1620214434e+01    0.1940543    0.1584226 -37.81 0.0005261381    1.399    0.285
       491  -8.3747    119.1947     33.1540   4.3880494710e+01   5.0148034802e+01    0.1731656    0.1505145 -78.63 0.0004128663    1.352    0.260
       492  -8.5709     60.7872     32.1915   6.0860753725e+01   6.2067683461e+01    0.2248223    0.1664342 -38.59  0.000810156    1.629    0.386
       493  -8.7576     48.5577     33.0625   6.6152687517e+01   6.3901913117e+01    0.2037655    0.1649608  36.80 0.0006390268    1.416    0.294
       494  -8.6816     72.2109     30.9764   5.6232082257e+01   6.0194312465e+01    0.1752023    0.1719735  30.51 0.0006285731    1.328    0.247
       495  -9.0661     12.8843     29.6319   8.1986983182e+01   6.8658015474e+01    0.3344087    0.1655229 -55.12  0.001678254    2.769    0.639
       496  -7.9756    101.6849     29.1379   4.6755412346e+01   5.4466230172e+01    0.1860739    0.1613223 -57.03 0.0006419222    1.448    0.309
       497  -7.7606     42.2667     29.6689   6.7519502968e+01   6.5296584151e+01    0.1019361    0.1007543  -0.51 0.0003544078    1.580    0.367
       498  -8.9218     81.5939     27.1341   5.1709371815e+01   5.8853950917e+01    0.2424858    0.2081576 -63.78 0.0007486261    1.681    0.405
       499  -9.2333      3.6529     27.2461   8.6118705950e+01   6.9764534461e+01    0.2050873    0.1913527 -67.60 0.0009211234    1.756    0.431
       500  -8.7236     91.9156     26.2167   4.8344758131e+01   5.6860504319e+01    0.2480208    0.1728027 -47.42 0.0007734005    1.887    0.470
       501  -7.8397     34.5484     22.7714   6.8170574423e+01   6.7302641648e+01     0.144266    0.1093387 -36.18 0.0007100124    1.598    0.374
       502  -7.9189    104.3539     22.6855   4.3900147961e+01   5.4585672153e+01    0.1256429   0.09776618 -84.02 0.0007045611    1.736    0.424
       503  -9.0878    175.7025    247.3245   8.0602211268e+01  -2.5148386300e+00    0.3203981    0.2528121 -62.78  0.001295194    1.914    0.477
       504  -8.7677     63.6733     20.7429   5.5192432952e+01   6.2964927619e+01    0.2116414    0.1826259 -38.93 0.0007962942    1.549    0.354
       505  -9.0149     74.0276     19.1506   5.1036842127e+01   6.1208407957e+01    0.2488991    0.1731638 -35.45 0.0007488791    1.739    0.425
       506  -7.8808     12.2871     20.6308   7.8698458562e+01   7.0115763276e+01   0.09548117   0.09189477  15.14 0.0006073128    1.706    0.414
       507  -8.2051     87.9584     17.6623   4.6334734019e+01   5.8573871689e+01    0.1765511    0.1425902  45.65 0.0005172387    1.073    0.068
       508  -9.3260    147.4563    245.9786   8.6530299773e+01   1.7615934670e+00    0.4776306     0.305045  66.91   0.00206066    3.177    0.685
       509  -8.1511    112.5937     16.4908   3.9996425825e+01   5.3381366566e+01    0.1256119    0.1071562  53.31 0.0001000989    1.021    0.020
       510  -8.1147     30.3686     16.1277   6.7255482390e+01   6.8719551079e+01     0.147129    0.1027424 -36.61 0.0006703262    1.730    0.422
       511  -8.9523    132.3619    247.7164   9.0133570686e+01   3.6406176203e+00    0.3197348    0.2145541  62.52  0.001018299    2.143    0.533
       512  -7.8347      7.6823     15.3223   7.9024329231e+01   7.1308743150e+01   0.09579502   0.08611709  20.91 0.0007043297    1.667    0.400
       513  -8.4462     17.3794     14.1979   7.3085998168e+01   7.0521178618e+01    0.1415355   0.09937268 -36.75 0.0004870401    1.637    0.389
       514  -7.4538     83.3562     10.6868   4.4997425028e+01   6.0170909221e+01    0.1156221   0.09473567 -87.64 0.0007044321    1.739    0.425
       515  -8.4632    113.1226    248.5848   9.4549853821e+01   6.2591095973e+00    0.2120822    0.1785585 -79.15 0.0009245775    1.439    0.305
       516  -7.7103    120.9939     21.0101   3.9701973681e+01   5.1060107097e+01    0.1499918    0.1362159  52.62 0.0006269467    1.073    0.068
       517  -9.2558    103.9138    246.6995   9.6380698026e+01   7.9438583583e+00    0.4386606    0.2478355 -81.95  0.001883007    2.954    0.662
       518  -8.3976     93.8657    249.1234   9.8906884761e+01   8.8686237171e+00     0.211116    0.1524049  57.21  0.001074115    1.404    0.288
       519  -8.8737    232.6234    246.8279   6.9175838455e+01  -9.7077641783e+00    0.2734232     0.175599 -38.77  0.001415569    1.660    0.398
       520  -8.4283    218.6966    247.5729   7.1924680373e+01  -8.1784913148e+00    0.2806944    0.1352534 -41.06  0.001333101    2.123    0.529
       521  -8.7432    156.2454    247.8023   8.4866991147e+01   1.5944704209e-01    0.2189625    0.1961934  63.93 0.0006555706    1.503    0.334
       522  -9.0373    243.2649    245.6727   6.7050209892e+01  -1.0730762561e+01     0.399487    0.1480058 -28.30  0.001820548    2.704    0.630
       523  -9.8928    223.9066    243.7827   7.0303218811e+01  -8.2355732647e+00    0.4400592    0.2285206 -46.49  0.002262179    2.389    0.581
       524  -9.2581    210.7603    246.1836   7.3239669776e+01  -6.9877265593e+00    0.2356671    0.1901697 -54.41 0.0009742709    1.941    0.485
