#   1 NUMBER                 Running object number                                     
#   2 MAG_AUTO               Kron-like elliptical aperture magnitude                    [mag]
#   3 X_IMAGE                Object position along x                                    [pixel]
#   4 Y_IMAGE                Object position along y                                    [pixel]
#   5 X_WORLD                Barycenter position along world x axis                     [deg]
#   6 Y_WORLD                Barycenter position along world y axis                     [deg]
#   7 A_WORLD                Profile RMS along major axis (world units)                 [deg]
#   8 B_WORLD                Profile RMS along minor axis (world units)                 [deg]
#   9 THETA_WORLD            Position angle (CCW/world-x)                               [deg]
#  10 FWHM_WORLD             FWHM assuming a gaussian core                              [deg]
#  11 ELONGATION             A_IMAGE/B_IMAGE                                           
#  12 ELLIPTICITY            1 - B_IMAGE/A_IMAGE                                       
         1 -11.3161      9.0390     26.2002   9.4030108035e+01   3.9269526007e+01  0.001612634 0.0006291976 -58.44  0.002486312    2.390    0.582
         2 -10.7340     20.3242     15.7766   9.4040345425e+01   3.9262298948e+01   0.00120064 0.0008051765 -54.78  0.001837904    1.422    0.297
         3 -11.4123     23.5169     21.4342   9.4042975226e+01   3.9266184257e+01  0.001285556 0.0006389935 -67.56  0.002050069    1.913    0.477
         4 -11.4807     60.7570     23.8694   9.4075617135e+01   3.9267706768e+01  0.001476795 0.0005219119  72.46  0.002088481    2.977    0.664
         5 -12.3044    132.7405     15.7430   9.4139101305e+01   3.9261781161e+01    0.0015573  0.001123751  45.09  0.002067494    1.448    0.309
         6 -10.9308    216.6971     16.7400   9.4212824906e+01   3.9262044289e+01  0.001860998 0.0003946454 -26.11  0.002135738    4.408    0.773
         7 -10.7838     75.8506     16.7352   9.4089094902e+01   3.9262725505e+01  0.001226504 0.0004790679 -49.21  0.001887091    2.395    0.582
         8 -11.5640     78.8909     11.2279   9.4091933380e+01   3.9258917420e+01   0.00132048 0.0007317701 -44.18  0.002403178    1.721    0.419
         9 -11.7731     81.2674      6.0312   9.4094179020e+01   3.9255326230e+01 0.0007583446 0.0006609306 -59.71 0.0003280162    1.100    0.091
        10 -12.3361     25.9217     13.6227   9.4045329299e+01   3.9260792154e+01 0.0009594599 0.0007026595 -26.64 0.0003334798    1.335    0.251
        11 -10.6640     23.1561      8.2397   9.4043066220e+01   3.9257094409e+01  0.001137374 0.0004946775 -89.67  0.001745094    2.279    0.561
        12 -11.6451     26.6093      3.7382   9.4046238628e+01   3.9253978731e+01  0.000951422 0.0006726912   6.93 0.0008578007    1.447    0.309
        13 -11.2630     31.5682      2.6097   9.4050629192e+01   3.9253180886e+01 0.0008337577 0.0006146314  16.09 0.0009253682    1.401    0.286
        14 -10.6485     99.1373     12.7708   9.4109671816e+01   3.9259889752e+01 0.0008488779 0.0005243245  74.07  0.000843637    1.652    0.395
        15  -9.3543     51.3194     11.2989   9.4067711393e+01   3.9259085597e+01 0.0007502888  0.000195281 -50.72 0.0009470297    3.450    0.710
        16  -9.8924    115.2849     12.8633   9.4123853786e+01   3.9259879156e+01  0.000735832 0.0003505828  19.47  0.001215756    2.179    0.541
        17 -10.0917    175.3670     12.0954   9.4176655192e+01   3.9259058347e+01 0.0005967656 0.0004533184 -28.38 0.0004552648    1.284    0.221
        18 -11.2546     61.6363     11.2574   9.4076775388e+01   3.9259012993e+01   0.00120512 0.0005649859  31.81   0.00142657    2.241    0.554
        19  -9.3585    107.6088      9.8566   9.4117201489e+01   3.9257842972e+01 0.0004779309 0.0003157349  74.38 0.0005261319    1.542    0.352
        20  -9.3966    122.2259      8.9134   9.4130069858e+01   3.9257125032e+01 0.0004569033 0.0002842837  89.30 0.0006217094    1.595    0.373
        21  -9.7079     37.2850      8.5330   9.4055468200e+01   3.9257238638e+01 0.0004541419 0.0003192468 -23.40 0.0002864279    1.397    0.284
        22 -10.0629      8.8697      7.8923   9.4030527663e+01   3.9256912205e+01  0.001128639 0.0004081194 -25.12   0.00132247    2.681    0.627
        23  -9.6417    182.5371      7.4929   9.4183089585e+01   3.9255850604e+01 0.0003481494 0.0003355424 -57.18 3.643904e-05    1.008    0.008
        24 -10.2187     15.4569      6.1411   9.4036368174e+01   3.9255679419e+01 0.0008427884 0.0004913369  46.16  0.001543867    1.800    0.444
        25 -10.5689     18.7464      3.9886   9.4039324238e+01   3.9254183084e+01 0.0006360841 0.0004248887 -38.26 0.0003502607    1.442    0.306
        26  -9.6213    155.9018      6.4265   9.4159725095e+01   3.9255249319e+01 0.0005110562  0.000340435   1.98 0.0004011221    1.527    0.345
        27  -9.8973    115.1865      4.3053   9.4124025131e+01   3.9253982791e+01 0.0006525912 0.0004465021 -65.83  0.001304465    1.400    0.286
        28  -9.7795      3.6652     10.5698   9.4025872698e+01   3.9258777580e+01 0.0006393175 0.0003558178  63.46 0.0007141728    1.868    0.465
        29 -10.8529    128.9961      2.9413   9.4136195977e+01   3.9252978000e+01  0.000920087 0.0004044274  45.95  0.001452376    2.416    0.586
        30 -11.5649     75.3771      4.8108   9.4089042164e+01   3.9254511314e+01  0.001601887  0.000592943 -69.85  0.002400233    2.540    0.606
        31  -9.1922     88.4488      2.4624   9.4100595373e+01   3.9252835140e+01 0.0003481701 0.0003337308 -55.25 0.0008072285    1.003    0.003
        32  -9.8017    139.7594      1.6254   9.4145689425e+01   3.9252019798e+01 0.0005137356 0.0003116344  16.69 0.0009522775    1.704    0.413
        33  -9.5981     92.1538      3.9073   9.4103805923e+01   3.9253814125e+01 0.0005034104 0.0003708669 -47.24 0.0004022818    1.300    0.230
        34 -10.0431    144.4436    226.5179   9.4143072753e+01   3.9406958933e+01 0.0003462969 0.0003359569 -63.69 0.0001034676    1.018    0.018
        35 -11.1060    247.0950    250.0838   9.4232749341e+01   3.9422669768e+01  0.001263272 0.0005262087 -13.12  0.001983763    2.383    0.580
        36 -11.1715    250.4232    245.0039   9.4235827597e+01   3.9419151091e+01  0.001868652 0.0006173043  88.50  0.002597757    3.024    0.669
        37 -12.4663    232.6134    246.9792   9.4220089321e+01   3.9420609109e+01  0.001850758  0.001182526 -26.81  0.003610323    1.528    0.345
        38  -9.8804    128.0128    249.5208   9.4127915315e+01   3.9422886873e+01  0.000568759 0.0004514866 -83.20  0.001219052    1.237    0.191
        39 -10.0444     72.6557    250.0965   9.4079155945e+01   3.9423532711e+01 0.0006694618 0.0004039533 -41.78  0.001258501    1.587    0.370
        40 -10.1673     31.4527    250.2640   9.4042871242e+01   3.9423820461e+01 0.0005331687 0.0003953646  42.85   0.00109721    1.409    0.290
        41 -12.2108     21.2031    248.9998   9.4033885660e+01   3.9422990476e+01  0.001631846 0.0008254531  16.37  0.002810813    2.044    0.511
        42 -11.4244     27.9103    246.2840   9.4039875595e+01   3.9421092471e+01  0.001470419 0.0006299522 -83.76  0.002342562    2.277    0.561
        43 -11.4786     14.2418    244.5305   9.4027895338e+01   3.9419938645e+01  0.001305174 0.0005278342  87.57  0.002004641    2.472    0.596
        44 -10.2811      1.4093    245.0030   9.4016582053e+01   3.9420314049e+01 0.0005162536 0.0003340566 -86.57 0.0003638696    1.522    0.343
        45 -10.6222     10.9328    250.5966   9.4024792824e+01   3.9424131229e+01  0.001245819 0.0004935199   3.54  0.001898054    2.571    0.611
        46 -11.2935      5.8122    244.9797   9.4020459437e+01   3.9420281019e+01  0.001102139 0.0007691525  63.09  0.001407626    1.481    0.325
        47 -11.6335      8.6693    241.9287   9.4023070160e+01   3.9418167756e+01   0.00148818 0.0007307903  60.41  0.002503508    2.137    0.532
        48 -10.4682    115.9833    225.7954   9.4118041082e+01   3.9406595011e+01 0.0005519163  0.000349868  58.43 0.0006882598    1.641    0.391
        49 -10.5109    180.8748    224.1372   9.4175213429e+01   3.9405139251e+01 0.0006568617 0.0004482316 -74.58 0.0006962386    1.417    0.294
        50 -10.1975     81.2559    224.6058   9.4087507222e+01   3.9405931505e+01 0.0007237336 0.0004017687  68.32   0.00108595    1.861    0.463
        51 -11.2139    141.2149    221.5063   9.4140380990e+01   3.9403521167e+01  0.000901916 0.0005202327 -37.03  0.001301154    1.667    0.400
        52 -10.8803    123.3680    221.5444   9.4124670116e+01   3.9403631705e+01 0.0006891111 0.0006737875 -34.27  0.001064266    1.029    0.028
        53  -9.4966     51.4962    222.5356   9.4061373989e+01   3.9404632502e+01 0.0003514603 0.0003323048 -49.95 0.0001413777    1.015    0.014
        54 -10.5518     13.1749    221.9823   9.4027658146e+01   3.9404406749e+01 0.0005751562 0.0004963496 -18.15 0.0004150241    1.150    0.130
        55  -9.9717    174.1270    219.8990   9.4169399605e+01   3.9402252743e+01 0.0005439364 0.0004640064  44.83 0.0006355736    1.223    0.182
        56  -9.6219     21.9826    220.2435   9.4035465239e+01   3.9403173861e+01 0.0004457532 0.0002956552  -1.14 0.0004670544    1.527    0.345
        57  -9.7404    250.4696    219.0862   9.4236622088e+01   3.9401291739e+01 0.0005215551  0.000337603 -83.94 0.0006125848    1.514    0.340
        58 -10.4205    191.5171    217.0014   9.4184792620e+01   3.9400168226e+01 0.0007470062 0.0004974054 -74.98  0.001341031    1.452    0.312
        59  -9.9788    194.5184    215.4663   9.4187479770e+01   3.9399095062e+01 0.0005521367 0.0003913651  44.50 0.0006488239    1.474    0.322
        60 -10.8715     10.0160    217.0338   9.4025031662e+01   3.9401009600e+01 0.0008600334 0.0006261105  35.54 0.0008011565    1.435    0.303
        61 -10.7615    234.6676    216.3640   9.4222792456e+01   3.9399502166e+01 0.0005972357 0.0003639985  45.03 0.0009498143    1.720    0.419
        62  -9.7340    201.4668    215.7193   9.4193588173e+01   3.9399233539e+01 0.0004895477 0.0003047567 -66.13 0.0009245251    1.537    0.349
        63 -10.0966     31.1384    215.8449   9.4043660925e+01   3.9400106301e+01 0.0005547739 0.0004770749  48.19  0.001214159    1.211    0.174
        64  -9.4740    137.1841    215.6336   9.4137009337e+01   3.9399493860e+01 0.0005175715 0.0002982304 -20.36 0.0009399723    1.709    0.415
        65 -10.3909    208.9615    212.1676   9.4200289557e+01   3.9396747191e+01 0.0005871193 0.0005009579 -82.59 0.0004643956    1.151    0.132
        66  -9.7177    170.4100    213.1981   9.4166327196e+01   3.9397654048e+01 0.0004984204 0.0003154294  74.17  0.000889147    1.611    0.379
        67  -9.4659    142.8310    213.3806   9.4142047391e+01   3.9397914439e+01 0.0004976863 0.0003041761 -20.90 0.0004954183    1.610    0.379
        68 -11.0655     20.7303    211.6884   9.4034628682e+01   3.9397284208e+01 0.0009415842 0.0005744104  48.84 0.0008997247    1.717    0.418
        69  -9.4409    212.8715    211.8972   9.4203738922e+01   3.9396540382e+01 0.0004923105 0.0003901439  50.91 0.0004911586    1.314    0.239
        70 -12.1431      4.2312    207.4343   9.4020239274e+01   3.9394417917e+01  0.001496312  0.001099833  80.20  0.003112942    1.372    0.271
        71 -10.4623    184.4858    208.9631   9.4178841916e+01   3.9394665206e+01 0.0006915151 0.0004361771 -30.20 0.0007945795    1.540    0.351
        72  -9.4861    218.5016    206.9631   9.4208839042e+01   3.9393110761e+01 0.0005521622 0.0002039509 -57.03 0.0008091811    2.517    0.603
        73 -10.1960    205.6465    206.2025   9.4197547532e+01   3.9392654210e+01 0.0005274927 0.0002972717 -71.45 0.0009492285    1.702    0.413
        74  -9.5875    223.5661    201.7455   9.4213449273e+01   3.9389488593e+01  0.000491686 0.0003097818  70.57 0.0005799973    1.627    0.385
        75  -9.1772    238.3594    201.3246   9.4226480630e+01   3.9389119015e+01  0.000406768 0.0002179296 -44.06 0.0004328273    1.779    0.438
        76  -9.6251    218.2751    201.3519   9.4208804318e+01   3.9389245464e+01 0.0003891609  0.000225942 -49.23 0.0006845737    1.640    0.390
        77  -9.3867     34.5230    200.6305   9.4047110803e+01   3.9389609508e+01 0.0003425872 0.0003297721 -27.65 -1.116006e-05    1.036    0.035
        78  -9.2956     56.5028    197.9832   9.4066536068e+01   3.9387694269e+01 0.0005256186 0.0002138491 -55.60 0.0005264111    2.299    0.565
        79 -10.3882    227.1669    196.8514   9.4216761431e+01   3.9386097037e+01 0.0007342693 0.0004766684 -45.86 0.0009843888    1.473    0.321
        80 -11.5975    192.7072    195.2804   9.4186482326e+01   3.9385195114e+01 0.0009970861 0.0006073646  70.58  0.001875526    1.685    0.406
        81  -9.5830      7.0000    195.9690   9.4023033666e+01   3.9386507428e+01 0.0005767458  0.000196167 -87.69 0.0006248973    2.898    0.655
        82 -11.2324    215.4313    194.0801   9.4206515176e+01   3.9384249791e+01 0.0009670565  0.000474018 -85.78  0.001627573    2.003    0.501
        83 -10.1869    163.0000    191.9860   9.4160437698e+01   3.9383074468e+01 0.0005986821 0.0001961695 -87.80 0.0008118132    3.008    0.668
        84  -9.6328    250.4993    189.9877   9.4237493887e+01   3.9381240660e+01 0.0005339066 0.0003400906 -88.71 0.0005521309    1.552    0.356
        85  -9.6035    246.3409    190.3106   9.4233825232e+01   3.9381486028e+01 0.0003970888 0.0002237335 -44.04 0.0007045212    1.694    0.410
        86  -9.4627    205.5029    190.4457   9.4197885152e+01   3.9381797556e+01 0.0003514489 0.0003311453 -48.05 0.0001288039    1.019    0.019
        87  -9.6666    203.0001    195.9899   9.4195519343e+01   3.9385630908e+01 0.0005927951 0.0003582141 -46.33 0.0007391507    1.579    0.367
        88 -10.9936    232.5311    191.3195   9.4221643674e+01   3.9382256362e+01 0.0008546212 0.0004799786 -31.22  0.001555961    1.724    0.420
        89 -10.4370    167.8693    184.1076   9.4164957219e+01   3.9377621741e+01  0.001144071 0.0003798618  32.43  0.001566266    3.218    0.689
        90  -9.2928     61.6279    184.8104   9.4071450761e+01   3.9378596102e+01  0.000518617 0.0003094095  75.48 0.0009513723    1.708    0.415
        91 -11.2270    248.5375    182.4653   9.4235986258e+01   3.9376067996e+01  0.001386065  0.000373293 -25.29   0.00177138    3.543    0.718
        92  -9.4511    236.3135    182.3326   9.4225234236e+01   3.9376043341e+01 0.0003958617  0.000224415 -46.22 0.0007045268    1.681    0.405
        93 -11.7216     16.1455    182.9339   9.4031487325e+01   3.9377490090e+01  0.001176034 0.0006870345  68.82  0.001757937    1.764    0.433
        94 -10.6720      2.3686    180.3857   9.4019444185e+01   3.9375788277e+01 0.0008928419 0.0004986638  42.01  0.001430053    1.881    0.468
        95 -10.0334     22.7878    180.8109   9.4037397916e+01   3.9376000885e+01 0.0007027019  0.000222933 -45.37 0.0009671141    2.915    0.657
        96 -11.2005    244.6244    177.9253   9.4232675288e+01   3.9372961140e+01 0.0008237492 0.0003609881 -68.72  0.001327194    2.163    0.538
        97  -9.5284     36.0761    178.5084   9.4049161510e+01   3.9374360578e+01 0.0004953303 0.0003443517  -1.34 0.0004996075    1.457    0.314
        98 -10.3376    200.1713    176.7977   9.4193595915e+01   3.9372420957e+01 0.0005152003 0.0003725716 -45.38 0.0005528138    1.325    0.245
        99 -11.2838    224.3786    178.4226   9.4214847266e+01   3.9373413270e+01 0.0006973254 0.0006614534 -11.95 0.0005162077    1.066    0.062
       100  -9.7606    183.3267    173.3142   9.4178878297e+01   3.9370106955e+01 0.0003941442 0.0002253736 -44.78  0.000577922    1.669    0.401
       101  -9.4094     70.2167    177.6061   9.4079228980e+01   3.9373595273e+01 0.0004719146 0.0003119886 -21.10 0.0004735889    1.489    0.329
       102  -9.4094     59.7708    171.9865   9.4070210365e+01   3.9369768006e+01 0.0004740462 0.0002852961 -86.12 0.0008745786    1.635    0.388
       103  -9.6439     74.6716    171.4194   9.4083337856e+01   3.9369313177e+01 0.0004718769 0.0003162033 -21.08 0.0009226325    1.469    0.319
       104 -11.2010     12.8437    169.9822   9.4028984880e+01   3.9368579203e+01   0.00099247 0.0003751897  72.78  0.001448836    2.767    0.639
       105  -9.6860    209.8414    166.3835   9.4202410318e+01   3.9365194507e+01 0.0005046655 0.0003023222 -21.15 0.0005143982    1.642    0.391
       106 -10.8226     51.6103    164.5761   9.4063258529e+01   3.9364696526e+01 0.0008811146 0.0004102414 -41.58  0.001466023    2.043    0.510
       107  -9.7088     41.3346    165.6642   9.4054184795e+01   3.9365489005e+01  0.000389717 0.0002345397  46.26 0.0007052047    1.742    0.426
       108  -9.8499      4.5207    168.0217   9.4021723277e+01   3.9367260951e+01 0.0005595895 0.0003394604 -86.91  0.001043594    1.624    0.384
       109  -8.9778    229.4740    164.5423   9.4219736172e+01   3.9363821538e+01 0.0003549389 0.0003279115 -48.55 0.0001128153    1.038    0.037
       110 -10.5281     45.0034    163.8295   9.4057468999e+01   3.9364209640e+01 0.0005506523 0.0003538008  61.61  0.001051209    1.614    0.380
       111 -10.9012     36.1667    162.3812   9.4049739596e+01   3.9363248256e+01 0.0009819879 0.0004876008 -72.13  0.001206438    1.926    0.481
       112 -10.7820    246.2478    162.2331   9.4234559976e+01   3.9362139169e+01 0.0005064037 0.0003905117  46.26 0.0006440618    1.353    0.261
       113  -9.4799    200.0584    162.7610   9.4193910401e+01   3.9362749426e+01 0.0004491396 0.0002937312   1.07 0.0004939222    1.553    0.356
       114 -10.8392    247.9152    158.6974   9.4236129535e+01   3.9359693717e+01 0.0005084838 0.0004612812  -2.61 0.0009990564    1.121    0.108
       115 -10.1748    238.8082    158.1290   9.4228134762e+01   3.9359351828e+01 0.0005413122 0.0003724735 -50.31  0.001080476    1.388    0.280
       116  -9.2247      8.3114    158.3317   9.4025360050e+01   3.9360569616e+01 0.0003949357 0.0002248567 -46.22 0.0007043384    1.674    0.403
       117 -11.1983     22.0839    155.9102   9.4037551015e+01   3.9358846647e+01  0.001130375 0.0006980213  15.49  0.002149936    1.671    0.402
       118 -10.1303     48.7184    158.7699   9.4060893085e+01   3.9360708023e+01 0.0005683524 0.0002480984  16.89 0.0008894298    2.373    0.579
       119  -9.3611    216.9836    155.0000   9.4209027644e+01   3.9357312925e+01 0.0005849577 0.0001988371  -0.75 0.0008076673    2.979    0.664
       120  -9.3425    151.6721    153.3308   9.4151625094e+01   3.9356494573e+01 0.0003862602 0.0002364601  46.34 0.0005164297    1.712    0.416
       121  -9.3911     31.1728    153.1335   9.4045632346e+01   3.9356896772e+01 0.0004631305 0.0003869208  46.87 0.0002859875    1.248    0.199
       122 -10.3446     10.8435    152.6271   9.4027765075e+01   3.9356629134e+01  0.001418454 0.0003215979  17.84  0.001609864    4.657    0.785
       123 -10.3757    178.1766    151.4378   9.4174996095e+01   3.9355058949e+01 0.0007915851 0.0005629411  36.76  0.001608245    1.470    0.320
       124  -9.2619     46.0257    150.7981   9.4058769898e+01   3.9355226450e+01 0.0004554452 0.0002765585  -0.65  0.000384911    1.669    0.401
       125  -9.6790     26.6480    149.5011   9.4041764512e+01   3.9354412306e+01 0.0006319073 0.0003246906 -87.63 0.0007159247    1.919    0.479
       126  -9.3427     92.6916    148.3122   9.4099894778e+01   3.9353312012e+01 0.0003748824 0.0002416287  46.54 0.0004059781    1.624    0.384
       127 -10.2680    206.9949    145.9867   9.4200505989e+01   3.9351154762e+01 0.0005386517 0.0005098894 -37.97 0.0006342332    1.029    0.028
       128 -11.3711      9.1120    145.4045   9.4026466749e+01   3.9351659458e+01  0.001321985 0.0005434232  20.92  0.002042324    2.534    0.605
       129  -9.5704     19.2907    146.6069   9.4035382586e+01   3.9352447693e+01 0.0003915259 0.0002308959  50.56  0.000700562    1.777    0.437
       130  -9.6934     49.4553    141.9922   9.4062057701e+01   3.9349144631e+01 0.0005206202 0.0003363293 -83.17 0.0003742119    1.516    0.340
       131  -9.4553     38.4993    142.0110   9.4052420540e+01   3.9349203113e+01 0.0005112689 0.0002184313 -54.68  0.000357285    2.196    0.545
       132 -11.4675      2.8073    137.4099   9.4021170347e+01   3.9346175643e+01  0.001210168 0.0006577356 -78.28  0.001167396    1.782    0.439
       133 -12.4252      8.8226    136.4981   9.4026489334e+01   3.9345523910e+01  0.001200286 0.0009075867  61.43  0.002526718    1.367    0.269
       134 -10.6791     57.7117    138.6911   9.4069421103e+01   3.9346835266e+01 0.0006972096  0.000557142  45.76 0.0005315601    1.305    0.234
       135 -10.6637    236.5968    138.8769   9.4226750641e+01   3.9346097810e+01 0.0006278848 0.0004929347  13.72 0.0004715851    1.314    0.239
       136 -10.9294     40.7047    135.8112   9.4054551541e+01   3.9344922180e+01 0.0008480504 0.0005875363  18.99  0.001214913    1.494    0.331
       137 -10.3851     21.7623    136.1418   9.4037881125e+01   3.9345227113e+01 0.0006161103 0.0004672352  22.17 0.0009393544    1.369    0.269
       138  -9.8373    138.0215    135.4694   9.4140153167e+01   3.9344253003e+01 0.0005409035 0.0003383094  -8.57  0.001024642    1.603    0.376
       139  -9.9968     80.1123    133.1788   9.4089291433e+01   3.9342940332e+01 0.0005576625 0.0004419283 -47.61 0.0005099473    1.209    0.173
       140  -9.5124    111.7274    132.3744   9.4117120832e+01   3.9342243780e+01 0.0003810789 0.0002364416  51.68  0.000700011    1.685    0.407
       141 -11.8723     37.4747    130.9247   9.4051861571e+01   3.9341568628e+01  0.001038345 0.0007069063 -31.18 0.0009874118    1.427    0.299
       142 -10.8045     34.7042    128.2832   9.4049506605e+01   3.9339759936e+01 0.0005692316 0.0005177332  -5.80  0.000243044    1.113    0.102
       143 -10.0526    249.5313    129.8238   9.4238389594e+01   3.9339788788e+01 0.0005874116 0.0004258069  11.48  0.001104791    1.419    0.295
       144  -9.7907     68.0000    135.0209   9.4078582387e+01   3.9344262363e+01 0.0005962728 0.0001961691 -87.75 0.0008100842    2.996    0.666
       145  -9.9902     74.0153    129.3703   9.4084045494e+01   3.9340342867e+01 0.0006164486 0.0004553798 -62.23 0.0008600662    1.296    0.228
       146  -9.4386    243.0182    128.4614   9.4232701357e+01   3.9338885820e+01 0.0005055853 0.0003432501  -2.10 0.0004673601    1.490    0.329
       147  -9.4803     59.9990    127.0661   9.4071789398e+01   3.9338815611e+01  0.000419286  0.000400938 -31.63 0.0003700913    1.033    0.032
       148 -10.2482      1.7381    126.3733   9.4020573966e+01   3.9338575459e+01 0.0006513327 0.0004899568  83.75  0.001121525    1.333    0.250
       149 -10.3198    219.7441    124.5514   9.4212347884e+01   3.9336317207e+01 0.0006263151 0.0004748283 -83.00 0.0006503272    1.293    0.227
       150 -12.1489     10.5444    122.8511   9.4028428103e+01   3.9336114135e+01   0.00264562 0.0007702879 -32.93  0.003539271    3.237    0.691
       151 -10.9115     10.4263    102.6742   9.4028951593e+01   3.9322212403e+01  0.001089324 0.0005216744  35.57  0.001809275    2.198    0.545
       152 -11.5682     20.1220    112.8584   9.4037160608e+01   3.9329190966e+01  0.001952969 0.0005077834 -58.10  0.002179424    3.441    0.709
       153 -12.4656     16.3788    108.4176   9.4034006923e+01   3.9326146116e+01  0.001404889 0.0008621674  -7.18            0    1.637    0.389
       154  -9.4260     20.5328    121.4868   9.4037254314e+01   3.9335134457e+01 0.0003545911 0.0003291311 -50.29 -4.517941e-05    1.033    0.032
       155 -10.8626     42.1324    124.7459   9.4056148397e+01   3.9337292014e+01 0.0008007117 0.0006823263  50.03  0.001786263    1.222    0.181
       156  -9.8932    179.1805    116.5007   9.4176914736e+01   3.9330980233e+01 0.0005084068 0.0003443158  -1.88  0.000701461    1.494    0.331
       157  -9.8800     86.4525    116.5102   9.4095374897e+01   3.9331427097e+01 0.0003460331 0.0003369864 -64.96 7.114973e-05    1.022    0.021
       158 -11.6467     35.9964    110.6996   9.4051185863e+01   3.9327639126e+01  0.001401815 0.0007932952 -82.51  0.001604827    1.726    0.420
       159  -9.3283    167.2671    109.0051   9.4166661686e+01   3.9325875129e+01 0.0004510642 0.0003003874 -85.90 0.0006254427    1.477    0.323
       160 -10.1893    241.9810    108.1701   9.4232379404e+01   3.9324909364e+01 0.0006128411 0.0003318058  35.69 0.0006511408    1.939    0.484
       161  -9.3586    133.3830    107.7798   9.4136905081e+01   3.9325195695e+01 0.0005224571 0.0002958772 -68.98 0.0009426761    1.689    0.408
       162 -11.9790     23.2225    106.1606   9.4040094344e+01   3.9324563658e+01  0.001452657 0.0006949908  43.47  0.002412888    2.209    0.547
       163 -10.4141     62.0409    107.0716   9.4074197901e+01   3.9325030093e+01 0.0005350246 0.0004834931 -49.48 0.0003418376    1.061    0.057
       164 -10.9477      3.7296    100.7925   9.4023122181e+01   3.9320942125e+01 0.0008911879  0.000698312  46.45  0.001220456    1.331    0.249
       165 -10.2685      6.4079    106.2220   9.4025308040e+01   3.9324672688e+01 0.0007682316 0.0003903688 -59.95 0.0008480693    1.862    0.463
       166 -10.6266      3.0446    105.1525   9.4022384113e+01   3.9323948927e+01 0.0007388082 0.0006136296  48.91  0.001040776    1.254    0.203
       167  -9.8349    223.3286    103.9760   9.4216101847e+01   3.9322120277e+01 0.0004983832 0.0004358361 -84.82 0.0005312071    1.129    0.114
       168 -10.1140     93.6461    103.7281   9.4102088789e+01   3.9322587635e+01  0.000359544 0.0003470801  54.04 0.0002400391    1.078    0.072
       169 -11.0917     70.0421    102.5942   9.4081369959e+01   3.9321910510e+01 0.0008933977 0.0005895651 -23.27 0.0003487009    1.487    0.328
       170 -10.8284    247.9759    102.2884   9.4237821215e+01   3.9320823556e+01 0.0005060743 0.0004652286 -18.20 0.0007307096    1.084    0.078
       171  -9.6082    119.8444    101.3992   9.4125193294e+01   3.9320862938e+01 0.0005215058 0.0002973654 -22.04 0.0009425931    1.722    0.419
       172 -10.4848     35.8135    101.2286   9.4051317395e+01   3.9321114118e+01 0.0007654525 0.0004725381   6.15  0.001253517    1.655    0.396
       173 -10.1525     27.8835    100.9624   9.4044353404e+01   3.9320963128e+01 0.0005103456 0.0004645993 -45.41 0.0002684659    1.056    0.053
       174 -10.8625     63.4655     98.5047   9.4075712829e+01   3.9319121146e+01  0.001277657 0.0006089463 -13.10  0.002145587    2.086    0.521
       175 -11.4159     20.6684     97.1598   9.4038127608e+01   3.9318372139e+01  0.001381753 0.0005572835  83.86  0.001557111    2.507    0.601
       176  -9.8787     50.4876     99.1401   9.4064283302e+01   3.9319614101e+01 0.0004987157 0.0003399027  89.70 0.0004118485    1.455    0.313
       177  -9.9509     38.6646     96.2782   9.4053976764e+01   3.9317691482e+01 0.0003719559 0.0002417583  42.61  0.000281849    1.611    0.379
       178 -10.3456      4.3075     86.3464   9.4024080013e+01   3.9310986278e+01 0.0007286219 0.0004499397 -51.35  0.001388628    1.542    0.352
       179 -11.4166     10.7854     91.6446   9.4029610057e+01   3.9314611417e+01  0.001627322 0.0007656214 -46.81  0.002477227    2.012    0.503
       180  -9.3340      7.2465     88.6298   9.4026592661e+01   3.9312548081e+01 0.0005049385 0.0003506108   8.10  0.001005091    1.475    0.322
       181 -10.3109      1.5788     93.9940   9.4021443029e+01   3.9316266263e+01 0.0008395944 0.0003261441 -70.14  0.001276257    2.428    0.588
       182  -9.4893    227.4494     93.5056   9.4220030644e+01   3.9314883384e+01 0.0003464849 0.0003363878 -63.50 9.561434e-05    1.018    0.018
       183  -9.8951    108.6499     92.3055   9.4115625935e+01   3.9314648838e+01 0.0009323121 0.0003840326  61.17  0.001419363    2.573    0.611
       184  -9.3169    171.0206     91.4877   9.4170482177e+01   3.9313785933e+01 0.0005458032 0.0002092428 -33.07 0.0008098531    2.492    0.599
       185  -9.5162     37.7388     90.6291   9.4053337052e+01   3.9313802902e+01 0.0005826209 0.0003192312 -47.79 0.0007153966    1.736    0.424
       186 -10.7854     26.5979     90.8296   9.4043536585e+01   3.9313986624e+01 0.0008656143 0.0004561457 -10.22  0.001520772    1.897    0.473
       187 -10.1704     97.4692     89.5081   9.4105881350e+01   3.9312772310e+01  0.000351666 0.0003322923 -52.14  0.000809786    1.014    0.014
       188  -9.7831     73.0003     88.6927   9.4084395356e+01   3.9312319083e+01  0.000471722  0.000431391 -10.86 0.0003022351    1.100    0.091
       189  -9.4217    103.5337     88.5334   9.4111242209e+01   3.9312073149e+01 0.0003441274 0.0003389085 -73.72 0.0002213965    1.033    0.032
       190 -11.1252     48.4259     85.8096   9.4062880528e+01   3.9310437699e+01  0.001462432 0.0007102704  51.96  0.001500108    2.174    0.540
       191  -9.8823     45.2955     87.3309   9.4060081817e+01   3.9311499019e+01 0.0005129069  0.000458513 -11.66 0.0004284702    1.122    0.109
       192 -11.0290     24.0207     85.4905   9.4041436156e+01   3.9310318279e+01  0.001312142 0.0004133189 -52.39  0.001829632    2.911    0.657
       193 -11.8344     20.0384     81.0220   9.4038073869e+01   3.9307255447e+01  0.002460116 0.0008924081  -9.78  0.003109676    2.751    0.637
       194 -10.7696    117.9206     83.4881   9.4124041862e+01   3.9308530421e+01 0.0007153461 0.0005385407 -36.56 0.0006321995    1.283    0.221
       195 -11.2358     78.1376     71.9852   9.4089420948e+01   3.9300784583e+01 0.0009948149 0.0005358877   9.14  0.001062494    1.904    0.475
       196 -10.3933     75.4248     79.7230   9.4086800399e+01   3.9306128057e+01 0.0008132691 0.0004204857 -86.09  0.001223203    1.901    0.474
       197 -10.3666     71.6443     83.2832   9.4083368593e+01   3.9308597668e+01 0.0005486471 0.0004729339  68.13 0.0006421783    1.190    0.160
       198 -11.9171     72.1033     78.6030   9.4083914951e+01   3.9305370875e+01  0.001484112  0.000596163 -46.08  0.001627272    2.339    0.573
       199 -11.2419     85.2616     80.7617   9.4095415638e+01   3.9306800410e+01 0.0007375131 0.0005612739 -69.12  0.001343818    1.265    0.210
       200 -10.7516      2.4941     71.9731   9.4022933465e+01   3.9301089973e+01    0.0019502 0.0007432101   6.17  0.002920755    2.683    0.627
       201 -11.6579      3.3616     78.4774   9.4023493510e+01   3.9305568135e+01  0.001257875  0.000771653  37.02  0.002213979    1.707    0.414
       202 -11.9990      7.3418     76.8841   9.4027041704e+01   3.9304454778e+01  0.001291844 0.0008211178 -64.84  0.001119546    1.504    0.335
       203 -11.1292    150.6906     78.1996   9.4153006404e+01   3.9304730187e+01 0.0007527086 0.0005847348  67.82 0.0008522418    1.321    0.243
       204 -10.0547     93.4754     77.4985   9.4102734923e+01   3.9304515205e+01 0.0009063092 0.0002898498 -53.70  0.001264621    2.871    0.652
       205 -11.9869     61.4647     73.4556   9.4074721071e+01   3.9301870150e+01  0.001863501  0.001082269 -45.45  0.002876291    1.643    0.391
       206 -10.3525     54.4630     72.1960   9.4068605360e+01   3.9301032084e+01 0.0005556463  0.000429494  57.51 0.0004526885    1.342    0.255
       207  -9.9983    121.5904     76.2351   9.4127486162e+01   3.9303515672e+01 0.0004995059 0.0003080864 -69.68 0.0007348837    1.555    0.357
       208 -12.2246     48.4895     71.2216   9.4063384815e+01   3.9300385934e+01  0.002013305   0.00110651 -58.20  0.003263726    1.726    0.421
       209 -11.4150     40.4064     72.5749   9.4056238488e+01   3.9301352085e+01  0.001307967 0.0007465633 -73.70 0.0008166248    1.686    0.407
       210 -11.1604     36.3270     68.2618   9.4052785815e+01   3.9298397124e+01  0.001099589 0.0006346125 -43.16  0.001601419    1.656    0.396
       211 -10.8602     31.1501     66.2755   9.4048296988e+01   3.9297049808e+01 0.0008354442 0.0005725449  85.44 0.0008664915    1.458    0.314
       212 -10.7838    110.3731     73.0270   9.4117723191e+01   3.9301357240e+01 0.0007442139 0.0003039481 -27.49   0.00115184    2.369    0.578
       213 -10.9187     27.1829     70.0523   9.4044693380e+01   3.9299668278e+01  0.001415139 0.0004984299  80.16   0.00200998    2.920    0.658
       214 -10.5182     16.9661     72.6056   9.4035634238e+01   3.9301468698e+01 0.0006485774 0.0004898064  73.88 0.0007479843    1.348    0.258
       215 -10.4084    175.0518     71.5807   9.4174616166e+01   3.9300048648e+01 0.0006792614 0.0005037226 -85.78 0.0005138608    1.328    0.247
       216  -9.3789    126.4062     80.4905   9.4131591308e+01   3.9306425144e+01 0.0003451832 0.0003333359 -75.37 -6.377842e-05    1.031    0.030
       217 -10.0962    145.2349     71.6045   9.4148407956e+01   3.9300212345e+01 0.0006683099 0.0003937526  73.90 0.0005975472    1.734    0.423
       218 -11.2696     94.9764     67.4958   9.4104357699e+01   3.9297616216e+01  0.001282841 0.0007805472 -88.26  0.002428935    1.623    0.384
       219 -10.7318     68.8037     67.6431   9.4081349481e+01   3.9297833523e+01 0.0009775797 0.0004656035 -82.05   0.00100854    2.043    0.511
       220 -10.6283    157.8974     67.6556   9.4159655345e+01   3.9297429518e+01  0.001481957 0.0004367947  42.40  0.001891256    3.722    0.731
       221 -11.9522      4.2794     65.0782   9.4024717228e+01   3.9296332312e+01  0.001630441  0.000755911  48.16  0.001338152    2.284    0.562
       222 -10.6342     21.3085     66.1255   9.4039651693e+01   3.9296986359e+01 0.0008323787 0.0005683283  15.23  0.001180558    1.511    0.338
       223  -9.5337     15.8143     66.7195   9.4034804395e+01   3.9297417658e+01 0.0007625748 0.0003593742  55.73  0.001055315    2.240    0.554
       224  -9.7190    146.6494     65.8480   9.4149823276e+01   3.9296238985e+01 0.0004835957 0.0003084145  75.21 0.0001692368    1.596    0.373
       225 -10.2443    119.1794     65.8024   9.4125681221e+01   3.9296338324e+01 0.0007002405 0.0004552171 -41.93 0.0004125167    1.475    0.322
       226 -10.5565    121.8890     61.8534   9.4128181560e+01   3.9293604588e+01 0.0007162729 0.0004312863 -59.03   0.00117936    1.581    0.367
       227 -10.0837    130.0000     65.0103   9.4135215245e+01   3.9295741622e+01 0.0005913571 0.0001961691 -87.78 0.0008065452    2.971    0.663
       228 -11.3180     83.8488     62.3975   9.4094732555e+01   3.9294153104e+01   0.00114532 0.0008634577  40.74  0.001558712    1.386    0.278
       229 -10.2167     86.0286     58.2501   9.4096774463e+01   3.9291285725e+01 0.0007205179 0.0005172046 -84.75 0.0004474442    1.369    0.270
       230 -10.7193     76.9954     65.1735   9.4088624680e+01   3.9296096076e+01 0.0007268433 0.0005471442  54.62  0.001518292    1.381    0.276
       231  -9.7246     77.1505     61.2189   9.4088881487e+01   3.9293370544e+01 0.0005543638 0.0004485206  43.92 0.0007047135    1.290    0.225
       232 -10.4160    174.0017     63.7090   9.4173926598e+01   3.9294629880e+01 0.0006303199  0.000507622  74.32  0.000625249    1.263    0.208
       233 -10.6362     51.6857     62.4313   9.4066464039e+01   3.9294315703e+01 0.0007208954 0.0005396968 -52.00  0.000936048    1.277    0.217
       234 -10.9259     10.8418     62.6183   9.4030561297e+01   3.9294611601e+01 0.0006947997 0.0006222042  27.02 0.0004396563    1.163    0.140
       235  -9.7583    192.4908     62.0496   9.4190225130e+01   3.9293392319e+01 0.0005083725 0.0003377445 -83.10 0.0003364006    1.474    0.321
       236 -10.0529     93.1214     61.2357   9.4102917266e+01   3.9293311146e+01 0.0005952021 0.0004424592 -68.31 0.0005353924    1.294    0.227
       237 -11.3292     56.8881     61.5262   9.4071064130e+01   3.9293669974e+01  0.001111458 0.0004338263 -47.07  0.001229956    2.401    0.584
       238 -10.1841     46.1709     47.0596   9.4062089811e+01   3.9283747370e+01 0.0005915091 0.0004849971 -77.08 0.0002617684    1.187    0.158
       239 -11.6712     38.0817     52.0014   9.4054829190e+01   3.9287186107e+01  0.002106546  0.001217251 -68.89  0.003915164    1.656    0.396
       240 -10.7275     44.7610     51.9849   9.4060699370e+01   3.9287146970e+01 0.0006834537 0.0005994901 -84.33 0.0003483662    1.125    0.111
       241 -11.0477     27.2834     61.3510   9.4045050762e+01   3.9293672461e+01  0.001025313 0.0005314802 -10.75   0.00179092    1.926    0.481
       242 -11.6899     33.5860     59.8304   9.4050636823e+01   3.9292598967e+01 0.0008455946  0.000612297 -28.70 0.0002996591    1.346    0.257
       243  -9.6359    183.8135     61.1824   9.4182624690e+01   3.9292839211e+01 0.0005050566 0.0003725588 -47.27 0.0004829839    1.298    0.230
       244 -10.9387     64.8111     59.7468   9.4078081865e+01   3.9292409932e+01  0.001080621 0.0005255296  -4.24  0.001274337    2.072    0.517
       245 -10.7548     70.1592     58.6260   9.4082816248e+01   3.9291614561e+01  0.001211556 0.0006835351 -89.21  0.002206665    1.754    0.430
       246 -10.0658     18.2620     59.4678   9.4037180443e+01   3.9292411283e+01 0.0006400817 0.0003699863  60.39 0.0007400101    1.802    0.445
       247 -10.0439    112.4611     57.5453   9.4120025608e+01   3.9290680036e+01 0.0006897947   0.00032656  -9.44  0.000631545    2.112    0.527
       248 -10.2712    136.9431     57.8823   9.4141531126e+01   3.9290797007e+01 0.0005441701 0.0004236922 -45.63  0.001155965    1.232    0.188
       249 -11.0259    123.1530     56.6021   9.4129450412e+01   3.9289980292e+01 0.0008236605 0.0005196493  50.00 0.0009549498    1.658    0.397
       250 -12.2128    128.1294     51.5418   9.4133975754e+01   3.9286470032e+01  0.001384304 0.0007535568 -68.32 0.0005078057    1.754    0.430
       251 -11.0638     99.9597     55.9503   9.4109087257e+01   3.9289638354e+01  0.001463084 0.0005751612  -4.32  0.002228524    2.562    0.610
       252  -9.3565     80.9682     57.0036   9.4092365096e+01   3.9290449257e+01 0.0004173566 0.0003904091 -70.58  0.000412328    1.040    0.039
       253  -9.2353     58.2789     56.3582   9.4072444848e+01   3.9290103166e+01 0.0003922053 0.0002245311 -49.07 0.0002323278    1.662    0.398
       254 -11.0832      4.7629     53.1800   9.4025512234e+01   3.9288132355e+01  0.001136573 0.0005704499 -34.69  0.001965694    1.917    0.478
       255 -10.5629     87.1658     52.6140   9.4097945182e+01   3.9287397174e+01  0.000537965 0.0004139311  19.29 0.0009112511    1.346    0.257
       256 -10.7352     12.9284     50.4997   9.4032771284e+01   3.9286253403e+01  0.001319608 0.0005433243 -88.84  0.002051476    2.402    0.584
       257 -12.0309      9.5482     44.7661   9.4029978893e+01   3.9282316220e+01  0.002185486    0.0010169 -28.86  0.003483763    2.082    0.520
       258 -11.0128      7.0179     40.8978   9.4027875654e+01   3.9279660858e+01  0.000610907 0.0004771224 -70.81 0.0004570796    1.236    0.191
       259  -9.7437    157.6880     52.0164   9.4159937088e+01   3.9286654318e+01 0.0004906296 0.0004403545 -71.61 0.0003842449    1.081    0.075
       260 -10.7201     72.7351     51.0511   9.4085311196e+01   3.9286383957e+01 0.0009564384   0.00053987 -13.66   0.00174315    1.762    0.432
       261 -10.9087     51.2110     48.5237   9.4066473864e+01   3.9284734998e+01 0.0007446093 0.0005052025  45.06 0.0007636432    1.541    0.351
       262  -8.9558    250.3381     51.7371   9.4241363546e+01   3.9285977015e+01 0.0003676353 0.0002424418  41.01 0.0003635167    1.587    0.370
       263 -10.5594    114.6971     49.5986   9.4122230304e+01   3.9285194092e+01 0.0009773757 0.0005144078 -75.05  0.001724152    1.829    0.453
       264  -9.4313     50.0358     51.9720   9.4065335228e+01   3.9287115882e+01 0.0005010924 0.0003677284 -43.31  0.000346542    1.308    0.235
       265 -10.2777     43.9477     57.1825   9.4059824809e+01   3.9290731603e+01 0.0005845406 0.0004954232 -80.50 0.0003326523    1.155    0.135
       266  -9.3270    104.3426     46.2868   9.4113231250e+01   3.9282959889e+01 0.0005704868 0.0002104389 -32.38 0.0006080281    2.590    0.614
       267 -10.7242    100.6941     48.5570   9.4109956485e+01   3.9284540756e+01 0.0006995976 0.0005206917  64.29  0.001452315    1.385    0.278
       268 -10.3727     98.5944     44.5144   9.4108233786e+01   3.9281764773e+01  0.001028679 0.0004620603 -52.20  0.001256876    2.096    0.523
       269 -10.9997     95.3856     39.8259   9.4105556324e+01   3.9278548787e+01   0.00096878 0.0008265892  58.18  0.001972832    1.214    0.176
       270 -10.9819    142.7357     46.2375   9.4146970093e+01   3.9282745317e+01 0.0006952944 0.0005735006  86.46 0.0005946083    1.211    0.174
       271  -9.0108     62.5237     47.4674   9.4076447338e+01   3.9283958930e+01 0.0003617626  0.000321279 -47.49 9.984167e-05    1.080    0.074
       272 -10.6127    157.8220     45.6209   9.4160245220e+01   3.9282246858e+01 0.0007054552   0.00025257 -83.53  0.001014022    2.715    0.632
       273  -9.9869     69.3761     45.8928   9.4082516968e+01   3.9282844388e+01 0.0005837934  0.000459435  20.95 0.0006218178    1.318    0.241
       274  -9.4973     22.9515     46.4678   9.4041704115e+01   3.9283435186e+01 0.0004863864    0.0003424  -5.25 0.0001402008    1.431    0.301
       275 -10.8777     23.9009     41.9937   9.4042676845e+01   3.9280348608e+01 0.0007549691   0.00062145 -78.20 0.0007884252    1.185    0.156
       276  -9.2412    233.4156     45.4425   9.4226675994e+01   3.9281732353e+01 0.0003493499 0.0003281232 -54.33 0.0001558204    1.020    0.020
       277 -10.2066    151.7824     45.2162   9.4154950175e+01   3.9281997613e+01 0.0006591821 0.0002529749  45.83 0.0009280381    2.792    0.642
       278 -10.6698    122.3914     44.4042   9.4129148021e+01   3.9281579002e+01  0.000913898 0.0006457331 -80.37  0.001264939    1.381    0.276
       279 -10.9372    163.0216     42.4904   9.4164907270e+01   3.9280063993e+01 0.0006290585  0.000502583 -81.63 0.0002461898    1.226    0.184
       280 -10.1044     64.0224     41.5753   9.4077944498e+01   3.9279892673e+01 0.0007344944 0.0004578907  77.89  0.001169042    1.626    0.385
       281 -10.3712     56.6126     41.8194   9.4071426041e+01   3.9280092569e+01 0.0007610347 0.0004137856  81.88  0.001347388    1.855    0.461
       282  -9.5091     52.3008     42.3183   9.4067621935e+01   3.9280454659e+01 0.0003875675 0.0002281462 -46.26 0.0002439619    1.620    0.383
       283 -10.4072    226.4003     40.3183   9.4220661041e+01   3.9278239346e+01 0.0006233523 0.0005690583  45.01 0.0004051982    1.142    0.124
       284  -9.4099    235.5771     40.5466   9.4228717783e+01   3.9278346991e+01 0.0003524934 0.0003265173 -52.49 0.0003578199    1.034    0.033
       285 -10.2987     89.1740     39.3161   9.4100113762e+01   3.9278225452e+01  0.000823653 0.0002633225  62.43  0.001083115    3.398    0.706
       286 -10.1963     44.2696     39.5851   9.4060648955e+01   3.9278605247e+01 0.0007752648 0.0003571059  74.09  0.001254048    2.237    0.553
       287  -9.3337    159.3280     39.2926   9.4161756867e+01   3.9277878895e+01 0.0003875246 0.0002280701 -43.55 0.0003163821    1.624    0.384
       288 -10.3091    135.5934     38.2234   9.4140934038e+01   3.9277257549e+01 0.0006845663 0.0003300785  85.95  0.001137457    2.076    0.518
       289 -10.0907     86.1028     45.1269   9.4097238539e+01   3.9282243039e+01 0.0006276778  0.000386422 -15.12 0.0008328639    1.613    0.380
       290 -11.3932     70.3321     36.4319   9.4083645879e+01   3.9276321358e+01  0.001298861 0.0005211921 -56.38  0.001382738    2.329    0.571
       291 -11.6658     81.9450     36.4291   9.4093849675e+01   3.9276268423e+01  0.001074028 0.0007114831 -32.07  0.001815656    1.464    0.317
       292  -9.8902     19.7532     38.0058   9.4039155643e+01   3.9277617542e+01 0.0006270881 0.0005005688 -13.48  0.000671794    1.249    0.199
       293 -11.4111     24.3523     35.4842   9.4043274739e+01   3.9275861556e+01 0.0009765595 0.0007602192  38.06  0.001026964    1.341    0.255
       294 -10.3618      1.4771     37.9617   9.4023098376e+01   3.9277659581e+01 0.0005488594 0.0003752484 -64.59 0.0004106436    1.400    0.286
       295  -9.7432    101.8818     36.8738   9.4111353722e+01   3.9276485198e+01 0.0005482728 0.0004382117 -39.70 0.0006238294    1.206    0.171
       296  -9.9339     56.6329     35.7491   9.4071629911e+01   3.9275909879e+01 0.0004900962 0.0003160187  77.50 0.0005995831    1.573    0.364
       297 -10.5496    128.4314     34.6757   9.4134747577e+01   3.9274847152e+01 0.0007256604 0.0004922337 -42.63 0.0001810952    1.414    0.293
       298 -10.3179    111.0676     35.0877   9.4119478765e+01   3.9275212288e+01 0.0005071349 0.0004975011 -87.09 0.0004091097    1.041    0.039
       299 -10.4667    106.1577     34.3324   9.4115187515e+01   3.9274714454e+01 0.0007322053 0.0004553132  42.62 0.0009689701    1.685    0.407
       300 -10.1595     32.5571     34.0596   9.4050527826e+01   3.9274846541e+01 0.0009206377 0.0004701842   0.36  0.001590412    1.986    0.496
       301 -10.0860     77.0443     33.5228   9.4089632140e+01   3.9274287487e+01 0.0005304926 0.0003424942  -4.92 0.0005626684    1.561    0.359
       302 -11.2333      2.1782     32.0323   9.4023898904e+01   3.9273571350e+01   0.00106409 0.0006058493  33.53  0.001934504    1.839    0.456
       303 -10.4256      8.0096     21.2860   9.4029356236e+01   3.9266144092e+01 0.0006334289 0.0004692821  22.30 0.0006614634    1.401    0.286
       304 -10.3250      5.2042     18.2090   9.4026987218e+01   3.9264035020e+01 0.0008319685 0.0004463528 -82.00  0.001241431    1.817    0.450
       305 -10.3261      9.3780     33.1728   9.4030189360e+01   3.9274328915e+01  0.000607411 0.0004605095  52.59 0.0007868991    1.373    0.272
       306 -10.2836    137.0193    247.5459   9.4135904897e+01   3.9421483582e+01 0.0005508621 0.0004609872 -80.93  0.000536649    1.170    0.146
       307  -9.4123    162.4947     30.5715   9.4164798684e+01   3.9271853873e+01 0.0003565381 0.0003243234 -45.45 3.405571e-05    1.056    0.053
       308 -10.2743     50.2183     27.8445   9.4066236407e+01   3.9270490642e+01  0.001146068 0.0002607198 -65.37  0.001377734    3.886    0.743
       309 -10.7388    124.8554     27.9799   9.4131806817e+01   3.9270250330e+01 0.0005357601 0.0004820997 -24.44 0.0002452578    1.095    0.087
       310  -9.3373    101.2744     28.6929   9.4111067492e+01   3.9270850975e+01  0.000362789 0.0002450166  48.97 0.0002889214    1.547    0.354
       311 -10.8014     89.4152     27.1338   9.4100695538e+01   3.9269830355e+01  0.001045612 0.0004355709 -24.99  0.001644209    2.335    0.572
       312 -12.1927    225.7968    246.3621   9.4214105692e+01   3.9420220429e+01  0.002103688 0.0008873578 -48.22  0.003367284    2.230    0.552
       313 -11.5195     24.6184     27.1161   9.4043767268e+01   3.9270094723e+01  0.000607019 0.0005951566 -89.87 0.0003374897    1.043    0.041
       314  -9.6435    115.4280    244.7203   9.4116979729e+01   3.9419637562e+01 0.0004963599 0.0003095763 -69.14 0.0006241124    1.538    0.350
       315 -10.4826     27.7563     19.5966   9.4046756374e+01   3.9264900866e+01 0.0006257093 0.0005808542  44.87 0.0007988277    1.123    0.110
       316  -9.7773     15.4289     27.5499   9.4035680144e+01   3.9270430603e+01  0.001074371 0.0002145491 -36.48  0.001206007    4.480    0.777
       317 -10.2484    148.2935    244.3494   9.4145927405e+01   3.9419227161e+01    0.0003945 0.0002243167 -47.89 0.0003213049    1.674    0.403
       318 -11.1799     65.8345     21.3961   9.4080153470e+01   3.9265980740e+01  0.001129672 0.0005510085 -34.47  0.001926492    1.971    0.493
       319 -10.7074    128.8633     23.6084   9.4135459242e+01   3.9267219178e+01 0.0006360242 0.0003809278  51.00 0.0009287439    1.748    0.428
       320  -9.9553    119.0155     24.0110   9.4126795482e+01   3.9267542999e+01 0.0005721136 0.0003724455  50.28 0.0006403007    1.605    0.377
       321 -10.6741     54.1781     23.3695   9.4069852568e+01   3.9267390475e+01 0.0006357382 0.0005908587 -69.82  0.000487151    1.045    0.043
       322 -10.8975     84.4416     22.4107   9.4096469442e+01   3.9266598156e+01 0.0006655828 0.0005456629 -51.50  0.000607351    1.167    0.143
       323 -10.2653    213.2953     22.6341   9.4209663982e+01   3.9266123837e+01 0.0003861679 0.0002353012  49.62 0.0007030176    1.718    0.418
       324 -10.1723    100.1805     21.6246   9.4110320278e+01   3.9265985647e+01 0.0007426518 0.0004224314 -39.61  0.001358644    1.685    0.407
       325  -9.8872    104.2126     18.8815   9.4113945478e+01   3.9264077141e+01 0.0006190219 0.0003487701 -47.69  0.001122734    1.689    0.408
       326  -9.7948     34.5688     22.5243   9.4052651061e+01   3.9266890183e+01 0.0004982484 0.0003084904 -23.90 0.0001529597    1.583    0.368
       327  -8.7376     35.7034     19.6595   9.4053736105e+01   3.9264911608e+01 0.0006063053  0.000457623 -53.29  0.001271577    1.266    0.210
       328 -11.1576     70.7555     25.8233   9.4084341630e+01   3.9269009835e+01  0.001474717 0.0006790375 -16.83  0.002439134    2.146    0.534
       329 -10.1273    110.0440    243.1626   9.4112286598e+01   3.9418588921e+01 0.0007220908 0.0003704126  54.70  0.001231262    2.049    0.512
       330  -9.0801    224.2271     18.9600   9.4219374999e+01   3.9263533739e+01 0.0004347211 0.0002849651 -88.63 0.0003078706    1.508    0.337
       331 -11.6023     73.9736    238.0164   9.4080686179e+01   3.9415203494e+01   0.00157989  0.001136737  21.62  0.003251164    1.442    0.307
       332  -9.4820     50.3176     18.9104   9.4066597808e+01   3.9264334355e+01 0.0004712424 0.0004238263 -72.97 0.0002783418    1.081    0.075
       333 -10.2262    164.6648     14.5778   9.4167180303e+01   3.9260822594e+01 0.0007077569 0.0003804722  37.69   0.00073635    1.955    0.488
       334  -9.3371    168.6413    250.6824   9.4163653838e+01   3.9423491406e+01 0.0004043271  0.000219394 -43.75  0.000704404    1.758    0.431
       335 -11.6735     34.0502    241.3486   9.4045434373e+01   3.9417667070e+01  0.001453173 0.0009038861 -10.84   0.00278867    1.606    0.377
       336  -9.5872     24.4537    232.4714   9.4037260955e+01   3.9411589199e+01   0.00059436 0.0004636571  13.67 0.0009124979    1.322    0.243
       337  -9.8296    188.2570     16.9573   9.4187834739e+01   3.9262342812e+01 0.0004889576 0.0004453408 -70.77 0.0003867287    1.065    0.061
       338  -9.8363    108.2435     17.2299   9.4117536498e+01   3.9262920562e+01 0.0004830505 0.0003834201  47.12 0.0004263098    1.314    0.239
       339  -9.9777     81.8563     16.5612   9.4094376102e+01   3.9262579120e+01 0.0005993526 0.0004382887 -65.81  0.000338795    1.312    0.238
       340  -9.9805      9.8778     15.9603   9.4031162784e+01   3.9262467215e+01 0.0005658077 0.0004203009 -45.54 0.0006325865    1.290    0.225
       341 -11.1061     31.3585    237.8977   9.4043171475e+01   3.9415300184e+01  0.001202711 0.0006855509 -67.89  0.001644854    1.676    0.403
       342 -10.2669     29.1500    232.9046   9.4041381928e+01   3.9411868793e+01 0.0008490754 0.0005610431  24.65  0.001269605    1.574    0.365
       343 -12.2422     19.1061    238.7447   9.4032358135e+01   3.9415932905e+01  0.001647528    0.0011588  -1.88  0.003360306    1.439    0.305
       344  -9.9127     88.6244    241.1864   9.4093488149e+01   3.9417323631e+01 0.0005285157 0.0002912393 -68.60 0.0007594638    1.734    0.423
       345  -9.4259     50.3079    240.3240   9.4059779765e+01   3.9416894143e+01 0.0003915413 0.0002264896 -46.11  0.000411801    1.648    0.393
       346  -9.8732     70.7606     14.3921   9.4084694900e+01   3.9261133338e+01 0.0004735092  0.000435151  83.76 0.0005651238    1.097    0.088
       347  -9.1615     50.3209     14.6612   9.4066731065e+01   3.9261406585e+01 0.0003865107 0.0002362718  47.10 0.0007050216    1.714    0.417
       348 -11.3336    177.5982    234.8289   9.4172011541e+01   3.9412522901e+01  0.001009805 0.0004446946 -45.38  0.001265883    2.146    0.534
       349 -10.4141     71.9417    243.8184   9.4078719626e+01   3.9419210011e+01 0.0007388967 0.0004376032 -62.03 0.0007176687    1.608    0.378
       350  -9.9351    195.7458    238.3981   9.4187882486e+01   3.9414890058e+01 0.0006601653 0.0004205357 -19.37  0.001271614    1.549    0.354
       351  -9.2341     90.2916     12.7563   9.4101901778e+01   3.9259919789e+01 0.0003475983 0.0002469661  41.52 0.0002500473    1.471    0.320
       352 -10.6545    159.7441    235.8751   9.4156262209e+01   3.9413332270e+01 0.0006333711 0.0004545717 -24.48 0.0008031835    1.366    0.268
       353 -11.1426     73.8309    233.1538   9.4080709475e+01   3.9411853631e+01 0.0008898885 0.0006047153  16.10  0.001722255    1.520    0.342
       354 -10.3773     12.0011    238.0539   9.4026124323e+01   3.9415484931e+01 0.0005365007 0.0005184042  65.13 0.0007563528    1.071    0.066
       355 -10.7151    167.0300    233.7877   9.4162738685e+01   3.9411858090e+01 0.0006229545  0.000499006 -78.32 0.0008081601    1.217    0.178
       356  -9.8403     85.9897    233.1769   9.4091412825e+01   3.9411816463e+01 0.0005452934 0.0003527321  59.64 0.0008805664    1.606    0.377
       357  -9.9236     79.6028    231.3778   9.4085845055e+01   3.9410604843e+01  0.000638532 0.0004186611  -6.07  0.000600356    1.535    0.348
       358 -11.2965    156.5081    240.9447   9.4153261735e+01   3.9416841302e+01 0.0005743229 0.0004796046  45.16  0.001213779    1.249    0.199
       359 -11.1568    181.0036    248.9900   9.4174589128e+01   3.9422263523e+01 0.0009293586 0.0004158924 -78.32  0.001509919    2.155    0.536
       360 -11.1832    153.5049    233.6539   9.4150835860e+01   3.9411832203e+01  0.000733643 0.0005062681 -52.96 0.0007756241    1.383    0.277
       361 -10.4543    190.4418    226.8776   9.4183553888e+01   3.9406978984e+01 0.0008760077 0.0004083779 -87.02  0.001188373    2.111    0.526
       362  -9.2889    249.3444    227.2698   9.4235393658e+01   3.9406936992e+01 0.0003844043 0.0002282553 -41.37 0.0003807523    1.613    0.380
       363 -10.2889    129.8398    226.8193   9.4130208035e+01   3.9407235996e+01 0.0009710112 0.0003495333  35.69  0.001382311    2.965    0.663
       364 -10.3290     88.1485    227.1271   9.4093497774e+01   3.9407638401e+01 0.0005785121 0.0004454767 -46.25 0.0007966332    1.245    0.197
       365 -10.3716     66.2937    226.4182   9.4074280643e+01   3.9407245059e+01 0.0007984535 0.0005129732  12.42  0.001001962    1.602    0.376
       366 -10.0386      5.8657    226.8255   9.4021073023e+01   3.9407772357e+01 0.0008966094 0.0002345797  30.56  0.001072652    4.138    0.758
