#   1 NUMBER                 Running object number                                     
#   2 MAG_AUTO               Kron-like elliptical aperture magnitude                    [mag]
#   3 X_IMAGE                Object position along x                                    [pixel]
#   4 Y_IMAGE                Object position along y                                    [pixel]
#   5 X_WORLD                Barycenter position along world x axis                     [deg]
#   6 Y_WORLD                Barycenter position along world y axis                     [deg]
#   7 A_WORLD                Profile RMS along major axis (world units)                 [deg]
#   8 B_WORLD                Profile RMS along minor axis (world units)                 [deg]
#   9 THETA_WORLD            Position angle (CCW/world-x)                               [deg]
#  10 FWHM_WORLD             FWHM assuming a gaussian core                              [deg]
#  11 ELONGATION             A_IMAGE/B_IMAGE                                           
#  12 ELLIPTICITY            1 - B_IMAGE/A_IMAGE                                       
         1  -9.1477     39.7035      7.2505   8.8778404342e+01   7.0179759427e+01      0.39313    0.2746549 -10.64  0.002404032    1.411    0.291
         2 -10.0834     51.0490     36.5318   9.7517252133e+01   6.3475577769e+01     0.789202    0.5024078 -67.30  0.003894198    2.232    0.552
         3 -10.6121     39.3711     30.0557   9.9757144664e+01   6.6158744230e+01    0.9244672    0.3009082 -51.06  0.003787704    2.581    0.612
         4 -11.7372     45.0715     22.2873   9.3953198044e+01   6.6938331663e+01     1.133425    0.9037089 -76.15  0.006671741    1.987    0.497
         5  -9.2455     39.8809     15.1385   9.2836991994e+01   6.8853812523e+01    0.2881751    0.2035649 -38.40  0.001089363    1.173    0.147
         6 -10.1415     96.8550      3.8866   6.6458387207e+01   6.0423880168e+01     1.330486    0.5367446 -46.31  0.004555574    3.888    0.743
         7 -12.0687    131.1964     13.2957   6.2891268440e+01   5.1294105218e+01     2.188841     1.281426 -67.74  0.008493187    2.814    0.645
         8 -11.4723    131.4724      3.3586   5.8613566878e+01   5.2243923046e+01     1.620273    0.5384492  67.03  0.005528355    3.143    0.682
         9 -11.0571    109.9479      4.4954   6.3544441023e+01   5.7386918739e+01     1.202635    0.6300018  44.54  0.005428237    1.831    0.454
        10 -10.5578    121.1749      4.0085   6.0889319090e+01   5.4745863684e+01    0.5799106    0.4851571  63.57  0.002082756    1.264    0.209
        11 -11.5607    156.4058     20.6338   6.1111999514e+01   4.3957624931e+01     1.130594    0.5470371  60.53  0.003633579    2.013    0.503
        12 -13.7646    166.8055     11.1127   5.5936995356e+01   4.2237920043e+01      3.20276     2.198287  69.04   0.01434821    1.470    0.320
        13 -10.0487    116.7240     16.5560   6.7469067742e+01   5.4436923002e+01     1.005234    0.2813566 -32.54  0.003326544    3.118    0.679
        14  -9.5953    112.4716     15.8444   6.8175363616e+01   5.5519799307e+01    0.5099639    0.2740757  39.43  0.002213453    1.941    0.485
        15 -11.1277     77.8485     15.5733   7.8028552172e+01   6.2848644370e+01     1.014998     0.522314 -29.27  0.004766769    1.738    0.425
        16 -11.2529     84.3897      3.9972   6.9999951320e+01   6.3056210764e+01    0.8552719    0.4943032  46.92  0.003517879    1.734    0.423
        17 -10.3831     71.5534      5.4782   7.4912793140e+01   6.5378328653e+01    0.5604373    0.4149518  34.73  0.002772363    1.376    0.273
        18  -9.4644     93.9223     17.7916   7.4055941883e+01   5.9357994468e+01    0.4371921     0.377499 -41.04  0.001973127    1.273    0.214
        19  -9.4821     64.5715     16.5106   8.3236378436e+01   6.5049363483e+01    0.3028681    0.2049134 -45.41  0.001459247    1.600    0.375
        20 -10.5743    243.4695      2.6012   4.5379003996e+01   2.3199133707e+01    0.8894368    0.1892678 -33.35  0.003078915    3.150    0.683
        21 -10.4026    248.5985     14.5949   4.8181983339e+01   2.0780168390e+01    0.4121725    0.3092139 -35.08   0.00224351    1.169    0.144
        22 -10.2839    249.8377      6.0160   4.5822856082e+01   2.1362279050e+01    0.8172787    0.2749879 -28.48  0.003264115    2.412    0.585
        23  -8.9358     20.2533     14.1021   1.0184719784e+02   7.1133468415e+01     0.461839    0.1867615 -34.97  0.002185952    2.404    0.584
        24  -9.0528     69.9237     13.9156   7.9946389362e+01   6.4526030584e+01    0.3135175    0.2342766 -37.35  0.001801951    1.330    0.248
        25  -7.3789     29.0000      8.9454   9.4875242048e+01   7.1186990160e+01    0.2021613   0.05548094 -44.86 0.0007984824    2.915    0.657
        26  -9.4963    199.7075      7.8960   5.0760416564e+01   3.3758638714e+01    0.2799179    0.2308852  44.00 0.0007465978    1.281    0.219
        27 -10.0706     60.2907      2.9623   7.7594928666e+01   6.7696226079e+01    0.9657717    0.5332639  31.17  0.004941016    1.979    0.495
        28  -8.8418     52.0238      2.2286   8.0466967705e+01   6.9142718044e+01    0.3733013    0.1657191 -30.82  0.001795807    1.917    0.478
        29  -9.3870    230.1963      6.4706   4.7466788592e+01   2.6056057737e+01    0.2593746    0.1887078 -23.46 0.0009347535    1.324    0.245
        30  -9.6077    222.6652      4.3155   4.7486220227e+01   2.8153730867e+01    0.5283694    0.1928968 -19.79  0.001951977    2.742    0.635
        31  -9.8297    213.0101      4.4869   4.8391982631e+01   3.0607444836e+01    0.3419856    0.2000345  78.78  0.001399873    1.774    0.436
        32  -8.6924     26.2847      2.8520   9.2935463495e+01   7.2498789821e+01    0.3019708    0.1551611 -45.18   0.00166411    1.742    0.426
        33  -8.4325     40.3875      1.6108   8.5224225365e+01   7.0941742477e+01    0.2110177    0.1429073  30.53 0.0007979412    1.635    0.388
        34  -8.6215     16.7559      1.7847   9.7511779018e+01   7.3644249153e+01    0.1908744    0.1615108  11.25  0.001420339    1.408    0.290
        35  -9.6668    203.8759      4.1545   4.9158073444e+01   3.3019331575e+01    0.3187828    0.2140146 -41.12  0.001000155    1.419    0.295
        36  -9.9758     24.5151     65.9204   1.1630226411e+02   5.9849402445e+01    0.6632764    0.2078946 -56.37   0.00294539    2.270    0.559
        37  -7.9096     76.1253     60.1446   9.6938050969e+01   5.5046497502e+01    0.1896784    0.1603012 -71.49  0.001071959    1.318    0.241
        38  -9.2879    198.9873     55.1841   6.5809396379e+01   2.8145569855e+01    0.3037593    0.2438368  36.95 0.0004878088    1.330    0.248
        39  -8.9801     66.2043     53.9830   9.8233686472e+01   5.7843963859e+01     0.349254    0.1464335 -56.32  0.001366367    2.521    0.603
        40  -8.1338     35.0370     52.5462   1.0916289623e+02   6.1913584610e+01    0.1592887    0.1268955  27.50  0.001020337    1.570    0.363
        41  -8.0352     23.0167     52.5181   1.1374887490e+02   6.2974209793e+01    0.1524567    0.1240979  18.93  0.001031753    1.588    0.370
        42 -10.1144     84.5046     48.0325   8.9941717442e+01   5.6107437498e+01    0.5598268    0.4940544 -87.35  0.003062161    1.445    0.308
        43  -8.1889     98.1332     44.9930   8.4518811884e+01   5.4126867975e+01    0.2463284    0.1562468 -57.19  0.001082769    2.003    0.501
        44 -10.0941      3.1139     40.2647   1.1875618585e+02   6.6958586605e+01    0.3929422    0.3036524 -84.86  0.002086406    1.344    0.256
        45  -9.3770     82.1532     38.6927   8.7051755219e+01   5.8280597322e+01    0.5073749    0.2908445 -44.49  0.002393929    1.624    0.384
        46 -10.4207    184.4573    246.3120   1.0847096110e+02   2.9543061608e+00    0.3288544    0.1278223  45.38  0.001846325    1.973    0.493
        47 -10.1578    159.9968    240.7293   1.1165716695e+02   7.1906894667e+00    0.3563787    0.1147415  49.69  0.001687626    2.779    0.640
        48  -9.3256    210.5092    225.5025   1.0170542055e+02   1.2408200960e+00    0.1768186    0.0996994 -16.97  0.001041819    2.412    0.585
        49  -9.3218    196.8235    224.1611   1.0369766406e+02   3.5022583088e+00    0.1592057    0.1111852  23.89  0.001083925    1.346    0.257
        50  -8.4286    108.3081     39.6508   7.9456505440e+01   5.2962351179e+01    0.1498785    0.1123536 -61.79 0.0007043693    1.708    0.415
        51  -8.5154     69.4756     36.6715   9.0606722906e+01   6.0792928397e+01    0.3473743    0.2190979 -44.11  0.001791606    1.407    0.289
        52  -8.6979     27.8553     35.6126   1.0678935248e+02   6.6204391993e+01    0.2407867    0.1940756 -43.07  0.001604914    1.073    0.068
        53  -9.4294     11.6094     34.0836   1.1342874145e+02   6.7788132393e+01    0.4667901    0.2700947 -44.22  0.002454451    1.431    0.301
        54  -9.8082    123.9963    206.0024   1.1374508249e+02   1.7475919354e+01    0.1633639    0.1324498  56.56            0    1.001    0.001
        55  -8.7089     86.0718     31.6830   8.2809037677e+01   5.8790911823e+01    0.2482191    0.1792996 -41.04  0.001111378    1.322    0.243
        56 -10.4188    225.0786     28.9759   5.4419548859e+01   2.4914759758e+01    0.4851141    0.4149445  52.45  0.001642765    1.257    0.205
        57  -8.7306    238.6462    202.7039   9.3754691108e+01  -7.4842936601e-01    0.1227607   0.07145191  18.76 0.0007033682    1.690    0.408
        58  -7.8951     20.3284    156.3291   1.2881070084e+02   4.0086542989e+01    0.1026061   0.07458457 -57.29 -0.0001082597    1.709    0.415
        59  -9.7393    127.6713     18.0572   6.5639216623e+01   5.1613829016e+01    0.5482776     0.303892  48.37  0.002037954    1.765    0.434
        60 -12.6649    241.0260    132.6524   7.9620256009e+01   7.2212070118e+00     1.562244     1.089791  42.73  0.005707976    1.452    0.311
        61 -10.9430     12.0777    141.3701   1.2943966717e+02   4.3917074374e+01     0.565214    0.3062664  28.81  0.003516828    2.363    0.577
        62  -9.6774     11.5930    136.3813   1.2916517122e+02   4.5015890153e+01    0.3030913     0.136058  82.52  0.001633671    2.032    0.508
        63  -8.6713     40.9532    142.2195   1.2312340240e+02   4.1025554547e+01    0.1708517    0.1339882 -34.51   0.00109231    1.972    0.493
        64 -10.3281     17.0870    126.2739   1.2703998818e+02   4.6757727572e+01    0.4509284    0.1612316  64.03  0.001918362    3.514    0.715
        65  -9.8346    132.4711     26.3785   6.8032459196e+01   4.9366121004e+01    0.4174201    0.2608422  61.81  0.001728002    1.712    0.416
        66  -8.8891    103.9824     26.0244   7.4935954436e+01   5.6048037917e+01    0.3450506     0.306387 -87.35  0.001914071    1.452    0.311
        67  -8.0075      9.2672     26.3408   1.1209254251e+02   6.9555781827e+01    0.1235991   0.06295458 -42.74 0.0002270032    1.601    0.375
        68  -9.7198     11.1587    128.2918   1.2860917956e+02   4.6791668436e+01    0.2049492    0.1219267 -72.19 0.0008816917    1.366    0.268
        69  -7.7143     23.2003    125.5880   1.2551373989e+02   4.6389341973e+01    0.1322939    0.1161543   3.42 0.0009495606    1.733    0.423
        70 -10.0187     12.2110    118.6886   1.2750279964e+02   4.8814063351e+01    0.2617756    0.1344592  76.04  0.001476631    1.857    0.461
        71  -7.9958    192.5261    116.4766   8.4183940455e+01   1.9818487598e+01    0.1456358    0.1393897  -0.96 0.0003696868    1.019    0.018
        72  -9.2012     14.3854    114.4953   1.2655037639e+02   4.9578404119e+01    0.2208293    0.1177894  25.73  0.001289543    2.474    0.596
        73  -9.5691     16.5779    104.5255   1.2488676508e+02   5.1649586599e+01     0.438028    0.2513535  71.37  0.002556994    1.778    0.438
        74  -9.3799     66.0477     29.8220   8.8947917153e+01   6.2587313597e+01    0.3760734     0.287705 -18.58  0.002162177    1.266    0.210
        75  -8.5887     68.9128    105.1857   1.1066228906e+02   4.5993754062e+01    0.3750941    0.1677127 -40.09  0.001394045    3.478    0.713
        76  -9.6400     29.3196    102.3764   1.2113203576e+02   5.1082356763e+01    0.3452447    0.1813011 -45.87   0.00180486    2.218    0.549
        77  -9.5755     46.8853    100.7845   1.1596970437e+02   4.9705830243e+01    0.3677746    0.2090368 -65.35  0.001979153    1.442    0.306
        78  -9.1304     58.5135     99.4983   1.1244664521e+02   4.8650063351e+01    0.2943123    0.1112552 -61.65   0.00123008    2.234    0.552
        79  -7.4120    238.7272     96.6823   7.1307590420e+01   1.2653683617e+01    0.1445107     0.103207   8.72 0.0001623295    1.565    0.361
        80  -9.2368    226.4889     15.0161   5.0230433099e+01   2.6112301535e+01    0.2849915    0.1837423  52.25  0.001385415    1.670    0.401
        81  -9.1115      2.5111     88.8777   1.2698937453e+02   5.6135967215e+01    0.4072138    0.1894123 -88.23  0.002191431    1.893    0.472
        82 -11.8738     43.3823     82.5291   1.1355313414e+02   5.4299156457e+01    0.9917089    0.8765592 -34.62  0.005585813    1.338    0.253
        83  -8.2173      8.3665     16.5748   1.0904009409e+02   7.1582599887e+01    0.2992177    0.1168605 -25.01  0.001189421    4.431    0.774
        84 -10.2343      3.4650     76.0807   1.2509371525e+02   5.8967886938e+01    0.5157887    0.3049613 -80.75  0.002189934    1.328    0.247
        85 -11.6953     13.8164     74.2017   1.2147606548e+02   5.8753845856e+01    0.9411355    0.7551712 -72.46  0.006668604    1.068    0.064
        86  -9.2651    227.8645     79.0519   6.8281068930e+01   1.7600238483e+01    0.4702021     0.293215   4.91  0.001962302    2.185    0.542
        87  -8.9351    138.1787     77.8459   8.5123900196e+01   3.9325681297e+01    0.4050494    0.2859761 -86.31  0.001543875    2.200    0.546
        88  -8.8201     97.2512     28.6483   7.8019579597e+01   5.7074616711e+01    0.5194389    0.2453776 -15.63  0.001744819    3.434    0.709
        89  -9.3855     74.6087     68.5228   1.0004331391e+02   5.3479674344e+01    0.4423185     0.394072  -1.98   0.00263137    1.334    0.250
        90  -8.3806     83.9683     69.4880   9.7398641162e+01   5.1786449920e+01    0.2010212    0.1427499  42.46 0.0007960774    1.593    0.372
        91  -8.4862     33.0483     69.2918   1.1409043318e+02   5.8349810953e+01    0.2257036    0.1946503   4.85  0.001518758    1.520    0.342
        92  -9.4566     47.8616     62.0969   1.0715938882e+02   5.8453973450e+01    0.4751624    0.3568706 -23.94  0.002782188    1.604    0.377
        93  -8.3284     68.8602     62.2742   1.0001543435e+02   5.5692362204e+01    0.3160739    0.1812408 -22.98  0.001267034    2.989    0.665
