#   1 NUMBER                 Running object number                                     
#   2 MAG_AUTO               Kron-like elliptical aperture magnitude                    [mag]
#   3 X_IMAGE                Object position along x                                    [pixel]
#   4 Y_IMAGE                Object position along y                                    [pixel]
#   5 X_WORLD                Barycenter position along world x axis                     [deg]
#   6 Y_WORLD                Barycenter position along world y axis                     [deg]
#   7 A_WORLD                Profile RMS along major axis (world units)                 [deg]
#   8 B_WORLD                Profile RMS along minor axis (world units)                 [deg]
#   9 THETA_WORLD            Position angle (CCW/world-x)                               [deg]
#  10 FWHM_WORLD             FWHM assuming a gaussian core                              [deg]
#  11 ELONGATION             A_IMAGE/B_IMAGE                                           
#  12 ELLIPTICITY            1 - B_IMAGE/A_IMAGE                                       
         1 -12.7525     37.2736     63.3950   1.1470335817e+02   6.1190582673e+01     1.396239    0.9619336 -65.05  0.007656271    1.688    0.408
         2 -12.2939    100.2468     66.6600   9.2119694700e+01   5.0439413161e+01     3.138326     1.089168 -51.86  0.008466092    5.156    0.806
         3  -9.6481     55.3126     17.9950   8.8832745434e+01   6.6465481905e+01     0.412686    0.2461069  13.91  0.001871079    1.888    0.470
         4 -10.5518     68.7040      4.4507   7.7284459491e+01   6.5473924356e+01    0.6008625    0.2915756  36.17  0.003035059    1.848    0.459
         5 -10.6715     40.7705     21.4680   9.6977142238e+01   6.8229792828e+01    0.5753251    0.1787136 -37.14  0.002148104    3.104    0.678
         6 -11.8979     57.5892      3.8249   8.0940875605e+01   6.7624770819e+01      0.63251    0.4479156  46.56  0.002630655    1.375    0.273
         7 -11.3814     41.7798     15.1704   9.3448459007e+01   6.8943467375e+01    0.7837583    0.4905766  43.04  0.004341826    1.809    0.447
         8 -11.1836     50.1365     10.0977   8.7138275042e+01   6.8261093893e+01    0.3930213    0.2733252  21.72 0.0009882997    1.246    0.197
         9 -11.3222     22.6973      4.3395   9.7607578886e+01   7.2855136201e+01     1.059777    0.4541391  36.12   0.00569136    2.373    0.579
        10  -9.4791     31.3171     11.9963   9.7019257869e+01   7.0795266508e+01     0.424065    0.2331375 -19.75  0.002388723    1.800    0.444
        11 -11.9428     18.8321     13.5871   1.0463233389e+02   7.2010976776e+01    0.6260977    0.3168375  29.26  0.003168214    2.007    0.502
        12 -11.5143     12.7429      7.7415   1.0527144163e+02   7.3459024489e+01    0.4436574    0.3667765 -41.65  0.002571845    1.608    0.378
        13 -12.0785      8.9341     24.2734   1.1506763757e+02   7.1149185610e+01    0.8767394    0.5919504 -13.53  0.005898464    1.306    0.234
        14 -13.1301      3.9961      9.4863   1.1157549691e+02   7.3934552339e+01    0.6196154    0.3084728 -44.01 0.0004317386    1.740    0.425
        15 -10.5142     89.5921     21.5363   7.8332745044e+01   5.9462800715e+01    0.3771372    0.2478907  12.71  0.001043389    1.775    0.437
        16  99.0000     80.2875     17.9390   7.9664725454e+01   6.1811150923e+01     1.520383    0.3733151 -39.98  0.004580117    5.881    0.830
        17 -10.8007     78.2870     27.9207   8.4634584159e+01   6.1019543329e+01    0.9966666    0.6582978  28.46   0.00466009    1.467    0.318
        18 -11.7025     68.1798     20.9541   8.5171857878e+01   6.3827938722e+01    0.8015544    0.4968555  23.54  0.003981298    1.639    0.390
        19 -10.4703     73.7113     16.9709   8.1409076466e+01   6.3234821997e+01    0.2597859    0.2315487   5.72 0.0008255788    1.119    0.106
        20 -12.5750      3.1197     17.5856   1.1573903991e+02   7.2686623896e+01    0.4095016    0.1953454 -31.73 0.0004920454    1.729    0.422
        21  -9.0924    156.3046     11.0340   6.0785378677e+01   4.4476182171e+01    0.2027975    0.1669482 -23.44 0.0004806201    1.437    0.304
        22 -11.0863    156.9332     16.5485   6.2347215324e+01   4.3774788301e+01    0.7355298    0.4291558  73.62  0.003616229    1.551    0.355
        23 -11.7936    149.5009     15.6424   6.3185263268e+01   4.5747685607e+01    0.6873229    0.5272629  21.16  0.003814546    1.630    0.386
        24  -9.3415    168.0764      8.0587   5.8406057151e+01   4.1793531393e+01    0.2513504    0.1732018 -51.33  0.001395488    1.501    0.334
        25 -10.8289    164.7265     11.2672   5.9731965034e+01   4.2329244997e+01    0.7095459    0.3757131  89.14  0.003212356    2.052    0.513
        26 -11.0500    163.7970      4.9450   5.8040700806e+01   4.3152027133e+01    0.6646231    0.4150961 -26.76  0.003574989    1.852    0.460
        27 -10.2776    186.3352     19.5192   5.9359219682e+01   3.6056361900e+01    0.6587399    0.3265212 -36.92  0.003125442    2.025    0.506
        28 -10.1906    186.0103     13.6887   5.7871385765e+01   3.6763162311e+01    0.3900528    0.1973506  60.53  0.001880108    1.809    0.447
        29 -10.3364    177.1033     22.0469   6.1166317873e+01   3.8083930768e+01    0.5377074    0.3312129   5.36  0.002348836    2.928    0.658
        30 -11.1467    175.6320     15.4842   5.9550087238e+01   3.9161807540e+01    0.3272218    0.2355607 -59.70  0.001220517    1.389    0.280
        31 -10.7495    167.1255     25.5804   6.3524369066e+01   4.0209277695e+01    0.7406381    0.4316843  40.16  0.003403071    2.105    0.525
        32 -11.7168    112.6643     22.2984   7.2530970133e+01   5.4158979750e+01    0.6700147    0.5118985  63.98  0.002381685    1.256    0.204
        33 -11.6783    130.1943     20.0240   6.7966426356e+01   5.0145808006e+01     1.159373     0.210683  55.58   0.00360497    3.683    0.729
        34 -11.1573    128.8927     14.5734   6.6338953929e+01   5.1012022989e+01    0.8441258    0.2356158  52.93   0.00307012    2.811    0.644
        35 -10.8852    115.5066     14.2604   6.8903554377e+01   5.4300247638e+01    0.9057088    0.4522445  86.35  0.003186561    3.905    0.744
        36 -10.0308    102.3842     11.7548   7.0919694733e+01   5.7616120488e+01    0.8196958    0.3960793  19.68  0.003200329    3.346    0.701
        37 -11.5031    115.6564      7.8155   6.6492402292e+01   5.4846158168e+01    0.8452827    0.2698743  45.53  0.003160798    2.886    0.654
        38 -10.6720    109.9481      7.5015   6.7554337134e+01   5.6230604681e+01    0.3127384    0.1882626  70.59 0.0007754871    1.643    0.391
        39 -13.2236     99.6845      5.6075   6.9103656942e+01   5.8772586280e+01    0.4665522    0.3822517  25.39 0.0004108096    1.203    0.169
        40 -12.0111     93.3011      7.7756   7.1559290653e+01   6.0026724304e+01    0.7231327    0.3269341  45.63  0.003412052    1.858    0.462
        41 -10.6421    246.5248     19.1711   5.3716828203e+01   2.2182615515e+01    0.8806392    0.2960255  67.22  0.003994734    2.827    0.646
        42 -10.4375    243.2675     11.3569   5.2352682358e+01   2.3769007386e+01    0.4856589     0.186871 -36.18  0.002363646    2.349    0.574
        43  -9.7953    239.1646     15.3938   5.3478763042e+01   2.4188132409e+01    0.3646971    0.1771604 -72.64  0.001653983    2.076    0.518
        44 -10.5853    233.8645     10.8537   5.2915483844e+01   2.5850948930e+01    0.3483891    0.2389361 -88.19  0.001264843    1.263    0.208
        45 -10.2337    233.7969      7.2033   5.2152119802e+01   2.6264776135e+01     0.304133    0.1821192  63.98  0.001163866    1.753    0.430
        46 -10.7627    202.0575     19.1615   5.7559285674e+01   3.2248584673e+01    0.4959472    0.3199366  62.30  0.002092734    1.515    0.340
        47  -9.9753    198.2417     16.3195   5.7248008535e+01   3.3486272592e+01    0.3592218    0.2576692  38.01  0.001969121    1.888    0.470
        48 -10.6014    211.8029     15.3697   5.5716481198e+01   3.0355981890e+01    0.4096316    0.2294945 -36.22   0.00177314    1.791    0.442
        49  -9.4979    231.5687     16.6013   5.4317275067e+01   2.5708518492e+01    0.4088947    0.0942106 -47.48  0.001523717    3.446    0.710
        50  -9.7171    218.3527     13.3766   5.4685928266e+01   2.9055062110e+01    0.3127205    0.1765296  83.47  0.001667923    1.614    0.381
        51 -10.4240    223.3290      1.9973   5.1783192464e+01   2.9131306941e+01    0.4845114    0.2894852  68.07  0.002143901    1.616    0.381
        52  -9.8808    222.2237     10.9565   5.3826857352e+01   2.8435751864e+01    0.4047729    0.2083098 -64.87  0.001926558    1.836    0.455
        53  -9.8333    226.5026      8.6359   5.2987265915e+01   2.7722873751e+01    0.3042187    0.2160891 -63.41  0.001486336    1.178    0.151
        54  -9.5686    141.4509     11.4303   6.3117632428e+01   4.8180027778e+01    0.1997831    0.1876315  38.93 0.0009113924    1.173    0.147
        55 -10.3360    122.9259     10.0279   6.5873300762e+01   5.2895888948e+01    0.4373724    0.2213222  55.62  0.001795886    1.632    0.387
        56 -10.9793     83.2824      6.2886   7.3631571488e+01   6.2334313742e+01    0.4474807     0.312344 -41.45  0.001471357    1.811    0.448
        57 -10.9868     77.3767      8.8833   7.6552481603e+01   6.3330318274e+01    0.2850163    0.2620308  20.11 0.0009832552    1.142    0.124
        58  -9.6328     77.2964      4.6836   7.4665221238e+01   6.3726450886e+01    0.2048991    0.1548095 -10.74 0.0004666161    1.403    0.287
        59 -10.8788    178.4097      4.5132   5.6276757937e+01   3.9549437844e+01     1.005335    0.4495732  83.33  0.003020263    2.191    0.544
        60 -10.5531    210.3595      5.0067   5.3440891149e+01   3.1795340195e+01    0.4817996     0.250323  44.24  0.002242747    2.873    0.652
        61 -10.8408    207.8628      2.8462   5.3145590993e+01   3.2596029526e+01    0.3392566    0.2388851 -85.42  0.001124437    1.191    0.160
        62 -10.4294    200.8233      1.8038   5.3482690181e+01   3.4359433853e+01    0.2522398      0.16416  77.73 0.0005796148    1.322    0.243
        63 -10.3655    204.3369      6.3129   5.4251355432e+01   3.3079174447e+01    0.2578096    0.2252955 -64.14 0.0005917776    1.157    0.136
        64 -11.2232    200.2571      6.3151   5.4611359260e+01   3.4050342953e+01    0.6310984    0.3140646 -58.42  0.002501394    1.968    0.492
        65  -9.2582    250.5928      8.2654   5.1250188218e+01   2.2582668502e+01    0.1447508    0.1080169 -30.27 0.0008934711    1.625    0.385
        66  -9.1989    145.2886      8.0824   6.1459498011e+01   4.7521305741e+01    0.1850787    0.1600366  83.82  0.001130945    1.081    0.075
        67  -9.1021    146.6236      3.8454   5.9942826342e+01   4.7552906185e+01    0.3068787      0.16993 -28.39  0.001552142    2.039    0.510
        68 -11.5726    132.8810      4.4671   6.2209626198e+01   5.0923489706e+01    0.7126847    0.2932628  55.91  0.002632354    1.964    0.491
        69 -10.4202    139.9234      1.9102   6.0289963649e+01   4.9383243482e+01    0.3009728    0.2145138 -78.87  0.000603574    1.505    0.336
        70 -10.2905    190.7415      8.0974   5.5946005494e+01   3.6171434799e+01    0.8699232    0.1447065  59.76  0.002774473    4.336    0.769
        71 -11.0249     39.7567      2.3765   8.7716629139e+01   7.0753526764e+01    0.4399204    0.2561353  50.94  0.001683708    2.228    0.551
        72  -9.6940    230.5981      2.2358   5.1330167387e+01   2.7491418906e+01    0.2069953    0.1707057  79.05  0.000577783    1.268    0.211
        73 -11.9736     28.4233     26.4063   1.0537406650e+02   6.9015736794e+01     1.130346    0.7545421 -17.88  0.007008958    1.344    0.256
        74  -9.8603     82.1757    114.3515   1.1186349115e+02   4.3467687786e+01    0.5286039    0.2729889  24.28  0.001989058    2.602    0.616
        75  -9.9051     42.3913    118.1535   1.2560914951e+02   4.7974343796e+01    0.2307474    0.1562542  65.66 0.0006612645    1.779    0.438
        76 -10.0214    132.9299    111.8614   9.6249169184e+01   3.3995964600e+01    0.3979517     0.370757 -48.64  0.002036666    1.080    0.074
        77  -9.1844    225.3356    112.6842   7.7045817224e+01   1.2828665738e+01    0.1457264    0.1061948 -69.11 0.0007047571    1.694    0.410
        78 -10.0441     86.9954    100.9161   1.0689381250e+02   4.5819016189e+01    0.3630975    0.2797816 -50.05   0.00107619    1.259    0.206
        79 -11.0365     88.8123     92.1041   1.0384255764e+02   4.7487463727e+01     1.296106    0.7252037 -65.08  0.004882946    2.628    0.619
        80 -11.1734     69.1011    106.2744   1.1420810748e+02   4.7471749162e+01    0.8118525    0.4616565 -21.00  0.002942372    3.215    0.689
        81 -10.0693     74.0642    107.5440   1.1285751674e+02   4.6412045352e+01    0.3658926    0.2584745  30.25  0.000956172    1.522    0.343
        82  -9.9924     81.1459    102.3559   1.0919822508e+02   4.6493841602e+01    0.3881517    0.2381798  39.84  0.001651066    1.688    0.408
        83 -10.3175     76.1447    101.7020   1.1069691783e+02   4.7468580806e+01    0.3914126    0.3334523 -76.91  0.001239019    1.306    0.234
        84  -9.7069     82.8031     90.3569   1.0534825212e+02   4.8949524079e+01    0.3075964    0.2045558  28.33 0.0009009669    1.641    0.390
        85 -10.5167     82.1174     86.6796   1.0450947046e+02   4.9879855285e+01    0.4535808    0.2293544 -39.51 0.0002752065    2.045    0.511
        86  -9.1493     33.5131    109.0036   1.2691212420e+02   5.1116445831e+01    0.2982991    0.1245451 -49.53  0.001277777    2.142    0.533
        87 -11.8510     36.9473     90.4192   1.2192487715e+02   5.5227334414e+01      1.27629     0.715142 -30.23  0.005997531    2.099    0.524
        88  -9.0735    104.4813    109.0000   1.0356778368e+02   4.0669328909e+01    0.2354329    0.1505822 -47.58 0.0004955253    1.543    0.352
        89 -10.4304    133.2412    103.0171   9.3755845859e+01   3.5845198113e+01    0.4475129    0.2924219 -39.66  0.001916975    1.574    0.365
        90 -12.3806     81.1970     73.7633   1.0083154364e+02   5.2768521918e+01    0.7779033    0.5564051  72.19  0.003489072    2.283    0.562
        91  -9.0257    128.7683    104.0094   9.5232148227e+01   3.6643492940e+01    0.2132303    0.2066383 -50.47 0.0002084816    1.039    0.037
        92  -9.3653    105.8684    102.6118   1.0142044580e+02   4.1849160544e+01    0.2460182    0.2096431 -30.23 0.0004492513    1.232    0.188
        93  -9.0830    141.0298    101.9236   9.1428786040e+01   3.4278998503e+01     0.257218    0.2009227   6.15  0.001134531    1.718    0.418
        94 -11.0961      4.2195     99.7158   1.3542125116e+02   5.5494106426e+01    0.4283555    0.2325749 -61.52   0.00238269    1.438    0.305
        95  -9.3381      8.8207     94.0683   1.3297428109e+02   5.6564257392e+01    0.2261717    0.1483147  50.01  0.001063811    1.857    0.461
        96  -9.8217    116.0842    100.0266   9.7672694502e+01   4.0295494799e+01    0.4197641    0.2742911   5.33  0.001498957    2.890    0.654
        97 -10.2918     64.4488     98.4266   1.1387213725e+02   5.0013808568e+01    0.3442038    0.2993816  59.55  0.001547684    1.310    0.236
        98  -9.6161     34.7494     98.9604   1.2455861069e+02   5.3423052940e+01    0.2754859     0.226066  27.71 0.0007852603    1.379    0.275
        99  -9.4501     38.5043     97.4607   1.2289716056e+02   5.3410655771e+01    0.2587651    0.1492933 -32.23  0.001217056    2.001    0.500
       100 -10.1393    159.3670     97.3302   8.5746467045e+01   3.0847039716e+01    0.3110361    0.2952467  51.53  0.001295939    1.056    0.053
       101 -10.3174    114.8472     95.6351   9.6775743774e+01   4.1513107925e+01    0.2983916    0.2523578 -89.05 0.0007783895    1.433    0.302
       102  -9.2899    188.7691     94.0078   7.8793773059e+01   2.4378250852e+01    0.2288456     0.205362  -0.34 0.0009972864    1.316    0.240
       103 -10.1031    103.5833     92.8471   9.9342468290e+01   4.4470881719e+01    0.6237227    0.4338341  -5.28  0.002573269    2.208    0.547
       104 -11.0032    110.0922     65.6461   8.8791502257e+01   4.8497704087e+01    0.9533399    0.4350939 -24.84  0.003064863    3.601    0.722
       105  -9.8369     94.8104     47.4256   8.6976350605e+01   5.4866063236e+01    0.3714894    0.2416472  44.46  0.001314769    1.449    0.310
       106 -10.2901    118.6095     42.0432   7.8269976820e+01   5.0298194529e+01    0.5148926     0.298745 -40.47  0.001984915    1.874    0.466
       107 -10.9401    114.8364     51.3594   8.2540254270e+01   4.9811324405e+01    0.9592323    0.5471504  -7.91  0.003501781    3.182    0.686
       108 -11.7000    101.5862     53.7686   8.7203798089e+01   5.2402845757e+01     1.219157    0.3708951  42.90  0.003915016    3.313    0.698
       109  -9.2507     13.2199    232.4222   1.4424001955e+02   2.4465955486e+01    0.1590249   0.07691434  48.96 0.0007133465    1.619    0.382
       110  -9.8146     75.1364     46.2136   9.3218484962e+01   5.8934529225e+01    0.3123448    0.2489986  -3.13   0.00110087    1.262    0.208
       111 -10.7442     78.5446     60.5810   9.7309841917e+01   5.5806992293e+01    0.4651562    0.3934906 -41.67  0.002176565    1.230    0.187
       112 -10.7074     71.5607     53.1475   9.7186313198e+01   5.8387499620e+01    0.6806507    0.5576248   9.79  0.003634925    1.194    0.163
       113 -11.3470    102.3068     81.1094   9.6184673046e+01   4.7201970622e+01    0.7640329    0.5423518 -23.70  0.002966522    1.645    0.392
       114 -10.5424     98.4454     77.0440   9.6114771780e+01   4.8812324167e+01    0.3806995    0.3349152  66.77  0.001042163    1.312    0.238
       115 -11.3595     87.1219     57.6862   9.3273271059e+01   5.4719005585e+01    0.7634395    0.4018527  32.86  0.002017275    2.077    0.518
       116 -11.5600     85.1151     52.2730   9.1980131648e+01   5.6045257577e+01     1.115727    0.5222805  32.92  0.004409438    2.464    0.594
       117  -8.9690    194.5990     90.1946   7.6750311881e+01   2.3674753529e+01    0.2058914    0.1428604 -26.53 0.0008020221    1.637    0.389
       118  -8.2514    187.2915     89.6619   7.7935655793e+01   2.5518363333e+01    0.1578192    0.1136946 -69.81 0.0003746155    1.644    0.392
       119  -9.8223    153.0174     87.5260   8.4443759267e+01   3.4292056905e+01    0.3470232    0.2406033  45.11 0.0007949691    1.455    0.313
       120  -9.9620     75.2886     84.8951   1.0635721377e+02   5.1429449196e+01    0.4800035    0.3313789  -7.24  0.002176717    1.991    0.498
       121  -9.6465    145.9121     86.8874   8.5932709144e+01   3.6143055773e+01     0.242797     0.213827  17.00 0.0005532121    1.292    0.226
       122 -10.0816    140.6174     84.9084   8.6645348874e+01   3.7802007887e+01    0.4258518    0.2601266 -48.12  0.001774119    1.721    0.419
       123 -10.8735    118.9918     86.2094   9.2787796799e+01   4.2575362297e+01    0.6015925    0.2714348  44.33  0.002205808    2.196    0.545
       124  -8.9670    186.2484     84.4056   7.6742980388e+01   2.6704999133e+01    0.2145329    0.1434618  71.77 0.0009501347    1.678    0.404
       125  -9.7749    217.6325     78.9987   7.0272584438e+01   2.0210929721e+01    0.6515172    0.2761412 -24.50  0.002061672    4.104    0.756
       126  -9.7744    159.6922     81.3993   8.1196126892e+01   3.3790783072e+01    0.3225712    0.2510128  78.06 0.0006957459    1.435    0.303
       127 -10.6131    135.0539     80.6539   8.6768441893e+01   3.9949087858e+01    0.4250034     0.274167 -43.20  0.001767547    1.588    0.370
       128 -10.3699    138.5031     76.7446   8.4713458619e+01   3.9850616604e+01    0.2884187     0.242622  32.97 0.0006599881    1.260    0.206
       129  -9.1759    188.8231     80.1716   7.5161664608e+01   2.6813799724e+01    0.3320839    0.1491334 -53.84  0.001151762    2.770    0.639
       130  -9.8651    123.4412     80.5375   8.9806360545e+01   4.2694108611e+01    0.4012413    0.2426848  28.68  0.001420985    2.179    0.541
       131 -12.0237     54.0987     86.5648   1.1454594893e+02   5.4164455915e+01     1.420468    0.8474924 -14.90  0.006063978    2.532    0.605
       132  -9.8467     92.4928     76.9811   9.8025125080e+01   5.0007468483e+01    0.3083304    0.2709994  -6.52  0.001474312    1.181    0.153
       133 -10.1095    144.6415     76.2742   8.3090049212e+01   3.8439598804e+01    0.3364279    0.2005527 -31.12  0.001390728    1.873    0.466
       134 -11.6342     17.7324     81.4560   1.2734784165e+02   5.8919468206e+01    0.2762024    0.2216531 -23.41 0.0003957761    1.291    0.225
       135  -8.8083    165.9745     76.4621   7.8468834987e+01   3.3108478802e+01    0.2331049    0.1473976  57.80 0.0005726705    1.549    0.355
       136  -9.5711    213.5575     75.0130   6.9893841724e+01   2.1787127505e+01    0.2604873    0.1925538 -46.99 0.0006967523    1.252    0.201
       137  -9.1669    215.4760     71.4983   6.8764709147e+01   2.1904119856e+01    0.2382203    0.1748083 -27.94 0.0007267608    1.511    0.338
       138 -10.1380    132.1754     67.9625   8.3552348584e+01   4.2956312009e+01    0.3307672    0.2676529  51.19   0.00122645    1.185    0.156
       139 -10.9923    116.0742     69.0236   8.8191704969e+01   4.6544655798e+01    0.6940078    0.3817092 -37.64  0.002840063    1.881    0.468
       140  -9.1473    126.4497     63.7941   8.3668507660e+01   4.5049115855e+01    0.2190328    0.1517862 -32.94 0.0005794478    1.529    0.346
       141 -11.2727    121.9860     64.9185   8.5213314273e+01   4.5910213694e+01    0.6206611     0.470035  72.58  0.002960378    1.577    0.366
       142  -9.7792    124.9802     74.8122   8.7597958146e+01   4.3427651555e+01    0.5338526    0.2547177  44.98   0.00203376    2.060    0.515
       143 -10.9342    126.8849     70.0658   8.5582784343e+01   4.3848065793e+01    0.7219054    0.3120633  54.61  0.002602326    2.362    0.577
       144  -9.4511    192.3271     73.5058   7.2806533303e+01   2.7081048120e+01     0.416097    0.2476534 -83.25  0.001608481    2.589    0.614
       145 -10.2415      7.1572     71.7790   1.2961031324e+02   6.1746926801e+01    0.3314182    0.2735525 -78.09  0.002236568    1.279    0.218
       146 -10.5611    150.0890     71.9524   8.0537942916e+01   3.7861937458e+01     0.287013    0.2214575  58.88  0.001388639    1.259    0.206
       147 -10.2240    139.7346     67.9643   8.1705216407e+01   4.1115197930e+01    0.4656212    0.3660194  27.60  0.002255661    1.460    0.315
       148  -9.8628     85.0590     67.5862   9.7439429768e+01   5.3284377583e+01    0.2780247    0.1748028  28.08  0.001266318    1.747    0.428
       149  -9.8845    250.4314     64.6688   6.2937650591e+01   1.5342856928e+01    0.4760772    0.1231078 -36.92   0.00171598    3.254    0.693
       150 -10.3284    152.1583     66.6880   7.8499540900e+01   3.8244881922e+01    0.5656695    0.2414273  51.92  0.001932969    2.208    0.547
       151  -9.0365    162.5227     66.5022   7.6295114589e+01   3.5667368729e+01    0.2198926    0.1355639  48.09 0.0001319419    1.631    0.387
       152 -10.5229    164.8603     62.5817   7.4695664184e+01   3.5712625695e+01     0.493455    0.3282972  54.37  0.001840356    1.445    0.308
       153  -8.7802    198.8270     63.3277   6.9131499728e+01   2.7124583167e+01    0.2012114    0.1643476 -59.33 0.0004531716    1.162    0.139
       154 -11.5230     67.7814     61.8485   1.0174998856e+02   5.7410439537e+01    0.3108502    0.2597174  10.18 0.0007579129    1.184    0.155
       155  -8.3541      5.2541     63.2789   1.2861594452e+02   6.3705029200e+01    0.1209547   0.06869101 -41.65 0.0002316659    1.465    0.317
       156  -9.3948    105.1839     61.2209   8.8740438450e+01   5.0359894429e+01    0.1981847    0.1780994  82.08 0.0009665315    1.327    0.247
       157  -8.6229    218.6508     60.3134   6.5642093511e+01   2.2887598004e+01    0.1496495   0.09449166 -68.36   0.00070465    1.722    0.419
       158  -9.6008    200.7372     59.2102   6.7794562331e+01   2.7289649045e+01    0.3061677    0.2472471  53.55  0.001645932    1.333    0.250
       159  -8.7466    202.5365     55.4895   6.6592987916e+01   2.7407998197e+01    0.1416985    0.1274249 -76.20  0.000809453    1.007    0.007
       160 -10.1654    178.7672     59.3549   7.1266878414e+01   3.2704727370e+01    0.3952126     0.292046 -20.47 0.0009437784    1.650    0.394
       161 -10.1038    184.9290     54.1012   6.8820985082e+01   3.1949124258e+01    0.5574335    0.2525461  52.83  0.002243152    2.193    0.544
       162 -10.2092    174.2406     57.0076   7.1385913851e+01   3.4205448129e+01    0.5962133    0.3470749  -9.96  0.002202199    3.174    0.685
       163 -10.8542    180.1958     50.4776   6.8574551704e+01   3.3666246330e+01     0.625208    0.2348429  58.20  0.001337454    2.433    0.589
       164 -10.2740    119.8178     58.4594   8.3640352034e+01   4.7512133338e+01    0.3615665    0.1830042  42.86 0.0009983006    1.967    0.492
       165 -10.9984    121.7207     53.8268   8.1567687328e+01   4.7809366727e+01    0.4972245    0.4458689  46.09  0.001513727    1.048    0.045
       166  -9.8713    222.4456     56.9302   6.4366732439e+01   2.2516692723e+01    0.4001668    0.2203854  71.65   0.00146718    1.897    0.473
       167  -8.6548    193.3003     57.2947   6.8390627097e+01   2.9394807971e+01    0.1372181    0.1114618  31.28 0.0003511437    1.571    0.364
       168  -9.7837    165.3232     55.5781   7.2567268705e+01   3.6684185536e+01    0.4017959    0.2878577 -16.26  0.001896871    1.784    0.439
       169  -9.3376    235.0161     55.2869   6.2538907004e+01   1.9949444496e+01     0.185652    0.1590364 -84.57 0.0007116983    1.115    0.103
       170 -10.7427     60.7317     52.2155   1.0106388671e+02   6.0326884488e+01    0.5738075    0.2954337 -49.41  0.001972018    2.144    0.534
       171  -9.3950     55.0302     50.0000   1.0257954404e+02   6.1583393198e+01    0.2432056    0.1793963  31.11  0.001319585    1.383    0.277
       172 -10.4212     57.9450     45.7058   9.9729700341e+01   6.1908669013e+01    0.5468585    0.2922286  30.55  0.002645816    1.901    0.474
       173 -10.4868    159.2480     50.5994   7.2222465290e+01   3.8969843086e+01    0.5636578    0.2636018  64.48  0.002213569    2.116    0.527
       174 -11.1517    150.1473     51.9866   7.4423656017e+01   4.1077465036e+01    0.5499293    0.3834867  20.09   0.00204471    2.019    0.505
       175 -11.0343    141.3303     51.4150   7.6101351998e+01   4.3382897854e+01    0.6107976    0.3340259  41.32  0.002424021    1.990    0.498
       176  -9.6162    134.8782     51.9000   7.7705639174e+01   4.4914878340e+01    0.3391483    0.2083831  24.46  0.001365613    2.397    0.583
       177  -8.5121    211.5145     51.0003   6.4290590876e+01   2.5910457210e+01    0.2097247   0.09035271 -54.20 0.0008099672    2.522    0.604
       178  -8.8877     10.4123     51.7766   1.2343639381e+02   6.5836500142e+01     0.203043   0.08710702  27.49 0.0006404836    2.626    0.619
       179  -9.8519      6.7358     48.8597   1.2438912586e+02   6.6646523903e+01    0.3286954    0.1759171 -37.64  0.001134613    1.550    0.355
       180  -9.5878    189.0706     49.1588   6.6863961874e+01   3.1630186065e+01    0.2609759    0.1899027 -60.33 0.0006336966    1.370    0.270
       181  -8.5369     16.3750     50.3096   1.2018869958e+02   6.5734633675e+01    0.1339062   0.07212307 -29.26  0.000703069    1.780    0.438
       182  -9.3843    137.4045     59.5027   7.9581222487e+01   4.3102166031e+01    0.2932514    0.1401089  53.93 0.0005995937    1.959    0.490
       183  -9.7585    129.5481     46.6391   7.7197353877e+01   4.7003746570e+01    0.3081287    0.2372185 -18.96  0.001188346    1.479    0.324
       184  -9.2324    125.5102     46.5491   7.8130834535e+01   4.8000280671e+01    0.3157737    0.1776916 -40.87  0.001389923    1.909    0.476
       185  -9.2379    222.3751     45.6681   6.1731534721e+01   2.4126785924e+01    0.2719034     0.135622  48.17  0.001184389    2.583    0.613
       186  -9.8742     99.9781     45.8698   8.4803781372e+01   5.3998490561e+01    0.4918282    0.1724517  51.16  0.001640073    2.734    0.634
       187 -10.2764     97.6266     42.1033   8.4099005718e+01   5.5069164405e+01    0.3408954    0.2515267  48.21  0.001249676    1.285    0.222
       188  -9.8133    100.2232     37.7566   8.1672857278e+01   5.5117696016e+01    0.3733965    0.2800081  27.61  0.001990261    1.340    0.254
       189  -9.0802    206.5058     46.0000   6.3685872605e+01   2.7804929858e+01    0.2984045   0.07435879  65.75  0.000932347    3.915    0.745
       190 -10.0864    152.7022     44.9837   7.1752575434e+01   4.1436280202e+01    0.2789199    0.2081252 -32.19  0.001416906    1.453    0.312
       191  -9.5417    130.5550     40.1248   7.4763501585e+01   4.7663917544e+01    0.5185724    0.2278233  46.60  0.001462162    2.182    0.542
       192 -11.0696    142.8927     42.8870   7.3031728018e+01   4.4210750290e+01     1.004845    0.3462633  63.33  0.003355837    2.989    0.665
       193  -9.1613    142.7748     38.7767   7.1731289520e+01   4.4791252466e+01    0.2049682    0.1882149  39.41 0.0005440143    1.131    0.116
       194 -10.2300    134.8835     33.8944   7.1730187349e+01   4.7395679970e+01    0.3817686    0.2703569  -4.07 0.0004213264    1.835    0.455
       195  -9.5242    138.3004     31.3337   7.0188872234e+01   4.6854064888e+01    0.3304625    0.1994255  41.03   0.00153776    1.746    0.427
       196  -9.6647     67.0128     43.4601   9.5205788481e+01   6.0818273694e+01    0.3596921    0.1731306 -36.50 0.0009556471    2.060    0.515
       197  -9.4384    245.4643    187.0223   8.9451010873e+01  -3.2141484036e+00    0.1898407    0.1109596 -31.93  0.000867472    1.544    0.352
       198  -9.7151     19.5989    183.8214   1.3986460117e+02   3.4264541810e+01    0.2120292   0.09534574  25.36  0.001010283    2.702    0.630
       199  -8.6447     36.3447    179.3151   1.3551263705e+02   3.3590958379e+01    0.1246306   0.09431928 -42.72 0.0005668941    1.714    0.417
       200  -9.2287      1.7249    178.0390   1.4351614878e+02   3.7150166295e+01    0.1750426    0.1243912  87.80 0.0007722951    1.104    0.094
       201 -10.3106     17.1773     40.2750   1.1657712878e+02   6.7633419677e+01    0.8622537    0.5395303   8.87  0.005228966    1.672    0.402
       202 -11.0253     15.8786     31.5769   1.1409969038e+02   6.9335250665e+01    0.4579203    0.2443393 -26.62  0.001715223    1.748    0.428
       203  -9.1762      9.0005    167.0449   1.4104929427e+02   3.9104426148e+01    0.1895177     0.127957 -50.90   0.00113151    1.709    0.415
       204 -10.7924      8.9689    162.6925   1.4071280845e+02   4.0129820541e+01    0.3716131    0.1857111  35.92  0.002006373    2.062    0.515
       205  -9.6685     18.4713    164.9660   1.3855295286e+02   3.8787470653e+01    0.2766644    0.1455477  77.70  0.001064288    1.908    0.476
       206 -10.4591     13.9954    164.9899   1.3966473704e+02   3.9172626351e+01    0.2969869    0.2234029  47.48  0.001218803    1.365    0.267
       207  -9.8667      2.3378    161.1215   1.4221392206e+02   4.1005448024e+01    0.2588451    0.1908775 -63.79  0.001688944    1.343    0.255
       208 -10.2222     77.1452    156.0907   1.2177424347e+02   3.3935524914e+01    0.5863081     0.302649  75.19   0.00189014    3.870    0.742
       209  -9.7136     33.3111    155.9735   1.3378920340e+02   3.9541631519e+01     0.217013    0.1724155 -33.89 0.0006231172    1.608    0.378
       210 -12.2873      7.4543    143.5594   1.3944274424e+02   4.4800586800e+01     1.160729    0.6579636  67.06  0.005975157    1.805    0.446
       211  -9.2885    232.6125     43.5104   6.0148854711e+01   2.2115028745e+01    0.1817132    0.1535756 -13.40 0.0005416026    1.602    0.376
       212  -8.6691    185.4194     43.9720   6.6004330399e+01   3.3265151993e+01    0.1899695    0.1341704 -39.44 6.923056e-05    1.442    0.307
       213 -10.7839     87.8444     41.9555   8.7132375683e+01   5.7146154871e+01    0.5006003    0.4566471 -50.35  0.002368099    1.317    0.241
       214 -10.1436      9.1514    134.8436   1.3811489187e+02   4.6779374956e+01    0.3231078    0.1950604   4.06  0.001749299    2.355    0.575
       215  -9.4464     93.6087     31.1677   8.1056685405e+01   5.7438044763e+01    0.4834972    0.2588684  67.91   0.00193196    2.895    0.655
       216 -10.8031     88.6320     33.5381   8.3543626346e+01   5.8181618212e+01    0.3755856    0.2954965 -11.49  0.001407893    1.321    0.243
       217  -9.6070     88.6035     28.2012   8.1385406672e+01   5.8880640040e+01    0.2881487    0.2028198 -19.81  0.001170313    1.510    0.338
       218  -8.6061     82.2946     43.6722   8.9675513356e+01   5.7989754346e+01    0.1283453    0.1118008 -77.54   0.00068522    1.628    0.386
       219  -9.4931    106.4319     44.2165   8.2309072419e+01   5.2813437083e+01    0.3011233    0.2470836  80.39  0.001592263    1.525    0.344
       220  -9.6856    214.6202     41.3696   6.1586656643e+01   2.6508364616e+01     0.250948    0.2000065 -15.79  0.000774549    1.654    0.395
       221  -8.4690    207.3101     42.3302   6.2677665472e+01   2.8113046699e+01    0.1309608    0.1054378  33.72 0.0007041703    1.667    0.400
       222  -9.5204    161.5076     40.5761   6.8818469308e+01   3.9789600984e+01    0.6273025    0.3207648  88.61  0.002196563    3.219    0.689
       223  -8.9353    162.4264     37.5069   6.7750098321e+01   3.9956730890e+01    0.2235172    0.2055606  84.93 0.0008392464    1.027    0.027
       224 -12.0924     13.2898    129.8098   1.3636946341e+02   4.7703893234e+01    0.6542888    0.4126664  87.49  0.001636508    1.518    0.341
       225  -9.8640     76.8905     40.8396   9.0461373280e+01   5.9461669432e+01    0.2958727    0.1903765 -41.30  0.001509497    1.693    0.409
       226 -11.3774     75.5089     34.3139   8.8296867774e+01   6.0687760901e+01    0.7871097    0.3360423  40.46   0.00338063    2.208    0.547
       227 -10.4537     15.7045    151.9855   1.3804864755e+02   4.2138122984e+01    0.2703272    0.1972172  82.56 0.0005663128    1.209    0.173
       228 -12.2540     20.1916    147.0881   1.3634423277e+02   4.2947949995e+01      0.64947    0.3939468 -63.04  0.002572558    1.452    0.311
       229 -10.2246     38.4563    143.0400   1.3072700196e+02   4.2202120540e+01    0.2114442    0.1991893  23.77 0.0001506292    1.263    0.208
       230 -11.7862     63.3151     30.8651   9.1430719561e+01   6.3384861631e+01     0.823711     0.349296  38.36  0.001772109    2.245    0.555
       231 -10.8615     70.7594     30.4269   8.8388790984e+01   6.2120137747e+01    0.3309632    0.2545544   6.64 0.0009995025    1.269    0.212
       232  -8.6276    196.5325     41.5335   6.3831001366e+01   3.0835961943e+01    0.1416872    0.1217277 -78.49 0.0001253187    1.045    0.043
       233  -9.5549    191.3073     40.0535   6.4137496223e+01   3.2323661637e+01    0.2143597     0.178479  60.66 0.0003759082    1.230    0.187
       234  -9.3305    193.4231     36.0213   6.2806171218e+01   3.2325893265e+01    0.2964748     0.196149  46.56  0.001485216    1.761    0.432
       235  -8.9805     61.8674     40.5383   9.6071002935e+01   6.2151880614e+01    0.1946893    0.1224993  37.08 0.0008158827    1.564    0.360
       236  -9.2379      8.3238    150.9874   1.3988805402e+02   4.2958544357e+01    0.1765158    0.1281693 -82.32 0.0003792973    1.117    0.105
       237  -9.9367    180.8344     38.4836   6.5173406536e+01   3.5151428473e+01    0.3907667    0.2343066 -71.02  0.001752404    1.984    0.496
       238  -9.3155    173.6758     38.6371   6.6279943898e+01   3.6943508102e+01    0.2440704    0.1647101  82.44 0.0004993008    1.498    0.332
       239 -10.3519    124.1796     35.9081   7.4763527486e+01   4.9780064353e+01    0.4875761    0.3547261 -28.84  0.002539089    1.502    0.334
       240 -10.0854    109.8498     37.2105   7.8789309113e+01   5.3013699041e+01    0.3987623     0.181298 -35.87 0.0008465523    2.330    0.571
       241 -12.1840    109.8656     30.1333   7.6151098330e+01   5.3914534981e+01    0.7086878    0.3866537  71.78  0.001627379    2.470    0.595
       242  -9.1937    105.5304     33.4902   7.8557412590e+01   5.4493600101e+01    0.2394645    0.2191149 -36.72 0.0008741064    1.223    0.182
       243  -9.9922    202.6567     37.7060   6.2089753171e+01   2.9847810241e+01    0.2773342    0.2074092 -74.87 0.0006137491    1.263    0.208
       244 -10.6857    148.3571     35.1889   6.9512970549e+01   4.3838447491e+01    0.7725154    0.3953784  72.78  0.003187543    2.119    0.528
       245  -9.8455    145.3913     29.8252   6.8354685129e+01   4.5245589109e+01    0.4252737    0.2480761  46.37  0.001985058    1.700    0.412
       246  -9.9914     66.6775    148.5036   1.2345084093e+02   3.7359725766e+01    0.2906498    0.2045655  43.31  0.001471976    1.439    0.305
       247  -9.8241    159.6397     24.0130   6.4177384576e+01   4.2290638151e+01     0.319362    0.2483418  62.55 0.0008660378    1.163    0.140
       248  -9.3604     61.1460    147.1933   1.2482024608e+02   3.8446920217e+01    0.2087207    0.1828689 -46.13 0.0004862428    1.245    0.197
       249 -10.5093    236.3080    144.7558   8.2384878614e+01   5.1409153430e+00    0.2928061    0.2127181  87.18  0.001394201    2.461    0.594
       250  -9.8900    153.9350     24.8524   6.5327821780e+01   4.3648393752e+01    0.3783522    0.2421712 -41.61  0.001909037    1.665    0.399
       251 -10.0104    148.6309     23.7823   6.5870783481e+01   4.5114730759e+01    0.5045176    0.1719468  59.14  0.001516388    2.405    0.584
       252 -10.4836     32.5263    141.8697   1.3227243461e+02   4.3097151983e+01      0.27045    0.1495069  49.57  0.001330551    1.914    0.477
       253  -8.8494     80.4981    140.4926   1.1800745913e+02   3.7295356577e+01    0.1471576    0.1398615 -72.82 0.0008103485    1.038    0.037
       254 -10.2171     34.6779    150.5844   1.3277283189e+02   4.0726587223e+01    0.3400373    0.2527724  35.76  0.001944934    1.471    0.320
       255  -9.0216     64.3016     36.5333   9.3449591721e+01   6.2376187727e+01    0.1811538    0.1630093  78.99 0.0008206898    1.667    0.400
       256 -10.9706    236.4101     32.0211   5.7249168263e+01   2.2781778356e+01    0.4898384    0.3781068  64.84  0.003049027    1.431    0.301
       257 -10.0193    245.6533     33.3372   5.6725384065e+01   2.0629128795e+01    0.4490932    0.1692633  58.61  0.002005633    2.886    0.653
       258 -10.9865    211.3564     32.7002   5.9867662066e+01   2.8406089348e+01    0.4379011    0.3600872  64.85 0.0009151768    1.284    0.221
       259  -9.2623     32.4743     33.5742   1.0637095205e+02   6.7377326696e+01    0.2357617    0.1044264 -42.44  0.001158237    2.025    0.506
       260 -10.0436    227.6557     30.9797   5.7822705851e+01   2.4855672619e+01    0.3276905    0.1939513 -68.09 0.0009566679    1.631    0.387
       261  -9.6342     58.5187    139.6370   1.2433949353e+02   4.0687904358e+01     0.224594    0.1349404  32.11 0.0006375859    1.794    0.442
       262  -9.7782     48.8960    138.3279   1.2698083432e+02   4.2211816345e+01    0.3936273    0.1771253  52.25  0.001565279    2.674    0.626
       263 -10.7269     45.7999    132.3488   1.2695595389e+02   4.4065916611e+01    0.5154272    0.2529777 -68.92   0.00227351    1.892    0.472
       264  -8.9539    177.9693    137.9693   9.1965273051e+01   1.8270607686e+01    0.3142976     0.196504 -85.24  0.000625485    4.151    0.759
       265 -10.7644    183.1014     27.1944   6.1794762434e+01   3.5985444825e+01    0.4904237    0.2447196  58.69  0.002065049    1.855    0.461
       266  -9.9232    177.4690     30.9983   6.3586743301e+01   3.6946179384e+01    0.2768817     0.264477  17.68 0.0008426945    1.278    0.217
       267 -10.4846    178.7110     26.9877   6.2312291775e+01   3.7112869388e+01     0.462437    0.2135425  50.76  0.001264569    2.262    0.558
       268  -9.0337    203.1291     29.3735   5.9959569542e+01   3.0788028781e+01     0.204362    0.1871861 -26.90 0.0008706338    1.334    0.250
       269 -10.5185     54.6994    137.5015   1.2511781866e+02   4.1712308404e+01    0.2829337    0.1760165 -65.82  0.001376957    1.469    0.319
       270  -9.8141    194.5935     31.1290   6.1395715410e+01   3.2653736013e+01    0.3001198    0.2261015   2.39  0.001033661    2.001    0.500
       271 -11.0304     39.2958    146.9865   1.3102214884e+02   4.1132219665e+01    0.4047815    0.3305488  69.39  0.001574048    1.197    0.164
       272 -10.9261     72.1660    129.0715   1.1825177460e+02   4.1425829869e+01    0.3284763    0.2973998  48.57 0.0009254355    1.148    0.129
       273 -10.5905     28.0209    119.7975   1.3051647840e+02   4.8973686573e+01    0.8539219    0.4088244  54.40  0.003710064    2.684    0.627
       274 -10.5592     29.5178    127.5232   1.3119678850e+02   4.6934622366e+01    0.4473616    0.2455832 -30.69  0.002021824    2.581    0.613
       275  -9.8030     22.5821    127.8182   1.3335095767e+02   4.7467372559e+01    0.3231426    0.1865145  62.96  0.001610105    2.016    0.504
       276  -9.8060     25.5980    126.8091   1.3229612015e+02   4.7459832501e+01    0.3503435    0.2051407 -55.82  0.001838032    1.518    0.341
       277 -11.8000     57.1656    125.8404   1.2229299594e+02   4.4317689649e+01    0.4716502    0.4041209  39.44  0.002678783    1.254    0.202
       278 -10.0479     38.9610    126.9933   1.2819895950e+02   4.6144061914e+01    0.2219374    0.1456675 -39.46  0.001112097    1.702    0.412
       279  -9.1831    227.4399    126.1376   7.9764651913e+01   1.0049314196e+01    0.2714475    0.1972375  77.41  0.001333466    1.939    0.484
       280 -10.6111     50.4925     25.0548   9.4193900933e+01   6.6300224219e+01    0.4389708    0.1902266  35.23  0.002064504    2.217    0.549
       281  -8.5325    201.4583     25.4746   5.9177966133e+01   3.1662505330e+01    0.1361734    0.1132869 -78.61 9.667431e-05    1.038    0.037
       282  -9.3576    137.2738     24.1115   6.7995461998e+01   4.7944184083e+01    0.3461865    0.2172517  21.00  0.001502453    2.227    0.551
       283 -10.3022     47.3645    124.1967   1.2508884869e+02   4.5921430438e+01    0.2453834    0.1725135  35.41 0.0007543915    1.542    0.351
       284  -9.9892     75.2974    124.7136   1.1637678242e+02   4.2032634636e+01    0.2721824    0.1707866  47.71 0.0007811383    1.704    0.413
       285 -11.6516     67.3516    122.8742   1.1848796599e+02   4.3670781927e+01    0.7717997    0.3316264 -39.76  0.002664792    3.130    0.681
       286 -10.4497     67.5525    115.1730   1.1677553703e+02   4.5540761660e+01    0.6103984    0.2399216  50.20  0.001885098    3.639    0.725
       287 -10.2467     18.9931    121.2329   1.3356837835e+02   4.9367013637e+01    0.6366308    0.1540211 -58.91  0.002396828    2.921    0.658
       288  -9.1262     97.6327     22.4154   7.6398194839e+01   5.7605621066e+01    0.2309279    0.1230335  59.12 0.0006445108    1.830    0.454
       289  -9.1979     40.6769    122.3280   1.2689014824e+02   4.7123247217e+01     0.141087   0.09741873  71.32 0.0005407757    1.693    0.409
       290 -10.3916     92.6092    119.6177   1.0986166339e+02   4.0394682925e+01    0.4945172    0.2866812 -52.20   0.00206989    1.672    0.402
       291  -9.4142    209.8100     18.4166   5.6617257212e+01   3.0483398206e+01    0.2214249    0.1921862 -23.02 0.0006615111    1.460    0.315
       292  -9.4022     91.3450    112.2752   1.0845566271e+02   4.2380408361e+01    0.2443158    0.2140759  30.16 0.0006712909    1.196    0.164
       293 -12.2513      5.0972     82.2918   1.3239777292e+02   5.9489568622e+01     1.333025    0.5411401 -56.63  0.006446104    1.824    0.452
       294  -9.6800     92.5852     15.7035   7.5051071142e+01   5.9437259322e+01    0.2238332    0.1734963  44.17 0.0001644086    1.111    0.100
       295 -11.8411     47.7555    101.2043   1.2040615101e+02   5.1511508969e+01     1.097276    0.5113419 -45.11  0.004708774    2.058    0.514
       296  -9.0426    226.9699     13.2125   5.3946066283e+01   2.7116194408e+01    0.1911579    0.1158611  81.12  0.001077084    1.492    0.330
       297 -11.3866     25.5529     52.9721   1.1670064532e+02   6.4460567540e+01    0.4951355    0.2595571 -22.40  0.002422527    2.209    0.547
       298 -11.0932     53.7519     29.8297   9.4920937707e+01   6.5104646803e+01    0.7819594    0.2602493  33.72  0.003008539    3.242    0.692
       299 -11.5478     54.2896     37.1744   9.7833491409e+01   6.3888487663e+01    0.9127885    0.5035085  32.10  0.004670256    1.778    0.438
       300  -9.0309     82.7961     13.1127   7.6773843860e+01   6.1798041201e+01    0.1762972    0.1247573  34.68   0.00101147    1.239    0.193
       301  -9.2630     67.3517     13.1677   8.1886753320e+01   6.4875013730e+01    0.1934077    0.1586757  58.33  0.001198004    1.485    0.327
       302 -10.7414     44.7409     37.6832   1.0225068389e+02   6.5169921047e+01    0.6231345    0.3538066   4.11  0.002919777    2.424    0.587
       303 -13.1029     16.9943    101.6485   1.3131708106e+02   5.4248047938e+01     2.300787    0.7979342 -45.28  0.009491822    2.756    0.637
       304 -11.1374     14.4237     88.2733   1.2993779167e+02   5.7572009879e+01     0.473234    0.4141791 -52.86  0.003199365    1.066    0.062
       305 -11.4298     42.6468     49.6394   1.0779140721e+02   6.3308319483e+01    0.8512362    0.3347012  27.81  0.003650202    2.733    0.634
       306 -11.5999     33.8598     43.4110   1.0953921100e+02   6.5482913378e+01    0.7652705    0.4161336  26.53  0.002507085    1.907    0.476
       307 -12.8910     17.1687     59.0272   1.2229539641e+02   6.3884925453e+01      1.11709    0.5613411   7.00  0.002024154    2.384    0.580
       308  -9.6722     12.9241     56.5120   1.2354860655e+02   6.4699809453e+01    0.8590673    0.1725278  24.48  0.003200452    4.693    0.787
       309 -10.9423     68.1914     75.8898   1.0620485457e+02   5.4506590615e+01    0.8210247     0.343189 -45.76 0.0008734588    2.246    0.555
       310 -12.1942     59.0719     69.3876   1.0763470314e+02   5.7230767282e+01     1.232645    0.8262315 -61.68  0.005282158    1.804    0.446
       311 -11.5173     49.8321     69.9462   1.1147869852e+02   5.8357987961e+01     1.043264     0.591247  58.01  0.004157196    3.463    0.711
       312  -9.5666    143.0008    243.0174   1.1906498147e+02   4.4684337267e+00    0.2294004    0.1244632  20.59  0.001010429    2.578    0.612
       313 -11.3671     27.1714     64.2708   1.1931287110e+02   6.1982970610e+01     1.195597    0.3987968 -33.08  0.003880314    4.673    0.786
       314 -12.6906     25.8747     82.6581   1.2441985487e+02   5.8027113687e+01     1.090435    0.9802334 -87.83  0.007126484    1.265    0.209
       315  -8.9180     59.2787    120.3552   1.2055324445e+02   4.5406657298e+01    0.1485506       0.1011 -36.29 0.0007011176    1.655    0.396
       316 -10.1333    105.1613    117.2504   1.0549333146e+02   3.8610273771e+01    0.5431228     0.399828  68.97  0.002428042    1.705    0.413
       317  -9.7671     98.2805    114.4911   1.0686905680e+02   4.0580464370e+01    0.3059152    0.2687916   4.91  0.001556466    1.301    0.231
       318  -9.9733     51.3723    118.8199   1.2281012428e+02   4.6785128776e+01    0.3255921    0.2131379  71.73  0.001135503    1.997    0.499
       319  -9.3485     39.4722    115.9638   1.2617216168e+02   4.8822594153e+01    0.2449158    0.1422506  54.63  0.001144897    2.102    0.524
       320  -9.9706     13.1226    117.2265   1.3487107585e+02   5.0768580245e+01    0.2597661    0.2021568  50.22  0.001108592    1.437    0.304
