#   1 NUMBER                 Running object number                                     
#   2 MAG_AUTO               Kron-like elliptical aperture magnitude                    [mag]
#   3 X_IMAGE                Object position along x                                    [pixel]
#   4 Y_IMAGE                Object position along y                                    [pixel]
#   5 X_WORLD                Barycenter position along world x axis                     [deg]
#   6 Y_WORLD                Barycenter position along world y axis                     [deg]
#   7 A_WORLD                Profile RMS along major axis (world units)                 [deg]
#   8 B_WORLD                Profile RMS along minor axis (world units)                 [deg]
#   9 THETA_WORLD            Position angle (CCW/world-x)                               [deg]
#  10 FWHM_WORLD             FWHM assuming a gaussian core                              [deg]
#  11 ELONGATION             A_IMAGE/B_IMAGE                                           
#  12 ELLIPTICITY            1 - B_IMAGE/A_IMAGE                                       
         1 -17.5465    239.9001    151.8483   1.5109629383e+01   8.1490503634e+00     4.426057     1.574199 -37.17   0.02157694    2.221    0.550
         2 -18.3184    243.0909    109.3948   6.7583528116e+00   1.3846313677e+01     4.262074     1.517091 -36.87   0.02042632    2.178    0.541
         3 -18.9656    117.9447    147.6471   3.7656621976e+01   2.8300048816e+01     7.149355      5.68803 -56.27   0.03670273    1.285    0.222
         4 -17.2100    138.9057      5.6220   3.5268292431e+02   4.9044202088e+01     2.546622     1.812192 -63.86   0.01482896    1.272    0.214
         5 -13.8540    168.8600      9.0474   3.5099596519e+02   4.1585371787e+01    0.2293391    0.1652057  89.39  0.001148587    1.249    0.199
         6 -13.7932    162.3944      9.0541   3.5152784229e+02   4.3081974458e+01    0.2930831    0.1711408  80.53  0.001322267    1.577    0.366
         7 -15.9410    158.3829      2.6732   3.5002461880e+02   4.4637514760e+01       1.6931    0.4237653  81.62  0.005710516    4.188    0.761
         8 -16.1998    193.3068     12.5685   3.5013208041e+02   3.5811229034e+01     1.256184    0.9762809 -23.78   0.00777714    1.544    0.352
         9 -13.8032    228.8013    222.0078   2.8333593590e+01  -2.5310581983e-01     0.733152    0.2222999 -43.04  0.003389203    3.614    0.723
        10 -12.7182    225.2092    249.1189   3.2745785567e+01  -3.2230872585e+00    0.2024174    0.1536296 -28.79  0.001392843    1.512    0.339
        11 -13.6901    225.8627    242.8378   3.1783805780e+01  -2.5425141637e+00    0.3930221    0.2006423 -38.54  0.002599542    1.992    0.498
        12 -13.7313    209.9085    248.5444   3.5130994117e+01  -1.7582633699e+00    0.3452672    0.2104058 -22.77  0.002075215    1.413    0.292
        13 -12.7311     37.4925    248.6737   7.0310367763e+01   1.6829782166e+01    0.3200553     0.115346  59.34  0.001402276    3.062    0.673
        14 -14.5272     11.1797    225.8668   7.5296075854e+01   2.3826796310e+01    0.4000376    0.1642064  46.44  0.001584957    1.841    0.457
        15 -15.3617     16.9584    241.0064   7.4539963519e+01   2.0237870518e+01     1.018509    0.2200566  34.85  0.003960585    2.677    0.626
        16 -14.8872      5.0500    228.0010   7.6796217595e+01   2.3898332629e+01    0.5162444    0.3285775  67.18  0.001716981    1.384    0.277
        17 -13.9820      2.1285    220.6368   7.7253499133e+01   2.5690136957e+01    0.4099163    0.2103668  80.88   0.00207623    1.883    0.469
        18 -14.6815      5.6152    235.8593   7.6906521167e+01   2.2244324270e+01    0.5886612    0.3039866  42.85  0.002455852    1.438    0.305
        19 -14.2115     20.3225    249.2094   7.4110390445e+01   1.8351111849e+01    0.5523245    0.1769818  38.93  0.002412771    2.063    0.515
        20 -14.5517      3.3453    243.8806   7.7632212397e+01   2.0848415464e+01    0.6445234    0.3729844  49.34  0.002611742    1.298    0.230
        21 -13.8539     12.0322    249.4013   7.5914084904e+01   1.9051791563e+01    0.4768383    0.2287147  41.66  0.002002049    1.497    0.332
        22 -13.1772      3.6770    250.0505   7.7720844795e+01   1.9639929160e+01    0.4885336    0.1586263  26.36  0.002370218    2.420    0.587
        23 -12.8154    245.8601    232.7488   2.7348843596e+01  -3.1322903801e+00    0.2558106     0.192906 -18.10  0.002010213    1.251    0.201
        24 -14.7638    238.6581    231.9927   2.8298079755e+01  -2.4068950224e+00    0.9655389    0.5506797 -46.59  0.006104507    2.658    0.624
        25 -14.2089    231.8071    236.7077   3.0005173566e+01  -2.3502315739e+00    0.4647214    0.3430272 -48.64  0.003097462    2.347    0.574
        26 -12.4002    201.9057    241.8417   3.5563685006e+01  -1.4070063555e-01    0.2469101    0.1314548 -33.05  0.001583189    1.750    0.428
        27 -12.2985    214.5496    240.7743   3.3305814294e+01  -1.2388066654e+00    0.2188436   0.09085245 -40.15  0.001234651    2.408    0.585
        28 -12.3883    220.0043    239.5502   3.2253463159e+01  -1.6043501695e+00     0.226222    0.1291516 -42.71  0.001385547    2.106    0.525
        29 -13.7350    216.3087    232.9880   3.1920445832e+01  -4.2789167069e-01    0.4071353    0.2272997 -34.86  0.002413278    1.662    0.398
        30 -13.6876     30.5736    240.1048   7.1429407486e+01   1.9151518670e+01    0.3151124    0.1461523  59.14  0.001626455    2.048    0.512
        31 -12.1687    183.0540    238.6323   3.8449654800e+01   2.2403260863e+00    0.3034527    0.1294856 -39.98  0.001652404    2.347    0.574
        32 -13.1887    205.1610    234.7570   3.4022025707e+01   4.5567137069e-01    0.3756769    0.1993674 -45.05  0.002268051    2.267    0.559
        33 -12.6205    190.0553    233.7564   3.6509801933e+01   2.1680324133e+00    0.2988121    0.1560255 -45.15  0.001746502    2.194    0.544
        34 -11.1650    161.3234    235.2854   4.2107574996e+01   5.1452931531e+00    0.1196573   0.07707379  -3.61 0.0007004176    1.600    0.375
        35 -14.6568     14.9673    231.9556   7.4645339642e+01   2.2232387890e+01     0.414818    0.2140458  49.44  0.001616625    1.525    0.344
        36 -12.3055    211.8554    226.7413   3.1745809056e+01   8.3111451728e-01    0.2984038    0.1163117 -36.49  0.001611336    2.316    0.568
        37 -12.4874    223.6620    226.4357   2.9791516505e+01  -3.1358062358e-01     0.246471    0.1018651 -38.26  0.001406021    2.212    0.548
        38 -12.0810    198.7554    226.4803   3.3931553033e+01   2.2436180985e+00    0.1947857   0.08422016 -40.08  0.001054213    2.237    0.553
        39 -12.0572    206.0005    224.6579   3.2419907506e+01   1.7210354373e+00    0.2582856    0.1320514 -36.96  0.001557038    1.823    0.452
        40 -12.9992    217.2465    223.0836   3.0322925795e+01   7.6303614571e-01     0.337045    0.1662217 -46.27  0.001896463    2.566    0.610
        41 -11.7998    190.3130    224.8572   3.5188026722e+01   3.3980297291e+00    0.1639346   0.08625446 -30.95 0.0009398984    1.802    0.445
        42 -12.9460    240.4310    221.6962   2.6532338037e+01  -1.3258918576e+00    0.2272043    0.1805856 -18.45  0.001064033    1.282    0.220
        43 -12.5088    239.3795    216.8523   2.5962980312e+01  -6.2713219831e-01    0.2151398    0.1638772 -38.44  0.001143859    1.653    0.395
        44 -13.2249     19.0619    221.0613   7.3218770362e+01   2.4150274774e+01    0.2202451    0.1070109  52.36  0.001124403    1.715    0.417
        45 -12.2325    202.2079    218.0500   3.2080911608e+01   3.0485822239e+00    0.3680641   0.06859788 -39.55  0.001309531    4.891    0.796
        46 -12.5341    210.7061    218.2719   3.0675533044e+01   2.0938090961e+00    0.2740886    0.1210975 -41.41  0.001508415    2.225    0.551
        47 -13.8032     13.6823    215.9852   7.4303592901e+01   2.5730197088e+01    0.2589077    0.1236749  47.39  0.001332972    1.662    0.398
        48 -12.3274    233.7319    213.9819   2.6370179497e+01   2.8732844319e-01    0.2264495    0.1365361 -27.63  0.000859647    1.333    0.250
        49 -12.3698    234.4160    209.7918   2.5623589313e+01   7.6035389132e-01    0.2021791     0.112828 -20.77 0.0009406555    1.541    0.351
        50 -13.1770    217.6136    213.7930   2.8859216815e+01   1.9691554087e+00    0.3483014    0.2029993 -41.37  0.001659547    1.789    0.441
        51 -12.4368    217.5605    205.2010   2.7526763629e+01   3.1597742467e+00    0.2972978   0.09342881 -40.26  0.001121098    2.856    0.650
        52 -12.6679    249.6867    212.3985   2.3804910923e+01  -1.0500365699e+00    0.1919274    0.1585009  -7.52  0.001570261    1.305    0.234
        53  99.0000    230.5012    191.2378   2.3253119095e+01   3.6697104337e+00     2.473874    0.4545646 -35.13  0.007954785    5.747    0.826
        54 -14.3968    223.0892    146.2211   1.6400945839e+01   1.1227346624e+01     1.321914    0.3120927 -34.41  0.004202323    4.851    0.794
        55 -12.4759    243.6006    248.0679   2.9815113086e+01  -4.6743377033e+00    0.2240583    0.1095299 -31.51  0.001249576    1.728    0.421
        56 -13.0506    218.6691    247.2184   3.3524907170e+01  -2.4104445750e+00    0.2931099    0.1614992 -38.23  0.001668943    1.897    0.473
        57 -12.5293    215.2950    190.4839   2.5498070193e+01   5.5306850160e+00    0.3126116    0.1228411 -38.89  0.001559456    2.216    0.549
        58 -12.0020    208.0955    143.9097   1.8214043371e+01   1.3771368402e+01    0.1880738    0.1339856 -13.13 0.0005961577    1.561    0.359
        59 -11.7037    220.5026    187.4938   2.4167507605e+01   5.3495025641e+00    0.1149574    0.0920737 -18.37 0.0008101746    1.049    0.047
        60 -11.6224    214.4444    141.1330   1.6697603512e+01   1.3270676785e+01    0.1810495     0.102713 -37.12  0.000506739    1.471    0.320
        61 -11.8832    218.1350    183.1460   2.3804672417e+01   6.2714141588e+00    0.1515752    0.1160596 -37.86 0.0007462858    1.321    0.243
        62 -12.7163    218.9883    136.7694   1.5178283487e+01   1.3288278665e+01    0.2856565    0.1460726 -29.86  0.001239368    1.873    0.466
        63 -12.3421    210.8934    182.1928   2.4807583656e+01   7.3113803010e+00    0.2419672     0.138321 -34.20  0.001054097    1.501    0.334
        64 -11.8990    208.5630    136.4758   1.6672667603e+01   1.4913970917e+01    0.1269535    0.1052553 -29.75 0.0002367643    1.035    0.034
        65 -12.9171    226.2411    132.1899   1.3270829221e+01   1.2932587496e+01    0.3085792    0.1670034 -30.42  0.001290421    1.668    0.400
        66 -11.4516    218.3019    132.3156   1.4402438293e+01   1.4091711066e+01    0.1214923   0.08707006 -11.92  0.000507139    1.617    0.382
        67 -12.0696    203.3522    183.2287   2.6246346113e+01   8.1124302180e+00    0.1631917    0.1005322 -44.55 0.0009330285    1.658    0.397
        68 -13.0192    221.4416    127.4187   1.2992045357e+01   1.4383427662e+01    0.3386784    0.1821674 -25.87   0.00127211    2.012    0.503
        69 -11.8634    212.3227    127.7617   1.4356352044e+01   1.5740031209e+01    0.1855511   0.09857844 -32.64  0.000936235    1.711    0.416
        70 -13.9872      2.6880    212.0026   7.6847799712e+01   2.7525263112e+01    0.3281757    0.1991607  55.06  0.001349614    1.339    0.253
        71 -12.1552    205.6177    207.7918   2.9913930318e+01   4.1336309765e+00    0.2103716   0.09256621 -36.17  0.001113808    2.039    0.510
        72 -12.5992    219.2546    177.1698   2.2598961602e+01   7.0227727581e+00     0.269493     0.133753 -38.29  0.001187052    1.720    0.419
        73 -11.9597    215.6484    197.8544   2.6656018419e+01   4.4173744512e+00    0.1528326    0.0933689 -42.52  0.000931743    1.690    0.408
        74 -11.5661    210.5064    175.4412   2.3693197268e+01   8.3989752227e+00    0.1198609    0.0984472 -18.79  0.000488862    1.014    0.014
        75 -11.6969    248.4610    207.8678   2.3285486239e+01  -3.7473315971e-01    0.1509204   0.08007646 -33.09 0.0008229773    1.518    0.341
        76 -11.8727    202.1917    197.2518   2.8806443834e+01   6.0979123230e+00    0.1672852   0.08238821 -47.98 0.0006392469    2.382    0.580
        77 -14.3902    199.8028    100.5961   1.0402334386e+01   2.2291399007e+01    0.7209301    0.3625303 -24.31  0.002967994    2.865    0.651
        78 -14.1552    194.7610    106.4651   1.2457704749e+01   2.2238526263e+01    0.7394786    0.3013244 -43.91  0.003176772    2.129    0.530
        79 -11.7971    209.6254    212.1598   2.9920382773e+01   3.0602940461e+00    0.1598976   0.08588384 -28.23 0.0009415845    1.659    0.397
        80 -14.3178    153.0932    100.5620   1.8414863247e+01   3.1504612766e+01    0.4227232    0.3269041 -73.88  0.001973506    1.495    0.331
        81 -13.0128      4.4121    196.2217   7.5845091514e+01   3.0989562372e+01    0.1832893    0.1023546  74.99 0.0009478595    1.656    0.396
        82 -15.7939    145.6972    100.9615   2.0070318121e+01   3.2982029857e+01     1.251975    0.7254221 -71.33  0.004533403    3.081    0.675
        83 -15.9049    150.2348     92.9485   1.7037969267e+01   3.3564184445e+01    0.9430614    0.7977671 -49.00  0.005144343    1.109    0.099
        84 -11.4755    205.1532    168.7069   2.3370045025e+01   1.0174369559e+01    0.2009402    0.1377599 -42.49 0.0007820009    1.403    0.287
        85 -12.6065     81.7178    106.2034   3.9201428695e+01   4.4883666442e+01    0.3381269    0.2800393 -12.31  0.001348933    1.510    0.338
        86 -13.7224    222.5326    103.4094   7.9741620302e+00   1.7913524634e+01    0.2287366    0.1777158 -31.87 0.0008732678    1.169    0.145
        87 -12.5339    242.0985    209.6736   2.4472130036e+01   1.3085285273e-02    0.2168667     0.126445 -44.19  0.001398663    2.070    0.517
        88 -14.6586    234.6078    131.8232   1.2091917098e+01   1.1789664289e+01    0.7411669    0.2642914 -40.93  0.003485312    2.233    0.552
        89 -15.0375    132.6460    100.0602   2.2802115500e+01   3.5939819099e+01    0.4200989    0.3035236  38.97   0.00137922    1.530    0.346
        90 -13.5680    233.7491    246.5290   3.1075450688e+01  -3.6708022892e+00    0.2978779    0.2168272  -8.16  0.001452161    1.100    0.091
        91 -11.8507    212.2002    168.6418   2.2206836747e+01   9.2335900091e+00    0.1118367   0.08131252 -48.28 0.0003955708    1.544    0.352
        92 -11.1070    199.3126    164.2830   2.3543163642e+01   1.1709889473e+01    0.1244712   0.08738673  -8.26  0.000546485    1.573    0.364
        93 -13.0000    213.0716    162.2291   2.0901883094e+01   1.0120248070e+01     0.297575    0.1516184 -35.40  0.001583044    1.674    0.403
        94 -12.2091    205.1534    160.8062   2.1916376585e+01   1.1448575691e+01     0.231651    0.1498484 -33.54 0.0008803557    1.330    0.248
        95 -15.1947    143.6559     88.5755   1.7239786757e+01   3.5826808815e+01    0.5585367    0.3874708  55.65  0.002668012    1.498    0.333
        96 -11.4902    209.4540    194.4746   2.7119110250e+01   5.6386208059e+00    0.1170516   0.09374499 -14.13 0.0001583698    1.013    0.012
        97 -14.8667    186.9940     99.6178   1.2103891377e+01   2.4849597849e+01     1.260151    0.5017693 -41.95  0.005250959    2.173    0.540
        98 -11.8641    196.6175    156.2543   2.2491784639e+01   1.3443338943e+01    0.1782208    0.1047711 -31.91 0.0009325146    1.567    0.362
        99 -11.9934    215.4580     78.4825   3.4918211416e+00   2.2870752615e+01    0.1244339    0.1038052 -43.02 0.0008075631    1.083    0.077
       100 -12.3690    244.8667    202.0554   2.2890932883e+01   7.1091692952e-01    0.2355765    0.2276769   0.67  0.001887122    1.711    0.416
       101 -12.4691    210.6458    201.1981   2.8018368077e+01   4.5112364063e+00    0.2390048    0.1573629 -53.39  0.001400667    2.280    0.561
       102 -12.6733    216.3408    155.4238   1.9133547029e+01   1.0738131083e+01    0.2307906    0.1296655 -37.73 0.0008174703    1.491    0.329
       103 -13.2186      1.8752    205.2698   7.6825885616e+01   2.9098872832e+01    0.2282005    0.1425867  70.32  0.001307477    1.415    0.293
       104 -14.7023    245.1191     46.0365   3.5399444646e+02   2.2035632400e+01    0.4104023    0.2793934   0.53  0.002285054    3.027    0.670
       105 -12.8443    191.3194    246.2721   3.7999254112e+01   3.4503504370e-01    0.3485925    0.2043595 -16.46  0.002254332    1.634    0.388
       106 -12.3194    175.9908    244.5643   4.0542079307e+01   2.1694971175e+00    0.2928274    0.1449742 -21.09  0.001554328    2.426    0.588
       107 -12.8877    249.9041    219.2632   2.4804587345e+01  -1.9012058480e+00    0.2331974    0.1352259 -23.77   0.00116981    1.306    0.235
       108 -13.8117    249.8258    227.9747   2.6093275262e+01  -2.9227755936e+00    0.7372445    0.1966538 -36.47  0.003736778    3.081    0.675
