#   1 NUMBER                 Running object number                                     
#   2 MAG_AUTO               Kron-like elliptical aperture magnitude                    [mag]
#   3 X_IMAGE                Object position along x                                    [pixel]
#   4 Y_IMAGE                Object position along y                                    [pixel]
#   5 X_WORLD                Barycenter position along world x axis                     [deg]
#   6 Y_WORLD                Barycenter position along world y axis                     [deg]
#   7 A_WORLD                Profile RMS along major axis (world units)                 [deg]
#   8 B_WORLD                Profile RMS along minor axis (world units)                 [deg]
#   9 THETA_WORLD            Position angle (CCW/world-x)                               [deg]
#  10 FWHM_WORLD             FWHM assuming a gaussian core                              [deg]
#  11 ELONGATION             A_IMAGE/B_IMAGE                                           
#  12 ELLIPTICITY            1 - B_IMAGE/A_IMAGE                                       
         1 -15.6681     61.3872     81.9511   9.5537629165e+01   5.3361930273e+01     2.655701     1.874272 -35.01   0.01307293    1.371    0.270
         2 -16.7760    140.7722     97.9542   7.5900041455e+01   3.4960024657e+01     3.009902     2.098119 -71.60  0.007327309    2.039    0.510
         3 -13.9362    165.4230     36.0965   5.1597167801e+01   3.9523069800e+01      1.29568     1.011453 -70.36  0.004718049    1.407    0.289
         4 -14.5790    113.5986     65.5859   7.3235162506e+01   4.7474684242e+01     1.618879     1.282094 -12.39  0.005939818    1.392    0.282
         5 -16.6716    148.2585     57.3787   6.1695684754e+01   4.0761405543e+01     3.837467     2.407578  64.41   0.01358465    1.715    0.417
         6 -13.6960    209.5538     32.9583   4.4408071325e+01   2.8848184732e+01    0.7951568    0.6914565  82.03  0.003521148    1.101    0.092
         7 -13.6427    217.6765     25.1094   4.1529340389e+01   2.7874840715e+01    0.7541878    0.6075018  82.44  0.001193515    1.168    0.144
         8 -14.7029    178.7109     48.8635   5.3170900175e+01   3.4377766624e+01     1.419211     1.117873 -68.46  0.005331251    1.357    0.263
         9 -13.4321    187.3478     22.6263   4.4379858864e+01   3.5602777845e+01      1.05168     0.740077  41.28  0.004495021    1.653    0.395
        10 -12.7642    247.8794     20.4237   3.7681268959e+01   2.1590310895e+01    0.5250321    0.3145923 -78.26  0.002889096    1.650    0.394
        11 -13.9313    228.1174     13.9559   3.7872929074e+01   2.6740647554e+01    0.7107968    0.5702627 -63.00  0.002603855    1.077    0.071
        12 -11.0657     48.0521     12.6911   7.4767068312e+01   6.7810582064e+01    0.2700135    0.1613916 -27.93  0.001118319    1.549    0.354
        13 -12.9484      3.2716      3.7104   9.3647074449e+01   7.4045848793e+01     0.445319    0.2958111 -14.06  0.003199229    1.223    0.182
        14 -12.1460    233.1701      2.8998   3.4963967392e+01   2.6795681528e+01    0.3207166    0.2653292  71.06  0.001610226    1.300    0.231
        15 -11.4033     94.7182    221.9630   1.1114975604e+02   1.6107401236e+01    0.1749502    0.1488716  74.60 0.0004384202    1.098    0.089
        16 -11.2667    203.8112    250.1964   9.3551591625e+01  -5.6781650004e+00    0.2870775    0.1307961  30.77  0.001481237    1.884    0.469
        17 -15.8409    155.5851    234.3155   1.0042224229e+02   4.1777861667e+00     1.724446     1.277177 -32.23  0.006946557    1.667    0.400
        18 -13.5928    171.9214    218.4691   9.4777438724e+01   4.0478264309e+00    0.7763456    0.6090155  71.54  0.004378032    1.793    0.442
        19 -14.0704    126.5410    162.3653   9.4983181350e+01   2.3454699843e+01     1.661303    0.6997373  52.12  0.005727833    2.843    0.648
        20 -16.7557    153.1510    189.0035   9.3753059144e+01   1.2768900426e+01      3.92151     2.162779 -65.29   0.01406441    2.852    0.649
        21 -14.6436    167.4588    184.8522   8.9854812415e+01   1.0892777250e+01     1.150041     1.067134  78.80  0.003857403    1.255    0.203
        22 -14.9326     22.3670    229.5498   1.2567917551e+02   2.3887887615e+01    0.7790681    0.4358405  65.72    0.0031486    1.395    0.283
        23 -16.4235     75.5437    243.2422   1.1696861571e+02   1.4854750573e+01     2.713247     1.670895  55.01   0.01708161    1.293    0.227
        24 -15.2259     19.4486    193.7596   1.2400094680e+02   3.1492532190e+01     2.436913    0.7929863 -89.56  0.009508854    3.687    0.729
        25 -16.2960     10.2245    125.4674   1.2016434012e+02   4.7961319699e+01     2.259711     1.115475 -76.13   0.01178872    1.634    0.388
        26 -16.5688     41.4540    191.6008   1.1923695388e+02   2.9640135929e+01     2.220708    0.9790413  87.45  0.007800114    2.675    0.626
        27 -16.3717     28.5744    175.3747   1.2059991394e+02   3.4673123347e+01     1.783666    0.8596985  85.30  0.008684871    2.123    0.529
        28 -15.7735      3.4541    224.8769   1.2874393097e+02   2.6664216584e+01    0.8550162    0.3445226 -84.01  0.003672502    2.092    0.522
        29 -16.0517     18.7247    144.4883   1.1996974621e+02   4.2794466019e+01     2.409526    0.7416339 -55.66  0.008684367    2.900    0.655
        30 -10.8757    191.5067    215.0157   9.0295526593e+01   1.2793890113e+00     0.257496    0.1708903  48.64  0.001377866    1.635    0.388
        31 -14.5683      9.4984    138.1125   1.2167906545e+02   4.5017492240e+01    0.6703068    0.4261043 -25.38  0.002727357    2.364    0.577
        32 -10.9235    219.9785    205.7835   8.3179123541e+01  -2.0359764861e+00    0.3223499    0.1911814 -39.94    0.0015358    1.840    0.457
        33 -10.6403    141.7088    204.3708   9.8839879075e+01   1.1835700918e+01    0.2289382    0.1710826 -69.94 0.0007368159    1.640    0.390
        34 -16.0608     50.4957    247.2325   1.2180056443e+02   1.7374424971e+01     1.449076    0.4971355  49.39  0.007501344    2.177    0.541
        35 -10.3163     64.8002    202.3571   1.1528532522e+02   2.4398425203e+01     0.332475    0.1104724  47.62  0.001382041    2.646    0.622
        36 -12.9512    202.8078    190.1094   8.3526582916e+01   3.3905009655e+00    0.7073744    0.4639026 -35.15   0.00316583    1.556    0.357
        37 -11.1056    192.5196    192.1786   8.5984189019e+01   4.8914623614e+00    0.3299717    0.2507341  18.88  0.001794876    1.304    0.233
        38 -14.1711     48.7212    162.4859   1.1450103425e+02   3.5498712867e+01     1.296168    0.7269463 -74.17  0.005077056    1.606    0.377
        39 -14.8090     43.5858    104.3579   1.0690671417e+02   5.0219743131e+01     1.343242    0.9171401 -70.09  0.005494138    1.359    0.264
        40 -13.5177    231.8019    204.7763   8.0818886205e+01  -3.7812169420e+00     1.140843    0.4489972 -39.99  0.005019406    2.704    0.630
        41 -15.9305     93.6772    111.4594   9.2755567558e+01   4.1515188821e+01     2.384238     2.063529 -38.69  0.007782269    1.152    0.132
        42 -16.2390     58.3661    136.3355   1.0823522018e+02   4.0689686516e+01     2.520023     1.711612  55.81   0.01312006    1.592    0.372
        43 -14.9146     85.7916    177.4763   1.0748705498e+02   2.6951885316e+01     1.345513     1.213257  13.26  0.005848745    1.411    0.291
        44 -14.3016    105.9093    174.6456   1.0221414215e+02   2.4359055725e+01     1.251155    0.7470789  42.72  0.004081584    1.602    0.376
        45 -15.9921     77.6734    127.3623   1.0106487284e+02   4.0250225645e+01     2.753309     1.458813  51.38   0.01156136    2.208    0.547
        46 -15.0551     71.8004    110.4327   9.9206030317e+01   4.5244580433e+01     1.411255      1.00984  72.17   0.00448207    1.839    0.456
        47 -16.0280     99.6920    153.1846   1.0002471878e+02   3.0429979295e+01     1.777571     1.532866 -14.39  0.007034592    1.479    0.324
        48 -11.5530     60.3672    181.0089   1.1393169974e+02   2.9724333271e+01    0.3383816     0.235821 -39.00  0.001801654    2.031    0.508
        49 -11.6844     65.7916    175.2837   1.1196342199e+02   3.0331199385e+01    0.2589885    0.2205946 -49.58 0.0007367897    1.389    0.280
        50 -16.5312      6.8269    246.2825   1.2910322223e+02   2.2368126306e+01     1.318225    0.6401539  55.06  0.008995051    1.494    0.331
        51 -12.3642     75.3787    164.8152   1.0818626194e+02   3.1463335747e+01    0.3651218    0.3272507  85.30 0.0005802584    1.014    0.013
        52 -13.3584     62.7982    161.5404   1.1087259143e+02   3.3978115778e+01    0.4743643    0.2710005 -46.28   0.00143363    2.061    0.515
        53 -10.6748    203.4893    161.4029   7.7508414863e+01   8.3205696235e+00    0.3024863    0.1382378 -39.10  0.001206715    2.151    0.535
        54 -12.0862    190.8728    150.9996   7.7781615912e+01   1.2824947569e+01    0.7896326    0.5576189  -6.87  0.003543684    1.858    0.462
        55 -15.8546    100.0168    136.6383   9.6670802782e+01   3.4354532165e+01     1.553273      1.27888  53.38  0.005398329    1.248    0.199
        56 -11.3027    126.0834    144.5907   9.1453086668e+01   2.7618791288e+01    0.4334266    0.3365267  53.88  0.001448295    1.323    0.244
        57 -12.5781    242.7582    139.9251   6.5602091109e+01   4.5339718811e+00    0.4591723    0.3695216 -41.89  0.001935351    1.240    0.194
        58 -14.0395    119.7100    118.3044   8.6999641710e+01   3.4999852719e+01     1.503971     0.740327 -54.28  0.004479557    2.144    0.534
        59 -15.9367    140.2390    126.2261   8.3564029706e+01   2.8910382212e+01     2.286425     1.657329  83.57  0.007460199    2.024    0.506
        60 -15.0612    223.0146    158.7209   7.3179378782e+01   5.0433748944e+00     2.341089     1.282364 -44.66  0.008749019    1.918    0.479
        61 -11.3953    214.5260    122.4504   6.6447132968e+01   1.3215201217e+01    0.4765006    0.2658837  47.43  0.002053085    1.901    0.474
        62  -9.9431    205.5162    110.4930   6.5161168782e+01   1.7385488340e+01    0.1509994    0.1425879 -32.89 3.704823e-05    1.006    0.006
        63 -12.7618    118.4657    103.2073   8.3365879485e+01   3.8691566678e+01    0.4556737    0.3051862 -33.37  0.001980641    1.620    0.383
        64 -11.2889    167.7732    133.2582   7.8666887099e+01   2.1367060136e+01    0.4117474    0.2793665  52.28  0.001302187    1.552    0.356
        65 -12.3360    173.1635     97.6217   6.8217876750e+01   2.7389877360e+01    0.6782304    0.4991733  61.36  0.002222752    1.467    0.318
        66 -12.2087    169.6537     91.6677   6.7318055618e+01   2.9383304704e+01    0.4806341     0.314353 -38.92  0.002013967    1.503    0.335
        67 -13.0248      7.4178     85.6953   1.1563028405e+02   5.7485464272e+01     0.486514    0.2369071 -53.37  0.002260233    1.593    0.372
        68 -12.4944     16.6139     92.3348   1.1361104625e+02   5.5386648509e+01    0.4856169    0.3455001 -41.82   0.00223918    1.355    0.262
        69 -14.1490     95.6254     86.0187   8.5230450962e+01   4.6978749875e+01     1.851466    0.7983609  35.23   0.00676279    2.632    0.620
        70 -14.3106    238.1201    156.7012   7.0043547805e+01   2.6100927676e+00     1.452736    0.5551878 -35.36  0.005375668    2.406    0.584
        71 -14.4577    168.3600     72.8983   6.2185473013e+01   3.3142427903e+01     1.313325     1.019503  72.37  0.005005056    1.407    0.289
        72 -14.3743     95.7058     69.2534   7.9911434234e+01   5.0442642192e+01     1.242127     1.023167 -18.43  0.003856081    1.232    0.188
        73 -13.9945    225.0268    240.2777   8.8185696203e+01  -7.5287839763e+00     1.138466    0.5302875  16.58   0.00501319    3.042    0.671
        74 -14.7752    226.2321    225.5385   8.5527443264e+01  -5.8055466662e+00     1.171728    0.8103752  14.75  0.004583616    1.275    0.216
        75 -13.1711     10.3817     89.4468   1.1523371267e+02   5.6451494677e+01    0.5731904    0.2765387 -71.75  0.002941683    1.748    0.428
        76 -10.7855    201.4748     77.6769   5.7372698195e+01   2.4163412319e+01    0.2852025    0.2075837 -56.70  0.001367234    1.425    0.298
        77 -12.5467     75.4142     91.8403   9.3438985055e+01   4.9100478039e+01     0.519363    0.4921642  81.61  0.001787688    1.192    0.161
        78 -11.7705      9.4872     75.5221   1.1308157440e+02   5.9687471736e+01     0.326991     0.179131 -56.82  0.001288922    1.376    0.273
        79 -12.6832      4.9799     75.0342   1.1465474730e+02   6.0035811393e+01    0.4228529    0.2587504 -43.99  0.001608289    1.416    0.294
        80 -12.3868    188.8806     67.2949   5.6695595748e+01   2.8970743742e+01    0.3722281    0.3198771  49.10  0.001562678    1.215    0.177
        81 -13.6566    212.9908     58.1067   5.0456200607e+01   2.4515268181e+01    0.8425153    0.6847661  66.18  0.002965814    1.258    0.205
        82 -13.6860    198.0563     57.6013   5.2515451257e+01   2.8224267001e+01     1.302233    0.4803988  47.36  0.004435621    3.166    0.684
        83 -15.0964    233.7362    187.3530   7.7137365681e+01  -1.5071629922e+00     1.322317    0.8769665  14.32  0.004201356    1.584    0.369
        84 -14.6282    247.2609    178.7470   7.3049134607e+01  -2.4114310761e+00    0.9562212    0.7926366 -34.33  0.003954321    1.316    0.240
        85 -14.3510    200.3998     46.2972   4.9107707998e+01   2.9301136321e+01     1.324047    0.8450244  77.77  0.004597289    1.662    0.398
        86 -12.0524    201.1806     38.4699   4.6900937428e+01   3.0180063848e+01    0.3498562    0.3433265  85.68  0.001178983    1.131    0.116
        87 -11.1566     13.4736     60.0223   1.0816539868e+02   6.2869035535e+01    0.1734909    0.1459537 -38.03 0.0004207062    1.111    0.100
        88 -12.5445     91.9103     54.8214   7.6113392488e+01   5.3878078094e+01    0.6911698    0.3421162  50.44  0.002849297    2.304    0.566
        89 -12.2090     83.0668     52.9494   7.8395178372e+01   5.5865462884e+01    0.5474853    0.3918351 -50.95  0.002794371    1.622    0.383
        90 -12.1263     33.2555     53.3881   9.7981449006e+01   6.2708403468e+01    0.5077965    0.2951347 -32.67  0.001972945    1.590    0.371
        91 -16.3841      8.2697    195.4082   1.2633349445e+02   3.2183180150e+01     1.965889    0.8238771 -89.68   0.01032202    2.084    0.520
        92 -10.9336    116.4406     35.9341   6.1878641753e+01   5.1608720391e+01    0.3554519    0.2528357  29.12  0.001422021    1.466    0.318
        93 -13.6149    134.1565    229.1844   1.0400505935e+02   8.5467228087e+00    0.5815942    0.2528971  44.60  0.002693467    1.947    0.486
        94 -12.1724    178.3269    229.0390   9.5166001898e+01   1.2801389945e+00     0.408937    0.2539288  32.64  0.001329716    1.391    0.281
        95 -14.1510    125.1377    228.9474   1.0579597283e+02   1.0049019611e+01    0.8962277    0.4698687  61.18  0.004096701    2.455    0.593
        96 -12.5321    249.6755    221.3254   8.0662760978e+01  -8.6596233170e+00    0.4297298    0.2473181 -31.44  0.001820118    1.724    0.420
        97 -11.5668    131.3529    221.5294   1.0355016637e+02   1.0379044511e+01    0.2427914    0.2159439  31.23 0.0009309648    1.160    0.138
