#   1 NUMBER                 Running object number                                     
#   2 MAG_AUTO               Kron-like elliptical aperture magnitude                    [mag]
#   3 X_IMAGE                Object position along x                                    [pixel]
#   4 Y_IMAGE                Object position along y                                    [pixel]
#   5 X_WORLD                Barycenter position along world x axis                     [deg]
#   6 Y_WORLD                Barycenter position along world y axis                     [deg]
#   7 A_WORLD                Profile RMS along major axis (world units)                 [deg]
#   8 B_WORLD                Profile RMS along minor axis (world units)                 [deg]
#   9 THETA_WORLD            Position angle (CCW/world-x)                               [deg]
#  10 FWHM_WORLD             FWHM assuming a gaussian core                              [deg]
#  11 ELONGATION             A_IMAGE/B_IMAGE                                           
#  12 ELLIPTICITY            1 - B_IMAGE/A_IMAGE                                       
         1 -13.1722    177.6523     38.1792   6.5639852435e+01   3.5901753496e+01      1.31194     1.006381  12.79  0.004335766    1.556    0.357
         2 -12.5267    197.4775      5.9429   5.3135807010e+01   3.4411982094e+01    0.9322546    0.7685816  83.51  0.004765193    1.147    0.128
         3  -9.6958     14.0000    243.2353   1.3852086605e+02   2.4568687759e+01    0.1056911   0.05922543 -84.30 0.0002891092    1.607    0.378
         4 -19.4959     42.7847    149.0386   1.2656204155e+02   3.9511924726e+01     18.57607     3.247157 -69.86   0.05474117    5.810    0.828
         5  -9.6064     87.2389    203.0016   1.2317445500e+02   2.2829208768e+01    0.1940219    0.1386921  53.04 0.0007382964    1.186    0.157
         6 -10.8876     93.7377    205.8281   1.2223337794e+02   2.1375097620e+01    0.5097502    0.3210044 -31.94   0.00246827    3.516    0.716
         7  -9.6367     90.0683    204.7722   1.2282090859e+02   2.2099001456e+01    0.2500645      0.14973  49.56 0.0008885936    1.408    0.290
         8  -9.8127     94.3611    199.2097   1.2137381463e+02   2.2497554474e+01    0.2620039    0.1701099  71.86 0.0008430178    1.575    0.365
         9 -10.0557    158.6322    234.5138   1.1370921749e+02   6.6600194291e+00    0.2446155    0.1392308  60.96  0.001313696    2.224    0.550
        10  -9.0468     15.9536    206.2970   1.3648214380e+02   3.0703409935e+01     0.110382   0.08363166  45.21 0.0008659236    1.480    0.324
        11  -9.7457     11.4821    205.3439   1.3719534615e+02   3.1300075061e+01    0.2029638    0.1289967  75.14  0.001533382    1.149    0.130
        12 -11.1382    127.6201    200.3823   1.1499541667e+02   1.7059624381e+01    0.2439994    0.2135612  40.21  0.001521638    1.171    0.146
        13 -10.3387    141.0224    198.0172   1.1203443653e+02   1.5208674690e+01    0.2339107    0.1756197  38.24 0.0006113722    1.240    0.194
        14 -11.0544    135.9967    198.6275   1.1310855753e+02   1.5961332358e+01    0.3313396    0.1780055  49.60  0.001693135    1.652    0.395
        15  -9.7341    192.3030    193.4523   1.0144704504e+02   6.8200083865e+00    0.3974997    0.2294615 -62.24  0.001643901    3.731    0.732
        16  -8.9762    153.5166    194.4478   1.0904347344e+02   1.3633919820e+01    0.1299697    0.1122568  43.75 6.312825e-05    1.017    0.016
        17 -10.5467     99.4788    186.5699   1.1880923345e+02   2.4124057770e+01    0.2569122    0.1703571  85.26   0.00141658    1.730    0.422
        18 -10.3558    115.2820    184.1496   1.1521777271e+02   2.2069950228e+01    0.2828674    0.1150679 -59.38  0.001206499    2.777    0.640
        19 -10.5579     99.3799    180.6865   1.1805379207e+02   2.5290306157e+01    0.2239403    0.2013618  56.00 0.0006077823    1.136    0.119
        20 -10.2870     94.7978    179.0971   1.1880556305e+02   2.6310683572e+01    0.2206446    0.1638005  49.38 0.0005537485    1.240    0.193
        21  -9.1743      1.5560    177.2055   1.3747469235e+02   3.7503810473e+01   0.08964443   0.07350405  64.52            0    1.265    0.209
        22  -8.3305    167.8538    176.5772   1.0318273428e+02   1.4044122371e+01    0.1810862    0.1190326  53.10 0.0005439645    1.529    0.346
        23  -9.3033    168.2905    233.2863   1.1185902825e+02   5.2814586990e+00    0.2026006    0.1524156  56.22 0.0006493098    1.364    0.267
        24 -11.7017    104.9753    172.9493   1.1577379673e+02   2.5948347265e+01    0.5676048    0.2854535  40.14  0.002709972    1.925    0.481
        25 -10.2838    125.4462    172.4772   1.1129600457e+02   2.2594463409e+01    0.2875034     0.121602  42.90 0.0007454317    2.176    0.541
        26  -9.5624    142.7963    171.5964   1.0745832896e+02   1.9639434854e+01    0.1970198     0.117042  52.94 0.0005365793    1.658    0.397
        27 -10.2179    194.3740    167.5264   9.6237877751e+01   1.0443170998e+01    0.3049925     0.269048  24.65 0.0007955515    1.027    0.026
        28  -9.3905    204.2547    165.5460   9.3963480053e+01   8.8358994585e+00    0.4201471    0.2090086 -48.14  0.001777194    2.604    0.616
        29  -8.1731    113.3249    160.6732   1.1200870375e+02   2.7061743093e+01    0.1418568   0.09910522  75.72 0.0004757153    1.694    0.410
        30 -10.2986     98.5403    159.1895   1.1510777292e+02   2.9817725766e+01    0.2585356    0.2289653 -72.81 0.0003728261    1.126    0.112
        31 -11.3386    102.8849    152.5782   1.1303122815e+02   3.0513804398e+01    0.5883819    0.4193069 -33.99  0.001472806    1.903    0.475
        32  -9.2534    175.6617    217.6854   1.0838420684e+02   6.2151451550e+00    0.1236145   0.08576699  17.56 0.0007047332    1.697    0.411
        33  -9.7165    189.4822    155.4092   9.4721270608e+01   1.3420601763e+01    0.2590888    0.2425398   1.97  0.001527781    1.058    0.055
        34 -11.7816     87.9415    153.5358   1.1666225689e+02   3.2671870385e+01    0.3555198    0.2874153 -36.45  0.001289472    1.598    0.374
        35  -9.1235    164.6622    153.3053   9.9356477265e+01   1.8831261503e+01    0.2268752    0.1760938  84.43  0.001121206    1.767    0.434
        36 -10.0937     11.4047    152.9382   1.3391662001e+02   4.1638919705e+01    0.2242483    0.1559288  56.14 0.0005770576    1.381    0.276
        37  -9.8207    134.1806    146.6336   1.0470298339e+02   2.6162431604e+01    0.6190752    0.1529075 -54.30  0.001565001    5.975    0.833
        38 -10.2583    112.4115    138.1243   1.0813223074e+02   3.1982398563e+01    0.4268561    0.2373721 -40.88  0.001864995    2.115    0.527
        39 -11.2972    101.1726    138.1270   1.1086806326e+02   3.3921299421e+01    0.2916816     0.256682 -49.49  0.000480926    1.208    0.172
        40  -9.8539    106.1125    130.8208   1.0822327191e+02   3.4679248192e+01    0.3245748    0.2825816 -89.96  0.001147217    1.164    0.141
        41 -10.3965     97.1142    214.5544   1.2252988658e+02   1.9333560167e+01    0.2030843    0.1933174 -13.06  0.001495971    1.541    0.351
        42  -8.9992    117.7736    129.2577   1.0500634673e+02   3.2918726069e+01    0.1928779    0.1715798 -12.95 0.0008572143    1.361    0.265
        43  -9.4272    105.9724    125.3524   1.0712873288e+02   3.5904666652e+01    0.2557566    0.1970157 -44.26 0.0006723552    1.348    0.258
        44  -8.7004     16.6450    250.0997   1.3840926750e+02   2.3222784824e+01    0.1676563    0.1241065  35.50   0.00140654    1.873    0.466
        45  -8.2936    112.5162    118.5210   1.0396185823e+02   3.6221844977e+01    0.1432833    0.1373648 -76.67  0.000810097    1.001    0.001
        46  -9.3516    168.1547    112.9156   8.9321260962e+01   2.5738896027e+01    0.3703381    0.2354272 -63.36  0.001455429    2.269    0.559
        47  -8.9989    205.7680    110.3941   8.1139427560e+01   1.7594920240e+01    0.2069618    0.1354102  40.74 0.0008475375    1.566    0.361
        48  -9.5628    146.4712    238.4724   1.1631274066e+02   8.0280216506e+00    0.1159211   0.09033061  44.63 0.0002283549    1.028    0.028
        49 -10.5846     92.4109    195.1370   1.2128817274e+02   2.3548709400e+01     0.556434    0.2705452  60.73  0.002690606    2.238    0.553
        50  -8.6424    176.8208     74.8533   7.7010490017e+01   3.0561984975e+01    0.2078456    0.1809013 -81.09 0.0002579961    1.318    0.241
        51 -12.1729    163.9294     52.9961   7.2865384333e+01   3.7322995006e+01    0.5962038    0.5477853 -35.18  0.001122055    1.096    0.087
        52  99.0000     12.8591    247.6857   1.3886623700e+02   2.3975636477e+01    0.2085244   0.09553976 -61.30  0.001367376    3.042    0.671
        53 -11.7030    182.4645     30.9229   6.2601782035e+01   3.5576578748e+01    0.6046108    0.4613618  34.07  0.001275321    1.438    0.305
