#   1 NUMBER                 Running object number                                     
#   2 MAG_AUTO               Kron-like elliptical aperture magnitude                    [mag]
#   3 X_IMAGE                Object position along x                                    [pixel]
#   4 Y_IMAGE                Object position along y                                    [pixel]
#   5 X_WORLD                Barycenter position along world x axis                     [deg]
#   6 Y_WORLD                Barycenter position along world y axis                     [deg]
#   7 A_WORLD                Profile RMS along major axis (world units)                 [deg]
#   8 B_WORLD                Profile RMS along minor axis (world units)                 [deg]
#   9 THETA_WORLD            Position angle (CCW/world-x)                               [deg]
#  10 FWHM_WORLD             FWHM assuming a gaussian core                              [deg]
#  11 ELONGATION             A_IMAGE/B_IMAGE                                           
#  12 ELLIPTICITY            1 - B_IMAGE/A_IMAGE                                       
         1 -12.0021    155.6954     53.2261   7.7782611326e+01   3.9138710750e+01     1.253584    0.9965689 -37.79  0.005617818    1.264    0.209
         2 -11.7133    164.8935     22.4189   6.5925791716e+01   4.0845280718e+01    0.9693885    0.6707047  -9.44  0.004594849    1.780    0.438
         3 -10.7794    170.2596     23.9864   6.5731956992e+01   3.9212732199e+01    0.7610512    0.4072759 -17.27   0.00315768    2.245    0.555
         4  -9.0101    120.4568      9.0821   6.7931964392e+01   5.4607171849e+01    0.2982878    0.2809639  49.23  0.001045535    1.081    0.075
         5  -9.2421    174.0394      7.6507   6.0066454282e+01   3.9931815264e+01    0.2440816    0.2069815 -15.74  0.000659487    1.354    0.262
         6  -8.1788    166.7697    244.9883   1.1694946817e+02   3.7091806584e+00    0.1591529    0.1215618  32.68 0.0003246519    1.250    0.200
         7  -7.5752    250.3209    250.3126   1.0306030792e+02  -6.7996384983e+00    0.1073965   0.05473478   5.86  0.000703831    1.652    0.395
         8  -8.6393    144.4476    250.6014   1.2194528584e+02   5.9204708862e+00    0.2096341   0.07937966  36.17 0.0004546472    1.898    0.473
         9 -18.2005     79.4248    221.7714   1.3285385605e+02   1.9095978992e+01     4.811069     3.721257  44.00   0.01230805    1.012    0.012
        10  -9.1630    193.9079    171.6135   1.0014173446e+02   1.0111387139e+01    0.2456112     0.212426 -15.84 0.0008298137    1.177    0.150
        11 -11.9613    249.6271    233.9916   1.0081456008e+02  -5.2142147757e+00    0.2202263    0.1528612   3.03 0.0003304754    1.084    0.077
        12 -10.0605    152.5783    164.3483   1.0769270135e+02   1.8626372933e+01    0.6028889    0.3200276  53.20  0.002165739    2.456    0.593
        13  -9.7375    140.0650    141.5749   1.0618472262e+02   2.5550272853e+01    0.3004863    0.2930786 -61.48 0.0009688582    1.139    0.122
        14 -11.4635    144.6325    147.0764   1.0619044649e+02   2.3517351894e+01      1.55722    0.9317086 -77.44  0.004724359    4.922    0.797
        15  -9.4025    147.2288    158.0767   1.0776626156e+02   2.0820288729e+01     0.415502    0.3597073  86.29   0.00199104    1.538    0.350
        16  -9.0064    142.5363    153.7536   1.0806909361e+02   2.2562842189e+01     0.281276    0.2358598  47.69  0.000701025    1.206    0.171
        17  -8.6590    141.0192    164.3469   1.1046879129e+02   2.0723707721e+01    0.2399858    0.2187303 -71.78 0.0005763054    1.341    0.254
        18  -9.3435      6.1135    222.4790   1.4878142313e+02   2.6826669732e+01    0.3179265    0.1329418 -86.34  0.001507085    2.411    0.585
        19  -9.7617    189.4451    154.5428   9.7651180216e+01   1.3630394833e+01    0.4969784    0.4226627   1.09   0.00290895    1.064    0.060
        20  -9.7701    156.7355    154.9210   1.0487178899e+02   1.9647494378e+01     0.520521    0.3540988 -84.92  0.001976222    3.452    0.710
        21  -9.7587    175.9984    218.2650   1.1156430991e+02   5.9847403879e+00    0.4369728    0.2419544 -23.44   0.00233252    2.240    0.554
        22  -9.7435      9.7163    149.6420   1.4563251023e+02   4.2127899967e+01     0.700128    0.1890073  64.07  0.002427838    3.859    0.741
        23  -8.6760    176.1773    150.0290   9.9480804750e+01   1.6863844946e+01    0.2299472     0.188205  28.45 0.0002894299    1.133    0.118
        24  -7.4174    150.3001    245.2801   1.2019980461e+02   5.8551908735e+00    0.1136259   0.07413166  12.09 0.0002228582    1.544    0.352
        25  -9.3268     25.8860    145.2755   1.4060232104e+02   4.1931801415e+01    0.5947863    0.2267781  55.62  0.002149241    2.531    0.605
        26 -10.1030    222.7596    144.4061   8.9350802543e+01   9.3509071224e+00    0.2384916    0.2091192  12.91  0.000517553    1.137    0.120
        27  -7.7964     13.6237    142.7586   1.4414085143e+02   4.3526306527e+01    0.1778119    0.1028525  80.54 0.0003764351    1.547    0.354
        28  -8.8993    161.8666    140.5977   1.0064718720e+02   2.1395935839e+01    0.2888452    0.1740004 -49.79  0.001260485    1.908    0.476
        29  -9.3561     20.7066    215.8268   1.4552611184e+02   2.6782725088e+01    0.2202692    0.1369536  51.59  0.001450114    1.179    0.152
        30  -8.8516     21.6173    210.6552   1.4514180873e+02   2.7704162931e+01    0.2533303    0.2065151 -44.57  0.001198119    1.787    0.440
        31  -8.7695     28.2725    136.3304   1.3914777276e+02   4.3969516730e+01    0.2437252    0.2118829 -27.16   0.00072568    1.426    0.299
        32  -7.2717    184.2623    242.3072   1.1328751787e+02   1.7536126703e+00    0.1115436   0.07004228   7.06 0.0002538792    1.527    0.345
        33  -8.8705    175.4664    205.7118   1.0977955961e+02   7.8608364803e+00    0.2155858    0.1804553  -9.29  0.000628233    1.225    0.184
        34 -10.8138    192.6187    194.2845   1.0448045116e+02   6.9207354917e+00    0.7541324    0.4761063 -56.00  0.003692922    2.986    0.665
        35  -9.7095    152.6016    131.9693   1.0090480742e+02   2.4984675919e+01     0.436255    0.2824863 -16.35 0.0007472072    2.194    0.544
        36  -8.6456    142.1783    157.3917   1.0887047195e+02   2.1896690742e+01    0.3897713    0.2951611  60.19  0.001198964    1.597    0.374
        37  -9.4002    202.5244    189.2194   1.0169447162e+02   6.1328827168e+00    0.2381537    0.1986973 -31.76 0.0008958927    1.446    0.309
        38  -8.7486    241.2088    126.0114   8.2542336172e+01   8.8592970339e+00    0.1892034    0.1657133   7.64 0.0003114021    1.146    0.128
        39  -8.7709      4.1451    231.0796   1.4934703909e+02   2.5427330488e+01    0.1724893    0.1046108  59.42  0.001226186    1.207    0.171
        40 -13.2396     57.1565    240.2183   1.3892522386e+02   1.8533590255e+01    0.3272302    0.2995233  89.53 0.0009388996    1.391    0.281
        41  -9.0280    168.4528    187.6573   1.0830745063e+02   1.1771127625e+01    0.2343353    0.2155858  47.83 0.0007448384    1.362    0.266
        42  -7.9136    169.9173    127.3356   9.5780378281e+01   2.2272739676e+01    0.2055942     0.181383  26.60 0.0004298767    1.088    0.081
        43  -7.5407    174.2602    122.9912   9.3789824039e+01   2.2169158915e+01    0.1792612    0.1270086 -36.32 0.0002820959    1.408    0.290
        44  -8.0279     16.8530    122.7928   1.4181418574e+02   4.8329089724e+01    0.1877059    0.1642598 -65.38 0.0003787847    1.193    0.161
        45  -9.1832    111.1005    121.5065   1.0977828107e+02   3.5803877965e+01    0.2782201    0.2275234 -80.59 0.0009580164    1.441    0.306
        46  -8.4238    140.1489    120.8601   1.0141385555e+02   2.9924845542e+01     0.236488    0.2148829  68.30 0.0004244533    1.213    0.175
        47  -9.3032     82.6615    118.1660   1.1817239034e+02   4.1829071741e+01    0.3538936    0.2097448  37.72 0.0007177436    1.624    0.384
        48 -10.1082     19.0819    183.6092   1.4465233590e+02   3.3557409958e+01    0.5823448    0.3724047 -36.94  0.002865351    2.439    0.590
        49  -8.8316    180.8752    185.0047   1.0523407635e+02   1.0168059496e+01    0.3361207    0.1765406 -46.66  0.001593851    2.390    0.582
        50  -8.3176    180.5091    179.4770   1.0432261923e+02   1.1105135379e+01    0.2885111    0.1296202 -45.73  0.001240079    2.695    0.629
        51  -9.8524    122.9638    111.8802   1.0390851557e+02   3.5595539773e+01     0.521167    0.2832859  51.48  0.001860829    1.964    0.491
        52 -10.1996    113.5713    109.2280   1.0603218976e+02   3.8191171170e+01    0.4280421    0.3132614 -31.69  0.001895161    1.582    0.368
        53 -10.8458     63.4410    107.4635   1.2282774043e+02   4.7562997134e+01    0.9493282    0.5899698 -30.79  0.001821687    2.191    0.544
        54  -9.4651     66.7217    100.9793   1.2022223206e+02   4.8782281896e+01    0.5138761    0.2202192  34.06  0.001471289    2.284    0.562
        55  -8.0128     52.1989    111.1573   1.2770823560e+02   4.8065415791e+01     0.220301    0.1978005 -39.39 0.0008139931    1.219    0.180
        56 -11.2013    186.8137    176.4359   1.0247004122e+02   1.0539433627e+01    0.6396084    0.5346488  31.55  0.002318891    1.211    0.175
        57  -9.8406    187.5339    166.8938   1.0051324760e+02   1.1942736368e+01    0.4295606    0.2978091 -50.85  0.002224681    1.930    0.482
        58  -7.6594    196.0211    103.0091   8.4510932533e+01   2.1015878970e+01    0.1684981    0.1595238  -8.50 0.0009555423    1.023    0.023
        59  -9.5406    116.9803    108.6926   1.0485747036e+02   3.7599069439e+01     0.321726    0.3031324  62.62  0.000795238    1.077    0.072
        60  -8.2994    104.0661     97.9701   1.0605759023e+02   4.2821812742e+01    0.2337567    0.2236497  52.25  0.000293287    1.027    0.026
        61  -8.0398    195.8249    185.0396   1.0224130599e+02   7.7700501494e+00    0.1780804    0.1631117   3.92 0.0004396533    1.256    0.204
        62  -9.7074     17.3106    194.2688   1.4551130991e+02   3.1429795444e+01    0.3983231    0.2431613  74.74  0.001079671    1.434    0.303
        63  -8.7012    143.0100     82.1635   8.9975835338e+01   3.7279550440e+01    0.2762298    0.2395631  -7.06 0.0007233097    1.307    0.235
        64  -7.8052     45.6362     82.7432   1.2486398585e+02   5.6354434966e+01     0.185433    0.1752562 -30.93 0.0003532532    1.099    0.090
        65  -8.7105    180.8044     80.7933   8.1379486967e+01   2.8221512304e+01    0.2318128    0.2228023  18.36 0.0003325283    1.079    0.073
        66  -7.8179      5.3305     75.2739   1.4223612166e+02   6.1299323899e+01    0.1356305   0.08263875 -45.89 0.0003665808    1.592    0.372
        67  -9.8971    236.5016     70.4439   7.0515655944e+01   1.7402251395e+01    0.2716393    0.2329741 -22.12 0.0005265439    1.128    0.113
        68  -9.1571    241.0479     66.4245   6.9061157695e+01   1.7031176128e+01    0.2854598    0.2222251  18.52 0.0009963621    1.637    0.389
        69  -8.6574    141.8470     73.1673   8.7434863369e+01   3.9300117195e+01    0.2270678    0.1941771  15.36 0.0009356061    1.346    0.257
        70  -8.2311     75.5872     71.9491   1.0878487316e+02   5.4637313015e+01    0.2222508    0.2025134  36.31 0.0004662893    1.105    0.095
        71 -10.7321    146.0396     66.2566   8.4177920603e+01   3.9491564205e+01    0.6266197    0.4228783  66.27   0.00183434    1.602    0.376
        72  -8.9947    122.7312     65.3847   8.9909481767e+01   4.5626159912e+01    0.2729093     0.251398 -27.78 0.0003883348    1.132    0.117
        73  -8.1586    156.8623    248.6166   1.1929739191e+02   4.5500214736e+00    0.1695575    0.1345867  -8.30 0.0006937799    1.418    0.295
        74  -7.7365    231.3099     60.3183   6.8648765207e+01   1.9807810047e+01    0.1280757     0.100143  12.84 0.0002797873    1.640    0.390
        75  -9.1908    144.1250     59.6845   8.2427239640e+01   4.1142201401e+01    0.3072486    0.2378847 -83.28   0.00110014    1.558    0.358
        76  -7.5657    237.5573     59.4702   6.7777475675e+01   1.8631928835e+01    0.1296874     0.112201 -34.34 -2.137905e-05    1.055    0.052
        77 -10.5624    160.3116     43.5715   7.3705646330e+01   3.9355668705e+01    0.5006891    0.4252099 -22.91 0.0009311013    1.267    0.211
        78 -10.3499    134.1899     42.7449   7.8672404446e+01   4.6560652424e+01    0.2613073    0.2569064  64.21 0.0002279254    1.037    0.036
        79  -7.8131    145.2437     38.9621   7.4923395662e+01   4.4108370472e+01    0.2031794    0.2005807 -35.05 0.0003021054    1.079    0.073
        80  -9.5746    135.8473    247.8898   1.2336114320e+02   7.4210283725e+00    0.4893963    0.2730187  16.06  0.002684301    1.997    0.499
        81 -10.2168    161.6179    176.7207   1.0789669534e+02   1.4771905110e+01     0.543437    0.3644375 -67.92  0.002122453    2.718    0.632
        82  -7.7246     14.2771    178.7388   1.4564612341e+02   3.5040791060e+01    0.1489293    0.1311881 -69.68   0.00102675    1.366    0.268
        83  -9.1272    229.2674     21.8176   5.9342762840e+01   2.4915356838e+01    0.3098175     0.210045 -26.77  0.001159387    1.440    0.305
        84  -7.9069    201.9703     15.7276   5.9907972130e+01   3.1936052286e+01    0.1814269    0.1585545 -76.62 0.0002119025    1.061    0.057
        85  -9.2993    188.8470     14.1756   6.0636794423e+01   3.5397946901e+01    0.3659155    0.1764317 -87.95  0.001426266    2.313    0.568
        86  -8.8305     29.7212    246.5224   1.4472981628e+02   2.0383190166e+01    0.2887514    0.1138515  60.75  0.001642767    2.128    0.530
