#   1 NUMBER                 Running object number                                     
#   2 MAG_AUTO               Kron-like elliptical aperture magnitude                    [mag]
#   3 X_IMAGE                Object position along x                                    [pixel]
#   4 Y_IMAGE                Object position along y                                    [pixel]
#   5 X_WORLD                Barycenter position along world x axis                     [deg]
#   6 Y_WORLD                Barycenter position along world y axis                     [deg]
#   7 A_WORLD                Profile RMS along major axis (world units)                 [deg]
#   8 B_WORLD                Profile RMS along minor axis (world units)                 [deg]
#   9 THETA_WORLD            Position angle (CCW/world-x)                               [deg]
#  10 FWHM_WORLD             FWHM assuming a gaussian core                              [deg]
#  11 ELONGATION             A_IMAGE/B_IMAGE                                           
#  12 ELLIPTICITY            1 - B_IMAGE/A_IMAGE                                       
         1 -14.0948     56.3110     64.7374   5.1104894143e+01   5.9425797385e+01     1.789779     1.089993 -29.42  0.007761412    2.036    0.509
         2 -14.9786      6.3984     71.2952   7.6676708906e+01   6.3021333904e+01      1.24239     0.762823 -61.67  0.005480825    1.340    0.254
         3 -14.6247    189.6558     24.5473   4.2369380753e+00   3.4937102045e+01     1.490273    0.8560834 -53.82   0.00668222    1.546    0.353
         4 -13.3688    187.7734     11.5721   8.8892861907e-01   3.6887356496e+01    0.6273909     0.511938 -36.22  0.003456262    1.301    0.231
         5 -14.5164    122.2887     36.8147   1.8315006194e+01   5.0345948203e+01     1.376737    0.7319311  53.15  0.005919454    1.807    0.447
         6 -13.1898    131.4124     33.3566   1.5163301525e+01   4.8499196321e+01    0.7123252     0.468551 -34.56  0.002354959    1.561    0.359
         7 -13.4338    242.6553     34.9324   2.2643689404e+00   2.2013697372e+01    0.6163881    0.5257981  86.02   0.00334458    1.327    0.246
         8 -14.0511     41.5363      5.0309   2.9520445809e+01   7.2623034341e+01    0.9281693    0.6032143   5.84   0.00492151    1.777    0.437
         9 -12.1092      3.0131      5.4732   5.7259237272e+01   7.7776360998e+01     0.222389    0.1833722  -4.38 0.0003220209    1.137    0.120
        10 -12.7292      7.6967      2.3688   5.1046708150e+01   7.7881282129e+01    0.4382645    0.3493645 -24.55  0.002353571    1.093    0.085
        11 -15.9761     11.2276     23.3131   5.9975298186e+01   7.3752883526e+01     2.080626     1.049224 -34.16   0.01067999    1.873    0.466
        12 -14.2829     26.3436     13.0010   4.3706351438e+01   7.3945505474e+01    0.8031794    0.5368096  -0.26  0.004069426    1.662    0.398
        13 -14.5858    166.6459     29.0826   8.1494489605e+00   4.0034336651e+01     1.036327    0.8402216  80.02  0.003709225    1.169    0.145
        14 -14.5874    147.6438     29.5617   1.1013792995e+01   4.4820470009e+01     1.369132    0.7621482  71.17  0.004809975    1.731    0.422
        15 -14.9072    217.4125     13.9368   3.5925081775e+02   2.9820942049e+01     1.469497    0.9660216 -37.81  0.007826273    1.396    0.284
        16 -12.9311    120.4892     25.9777   1.4593938010e+01   5.2263829306e+01    0.6807265    0.5050626  41.13   0.00350242    1.464    0.317
        17 -15.4261     99.3871     11.6631   1.3210825084e+01   5.9203885775e+01     1.600173    0.9463733  57.39  0.005321411    1.506    0.336
        18 -12.6383     85.5515     13.8698   1.7723219915e+01   6.2317273529e+01    0.4254833    0.3982349 -25.85  0.002558341    1.150    0.130
        19 -11.8182     70.9955     16.5073   2.3650555611e+01   6.5323201666e+01    0.3767192    0.2213563 -21.96  0.001840444    1.869    0.465
        20 -12.2066     74.4677     10.3210   1.9248267268e+01   6.5262991384e+01    0.3517159    0.2484356  13.33  0.001148537    1.633    0.387
        21 -12.3832     60.2223     15.3705   2.7155231523e+01   6.7741152475e+01    0.5214396    0.3041701  30.13  0.002507547    1.896    0.473
        22 -11.9856     46.7452     12.9982   3.1884732698e+01   7.0660016504e+01    0.3227033    0.2553109  48.34  0.001443888    1.348    0.258
        23 -12.4243    123.2769     10.8819   8.2772992812e+00   5.3242726635e+01    0.3045138     0.227783 -67.78 0.0004477381    1.385    0.278
        24 -12.1382    232.1010      2.6548   3.5580661288e+02   2.7936137901e+01    0.4250308    0.2521828  59.81  0.002476208    2.129    0.530
        25 -11.9900    152.9494      8.4335   3.3603661451e+00   4.5860555500e+01    0.2431462    0.2329939 -48.41 0.0007262388    1.187    0.158
        26 -10.8134     80.4347      7.2402   1.5874422912e+01   6.4205992206e+01    0.1767209    0.1205353 -37.47 0.0007833253    1.607    0.378
        27 -12.3152    120.7397      3.2699   5.7408913124e+00   5.4598975454e+01    0.5828742    0.2528126 -86.76  0.002114065    3.225    0.690
        28 -11.1545     67.6689      2.6917   1.7283325996e+01   6.7548100877e+01    0.2961484    0.1772719  32.27  0.001518896    1.724    0.420
        29 -12.0096     80.0519      1.7973   1.3190671855e+01   6.4793746262e+01    0.6261407    0.1051418  58.93  0.002005514    3.853    0.740
        30 -11.4452     61.1984      1.4729   1.8774023183e+01   6.9076822536e+01     0.350318    0.1141133  58.72  0.001379892    2.803    0.643
        31 -12.2810     48.7161    181.2100   7.5949779135e+01   3.0251924500e+01    0.4454842     0.286008 -56.89  0.002282503    1.712    0.416
        32 -12.4107    109.5304    243.1148   6.8029216926e+01   8.9923014918e+00    0.3898441      0.22645  43.03  0.001641031    1.423    0.297
        33 -12.4478    109.4770    249.0330   6.8640537719e+01   7.9941484522e+00    0.4252649    0.2738324  43.92  0.002624912    1.289    0.224
        34 -12.5017     51.1869    248.4365   8.0545538033e+01   1.5467050772e+01    0.3818823    0.3542714  67.66  0.002922335    1.281    0.219
        35 -12.8687     57.0276    246.7605   7.9250215148e+01   1.5087611710e+01    0.4750846    0.2218114  32.60  0.002540434    1.832    0.454
        36 -11.8084     41.1205    248.2805   8.2566315806e+01   1.6648081470e+01    0.4462108    0.1821077  89.98  0.002192446    2.937    0.660
        37 -13.4440     28.2292    246.4774   8.5050594734e+01   1.8394367319e+01    0.4995452     0.362248  65.82   0.00309992    1.132    0.117
        38 -12.2265      2.8479    249.6288   9.0066313550e+01   2.0338942662e+01    0.3374173    0.1869168  51.38  0.001663497    1.252    0.201
        39 -14.0666      9.4098    245.5970   8.8700930630e+01   2.0470328252e+01    0.9198697    0.3496941  50.00  0.004103786    1.783    0.439
        40 -13.4497    197.4350    179.5850   4.0360622150e+01   6.9531499450e+00    0.6274049     0.410041 -68.53  0.002685403    3.354    0.702
        41 -12.6746     84.5621    173.1520   6.5399497131e+01   2.7284415190e+01     0.485049    0.1625023 -54.27  0.001693437    3.004    0.667
        42 -13.3580    124.6023    167.7847   5.4082502301e+01   2.1864952348e+01    0.7439179    0.3060432 -52.96   0.00277194    2.497    0.599
        43 -11.3090      2.0872    159.1813   8.6838491695e+01   4.0375138244e+01     0.279867    0.1850388 -80.99  0.001369381    1.312    0.238
        44 -13.1900     21.8032    166.2782   8.1888587436e+01   3.6921694287e+01    0.4794995      0.30618   5.32  0.001772984    2.281    0.562
        45 -12.4281     77.1634    156.9728   6.5022415795e+01   3.2473766822e+01    0.4740333    0.4147204  16.64  0.001466977    1.351    0.260
        46 -13.6567     73.9998    153.3000   6.5363402377e+01   3.3901453781e+01    0.6893112     0.565778  29.68  0.002017914    1.325    0.246
        47 -12.4978    111.5436    155.4431   5.5169093387e+01   2.7097597233e+01     0.557544    0.3532914  78.90  0.002164185    2.484    0.597
        48 -11.8160     12.8777    150.1644   8.3203778891e+01   4.1850876680e+01    0.4956464     0.204777  83.78  0.002011006    2.433    0.589
        49 -12.4475      7.8609    148.4589   8.4552399505e+01   4.2686219307e+01    0.5781336    0.3173507  65.75  0.002893063    1.665    0.400
        50 -11.9618    103.5433    149.7121   5.6259654049e+01   2.9934758163e+01    0.3983039    0.3044269 -24.15  0.001657589    1.732    0.423
        51 -12.8697    208.5624    154.0851   3.3308626238e+01   9.5397957736e+00      0.60603    0.4203155  37.85  0.003318632    1.565    0.361
        52 -12.0690     85.7965    152.6566   6.1827960042e+01   3.2219101708e+01    0.5619707    0.2856373 -47.00    0.0022105    2.204    0.546
        53 -12.8112    246.5739    133.1956   2.3072441298e+01   6.7937737034e+00    0.4427131    0.3001725 -42.89  0.002639597    1.313    0.238
        54 -14.4869    232.6454    127.7147   2.3895561716e+01   9.9199097180e+00     1.273312    0.6440985 -45.00  0.006158718    1.794    0.443
        55 -12.7258     43.8265    132.8856   7.1644861212e+01   4.3415922384e+01    0.3081437    0.2560764 -26.52 0.0007909057    1.503    0.335
        56 -11.7033    138.1439    131.7593   4.3190754367e+01   2.7545253736e+01    0.3432913    0.2441333  -4.62  0.001386001    2.282    0.562
        57 -14.6137    104.4695    121.1749   4.9873191379e+01   3.6910495964e+01     1.888504     1.250027  37.37  0.008204431    1.586    0.370
        58 -14.8697    106.2584    105.1264   4.5260513194e+01   4.0504808150e+01     1.597957     1.391054  63.63  0.007461999    1.185    0.156
        59 -13.0415     85.0100    114.9505   5.4466253667e+01   4.2140482625e+01     1.007067    0.5423785  23.65  0.003632008    2.646    0.622
        60 -12.0750     88.2041    109.1454   5.2007685290e+01   4.3051195533e+01    0.5104743    0.2988479 -63.15  0.002056457    1.796    0.443
        61 -12.1871      4.3405    119.4993   8.3445940207e+01   5.0534021417e+01    0.5175939    0.2364863  10.11  0.002285184    2.841    0.648
        62 -11.9585     42.6895     90.2139   6.4249044079e+01   5.5013193940e+01    0.3772463    0.2460343 -65.19 0.0007763052    1.412    0.292
        63 -14.6614     25.1330     93.7544   7.2269192146e+01   5.5892732416e+01     1.607194     1.016334   0.82  0.007734613    2.058    0.514
        64 -13.1503     20.7170     86.0400   7.2750609249e+01   5.8289855539e+01    0.6887004    0.4041461   4.87  0.003272548    2.159    0.537
        65 -13.6889      2.2829     96.9510   8.2022262886e+01   5.6603364762e+01    0.9080331    0.3440051 -77.88  0.003640052    2.213    0.548
        66 -14.2713     18.4670    111.2725   7.7533559169e+01   5.1756085104e+01    0.8577431    0.6668421 -42.20  0.003532805    1.402    0.287
        67 -14.1390     10.9287    102.8853   7.9328734211e+01   5.4538458917e+01     0.844192    0.6797007  42.51  0.004983641    1.360    0.265
        68 -11.6521      7.9282    114.8518   8.1762528818e+01   5.1544947639e+01    0.2072249    0.1632243 -56.25 0.0004707806    1.268    0.212
        69 -12.1765     32.7816    110.9193   7.2165308227e+01   5.0574957759e+01    0.4406147    0.2953494  83.50   0.00213871    1.560    0.359
        70 -12.0028     62.9164    110.5735   6.1038291313e+01   4.6911809283e+01    0.4110138    0.2967688  77.15  0.001892359    1.618    0.382
        71 -11.7855    177.1043    110.2524   2.9215016254e+01   2.3815445143e+01    0.3559037    0.2168437 -26.90   0.00148736    1.975    0.494
        72 -11.3929     45.9439    110.1723   6.7140719182e+01   4.9315504595e+01    0.2889051    0.2011187 -51.59  0.001404485    1.397    0.284
        73 -12.9084    223.7225    128.5532   2.5408243673e+01   1.1313270102e+01    0.7240794    0.4498738 -62.92  0.003355528    2.428    0.588
        74 -10.9815     64.5241    101.5415   5.8384756739e+01   4.9050703564e+01    0.3196102    0.2146183  42.58  0.001142666    1.549    0.355
        75 -12.1584     62.0337     98.2967   5.8524626442e+01   5.0277258740e+01    0.5084853    0.3477791  74.02  0.001837151    1.900    0.474
        76 -12.2194    121.8287    111.9522   4.2580785753e+01   3.5591666659e+01    0.2851069    0.2433757  63.42 0.0007277895    1.218    0.179
        77 -12.4751    136.0629    102.8750   3.6388393074e+01   3.4527385750e+01    0.6201531    0.3251705  49.08  0.001900831    1.964    0.491
        78 -13.6451    120.0799    102.3100   4.0472530649e+01   3.8221248458e+01    0.7075287    0.3767992  44.20  0.002736192    1.936    0.484
        79 -12.1849     49.1734     93.4476   6.2360474318e+01   5.3357499945e+01    0.8164471    0.4284884 -49.26  0.003034593    1.811    0.448
        80 -11.1938     48.6800    100.6804   6.4185865809e+01   5.1515475227e+01    0.2699852    0.2303615 -60.79  0.001265222    1.084    0.077
        81 -12.3247     52.4961     97.5663   6.2008149832e+01   5.1836161481e+01    0.6032446    0.3806376 -13.35  0.002433007    2.560    0.609
        82 -13.3924    248.8150     96.4142   1.5098140776e+01   1.2109781154e+01    0.7028128    0.1778251 -43.56  0.002566309    3.165    0.684
        83 -10.1046     75.2675    100.6581   5.4269255862e+01   4.7528907694e+01    0.1572756    0.1186974  84.60 0.0005781113    1.604    0.376
        84 -11.9312    163.5181     97.7614   2.8706642384e+01   2.9319925535e+01    0.3217875    0.2798758  88.34 0.0006012851    1.234    0.190
        85 -13.1572    137.3775     95.0600   3.3875922011e+01   3.5927403750e+01     0.518527    0.4066056  69.09  0.001418822    1.396    0.284
        86 -12.8867     28.6510    122.0796   7.5289730812e+01   4.7956236262e+01    0.5114822    0.3005333 -59.48  0.002444471    1.557    0.358
        87 -12.0063    181.0284    120.2889   3.0908461103e+01   2.1012722891e+01    0.2042447    0.1998747 -70.54 0.0009602245    1.078    0.073
        88 -12.3383     78.8613    110.6720   5.5500760734e+01   4.4326339959e+01    0.3925321     0.319944 -86.62  0.001494795    1.308    0.235
        89 -13.5939    188.5311     82.8526   2.0126156406e+01   2.6400430925e+01    0.7465452    0.6216141 -30.44  0.002704093    1.252    0.201
        90 -13.8659    214.3382     77.0343   1.4902064795e+01   2.1744554647e+01     1.048213    0.8258087 -80.36  0.005959542    1.368    0.269
        91 -14.1204    199.0411     69.8170   1.5153187655e+01   2.6234221571e+01     1.047836    0.8476964  26.45  0.004132104    1.712    0.416
        92 -12.3260     36.8353     92.8196   6.7244264425e+01   5.4996731393e+01    0.4453847    0.2988814  -7.02  0.001628992    2.012    0.503
        93 -12.1844    158.7528     64.7689   2.0250295225e+01   3.6652173334e+01    0.7329012    0.2715567 -48.36   0.00244792    2.816    0.645
        94 -13.5043    164.3106     71.3443   2.1156255452e+01   3.4136170751e+01     1.377983    0.5107861  49.14   0.00469188    2.985    0.665
        95 -13.5801    160.3826     80.9036   2.4668874641e+01   3.3334089298e+01    0.9241289    0.6139756  23.30   0.00281044    2.536    0.606
        96 -14.4241    169.4677     76.9220   2.1801200295e+01   3.1894579083e+01     1.381448    0.6223497  53.85  0.004655192    2.306    0.566
        97 -13.7880    237.2932     80.0160   1.2822242881e+01   1.6697386049e+01    0.5344649    0.3502311 -86.11  0.002850288    2.022    0.505
        98 -14.6253    170.3629    242.4156   5.5697958532e+01   8.6175485645e-01     1.002017    0.6167403  19.80  0.006037504    1.470    0.320
        99 -13.4572     66.2533     49.0531   4.0858046266e+01   6.1053580005e+01    0.7008982    0.6474592 -52.94  0.003679654    1.148    0.129
       100 -12.6864     77.6822     72.1274   4.4931831059e+01   5.4014175620e+01    0.7441914    0.4043387 -29.44  0.002498168    2.732    0.634
       101 -13.1037     55.3367     80.8380   5.6564404556e+01   5.5724356520e+01     0.613076     0.428969 -38.70  0.002259506    1.485    0.327
       102 -13.8817     61.1824     75.8831   5.2666812792e+01   5.6039172469e+01    0.8503762    0.5020191 -42.11  0.001511396    1.714    0.417
       103 -11.9630    114.2692     79.7368   3.5405856063e+01   4.4563344212e+01     0.495463    0.3373569 -51.73  0.002095391    1.472    0.321
       104 -11.6269     42.5190     79.4810   6.1678570453e+01   5.7790511100e+01    0.3792768    0.2456209 -69.42  0.001493335    1.558    0.358
       105 -11.2165     41.5470     75.9644   6.1169128996e+01   5.8791806389e+01    0.3238567    0.2076107 -58.42 0.0008081842    1.417    0.294
       106 -12.7958    135.3232     79.1463   2.9666829637e+01   3.9718522516e+01    0.8440641     0.378086  54.82  0.003044417    2.312    0.567
       107 -12.2768     27.8214    235.6496   8.4632264719e+01   2.0530631176e+01    0.5567169    0.3158833 -39.41   0.00272573    3.614    0.723
       108 -14.2210      5.2522     63.4041   7.5804879914e+01   6.5050467095e+01    0.6409164    0.6134773 -67.19  0.003338824    1.133    0.117
       109 -11.3954     27.4874     76.3158   6.7684507572e+01   6.0215221164e+01    0.2964269    0.1998923  72.69  0.001071752    1.882    0.469
       110 -13.0272    133.9417     66.0194   2.5841803300e+01   4.2587011650e+01     0.811603    0.6884328  17.29  0.003262071    1.494    0.331
       111 -12.1973    241.2964     70.3967   1.0243748805e+01   1.7382239582e+01      0.28179    0.1691698 -68.83  0.001466028    1.942    0.485
       112 -12.2955     39.1643     67.7649   5.9935737681e+01   6.1095307451e+01    0.8908892    0.2681653  30.35  0.003098051    3.394    0.705
       113 -12.0059    100.4547     64.2150   3.4309070102e+01   5.0927166689e+01    0.4539116    0.3356332 -22.44   0.00208265    1.645    0.392
       114 -13.0280     78.8885     59.8825   4.0113246679e+01   5.6424781623e+01    0.7162296    0.5273501 -45.83  0.003522038    1.342    0.255
       115 -11.4823     85.5235     49.4633   3.3643027341e+01   5.7069520165e+01     0.297475    0.2524374   0.79 0.0008372862    1.355    0.262
       116 -13.7963    177.9247     56.9290   1.4730353331e+01   3.3242225916e+01    0.9232858    0.5563969 -50.13  0.002946808    1.543    0.352
       117 -12.3876     36.4982     54.1532   5.6865330581e+01   6.4606163302e+01    0.3070314    0.1997882 -34.94  0.001126805    1.540    0.351
       118 -11.6552     34.4430     60.5580   6.0036505701e+01   6.3368776630e+01    0.4162736    0.1699688 -48.91  0.001700311    2.152    0.535
       119 -12.1029     38.7864     59.7867   5.7622682161e+01   6.3033889121e+01    0.3873766    0.2534537  70.66  0.001704024    2.517    0.603
       120 -12.0132     24.9110     59.0848   6.4483156215e+01   6.4704314319e+01    0.4741576    0.2102695 -48.98  0.002088998    1.941    0.485
       121 -14.6791    119.7286     54.2272   2.5282793437e+01   4.8218044910e+01    0.9581539    0.6942548  43.91  0.002068154    1.460    0.315
       122 -12.7200    135.9242     51.0167   2.0411384036e+01   4.4701694307e+01    0.6585774    0.4860829 -31.37  0.001902525    1.444    0.308
       123 -13.0104    248.2572     52.1284   5.5791450537e+00   1.8657619266e+01    0.6744236     0.305604 -35.29  0.003372579    1.826    0.452
       124 -12.3458    100.7029     44.0034   2.6594166333e+01   5.4562972992e+01    0.6450464    0.3471575  54.40   0.00274133    1.805    0.446
       125 -13.9126    103.3288     50.2971   2.8285509424e+01   5.2872003125e+01    0.7499474    0.4419946 -34.43  0.001284747    1.777    0.437
       126 -13.4634     97.9881     49.9651   2.9758316264e+01   5.4180439993e+01    0.6553942    0.4250902 -46.82  0.001950001    1.596    0.373
       127 -11.3342     17.7134     55.0817   6.7200915559e+01   6.6274346608e+01     0.328398    0.1630161 -66.68  0.001521523    1.900    0.474
       128 -11.9391    230.6890     54.9568   7.8033156281e+00   2.1706280688e+01    0.3539898    0.1904393  81.65  0.001739307    2.272    0.560
       129 -13.9593     88.7367     62.8310   3.7661208424e+01   5.3781729124e+01     1.464485    0.8420002 -20.70  0.004251558    3.092    0.677
       130 -10.6502     23.5510     49.9818   6.2412009609e+01   6.6957221754e+01    0.1950961    0.1169528 -56.62 0.0004420835    1.488    0.328
       131 -13.3539    157.1971     43.5062   1.3984482705e+01   4.0450470627e+01    0.8579978    0.5919619  35.84  0.003998728    1.932    0.482
       132 -11.9702     38.7542     46.4185   5.2805703305e+01   6.6017476696e+01    0.2466793     0.179002 -48.15 0.0008593624    1.292    0.226
       133 -14.7764    212.3993     40.8470   6.2172352409e+00   2.7566662926e+01     2.172102    0.7157574  76.79  0.007613655    4.021    0.751
       134 -12.8543     25.2489    217.2909   8.4260423171e+01   2.4586991662e+01    0.8060189    0.2514474  47.97  0.003634388    2.341    0.573
       135 -13.9530     20.7635    224.1940   8.5573465253e+01   2.3592436337e+01    0.5289616     0.447721 -84.21  0.002148545    1.336    0.251
       136 -12.0890     11.5980     43.5270   6.7340247304e+01   6.9406306262e+01    0.4509544    0.2580334  -4.11  0.001857878    2.043    0.511
       137 -12.8229      3.4901     42.7972   7.2123201580e+01   7.0056147324e+01    0.5109363    0.3664955 -18.69  0.002806001    1.419    0.295
       138 -13.1509     70.8142     75.4067   4.8647661175e+01   5.4525446159e+01    0.6019569    0.4671472  -8.53  0.001761754    1.666    0.400
       139 -11.1758     25.6653     44.0392   5.9133838985e+01   6.8077428394e+01    0.1962687     0.158908 -45.59   0.00117052    1.108    0.097
       140 -12.7280    110.0054     42.0064   2.3240965612e+01   5.2636758801e+01    0.5377331    0.2172867  54.51 0.0008778273    2.328    0.570
       141 -13.2926    113.6592     37.9130   2.0733601018e+01   5.2357266959e+01    0.4022647    0.3821676  53.92  0.001396575    1.062    0.059
       142 -12.6676    144.8729    232.3011   5.9419930181e+01   5.9120949507e+00    0.2708072    0.1976475 -34.25  0.001669372    1.579    0.367
       143 -13.1343    237.6702    230.4235   4.2003433655e+01  -5.7987332593e+00    0.3110943    0.2278987  31.84  0.002258186    1.621    0.383
       144 -12.0844     40.2732     40.1669   4.9404100909e+01   6.7102526106e+01    0.5397923    0.2599829  31.45  0.002418533    2.174    0.540
       145 -12.8241     32.9376     40.3766   5.3529338008e+01   6.8032460360e+01    0.3333438    0.2843005  -8.59 0.0006819372    1.141    0.124
       146 -12.7204     75.9741     37.0048   3.1776949941e+01   6.1289497018e+01    0.4843402    0.3323949  44.78   0.00128572    1.419    0.295
       147 -11.7732     70.9578     36.2230   3.3340615578e+01   6.2463478904e+01     0.282589    0.2396139  73.31 0.0009965014    1.438    0.304
       148 -14.4843     97.1055    239.3413   7.0260441737e+01   1.1338771942e+01    0.8682624    0.6601791 -72.47   0.00561632    1.574    0.365
       149 -12.5329    104.7649     36.0702   2.2271332303e+01   5.4825540099e+01    0.3884529    0.2053978 -22.67  0.001560197    2.382    0.580
       150 -13.2514     57.5496    201.7846   7.5660490936e+01   2.4287719543e+01     1.263457    0.3752672 -70.25  0.004694497    3.450    0.710
       151 -14.0242     66.5982    222.9829   7.5418218719e+01   1.8544828790e+01    0.8148639    0.6385579  40.29  0.005149981    1.157    0.135
       152 -14.0760     64.3685    214.2855   7.5169835438e+01   2.0656556492e+01    0.4917485    0.3939828  47.55  0.002546836    1.081    0.075
       153 -13.6739     59.3914    212.7837   7.6193642291e+01   2.1616046090e+01    0.6084161    0.4110523 -15.55  0.001184067    2.797    0.642
       154 -10.4637      5.4926    219.4918   8.8623320338e+01   2.6056705565e+01    0.1206973   0.08845142  62.69 5.611364e-06    1.002    0.002
       155 -12.8464     45.8039     33.0852   4.3239215581e+01   6.7625085196e+01    0.5453448     0.479809  -5.72  0.003332305    1.066    0.062
       156 -12.4012     36.6920     34.2390   4.8707071179e+01   6.8770019156e+01     0.489188    0.2361893  14.23  0.001776515    3.751    0.733
       157 -12.2650     85.5591    215.5549   7.0394138520e+01   1.7538096239e+01    0.2792232    0.1849601  58.47  0.001526389    1.453    0.312
       158 -12.9851    147.5206    238.8491   5.9725053215e+01   4.4822985236e+00    0.2623886    0.2154525  81.37  0.001177546    1.812    0.448
       159 -13.7109    216.5597     28.1539   2.7291834313e+00   2.8308485496e+01    0.6275527    0.3328435 -56.59   0.00271935    1.630    0.386
       160 -14.3128     26.2233    226.5448   8.4522641240e+01   2.2539811954e+01     1.104709    0.3940345 -58.73   0.00489899    3.553    0.719
       161 -13.0269    223.3540     20.8956   4.7945038722e-01   2.7723714029e+01    0.3046922    0.2745771 -87.77  0.001581186    1.262    0.207
       162 -11.4208    136.5139    211.0042   5.8276456640e+01   1.0898843962e+01    0.1853742    0.1324395 -52.85  0.001031202    1.588    0.370
       163 -13.5153     57.9995     26.7158   3.4167791298e+01   6.6561673588e+01     1.062414    0.3519654  42.35  0.003066578    2.986    0.665
       164 -12.9610    140.5295     21.3404   9.3339356688e+00   4.7664123601e+01    0.7983071    0.3266725  67.95  0.001412179    2.249    0.555
       165 -12.1943     30.7342     25.2131   4.7786308892e+01   7.1268112822e+01    0.3856165    0.2177883  15.67  0.001713663    2.163    0.538
       166 -11.7705     36.1209     22.5802   4.3165216454e+01   7.0968479649e+01    0.3430279    0.2297685 -18.96  0.001118219    1.598    0.374
       167 -12.0587     45.8872    207.9361   7.8958140913e+01   2.4335346207e+01    0.3706913    0.1351397 -88.05  0.001365946    3.695    0.729
       168 -11.3877     80.6854    208.3615   7.0766177481e+01   1.9738362087e+01    0.2218874    0.1318102  59.62   0.00110074    1.702    0.413
       169 -10.9485     51.4928     20.3433   3.3791070359e+01   6.8750601636e+01    0.2557697    0.1262145  50.14  0.001156808    2.157    0.536
       170 -12.3011     45.5134     20.0397   3.6593682852e+01   6.9863874220e+01    0.4820062    0.2153168  36.16  0.002124682    2.294    0.564
       171 -13.3337     94.2607    218.3257   6.8702612316e+01   1.5747675005e+01     0.398573    0.2408145  35.81  0.001411109    1.433    0.302
       172 -13.4345     16.5286    196.6430   8.5164085022e+01   3.0060743767e+01    0.6955447    0.2378559 -60.00  0.002893244    3.272    0.694
       173 -11.5390     41.1906    205.2023   7.9860938670e+01   2.5495710722e+01    0.1946461    0.1209243  57.81 0.0009778023    1.360    0.265
       174 -11.5482    175.9777     13.9126   2.6114076985e+00   3.9500456034e+01    0.2022798    0.1661246 -69.90 0.0002989741    1.038    0.037
       175 -13.1686     39.1371    194.8646   7.9579463651e+01   2.8105282278e+01    0.7131475    0.3670051  54.30  0.003501853    1.692    0.409
       176 -11.1483    212.5085    199.9806   4.1278495019e+01   1.4506197924e+00     0.178781   0.09097119 -18.51 0.0008103441    2.549    0.608
       177 -13.4144    164.2541    194.1827   4.9632212028e+01   9.6672985453e+00    0.6103573    0.3846891 -64.44  0.002850841    2.447    0.591
       178 -13.8157     22.3714    181.0150   8.2790463884e+01   3.3201286623e+01    0.8569709    0.4367476 -58.67  0.003527076    2.143    0.533
       179 -15.1939      8.6116    183.2123   8.6387421412e+01   3.3941808752e+01     1.199316      1.06138  71.66  0.008141857    1.165    0.141
       180 -15.2713     15.3632    174.9673   8.4209938280e+01   3.5345903590e+01     2.095738    0.7174855  49.52  0.008855565    2.456    0.593
       181 -12.1176    201.1488    191.2797   4.1807283868e+01   4.4383625825e+00     0.297518    0.2206459   5.47  0.001456141    1.337    0.252
       182 -13.7251     30.1562    169.0719   7.9822882168e+01   3.5383575010e+01    0.9071463    0.5750365 -38.60  0.003630456    2.239    0.553
