#   1 NUMBER                 Running object number                                     
#   2 MAG_AUTO               Kron-like elliptical aperture magnitude                    [mag]
#   3 X_IMAGE                Object position along x                                    [pixel]
#   4 Y_IMAGE                Object position along y                                    [pixel]
#   5 X_WORLD                Barycenter position along world x axis                     [deg]
#   6 Y_WORLD                Barycenter position along world y axis                     [deg]
#   7 A_WORLD                Profile RMS along major axis (world units)                 [deg]
#   8 B_WORLD                Profile RMS along minor axis (world units)                 [deg]
#   9 THETA_WORLD            Position angle (CCW/world-x)                               [deg]
#  10 FWHM_WORLD             FWHM assuming a gaussian core                              [deg]
#  11 ELONGATION             A_IMAGE/B_IMAGE                                           
#  12 ELLIPTICITY            1 - B_IMAGE/A_IMAGE                                       
         1 -13.3073    244.0534     26.1006   1.3803197994e+01   2.0129526683e+01    0.6366444    0.4040829 -64.81   0.00333018    1.516    0.340
         2 -11.4378    240.2439      1.8965   8.7169343950e+00   2.3813096700e+01    0.4506243    0.1594824  70.99  0.001820476    2.533    0.605
         3 -14.3246    232.8993      7.8918   1.0666985701e+01   2.4879724415e+01      1.68623    0.4900609 -37.63  0.006759596    2.887    0.654
         4 -13.5282    226.7890     11.9113   1.2157563937e+01   2.5893789969e+01    0.7898772    0.4073134 -28.06  0.003781141    2.126    0.530
         5 -12.1583    247.3583      3.6213   8.5456078016e+00   2.2003651299e+01    0.4538544    0.3629458 -69.92  0.002947632    1.031    0.030
         6 -13.6422    247.2308     11.3029   1.0219564942e+01   2.1173318206e+01    0.8813562    0.6825587 -58.11  0.005524556    1.125    0.111
         7 -11.3439    217.9751     16.0972   1.4047146439e+01   2.7573546523e+01    0.3244901    0.1979159  -8.16  0.001485218    2.536    0.606
         8 -11.8271    200.8321     12.7385   1.5074410952e+01   3.2257866913e+01    0.2956643    0.2141052 -73.77  0.001535994    1.370    0.270
         9 -11.5790    203.5121      8.9732   1.3793377515e+01   3.1979282842e+01    0.2842981    0.1964154  12.23  0.001222024    2.189    0.543
        10 -11.4501    174.8724     12.4713   1.8302205491e+01   3.8989195575e+01    0.2634563    0.2464075 -52.32  0.001031772    1.160    0.138
        11 -10.9495    132.9521     12.6227   2.5395313584e+01   4.9678718871e+01    0.2305413    0.1994576 -33.13 0.0003387731    1.298    0.229
        12 -11.5331     31.4955     12.0828   5.7689649261e+01   6.8837635842e+01    0.3307026    0.1647269 -29.10  0.001853603    1.744    0.427
        13  -9.8316    124.7599     12.0070   2.6869442121e+01   5.1730965111e+01    0.1626405    0.1161575 -18.84 0.0003207204    1.531    0.347
        14 -11.5294     70.0115     11.4008   4.1730812559e+01   6.3350589830e+01    0.2206561    0.1647475 -12.71 0.0001761034    1.244    0.196
        15 -10.9885    184.5207     10.9797   1.6578804086e+01   3.6639183189e+01    0.1943396    0.1373195 -30.13 0.0004828555    1.558    0.358
        16 -12.6464    192.0616      6.5559   1.4441273674e+01   3.5146070429e+01    0.4351193    0.3316574  -5.90  0.001875517    1.697    0.411
        17 -12.3569    197.7037      4.4456   1.3246922694e+01   3.3916302223e+01     0.429454    0.2132543  80.40  0.001920788    1.946    0.486
        18 -10.4064     90.4661      8.5129   3.3989719098e+01   5.9753036208e+01    0.1327406    0.1099331  24.32 8.244117e-05    1.021    0.021
        19 -10.7301     24.1380      7.6244   5.9109147495e+01   7.0260196128e+01    0.1946481    0.1307738 -39.41 0.0006463848    1.542    0.352
        20 -11.0365    107.7638      7.4063   2.8983646956e+01   5.6131195582e+01    0.2009006    0.1028693  47.20 0.0009095284    1.656    0.396
        21 -11.1296    103.5160      7.0264   2.9877270452e+01   5.7114222000e+01    0.1912818    0.1272972 -17.81  0.001033319    1.593    0.372
        22 -12.9417    216.9491      4.4996   1.1313374054e+01   2.9093744637e+01    0.4976605    0.4451023  81.11  0.003176549    1.123    0.110
        23 -11.2799    151.2097      4.8252   1.9487983634e+01   4.5832483223e+01     0.364153    0.1820617  79.84  0.001511201    2.296    0.564
        24 -11.9284    206.6588      2.3519   1.1778976321e+01   3.1865509101e+01    0.3990446    0.2205692 -75.13  0.001333361    1.960    0.490
        25 -11.8791    179.5096      2.6920   1.4873330448e+01   3.8747892121e+01    0.4317132    0.2310545  41.25  0.001955189    2.164    0.538
        26 -11.7276    160.5966      1.9311   1.7157801589e+01   4.3688151248e+01     0.353754    0.2376577  68.02  0.001867704    1.290    0.225
        27 -10.6808     13.6230      3.7544   6.2569504681e+01   7.1805645997e+01    0.2261925    0.1141612   9.38  0.001317307    2.185    0.542
        28  -9.7320     30.6519      2.9663   5.3729764618e+01   7.0171912394e+01    0.1656714   0.08565105 -50.57 0.0007047107    4.394    0.772
        29 -11.7542     78.7535      3.8239   3.5431808297e+01   6.2544902595e+01    0.3475241    0.2764343  65.81 0.0009225538    1.682    0.406
        30 -10.8923    115.9599      1.9787   2.5008068820e+01   5.4733135085e+01    0.2027659    0.1771998  50.97 0.0005242985    1.078    0.072
        31 -10.2812    135.6521      1.6833   2.1055427100e+01   5.0014480350e+01    0.1494045    0.0853652  38.64 0.0007048013    1.727    0.421
        32  -9.7584     23.5535      1.4930   5.6421301768e+01   7.1158299431e+01    0.1138737   0.08367334 -10.83 0.0001345875    1.007    0.006
        33 -10.6457    209.5178    212.4719   6.1465984475e+01  -1.9338839050e+00    0.2307473    0.2180003  32.34  0.000834901    1.261    0.207
        34 -10.5215     49.7561    249.7291   9.5874830224e+01   1.7897455129e+01    0.1881932    0.1083116  46.88  0.001263596    1.471    0.320
        35 -12.1464    231.6625    212.7161   5.7412752793e+01  -5.7589638269e+00    0.4301149    0.3153254  30.53  0.002220415    1.178    0.151
        36 -10.5840    246.4927    212.4844   5.4736089733e+01  -8.1293443180e+00    0.1249165   0.09959361  12.08 3.188309e-05    1.017    0.017
        37 -10.4430     80.7075    199.7284   8.5760770097e+01   2.3054013710e+01    0.2190743    0.1859292 -45.84  0.001379011    1.594    0.373
        38 -10.5866      5.0233    198.8941   1.0037283489e+02   3.2268857499e+01     0.253799   0.08186939  83.19  0.001066858    3.670    0.728
        39  -9.3993    182.7117    198.3844   6.4210843130e+01   5.1855762337e+00    0.1331441    0.1082486  82.20 0.0007012723    1.748    0.428
        40 -10.3673    157.9048    197.8625   6.9227666409e+01   1.0019915898e+01    0.2093574    0.1593843  71.37 0.0006674375    1.602    0.376
        41  -9.9923    243.4849    197.4866   5.2471441338e+01  -5.6877595314e+00    0.1305541    0.1056967   9.29 -1.642471e-05    1.024    0.024
        42  -9.8088    165.0102    194.2601   6.7121106471e+01   9.3076260709e+00     0.183252    0.1094323  42.51 0.0004158819    1.478    0.323
        43  -9.4377     73.3026    186.7196   8.5787343041e+01   2.6866705049e+01    0.1323085   0.08420342  69.57 0.0002302936    1.549    0.354
        44 -12.0752    249.3718    182.6042   4.8530654868e+01  -4.6229445190e+00    0.4568154    0.2053887 -39.74  0.001759744    2.394    0.582
        45 -11.6779    240.9936    181.9141   4.9863736529e+01  -3.0749306293e+00    0.4000191    0.2656274  21.96  0.001928589    1.484    0.326
        46  -9.8120    189.7186    174.6889   5.8258274035e+01   7.9117263195e+00    0.1439038     0.108782   7.39 0.0002051112    1.567    0.362
        47  -9.8508    182.4333    162.1935   5.7194449211e+01   1.1719943953e+01    0.1860255    0.1445725 -53.39 0.0003353186    1.471    0.320
        48  -9.4604     35.2848    158.3093   9.0952975620e+01   3.7915252855e+01    0.1155982   0.08490542 -51.32   0.00037616    1.570    0.363
        49 -10.5262    249.3582    153.3669   4.2454003744e+01  -3.0511798124e-01    0.2114133    0.1480926   5.19 0.0009498859    1.610    0.379
        50  -9.7896    205.2954    148.3802   4.9438165160e+01   9.3836485298e+00    0.1568161    0.1132366   3.41 0.0001490559    1.755    0.430
        51 -11.5526    236.4212    146.0711   4.3085122918e+01   3.3292074397e+00    0.3035564    0.2333184 -45.68 0.0007104955    1.429    0.300
        52  -9.5939    215.5443    141.5039   4.5874825168e+01   8.4110020027e+00    0.1479243    0.1371572   1.63 0.0001537881    1.024    0.024
        53 -10.7185    225.4021    133.7982   4.2263748730e+01   7.6476292281e+00    0.2764617     0.173541 -50.76   0.00116298    1.864    0.464
        54 -10.2148    215.9812    135.2182   4.4335976492e+01   9.4251110468e+00      0.21939    0.1340107  37.05  0.000628722    1.723    0.420
        55 -12.6441    248.0042    131.9578   3.7958157791e+01   3.3183789992e+00    0.5447869    0.3313282 -39.64  0.002662966    1.563    0.360
        56  -9.7027    231.5074    134.4422   4.1321743608e+01   6.2543475240e+00    0.1437784    0.1326385  -5.89 9.599022e-05    1.017    0.016
        57  -9.7608      6.5324    134.5393   9.5212692863e+01   4.5796479052e+01    0.1168159   0.08965784 -79.21 0.0003452213    1.034    0.033
        58 -11.1078    234.6459    129.9311   3.9735062278e+01   6.3575923490e+00    0.4497045     0.208186  65.03  0.001387584    4.586    0.782
        59 -10.3778    208.4876    129.4665   4.4408613759e+01   1.2110128157e+01    0.1500897    0.1438174   1.17 6.975776e-05    1.005    0.005
        60 -11.5984    240.7984    124.9455   3.7544023041e+01   5.9092020870e+00    0.3281817    0.2489268  58.35  0.001718883    1.522    0.343
        61 -10.4246    227.1083    124.8875   3.9873011348e+01   8.8118044014e+00     0.226711    0.1948375 -60.50 0.0007812828    1.342    0.255
        62 -10.6332    235.3773    123.7058   3.8164763403e+01   7.2457097671e+00    0.2436644    0.1795448  64.38 0.0007008531    1.661    0.398
        63 -10.2917    239.5476    118.4764   3.6248596192e+01   7.2370521065e+00    0.1427425    0.1313861 -22.00 6.525421e-05    1.007    0.007
        64  -9.9451     21.7972    118.1987   8.9408052773e+01   4.8320967818e+01     0.210376    0.1047456  69.09 0.0009537897    2.837    0.647
        65 -10.9732    233.9875    116.9891   3.6820854181e+01   8.6688147945e+00    0.1762839    0.1703719  -0.88  0.001015846    1.050    0.047
        66 -10.1509    250.4793    116.5188   3.4056660902e+01   5.2982056872e+00    0.1395744    0.1262546 -26.81   0.00021847    1.008    0.008
        67 -10.0030      4.7824    110.8538   9.3078342735e+01   5.1199571307e+01    0.1519959    0.1138077  82.99 0.0003834571    1.297    0.229
        68  -9.5792    146.6755    109.6665   5.2948551413e+01   3.0432440264e+01    0.1634562    0.1270533   5.03 0.0007050931    1.710    0.415
        69 -10.3211    223.7333    106.5031   3.6033730586e+01   1.2725354134e+01    0.2885764    0.1388936  47.78 0.0009042159    2.150    0.535
        70 -10.6524    239.1079    103.3192   3.2742070021e+01   9.8335842404e+00    0.2903109       0.1964 -40.12 0.0009774038    1.375    0.273
        71 -12.2366    243.4790     97.5044   3.0691248342e+01   9.8310486834e+00    0.4274494      0.25698 -31.06  0.001879484    1.595    0.373
        72 -10.0575     57.4874    100.5037   7.5885432627e+01   4.8779121347e+01    0.1350545    0.1189668 -57.06 0.0002290383    1.002    0.002
        73 -12.2749    246.5157     97.9129   3.0336447107e+01   9.1113800939e+00    0.4430336    0.2674694 -40.30   0.00212305    1.510    0.338
        74  -9.9630    126.4936     96.5409   5.4570195116e+01   3.7734537770e+01    0.1522243    0.1521137 -52.28 0.0003807451    1.016    0.015
        75 -10.0427     42.0316     95.0105   7.9535688901e+01   5.1779749281e+01    0.1568993    0.1309044 -57.66 0.0004183087    1.016    0.015
        76 -10.2228    144.3831     87.3099   4.7294953111e+01   3.5528593241e+01     0.316009    0.1532014 -34.79  0.001143116    2.225    0.551
        77 -10.1743      1.6675     86.6951   9.0737612581e+01   5.6715330962e+01    0.1204255    0.0654024 -45.81 0.0007038037    1.661    0.398
        78 -10.0569    158.6881     79.3131   4.1545802904e+01   3.3555847539e+01    0.1600991    0.1247068 -77.19 0.0004617381    1.633    0.388
        79 -10.7647     43.9222     78.3817   7.5168294108e+01   5.5279867989e+01    0.2964789    0.1759555 -71.37  0.001456972    2.032    0.508
        80  -9.9722    110.5374     77.4793   5.3422451311e+01   4.5036361346e+01    0.1508425    0.1412424  -5.30 0.0008084984    1.056    0.053
        81 -10.5722     95.2216     72.1813   5.6367130820e+01   4.9095900218e+01     0.248767    0.1937612  24.96 0.0008132206    1.363    0.266
        82 -11.3893    143.5957     71.0179   4.2584022702e+01   3.8786515711e+01    0.2825814     0.223339  49.39 0.0003777129    1.233    0.189
        83 -10.2546     64.8501     70.0558   6.5684981391e+01   5.4486545625e+01    0.2166926    0.1592182 -78.53  0.001084324    2.049    0.512
        84 -11.8307      1.8770     67.0396   8.7371448423e+01   6.0920071457e+01    0.3861677   0.09803385 -59.69  0.001173461    2.482    0.597
        85 -10.3864     21.1971     68.6306   8.0827271236e+01   5.9405171258e+01    0.1463554    0.1073684  -9.93 0.0003192954    1.576    0.365
        86 -10.4135     16.9859     63.7276   8.1232975754e+01   6.0734705732e+01    0.1590515     0.129628 -43.70 0.0002472105    1.067    0.063
        87 -11.3918    245.3831     62.7343   2.2177163290e+01   1.4812912238e+01    0.2544438    0.1704514  84.58  0.001263711    1.737    0.424
        88 -11.3023      6.8345     62.2465   8.4635273830e+01   6.1665834613e+01    0.2003534    0.1383815 -52.63 0.0003572971    1.096    0.088
        89 -10.4562    128.7063     60.2672   4.2889864780e+01   4.4226962082e+01    0.2957533    0.2341181 -61.20  0.001434827    1.544    0.352
        90  -9.8008    166.6614     60.3165   3.4144378889e+01   3.4808037011e+01    0.1607924    0.1192862 -74.54 0.0007048417    1.703    0.413
        91 -10.4936    119.5072     59.4679   4.5078021039e+01   4.6466924627e+01    0.2744092    0.1322122 -46.87  0.001035394    2.388    0.581
        92 -10.8027     56.0571     56.9313   6.4755287057e+01   5.8295894136e+01    0.1903672    0.1666352 -28.37 0.0003390642    1.040    0.039
        93 -10.5028    123.2024     53.8685   4.2192421538e+01   4.6573945675e+01     0.326854    0.1013104 -41.06 0.0009335039    3.373    0.704
        94  -9.8741     28.3744     52.2337   7.3889128731e+01   6.2200386577e+01    0.1212766   0.07696723 -23.28 0.0006907382    1.611    0.379
        95 -10.2207     86.8846     49.3784   5.1348982378e+01   5.4858644126e+01    0.2769666    0.1292925  50.94  0.001106097    2.640    0.621
        96  -9.9285    136.4879     48.5278   3.7044232088e+01   4.4270817915e+01    0.1481985    0.1424547  48.11 0.0001270356    1.050    0.047
        97  -9.8277    176.3282     47.3265   2.8401751379e+01   3.4282159463e+01    0.1575553    0.1125094  29.63 0.0006872462    1.702    0.412
        98  -9.8254     48.3360     47.6978   6.4611300946e+01   6.1014186437e+01    0.1135806    0.1020424  86.72 0.0007036849    1.663    0.399
        99 -10.0452     38.8114     47.3931   6.8252777357e+01   6.2142124008e+01    0.1592398    0.1088421   2.59 0.0004373727    1.627    0.385
       100  -9.8604     26.5492     47.4273   7.3191778279e+01   6.3296191910e+01    0.1222723   0.09402797 -34.56 0.0001011578    1.051    0.049
       101  -9.8678      3.7414     45.9946   8.2091081709e+01   6.5121759003e+01    0.1432166   0.07620915 -57.39 0.0003038427    1.452    0.311
       102 -11.5337     61.8814     44.3456   5.8267082218e+01   5.9826248715e+01    0.2263255    0.1824374 -30.61 0.0003407261    1.127    0.112
       103  -9.8481    149.4704     43.4458   3.2438281242e+01   4.1787775466e+01    0.1486096    0.1406776  73.28 6.757717e-05    1.082    0.076
       104 -10.6429    121.5340     43.4998   3.9039590168e+01   4.8583073455e+01    0.1470723    0.1349437  24.13 7.416885e-05    1.020    0.019
       105 -12.3852    238.7246     37.9809   1.7105004504e+01   1.9836545842e+01    0.3231526    0.2788575  51.97 0.0004234951    1.337    0.252
       106 -12.4025    242.9209     33.6794   1.5654287061e+01   1.9425300702e+01    0.3806717    0.1975332 -31.41  0.001453642    1.949    0.487
       107 -10.1281    172.3057    249.6798   7.4202339959e+01  -7.5300179590e-01    0.1162051   0.08388233  61.09 0.0003594575    1.635    0.388
       108 -10.1620     94.4511     41.0139   4.5849888661e+01   5.4783419072e+01     0.208502    0.1311789 -33.91  0.001020286    1.580    0.367
       109 -11.8614      6.8800     36.9976   7.8339063090e+01   6.6686643765e+01    0.3653201    0.2618405  88.67  0.002260927    2.352    0.575
       110  -9.6542     41.2632     38.3219   6.4133119832e+01   6.3536887152e+01    0.1264044   0.07910802 -22.30 0.0002921038    1.556    0.357
       111 -10.1500     98.2543     35.0406   4.2425513812e+01   5.4908432468e+01    0.1876069    0.1703838   5.75 0.0004501708    1.040    0.038
       112 -10.1841     37.0118     34.4983   6.4496123332e+01   6.4674057096e+01    0.1684204    0.1136034  24.83  0.001030521    1.603    0.376
       113 -10.2951     65.8709     32.8204   5.2371538833e+01   6.1131436866e+01    0.1885948    0.1499324  -0.57  0.001142397    1.142    0.124
       114 -10.7048     44.1685     32.1384   6.0610996020e+01   6.4259370363e+01    0.2113247    0.1767006 -86.62  0.001102157    2.288    0.563
       115 -10.5707    134.0014     31.0864   3.1657416883e+01   4.7324989280e+01     0.216418    0.1927126  37.66   0.00031279    1.044    0.042
       116 -10.1138     90.8464     31.1568   4.3182110755e+01   5.6947825724e+01    0.1883687    0.1434231  17.07  0.000369101    1.278    0.217
       117 -11.1561     78.0442     30.5464   4.7124549713e+01   5.9433076974e+01    0.2569723    0.1855997 -25.66 0.0008834043    1.319    0.242
       118 -10.2331    107.4419     30.4748   3.8044260380e+01   5.3589412382e+01    0.1392291    0.1266457  21.46  0.000100373    1.026    0.025
       119 -10.6417    207.1649     26.3199   1.7880752292e+01   2.9075291128e+01    0.3749621    0.1125444 -39.45  0.001331996    3.016    0.668
       120 -10.8271     37.2283     27.0966   6.1551930460e+01   6.5896715006e+01    0.2778125    0.1625823  16.22  0.001314725    1.843    0.457
       121 -10.2611     99.3375     24.9975   3.8200770511e+01   5.6037809736e+01    0.1905508     0.170203  -4.95 0.0009331776    1.112    0.101
       122 -10.5400     76.6943    248.1139   9.1232295478e+01   1.4586773610e+01    0.2785453     0.122747  60.86  0.001475077    2.092    0.522
       123 -10.3548     65.9742    248.4820   9.3090964603e+01   1.5999092153e+01    0.1732625   0.05817137  56.45 0.0008103601    2.602    0.616
       124  -9.8005    229.2800    247.3250   6.3640953836e+01  -9.5926240235e+00     0.118031   0.07318699  12.91  0.000345784    1.592    0.372
       125 -10.5744    196.4273    246.7603   6.9403959223e+01  -4.3435733783e+00     0.148606    0.1086594 -11.38 0.0009425241    1.654    0.396
       126 -11.2599     47.0036     20.6723   5.4713718180e+01   6.5697438246e+01    0.2031818    0.1511949 -32.35 0.0006579933    1.311    0.237
       127 -11.0266     26.2924     22.3649   6.4512917233e+01   6.7801774620e+01    0.2139721    0.1401594 -22.92 0.0006886784    1.279    0.218
       128 -10.7742     14.4422     23.0928   7.0306421917e+01   6.8692193283e+01    0.2291475    0.1469612  42.04  0.001181722    2.445    0.591
       129 -11.5067    249.4725    239.9561   5.8977456380e+01  -1.1775807483e+01    0.2219911    0.1351988 -29.49  0.001010653    1.827    0.453
       130 -11.2651    187.5954     21.1625   1.9032297677e+01   3.4728733839e+01    0.2837898    0.2053758 -76.74   0.00103532    1.467    0.319
       131  -9.7442     62.5560     22.5143   4.9339948714e+01   6.3174787668e+01    0.1276108    0.1058571  -1.97 0.0001727859    1.014    0.014
       132 -11.0097    174.1785     20.6300   2.0812459103e+01   3.8288317112e+01    0.3207691    0.2246481  55.00  0.001479147    1.321    0.243
       133 -10.0783    104.8576     20.8382   3.5027224540e+01   5.5358927544e+01    0.1719197    0.1639388 -74.57 0.0003479615    1.326    0.246
       134  -9.7824     90.3091     20.6841   3.9127972122e+01   5.8428390119e+01    0.1218678    0.1071041 -66.59 0.0002412795    1.633    0.388
       135  -9.9687    166.8143     18.1584   2.1204718956e+01   4.0482630718e+01    0.1944297    0.1526085  43.67 0.0003511848    1.284    0.221
       136 -10.2627     15.1582     17.8222   6.7928269137e+01   6.9516631761e+01    0.1576941   0.09971367 -23.95 0.0003003702    1.298    0.229
       137  -9.8295     11.7703    215.9842   1.0016227583e+02   2.8312197030e+01    0.1363097   0.06975301 -82.76 0.0008715275    1.622    0.383
       138  -9.7747    151.7155     17.7079   2.3585929806e+01   4.4434512794e+01    0.1437785   0.09848399  35.99 0.0006955811    1.537    0.349
       139 -11.5563    194.0389     15.2966   1.6569965631e+01   3.3719940355e+01    0.2535245     0.191754  31.60  0.001117292    1.639    0.390
       140 -10.2347     46.0204     14.4832   5.2375093060e+01   6.6706024007e+01    0.1689418    0.1077012  29.48 0.0005627518    1.543    0.352
       141  -9.8265      2.5148     14.5249   7.2898691102e+01   7.0939786014e+01    0.1100351   0.07957839 -31.49 0.0002640517    1.013    0.013
       142 -11.1648    202.0322    240.4435   6.7442828526e+01  -4.4578809877e+00    0.2642762    0.1701717  32.89  0.001043203    1.235    0.190
       143 -10.6359    162.9745    239.3172   7.4528186254e+01   2.2832027540e+00    0.1811251    0.1328152  40.97 0.0004846244    1.081    0.075
       144 -11.2427    221.9249    237.5055   6.3386468873e+01  -7.3126594705e+00    0.3542711    0.1512149  30.94  0.001700031    2.138    0.532
       145 -11.6767    178.8527    237.4736   7.1288534087e+01  -1.6357411217e-01     0.377839    0.1611211  31.40  0.001400325    2.562    0.610
       146 -10.4868    191.6820    235.6673   6.8623452600e+01  -2.0968797870e+00    0.1273298   0.08522407  15.41 0.0003785707    1.692    0.409
       147 -10.5908    144.0047     12.5363   2.3258241240e+01   4.6930979761e+01    0.2171823    0.1253536  63.39 0.0007446465    1.551    0.355
       148 -10.2310     66.9368    234.9197   9.1854956153e+01   1.8240438153e+01    0.1932537    0.1047146  67.11  0.001125754    1.667    0.400
       149 -11.5899    244.9765    234.4956   5.8840508483e+01  -1.0514551868e+01    0.1755742    0.1546752  10.69 0.0007593686    1.313    0.239
       150 -11.6050     11.1835    231.4485   1.0106866804e+02   2.5512088203e+01    0.1970025    0.1464161 -67.51 0.0009882605    1.725    0.420
       151 -11.4384    239.7159    235.4785   5.9915549997e+01  -9.8358347875e+00    0.2500754    0.1610253   9.50 0.0009125236    1.478    0.324
       152 -10.3755    218.4601    231.0568   6.2963835199e+01  -5.9574218519e+00    0.1621318    0.1163014 -23.93 0.0006553949    1.543    0.352
       153 -10.3106    226.1093    230.1320   6.1430621949e+01  -7.0793564675e+00    0.1945364    0.1365592  16.40 0.0007299812    1.259    0.205
       154  -9.4375     53.9928    239.4811   9.4463561077e+01   1.9139459900e+01    0.1661889   0.05894084  57.24 0.0008086247    2.422    0.587
       155 -10.5127     61.8914    228.6235   9.2237643018e+01   2.0071148764e+01      0.24378    0.1025044  53.47  0.001194132    1.935    0.483
       156 -10.7682    235.6762    225.2569   5.8898915992e+01  -8.0026217817e+00    0.1917709    0.1663382  22.56 0.0006455795    1.240    0.194
       157  -9.9577    125.6295    225.8134   7.9902540945e+01   1.0845699690e+01    0.1618389    0.1167714 -78.28 0.0009452789    1.677    0.404
       158  -9.7888    190.5124    225.4422   6.7251532826e+01  -4.6061096857e-01    0.1309106    0.1045566  29.58 4.752015e-05    1.049    0.047
       159 -10.9525    221.7894    221.7505   6.0795511457e+01  -5.3071839730e+00    0.2124379    0.1536959  -9.48  0.001291365    1.445    0.308
       160 -11.4704    228.5749    220.3843   5.9326798328e+01  -6.2494776139e+00    0.2448713    0.1922136  36.68 0.0006005594    1.272    0.214
       161 -10.1522    242.5132    214.5521   5.5807392707e+01  -7.7585201840e+00    0.1581107    0.1432102  33.00 0.0005145854    1.411    0.291
       162 -10.4751    244.2900    218.6929   5.6235369487e+01  -8.5523795695e+00    0.1756984    0.1394617  -2.14  0.000435648    1.141    0.124
       163 -11.1891    248.4673    218.5052   5.5475066159e+01  -9.1771226705e+00    0.1908582    0.1709265 -20.58 0.0008059649    1.439    0.305
       164 -11.1683    246.3145    216.3108   5.5457266043e+01  -8.5761372640e+00    0.1976095    0.1425329  12.11  0.000547976    1.175    0.149
       165 -11.3555    180.0600    216.6869   6.7861119111e+01   2.7151402076e+00    0.2490358    0.2241741  18.33 0.0006617807    1.126    0.112
       166 -10.8516    212.7560    215.2240   6.1337943042e+01  -2.8893367242e+00    0.3182277    0.1756297  28.93  0.001111995    1.705    0.414
