#   1 NUMBER                 Running object number                                     
#   2 MAG_AUTO               Kron-like elliptical aperture magnitude                    [mag]
#   3 X_IMAGE                Object position along x                                    [pixel]
#   4 Y_IMAGE                Object position along y                                    [pixel]
#   5 X_WORLD                Barycenter position along world x axis                     [deg]
#   6 Y_WORLD                Barycenter position along world y axis                     [deg]
#   7 A_WORLD                Profile RMS along major axis (world units)                 [deg]
#   8 B_WORLD                Profile RMS along minor axis (world units)                 [deg]
#   9 THETA_WORLD            Position angle (CCW/world-x)                               [deg]
#  10 FWHM_WORLD             FWHM assuming a gaussian core                              [deg]
#  11 ELONGATION             A_IMAGE/B_IMAGE                                           
#  12 ELLIPTICITY            1 - B_IMAGE/A_IMAGE                                       
         1 -13.1123    190.3440     34.2194   5.4761997196e+01   3.2726145145e+01     1.726271     1.054626  18.45  0.007086224    2.332    0.571
         2 -11.9546    214.8243      3.9923   4.3117912625e+01   2.9678648653e+01    0.8920832    0.5425555  76.28  0.004476343    1.679    0.404
         3 -10.0517     42.3618      4.1638   8.2660321699e+01   7.2718818313e+01    0.3904053    0.1805896  34.10  0.001758788    2.394    0.582
         4  -8.5104    169.1181    236.6114   1.0227920117e+02   7.4818776990e+00    0.1495809    0.1370986  33.66 0.0005842323    1.355    0.262
         5 -10.4835    139.7624    249.5036   1.0870398365e+02   9.9422595886e+00    0.2652006    0.1787923  49.12   0.00163973    1.365    0.268
         6 -10.1608     80.3066    175.2997   1.1309418729e+02   2.9614014634e+01    0.2574238    0.2101655  34.92 0.0004969644    1.263    0.208
         7 -11.1062     83.4220    170.5460   1.1184983766e+02   3.0110762263e+01    0.4820281    0.3321179 -32.26  0.002601982    2.337    0.572
         8  -9.3386    164.2682    216.8077   1.0074807053e+02   1.0538139914e+01    0.2699885    0.1036433 -48.13  0.001331626    3.628    0.724
         9  -8.4723    156.6843    218.6342   1.0236649685e+02   1.1414996633e+01    0.1145322   0.07733706  11.89 0.0007039121    1.772    0.436
        10  -9.9584    103.1392    171.5107   1.0739410352e+02   2.7038159622e+01     0.352255     0.241739  66.99  0.001987314    1.584    0.369
        11  -8.6336    164.0108    170.0620   9.3921140920e+01   1.7175171904e+01    0.1883255    0.1683996  34.19 0.0004181342    1.091    0.083
        12 -10.3840     94.6374    168.3931   1.0896499418e+02   2.8915260951e+01    0.4508429    0.1819623  52.17  0.001895418    2.551    0.608
        13 -10.0910     90.7880    161.2289   1.0896434402e+02   3.0902228670e+01    0.3059092    0.2349237 -49.02 0.0006463649    1.570    0.363
        14  -8.0116    130.6781    213.7742   1.0670405262e+02   1.5872342440e+01    0.1340177    0.1073784 -77.45 0.0006330488    1.700    0.412
        15  -8.6588     77.9177    167.1583   1.1276933281e+02   3.1543219637e+01    0.2002763    0.1358953  59.17 0.0005381628    1.328    0.247
        16  -8.5407    192.8692    165.1461   8.7426230875e+01   1.2861895731e+01    0.1850611    0.1645301  29.69  0.001071156    1.163    0.140
        17  -9.3763     51.7161    157.3782   1.1816508272e+02   3.6878717654e+01    0.3816636    0.1360898  45.20  0.001418165    2.289    0.563
        18 -10.7943     96.6825    153.8855   1.0651744186e+02   3.1494823718e+01     0.533769    0.4094666 -15.15  0.002870123    2.014    0.504
        19  -8.6796    113.4698    151.4861   1.0204142750e+02   2.9254748431e+01     0.219107    0.1318844 -70.97  0.001027303    2.186    0.542
        20  -9.9862    134.2795    147.2904   9.6371628187e+01   2.6408294522e+01    0.7264909    0.1898595 -54.84  0.001949316    6.378    0.843
        21  -8.9880     70.7168    204.1253   1.1778943463e+02   2.5575546162e+01    0.3265156    0.1494701  64.56  0.001680459    2.444    0.591
        22 -10.7486     96.1614    139.3005   1.0441206486e+02   3.4624266527e+01    0.2708367    0.2577966 -67.34 0.0003573811    1.159    0.137
        23  -8.1803    128.3167    139.3199   9.6302417400e+01   2.9032494712e+01     0.138356    0.1097546   2.48 0.0007040954    1.659    0.397
        24 -10.6202    108.1461    139.3192   1.0131793364e+02   3.2627527016e+01     0.465529    0.2908404 -36.36  0.002177346    2.158    0.537
        25  -9.4420    106.0958    131.0259   1.0035775679e+02   3.4727320096e+01    0.3291988    0.2913519  87.99  0.001433027    1.165    0.141
        26 -10.1984    115.0348    130.1400   9.7855729207e+01   3.3324973334e+01    0.3069002    0.2768894 -17.10 0.0008298827    1.319    0.242
        27  -9.5889    135.5780    128.3095   9.2337449798e+01   2.9811100729e+01    0.2682499    0.1413854 -52.34  0.001137925    2.137    0.532
        28  -9.6412    119.9108    124.4031   9.5441936172e+01   3.3616564018e+01    0.2895582    0.1872113 -33.53  0.001165533    1.974    0.493
        29  -9.5539    107.8756    203.3264   1.1009343361e+02   2.0758457520e+01    0.2107486    0.1626691  57.80 0.0005529317    1.203    0.169
        30  -9.2619    102.6398    125.9680   1.0033058885e+02   3.6416043342e+01    0.2653599    0.2200842  -4.49  0.001189364    1.625    0.385
        31  -8.9842    110.0701    119.0332   9.6927361057e+01   3.6589631969e+01    0.2131785    0.2018097  62.24  0.000383274    1.008    0.008
        32  -8.8124     63.7625    114.3688   1.0952588714e+02   4.5081671164e+01    0.1746627    0.1299738  24.53  0.000403884    1.568    0.362
        33  -8.8701    168.2146    113.0630   8.1387360513e+01   2.5890933640e+01    0.2388545    0.1724607 -67.75   0.00108471    2.034    0.508
        34 -10.1210    119.8562    110.8146   9.2471251002e+01   3.6476510525e+01    0.3306319    0.2761402  65.11  0.001392576    1.255    0.203
        35 -11.9740     59.1431    105.8548   1.0956814667e+02   4.7714906137e+01    0.9199585    0.2594438 -59.04  0.003287676    3.082    0.676
        36  -9.8094     96.0464    200.0717   1.1219554690e+02   2.2955947140e+01    0.3465454    0.2596473  39.21  0.001939603    1.157    0.135
        37  -8.2958    205.5062    109.9819   7.3433638946e+01   1.8432463311e+01     0.209679    0.1315915 -28.57 0.0006604564    1.549    0.355
        38  -8.5844     82.1246    195.1959   1.1465512811e+02   2.5682434509e+01     0.218768    0.1779561   3.08  0.001435278    1.813    0.448
        39  -9.1717    114.1717    194.5751   1.0782195938e+02   2.1282580426e+01    0.2153702    0.1552169 -34.81  0.001312812    1.955    0.488
        40  -9.4926    192.6431    194.2582   9.2393746679e+01   9.0628144797e+00    0.4551235    0.2594007 -60.18  0.001780617    5.790    0.827
        41  -8.9017    149.8595    189.7441   9.9858956738e+01   1.6514516832e+01    0.2100946    0.1587844  82.78 0.0008518033    2.084    0.520
        42  -9.8702    164.6907     65.5648   6.8995277030e+01   3.4877459805e+01    0.3256114    0.2658146 -77.28 0.0008516058    1.472    0.321
        43  -8.9617     99.5477    180.9379   1.0937257239e+02   2.5824937644e+01    0.2172702     0.160639  28.12  0.000815737    1.427    0.299
        44 -11.5592    175.5657     48.9135   6.1688254485e+01   3.4634304184e+01    0.5425043    0.5123535 -23.21   0.00094582    1.052    0.049
        45  -7.7210    112.6726    247.6940   1.1327040530e+02   1.3673553730e+01   0.09786104   0.07017159  19.50 0.0003903246    1.652    0.395
        46 -19.5139     17.7602    143.7463   1.2577549730e+02   4.3202691905e+01     17.42625     2.778898 -81.02   0.05201589    6.305    0.841
