#   1 NUMBER                 Running object number                                     
#   2 MAG_AUTO               Kron-like elliptical aperture magnitude                    [mag]
#   3 X_IMAGE                Object position along x                                    [pixel]
#   4 Y_IMAGE                Object position along y                                    [pixel]
#   5 X_WORLD                Barycenter position along world x axis                     [deg]
#   6 Y_WORLD                Barycenter position along world y axis                     [deg]
#   7 A_WORLD                Profile RMS along major axis (world units)                 [deg]
#   8 B_WORLD                Profile RMS along minor axis (world units)                 [deg]
#   9 THETA_WORLD            Position angle (CCW/world-x)                               [deg]
#  10 FWHM_WORLD             FWHM assuming a gaussian core                              [deg]
#  11 ELONGATION             A_IMAGE/B_IMAGE                                           
#  12 ELLIPTICITY            1 - B_IMAGE/A_IMAGE                                       
         1 -12.9091    246.5149     23.7681   4.8275350753e+00   2.5822005378e+01    0.7049631    0.3984861 -45.30  0.004948712    1.300    0.231
         2 -11.7167      2.0038     11.3284   5.8098761670e+01   7.6702446226e+01    0.4197185    0.2037687 -54.44  0.002064239    2.648    0.622
         3 -10.0126     72.7720      6.3641   1.8610639875e+01   6.3564415677e+01    0.1922874    0.0943001  57.88 0.0009478978    1.639    0.390
         4 -10.7188     72.8332    232.8522   7.4895981121e+01   1.5656266366e+01    0.2764115    0.2402228 -69.18 0.0007887405    1.373    0.272
         5  -9.3387    144.5840    250.5305   6.0098135091e+01   4.7274053867e+00    0.1211118   0.09527945   0.75 9.775526e-06    1.024    0.023
         6 -10.2950     75.1118    248.3155   7.5825607602e+01   1.2305357781e+01    0.5412983    0.1447472 -51.56  0.002078991    3.827    0.739
         7 -15.7825     55.4982    235.7573   7.9614621866e+01   1.6835326205e+01     5.915723     3.299056 -39.57   0.02906245    2.159    0.537
         8 -10.8857    119.8746    230.7576   6.3035906505e+01   1.0841275735e+01    0.2225922    0.1740608  70.34  0.001173618    2.062    0.515
         9 -12.5995     98.0321    224.4450   6.7536008042e+01   1.4591793133e+01    0.6529769     0.444698 -75.23  0.002773406    2.071    0.517
        10 -11.0673     72.3064    225.8758   7.4313411449e+01   1.7190216268e+01    0.3236436    0.2262707  33.94 0.0005336789    1.282    0.220
        11 -16.1337      4.2782    235.1167   9.2617801675e+01   2.1461941588e+01     9.324611      1.07425 -79.90    0.0238109    8.901    0.888
        12 -14.8633     44.5387    175.0781   7.6664619084e+01   3.2435171672e+01     7.774094     3.090958  62.86   0.02034487    5.581    0.821
        13 -10.7920    148.9951    228.0020   5.6100721133e+01   8.0711060685e+00     0.216736    0.1303944 -13.66  0.001148684    1.738    0.425
        14  -9.3399    210.9735    198.6627   3.9767307149e+01   6.1582853426e+00    0.1538118    0.1230465  -6.66 0.0004807559    1.140    0.122
        15  -9.2234    194.5157    196.4959   4.2208743969e+01   8.2982217442e+00    0.1209437   0.09691918 -19.46 3.933877e-05    1.025    0.024
        16 -11.5369     67.8207    191.5555   7.1558897608e+01   2.5588900114e+01     0.476281    0.2993255  84.67  0.001614412    2.292    0.564
        17 -11.0997     74.4507    191.0072   6.9552203532e+01   2.4909416101e+01    0.3098262    0.2549893 -61.84  0.000722306    1.317    0.241
        18 -11.4038     52.8866    190.7765   7.5902866084e+01   2.7508765769e+01     0.441684    0.2567378  77.36  0.001094676    2.410    0.585
        19 -11.6137    107.8842    189.7846   6.0085056653e+01   2.0787715983e+01    0.4074908     0.249178 -34.24  0.001888867    1.757    0.431
        20 -16.8852      6.2200    219.1174   9.1445209895e+01   2.4893292683e+01     3.812928     2.428889  42.36   0.01855015    1.350    0.260
        21  -9.7255     64.0858    182.4353   7.1475196771e+01   2.8295507825e+01     0.387917    0.2217574 -75.27  0.001640381    2.119    0.528
        22  -9.7499     99.9812    181.2755   6.0840581792e+01   2.3816597710e+01    0.2036083    0.1774801  12.10 0.0001659281    1.080    0.074
        23  -9.7426    115.8114    181.4073   5.6628214471e+01   2.1533452570e+01    0.1979495     0.131335  14.50  0.000361239    1.584    0.369
        24 -10.7340     79.2360    169.0790   6.4864632582e+01   2.9665769448e+01    0.3608106    0.2675724  78.45  0.001010287    1.788    0.441
        25 -10.1977    100.9910    167.8973   5.8271523478e+01   2.6796929145e+01    0.4296392    0.2156038 -37.03  0.001480945    2.323    0.569
        26 -10.3033    180.1232    167.0035   3.9691027746e+01   1.5163702468e+01    0.2999684     0.167144 -61.95  0.001258138    3.228    0.690
        27 -11.3684     83.1107    165.3851   6.3069862925e+01   3.0037108827e+01    0.3361147    0.2679715 -73.97 0.0007777989    1.444    0.308
        28  -9.7351    110.4876    166.9698   5.5481245733e+01   2.5572224272e+01    0.2144917    0.1446657 -53.78 0.0004939188    1.535    0.349
        29 -11.1707     90.4102    165.5568   6.0911532978e+01   2.8932639092e+01    0.3391144    0.2489207  55.98 0.0005853627    1.616    0.381
        30 -12.8859     76.3456    151.3135   6.2708214763e+01   3.4562116066e+01     1.507855    0.6884511 -54.22  0.004944918    2.154    0.536
        31 -11.4500     82.8064    146.0949   5.9650193977e+01   3.4900267770e+01    0.6447971    0.4292678  -5.88   0.00152733    2.053    0.513
        32 -10.5786     82.1666    140.8587   5.8817371178e+01   3.6311831122e+01    0.3013645    0.2751069 -88.80 0.0004154934    1.225    0.184
        33 -11.6866     62.0121    162.0531   6.9193696218e+01   3.3774799126e+01    0.5271891    0.3434646  -7.81  0.002238572    1.950    0.487
        34 -11.8269     67.2477    157.9978   6.6831233495e+01   3.4134341010e+01    0.5111451     0.420384  10.62  0.001422808    1.235    0.191
        35 -12.7529     63.8407    146.0249   6.5918762880e+01   3.7723508142e+01    0.5720057    0.4376723  -2.13 0.0009612301    1.471    0.320
        36 -15.0223      9.9697    206.3600   8.9785692383e+01   2.7625708472e+01     1.371659    0.7741106  -6.83  0.005162912    2.233    0.552
        37 -10.5309     94.6344    158.8722   5.8459602718e+01   2.9918156089e+01    0.5717313    0.3388972 -85.02  0.001637083    3.355    0.702
        38  -9.5301    239.3362    161.6852   2.9525187732e+01   8.6579016207e+00    0.1011646   0.07705783 -56.70 0.0007047107    1.693    0.409
        39 -15.8870     31.8784    182.6871   8.1511242631e+01   3.1729710279e+01     6.848417     3.107384  59.72   0.02537811    2.792    0.642
        40 -10.7061     44.0059    156.5724   7.4462114944e+01   3.7408387954e+01    0.4113236    0.2510595  54.40  0.001008328    1.846    0.458
        41  -9.3421    126.4230    156.9942   4.9414277182e+01   2.5294486266e+01     0.213197    0.1378995 -49.91 0.0003295584    1.541    0.351
        42 -10.3213     82.2932    152.9348   6.1111728727e+01   3.3264783970e+01    0.4493169    0.2740877  87.59  0.001614005    3.005    0.667
        43 -10.8941     29.9417    152.9066   7.8941400610e+01   3.9865821380e+01    0.3154628    0.2666403  20.18 0.0004335124    1.173    0.148
        44 -11.8448    133.0347    230.1001   5.9914729266e+01   9.4774994203e+00    0.3508957    0.2078948  -8.57  0.001778078    1.878    0.468
        45 -13.7636     70.1309    144.8537   6.3566375275e+01   3.7131800809e+01     2.475852     1.246668  67.03  0.006603718    5.255    0.810
        46 -10.8529    133.6023    144.9355   4.5195989044e+01   2.6702086092e+01     0.788886    0.1859836 -52.17  0.002058472    5.211    0.808
        47  -9.1957    114.2496    147.1753   5.0607160364e+01   2.9495842225e+01    0.1940054    0.1735982  87.73 0.0004295699    1.343    0.255
        48 -10.5129    108.8808    145.3258   5.1699170677e+01   3.0825959348e+01    0.2821658    0.2729045  33.31 0.0006798212    1.070    0.066
        49 -10.2681     36.9273    142.5181   7.5002656771e+01   4.1998424147e+01    0.2971493    0.2227627 -75.11  0.000946213    1.388    0.280
        50  -9.5962     55.9631    141.4758   6.7874171887e+01   3.9994608420e+01     0.236976    0.1487331  25.32 0.0005717291    1.561    0.359
        51 -11.0716    100.1964    133.2515   5.1613810431e+01   3.5140321502e+01     0.680354    0.3863479   4.19  0.002091476    4.065    0.754
        52 -10.6343    105.4954    131.0062   4.9568637175e+01   3.4724760024e+01    0.4821845    0.3590568 -43.20  0.002029555    1.345    0.257
        53  -9.3861    241.4400    134.4811   2.4660864748e+01   1.2362539211e+01    0.1106327   0.08227269 -38.79 0.0001002001    1.024    0.024
        54 -10.3413     76.4966    133.4920   5.9176125261e+01   3.9066115034e+01    0.3035428    0.2539578  68.11 -2.619817e-05    1.387    0.279
        55 -11.5187     86.3655    132.3413   5.5682625781e+01   3.7736718543e+01    0.2945357    0.2725533 -31.33 0.0004517547    1.090    0.083
        56  -9.3850     19.0277    133.4863   8.0641364166e+01   4.6179385976e+01    0.2214464    0.1439406  17.80  0.001018416    1.550    0.355
        57  -9.9251     44.3914    130.8073   7.0291036437e+01   4.4327784633e+01    0.2288117    0.1319509 -52.46 0.0009552701    1.694    0.410
        58 -10.5026     63.5322    128.5278   6.2681892216e+01   4.2335951909e+01    0.2791746    0.1527903  14.35  0.001033057    2.296    0.564
        59  -9.6334     66.5025    125.0142   6.0869949234e+01   4.2791068264e+01    0.3540934    0.1523241 -57.91  0.001264644    2.357    0.576
        60  -9.5749    109.4322    126.2808   4.7376609835e+01   3.5088073472e+01    0.2787935    0.1410598 -45.52 0.0008840932    1.972    0.493
        61  -9.8420     32.7810    126.8773   7.4197327157e+01   4.6713382530e+01    0.2653601    0.2071166  43.91 0.0006269229    1.318    0.241
        62  -9.8281     96.5031    121.5466   5.0054177102e+01   3.8542197755e+01    0.2923056    0.2219963  15.42  0.001351109    1.524    0.344
        63 -11.5110     46.0091    120.5535   6.7748063569e+01   4.6871580304e+01    0.4832037    0.4156406 -26.35  0.002478042    1.197    0.165
        64  -9.5123     59.9815    121.2255   6.2462628702e+01   4.4753677917e+01    0.2330031     0.197695  52.47 0.0005011134    1.252    0.201
        65  -8.9663    106.3960    116.2203   4.5850304152e+01   3.7908564762e+01     0.193974    0.1435668 -60.24 0.0002916298    1.470    0.320
        66 -10.4450    138.2149    111.3097   3.6596498402e+01   3.2771305717e+01    0.2285295    0.1923548 -52.22 0.0003288069    1.156    0.135
        67 -10.6928     33.8419    110.7612   7.0889699075e+01   5.0949887139e+01    0.4798113    0.2316801  50.50  0.001742625    2.622    0.619
        68 -10.2443     28.3245    107.9708   7.2777899605e+01   5.2289840896e+01    0.2831428    0.2268055  40.34 0.0005122239    1.293    0.226
        69 -11.5386     23.9275    104.5079   7.4115892113e+01   5.3651871852e+01     0.545253    0.3082132  38.25  0.002361765    1.813    0.449
        70 -10.4972     52.2789    109.4146   6.2858670008e+01   4.8923751215e+01    0.2608268    0.1945465  86.58 0.0007667714    1.744    0.427
        71 -10.9096    133.7933    104.3734   3.5911493905e+01   3.4995562641e+01    0.4620199    0.2443126 -65.87  0.001606965    3.443    0.710
        72  -9.1985     88.9288    101.9147   4.7519658505e+01   4.4457675095e+01    0.2532544    0.1879099  77.60  0.001127114    1.861    0.463
        73 -11.9337     43.8683     93.5595   6.2625966950e+01   5.4124144953e+01    0.4598902    0.3440269  34.36 0.0008037986    1.308    0.236
        74 -10.5416     50.2741     89.5212   5.8736703834e+01   5.4165155140e+01    0.2876589     0.135315  36.16 0.0007562723    2.016    0.504
        75 -10.2131     24.4827     86.1831   7.0043897710e+01   5.8360136790e+01    0.2935663    0.1797365  27.30 0.0008665503    1.584    0.369
        76 -10.4830    116.0621     78.9765   3.3381403806e+01   4.3496529687e+01    0.3609651    0.2463887 -79.35   0.00136884    2.076    0.518
        77  -9.0472     59.7828     76.9949   5.0997232086e+01   5.5441717761e+01    0.1866097    0.1217787 -49.49 0.0003981667    1.611    0.379
        78  -9.0241    171.4666     74.9782   2.1861063530e+01   3.2528703281e+01    0.1768517   0.09041944 -58.75 0.0004977012    2.220    0.550
        79 -10.1599    143.6420     71.0326   2.5379200795e+01   3.8868373148e+01    0.3523605    0.1775922 -65.51  0.001315293    3.259    0.693
        80 -10.9634      5.1793     66.9805   7.6246084568e+01   6.4798953252e+01    0.2521747    0.1197904 -40.38 0.0008979302    1.980    0.495
        81 -11.8446    195.6416     61.5917   1.5870475843e+01   2.9854574435e+01    0.3033827    0.2589276 -48.22 0.0009407107    1.154    0.134
        82 -11.4036     13.5951     60.4657   6.9457518846e+01   6.5670462802e+01    0.2489391    0.2388005  43.56 0.0007408182    1.211    0.174
        83 -12.7757    207.9414     53.7355   1.3031816125e+01   2.8678287836e+01    0.6948348     0.511985 -55.23  0.003037091    1.077    0.071
        84 -13.0787    218.4476     46.2034   1.0660985572e+01   2.7800576827e+01    0.5228297    0.4447097 -55.22  0.001308254    1.174    0.148
        85 -10.9193      1.9534     51.0062   7.4331384287e+01   6.8780581520e+01    0.2670426    0.1780537 -58.95  0.001143639    1.494    0.331
        86  -9.5752      7.2998     41.3090   6.7511068810e+01   7.0487550953e+01    0.1397671   0.08750317 -23.45 0.0002631013    1.599    0.375
        87 -10.1962     21.0923     52.9156   6.2467705323e+01   6.6555908832e+01    0.2075927    0.1849324   2.88 0.0003960441    1.018    0.018
        88 -11.0251     21.3851     33.2840   5.4419975189e+01   7.0421287154e+01    0.2560294    0.1973341  37.81 0.0007778468    1.326    0.246
        89  -9.4544    220.1280    246.8393   4.5488639308e+01  -1.5721572266e+00    0.1475892    0.1104491 -14.82 0.0004356985    1.161    0.139
        90 -11.2742      3.0031     22.3530   6.3058224122e+01   7.4656382875e+01     0.292089    0.1966644 -23.44  0.001685448    1.427    0.299
        91  -9.8052     60.7779     21.3014   2.8915076744e+01   6.4779401873e+01    0.2072393    0.1537602  70.23 0.0008590164    1.411    0.291
        92  -9.8729     32.5443     15.5152   3.8409962624e+01   7.1355508405e+01    0.1304737    0.1085985  31.52 9.156062e-05    1.012    0.011
        93 -10.4154     67.2504    239.9572   7.6998894941e+01   1.4773293122e+01    0.3637399    0.1742368 -65.92  0.001523535    2.471    0.595
