#   1 NUMBER                 Running object number                                     
#   2 MAG_AUTO               Kron-like elliptical aperture magnitude                    [mag]
#   3 X_IMAGE                Object position along x                                    [pixel]
#   4 Y_IMAGE                Object position along y                                    [pixel]
#   5 X_WORLD                Barycenter position along world x axis                     [deg]
#   6 Y_WORLD                Barycenter position along world y axis                     [deg]
#   7 A_WORLD                Profile RMS along major axis (world units)                 [deg]
#   8 B_WORLD                Profile RMS along minor axis (world units)                 [deg]
#   9 THETA_WORLD            Position angle (CCW/world-x)                               [deg]
#  10 FWHM_WORLD             FWHM assuming a gaussian core                              [deg]
#  11 ELONGATION             A_IMAGE/B_IMAGE                                           
#  12 ELLIPTICITY            1 - B_IMAGE/A_IMAGE                                       
         1 -11.2070      9.9266      6.0972   6.5466863406e+01   7.1715650025e+01    0.3967568    0.1682667 -27.77  0.002156003    2.139    0.533
         2 -12.6919      9.9644     19.6958   7.1042169318e+01   6.9526629219e+01    0.7503159    0.3772692 -40.15  0.004283673    1.483    0.326
         3 -11.5025      3.2850     11.0267   7.1031774974e+01   7.1402509984e+01    0.3743336     0.306094  18.40  0.002947054    1.572    0.364
         4 -10.9834     26.3560     10.0886   5.9039971583e+01   6.9643570676e+01    0.2050411     0.153966  15.77  0.001012168    1.355    0.262
         5 -11.2895    110.3730      5.8087   2.7495747629e+01   5.5826512918e+01     0.416241    0.2539154  54.54  0.002183403    1.458    0.314
         6 -11.1536     22.9707      5.5626   5.8564368368e+01   7.0632762018e+01    0.4380485    0.2372967   4.66  0.002522407    2.045    0.511
         7 -11.5483    243.8072      2.8719   8.4053567264e+00   2.3673894558e+01    0.2906964    0.2119537 -88.75  0.001806158    1.224    0.183
         8 -10.6443      4.3777      2.3363   6.6727597112e+01   7.2691140079e+01    0.3061419    0.1735793   9.46  0.002062656    1.780    0.438
         9  -9.4958     38.7723      1.5956   4.9162586978e+01   6.9309464560e+01    0.1469081    0.1023147  36.58 0.0009544695    1.646    0.393
        10 -11.8501    100.8577    217.1878   8.3378815492e+01   1.6867938805e+01    0.6156333    0.3131365 -63.73  0.003174298    2.181    0.542
        11 -11.6383     79.1924    246.0915   9.0287687536e+01   1.4856878608e+01    0.6536772    0.2286971 -61.83  0.003284968    3.160    0.684
        12 -12.2868    115.0619    248.3792   8.4127079933e+01   9.2748242210e+00    0.7289219    0.3209868  46.45   0.00254237    1.769    0.435
        13 -13.2088     94.7864    240.5415   8.7010424453e+01   1.3595184816e+01     1.444443    0.5684704  54.65  0.006073648    2.381    0.580
        14 -10.5424     85.4923    230.8142   8.7775702535e+01   1.6642611150e+01    0.2303997    0.1937702  77.14  0.001015823    1.127    0.113
        15 -11.5847     87.4537    249.5779   8.9145092811e+01   1.3127161883e+01     0.544287    0.2338985  37.79   0.00284786    2.209    0.547
        16 -13.0294     53.5072    203.2587   9.1282928388e+01   2.6211207691e+01     1.552302    0.6574224  57.53  0.007609318    2.296    0.564
        17 -13.0887     35.4771    189.1580   9.3607033712e+01   3.1197528475e+01      1.14271    0.5495051  65.11   0.00486333    2.081    0.519
        18 -12.1846     34.7213    176.8618   9.2660124693e+01   3.3886968192e+01     1.124241    0.6105387  76.06   0.00614512    1.861    0.463
        19 -14.3324     12.5371    128.9166   9.2888080648e+01   4.6511523623e+01     2.146065     1.496968  77.12   0.01395683    1.403    0.287
        20 -12.5003      4.1673    165.9521   9.8119733603e+01   3.9012164502e+01    0.5420192    0.3958564  56.32  0.003359165    1.356    0.263
        21 -11.4513     97.0025    217.0080   8.4120100222e+01   1.7491587001e+01    0.3765722    0.2603924 -53.77  0.001812544    1.721    0.419
        22 -10.7257     60.4429    219.4491   9.1396162083e+01   2.2157301912e+01    0.3442394    0.1746613  89.61  0.001826969    2.206    0.547
        23 -11.0017     85.0533    214.9631   8.6247506561e+01   1.9654977783e+01    0.5081989    0.3090889 -82.31  0.002863561    1.805    0.446
        24 -10.8399    243.8893    216.6762   5.5607425666e+01  -7.1403849162e+00     0.220767    0.1490067 -10.08  0.001339657    1.426    0.299
        25 -11.3535    121.3501    232.7005   8.1220048714e+01   1.0873911939e+01    0.4069888    0.2309256  47.43  0.002278102    1.439    0.305
        26 -14.3198     17.8357    225.7521   9.9369297773e+01   2.5852727434e+01     2.331478    0.5941046  52.81   0.01138973    2.973    0.664
        27 -10.9902    246.5962    210.4125   5.4005564582e+01  -6.7687041479e+00    0.2580153    0.2148405  10.16  0.001740604    1.105    0.095
        28  -9.9391     88.8539    205.2621   8.4400665821e+01   2.0993396104e+01    0.3092798    0.1528791  43.08  0.001554703    1.800    0.444
        29 -11.1147     26.1756    204.9335   9.6616364051e+01   2.8970885269e+01    0.2382928    0.1812982  39.83  0.001597011    1.534    0.348
        30  -9.7857    249.4958    200.5007   5.1662604667e+01  -5.9389220048e+00    0.1280269    0.1019774   6.53 0.0008106325    1.016    0.015
        31 -10.2359    105.6543    200.1848   8.0276849905e+01   1.9401828593e+01    0.3378229    0.1426909  52.17  0.001428155    2.362    0.577
        32  -9.7272     78.9907    199.2075   8.5728021287e+01   2.3651589875e+01    0.2222843    0.1740719 -79.09  0.001404089    1.239    0.193
        33 -10.2534     91.8941    194.5480   8.2453377966e+01   2.2704378729e+01    0.3881475    0.2796941 -22.14  0.001957322    2.544    0.607
        34 -11.3670    245.0492    192.6829   5.0946193622e+01  -4.1665880086e+00    0.2418652    0.2138206 -13.16  0.001583893    1.223    0.182
        35 -11.8283     59.3704    186.4844   8.8418774125e+01   2.8959814618e+01     1.097173    0.5183273  77.79  0.004603233    3.089    0.676
        36 -10.1964     53.7298    172.1662   8.8045969378e+01   3.2766204347e+01    0.4531001    0.2265323 -85.46  0.002128229    2.259    0.557
        37  -8.9274     97.6459    184.6888   7.9872015637e+01   2.3868787974e+01    0.1267791    0.1070205 -12.01 0.0007044338    1.729    0.422
        38 -10.2779     83.0332    181.4884   8.2675183256e+01   2.6789387319e+01    0.3195626    0.1794208 -64.93  0.001347217    1.760    0.432
        39 -13.7270     20.0608    173.4574   9.5424278016e+01   3.6062863217e+01      1.50668    0.6573426 -61.13  0.008110723    2.124    0.529
        40 -11.4594    246.0466    175.9830   4.7457770951e+01  -1.9605019553e+00    0.3314608     0.181484 -31.47  0.001654775    1.740    0.425
        41 -10.7586     28.2697    153.5951   9.1769114173e+01   3.9648523026e+01    0.3659744    0.2116807  52.43  0.001694215    1.754    0.430
        42 -10.5260     45.7249    151.1273   8.7355386650e+01   3.8423228492e+01    0.2886278     0.144447  44.15  0.001464426    2.040    0.510
        43 -12.6264    240.2926    144.4426   4.1751911590e+01   3.9413341505e+00    0.7931042    0.3906083 -35.03  0.003508672    1.898    0.473
        44 -13.6060     18.8596    190.3830   9.6963977588e+01   3.2631275097e+01     1.073024     0.516293  67.56  0.003955896    1.938    0.484
        45 -11.7910    249.3172    142.8168   3.9868124397e+01   2.4872518535e+00    0.5857724    0.2268549 -31.90   0.00230763    2.460    0.593
        46 -13.7752      5.4241    151.8903   9.6763954732e+01   4.1940620652e+01     1.520251    0.7789145  81.32  0.008356943    1.844    0.458
        47 -14.9894      8.0607    241.0238   1.0169228081e+02   2.4102483476e+01      2.53738     1.377104  52.66   0.01877364    1.438    0.305
        48 -12.0718     35.4476    138.8791   8.8318131404e+01   4.2298313359e+01    0.4318472    0.2814339 -72.58  0.002539791    1.291    0.225
        49 -12.1377    242.2514    133.1700   3.8893905291e+01   5.3771359508e+00    0.3868731    0.3045228   6.36  0.002101342    1.363    0.266
        50  -9.6565    105.5192    131.4935   6.8606295717e+01   3.4427897812e+01    0.1454513    0.1395244 -77.53 0.0001882585    1.007    0.007
        51 -10.9664     50.6553    129.2137   8.2965568634e+01   4.2938407239e+01    0.4738314    0.2699816  87.79  0.002170488    2.332    0.571
        52 -11.5636    244.6825    119.8517   3.5454300212e+01   7.0454545955e+00    0.3434896    0.2511975  19.76  0.001760819    1.617    0.382
        53 -10.3224     49.4178    120.7036   8.1898786155e+01   4.5059560847e+01    0.3351741     0.196007  51.98  0.001698123    1.993    0.498
        54 -11.3660    247.7927    113.2568   3.3444624236e+01   7.4762405202e+00     0.459736    0.2209261 -43.15  0.001967683    2.013    0.503
        55 -12.0894     13.9740     75.6849   8.4632317634e+01   5.8294589986e+01    0.6571258    0.5011073  60.48  0.004341214    1.712    0.416
        56 -12.4390      8.5094     65.4224   8.4496754702e+01   6.0803965463e+01    0.9413437    0.3774489 -36.17  0.004646739    2.509    0.601
        57 -12.4175      3.2237     83.2561   8.9506465587e+01   5.7258200638e+01    0.9866317    0.3093038 -66.07  0.004602944    2.305    0.566
        58 -14.5831      5.3473    186.7200   9.9286309684e+01   3.4596732186e+01     3.151719    0.7433777 -79.62   0.01277497    3.832    0.739
        59 -10.6956     78.5313    101.5027   6.9422009963e+01   4.5734071214e+01    0.3096708    0.2447634 -28.36  0.001534492    1.366    0.268
        60 -11.8607    235.2776    103.1771   3.3040090704e+01   1.1728523133e+01     0.672156    0.3723618 -36.01  0.003022323    1.666    0.400
        61 -10.6860    249.2329     98.5671   2.9822119457e+01   9.5114477980e+00    0.2849232    0.1846431 -35.36  0.001433661    1.389    0.280
        62  -9.5742     23.5089     81.5151   8.2563501371e+01   5.6371632690e+01    0.2234835    0.1271244 -39.85 0.0009947974    1.661    0.398
        63 -10.4202    101.1764     80.1698   5.6743004128e+01   4.6536181818e+01    0.2040039    0.1823993 -79.82  0.001093325    1.369    0.270
        64 -10.1250     39.4931     80.0027   7.6835483939e+01   5.5338887605e+01    0.2054681    0.1071468 -56.58  0.001037158    1.604    0.376
        65 -10.0916    121.7926     76.7386   4.9750705273e+01   4.3061868873e+01    0.4494985    0.1247845  44.26  0.001320855    3.631    0.725
        66 -10.0460     32.2542     74.4693   7.8040552272e+01   5.7201104490e+01    0.2900139    0.2030301 -77.53  0.001672268    1.681    0.405
        67 -10.0873     31.7900     61.5883   7.4984499050e+01   5.9956324957e+01     0.315747    0.1783512 -36.68  0.001735429    1.595    0.373
        68 -10.4473     68.0094     56.2520   5.9982341182e+01   5.6789930450e+01    0.3211689    0.2613184 -21.18  0.001597832    1.110    0.099
        69 -12.2194      3.1059     59.6490   8.5279582616e+01   6.2287812744e+01    0.5724366    0.3324589 -58.00  0.002937326    1.284    0.221
        70 -13.7824      5.6627     99.4938   9.1138574103e+01   5.3552579070e+01     1.567376    0.8003876 -60.74  0.006711573    1.477    0.323
        71  -9.6784     24.0279     49.5100   7.4639132436e+01   6.3030939630e+01     0.161767    0.1142142  11.26  0.001028751    1.598    0.374
        72 -11.3609      9.1933     46.3469   7.9790308995e+01   6.4660614025e+01     0.247834    0.1971558 -16.15  0.001808563    1.296    0.229
        73 -10.1514      1.9836     47.0133   8.2890648198e+01   6.4905921028e+01    0.1414794    0.1043157 -47.91 0.0007108136    1.003    0.003
        74 -11.7081     35.2133     42.0704   6.7742908318e+01   6.3461360482e+01    0.5316445    0.4462365 -13.30  0.002514303    1.126    0.112
        75 -10.7420      4.3800     39.6712   8.0015214544e+01   6.6224202194e+01    0.3689593    0.1639042 -31.26  0.002023368    2.116    0.527
        76 -11.3428    154.6687    244.4512   7.6401311213e+01   3.6135195977e+00    0.2913756     0.216063  34.91  0.001888142    1.170    0.146
        77 -10.4244     73.4794    238.2597   9.0633175761e+01   1.6985945242e+01     0.209198    0.1840447  38.09  0.001149572    1.467    0.318
        78 -13.0293    112.0895    228.7559   8.2530317216e+01   1.3019310209e+01    0.8658324    0.7990103 -43.47  0.006085943    1.426    0.299
        79 -10.4224     24.8977     18.8504   6.3565888028e+01   6.8454422575e+01    0.1884356    0.1265366 -18.52  0.001117971    1.244    0.196
        80 -12.5096     79.2789    226.3259   8.8502634621e+01   1.8338160562e+01    0.6614268    0.4989441 -74.89  0.004404574    1.390    0.281
        81 -11.3780     74.0285    222.6508   8.9139852187e+01   1.9748323495e+01    0.5199677    0.2865359 -58.00  0.002983596    2.077    0.519
        82 -10.5752    138.6144    230.3905   7.7620324788e+01   8.4524327869e+00    0.2270685    0.1896137  34.96  0.001484784    1.174    0.148
        83 -11.5306     71.1555    208.0981   8.8272046348e+01   2.2951388495e+01     1.110112    0.4875546  83.25  0.003960123    4.667    0.786
        84 -11.6825     96.5534    224.2591   8.5013089829e+01   1.6212579897e+01    0.3762894    0.3097776 -44.82  0.002478853    1.654    0.395
