#   1 NUMBER                 Running object number                                     
#   2 MAG_AUTO               Kron-like elliptical aperture magnitude                    [mag]
#   3 X_IMAGE                Object position along x                                    [pixel]
#   4 Y_IMAGE                Object position along y                                    [pixel]
#   5 X_WORLD                Barycenter position along world x axis                     [deg]
#   6 Y_WORLD                Barycenter position along world y axis                     [deg]
#   7 A_WORLD                Profile RMS along major axis (world units)                 [deg]
#   8 B_WORLD                Profile RMS along minor axis (world units)                 [deg]
#   9 THETA_WORLD            Position angle (CCW/world-x)                               [deg]
#  10 FWHM_WORLD             FWHM assuming a gaussian core                              [deg]
#  11 ELONGATION             A_IMAGE/B_IMAGE                                           
#  12 ELLIPTICITY            1 - B_IMAGE/A_IMAGE                                       
         1 -11.6226      3.0576     20.9558   7.9817344681e+01   7.3429530030e+01    0.3294847    0.2926886  79.88  0.001697541    1.751    0.429
         2 -10.3778      8.6846      9.1129   6.9973787604e+01   7.4873729532e+01    0.2978135    0.2139308  61.80  0.001070051    3.210    0.688
         3 -10.4922     13.8045     12.5809   6.8339562160e+01   7.3773470091e+01    0.2533363     0.198558  41.03   0.00116804    1.648    0.393
         4 -11.7032     17.9230     20.4287   6.9706407262e+01   7.2055390851e+01    0.3792188    0.2648472   0.14 0.0005558588    1.380    0.275
         5 -12.1175    125.3458     17.0203   3.0544593105e+01   5.0896198554e+01    0.2479066    0.2139504  75.14 0.0002396546    1.017    0.017
         6 -11.3442     14.1932     16.2880   7.0025368346e+01   7.3151002519e+01    0.4036291    0.2027539 -44.14  0.001021805    1.977    0.494
         7 -11.5862    203.3875     12.0077   2.0404082800e+01   3.3350135735e+01    0.2465782    0.1773341 -52.68 0.0003137935    1.208    0.172
         8 -11.3936     34.8661     12.1221   5.5648106509e+01   7.0880956536e+01    0.3444431    0.2137566  50.08  0.001924159    1.844    0.458
         9 -11.7751     29.7981      7.7502   5.5901549699e+01   7.2242942338e+01    0.5781173    0.3695449  60.63  0.002902918    2.747    0.636
        10 -12.9121     19.9743      2.7352   5.8649940430e+01   7.4339625995e+01    0.4442249    0.2671923  -1.33  0.002508906    1.947    0.486
        11 -10.1774    184.8353     11.8225   2.1856572513e+01   3.7415689404e+01    0.1803959    0.1179395 -65.05 0.0005151524    1.339    0.253
        12 -10.2741    171.7244     11.9652   2.3104664831e+01   4.0378179404e+01     0.174355    0.1405053 -59.04 0.0004546267    1.156    0.135
        13 -10.4077    165.0572     11.1341   2.3558299216e+01   4.2008886258e+01    0.2827262    0.1483248 -61.08  0.001419491    1.904    0.475
        14 -12.3317    125.9195     10.6772   2.8364051371e+01   5.1389116651e+01    0.2952649    0.2344521 -69.25 0.0002662815    1.276    0.216
        15  -9.8040    230.9892     10.6650   1.8286845786e+01   2.7898456688e+01    0.1550367    0.1148029 -75.17 0.0004287122    1.112    0.100
        16 -10.0874    176.7305     10.6375   2.2290026512e+01   3.9368370408e+01    0.2082422    0.1564051 -13.72   0.00117426    1.840    0.457
        17  -9.2327    134.9815     10.9899   2.7134911393e+01   4.9175609029e+01    0.1541388    0.1343583  85.72  0.000328326    1.021    0.020
        18 -11.9450     55.5133      9.7025   4.5201506432e+01   6.7425469129e+01    0.3684222    0.2102832  40.56  0.001992877    1.543    0.352
        19  -9.8135     97.2404     10.0729   3.3369899943e+01   5.8280245104e+01    0.2142569    0.1327773 -59.38  0.001079994    2.065    0.516
        20  -9.6051     64.5875     10.0179   4.2127009847e+01   6.5551815044e+01    0.1756881      0.12177 -21.95 0.0004801968    1.598    0.374
        21 -10.2093     45.5139      9.5745   4.9212924290e+01   6.9343902294e+01    0.2107415    0.1652814  41.40 0.0005733746    1.173    0.148
        22 -10.0325     42.4358      9.4199   5.0508274344e+01   6.9918071783e+01    0.1982795    0.1553501  44.48 3.344945e-05    1.255    0.203
        23  -9.9069     22.6353      9.3735   6.0941222636e+01   7.3100405180e+01    0.2540575    0.1572054  18.45  0.001482831    1.575    0.365
        24 -10.3127      3.5674      7.1670   7.2648901683e+01   7.5693420563e+01    0.2219154    0.1902267 -18.88  0.001644733    1.198    0.165
        25  -9.9499     88.5624      6.9913   3.4074614246e+01   6.0570903682e+01    0.1713594    0.1274451 -15.73   0.00101262    1.571    0.363
        26  -9.1242     69.7820      7.0036   3.9057411322e+01   6.4748613102e+01    0.1526453    0.1025283 -21.48 0.0008695351    1.675    0.403
        27 -11.6388    194.0394      4.7509   1.9449836001e+01   3.6113495048e+01    0.2155405    0.1966247 -82.61 0.0002883885    1.238    0.192
        28 -11.1022    151.5365      5.9731   2.3582239527e+01   4.5692284712e+01    0.2419685    0.1875807 -79.53 0.0003213841    1.139    0.122
        29 -10.9277    148.4028      2.3076   2.2877891256e+01   4.6768312618e+01    0.2295221     0.182777 -76.74 0.0005539472    1.121    0.108
        30  -9.5572    111.5794      5.8073   2.9023349642e+01   5.5273963617e+01    0.1624216    0.1147962 -43.84 0.0009333501    1.555    0.357
        31 -11.0056    223.9942      3.7635   1.7308253015e+01   2.9998115867e+01    0.1585448    0.1155151 -74.12 0.0002955566    1.087    0.080
        32  -9.5510     48.6964      4.3329   4.5077568573e+01   6.9305451029e+01     0.207613    0.1845451  27.02 0.0009244074    1.081    0.075
        33 -10.3220     44.4661      4.1317   4.6728190275e+01   7.0124644356e+01    0.2992694    0.1562529  51.39 0.0008730885    1.775    0.436
        34 -10.4550     10.6961      1.3216   6.3937259587e+01   7.5755264980e+01    0.2643893    0.0950468  37.69  0.001254981    2.744    0.636
        35  -9.9878    104.6818      4.2469   2.9673388976e+01   5.7047021516e+01    0.2021192    0.1446238  77.28 0.0004152501    1.285    0.222
        36 -10.3412    161.6979      2.2339   2.1513169317e+01   4.3650567264e+01    0.2129299    0.1867065  24.87  0.001416967    1.554    0.357
        37 -10.2666     13.7219      3.0899   6.2934697095e+01   7.5140552932e+01    0.1929221    0.1558718  13.05 0.0007163819    1.101    0.092
        38  -9.8166    138.1844      2.1491   2.3995426129e+01   4.9214589739e+01    0.1832603     0.151233  61.61 0.0003884571    1.210    0.173
        39 -10.3859    247.1086      5.9605   1.6511424713e+01   2.5388652656e+01    0.1628726    0.1131171 -63.35  0.000369981    1.037    0.036
        40 -10.5393     29.8015      1.3285   5.2126442701e+01   7.2993194997e+01    0.2381411    0.0987522  47.46  0.000597599    2.325    0.570
        41 -10.6212     11.1063    128.3019   9.9953381375e+01   4.7939860735e+01     0.376591    0.2284913 -79.86  0.001284501    1.495    0.331
        42 -10.2946    109.9865    250.5616   8.7456241971e+01   7.2895829532e+00    0.1888389    0.1033359  31.59 0.0004081244    1.523    0.343
        43 -10.9460     31.1933    248.7737   1.0421295384e+02   1.7245905317e+01    0.3874083    0.2694808  -4.71  0.002218667    2.397    0.583
        44 -12.5307     19.3729    248.1915   1.0662951134e+02   1.8586458309e+01    0.9755155    0.3594001  21.14   0.00409957    3.628    0.724
        45 -11.5796      2.9807    232.9510   1.0935187697e+02   2.3254436502e+01    0.3439175    0.2584817  24.33  0.001011103    1.526    0.345
        46 -12.5072     10.3011    244.7685   1.0833055180e+02   2.0157967781e+01    0.8253539    0.2446554 -61.92  0.003586308    3.854    0.741
        47 -11.4004      2.0288    248.4664   1.1014005171e+02   2.0199334664e+01     0.351792    0.2492552  77.85  0.002096594    1.243    0.195
        48 -12.8609      4.6773    241.6194   1.0934882471e+02   2.1319602414e+01    0.6814422    0.4849759  81.86  0.004685026    1.270    0.213
        49  -9.0742     30.7192    124.3002   9.2593072017e+01   4.7307534336e+01    0.1423562    0.1016417  67.64 0.0001775025    1.545    0.353
        50  -9.8348    208.8290    123.4917   4.4823746595e+01   1.5680385015e+01     0.174697    0.1354438  50.94 0.0005614855    1.479    0.324
        51  -9.9312     82.6486    118.1135   7.3438332375e+01   4.1762454863e+01     0.215768    0.1884086 -53.95 0.0004348709    1.123    0.109
        52 -11.9643     69.4271    116.5364   7.7485309067e+01   4.4347239524e+01    0.3568453    0.3160219 -53.67 0.0005840567    1.097    0.088
        53  -9.7976     59.9927    114.7297   8.0368947559e+01   4.6232185181e+01    0.1997661    0.1915422  44.52 0.0001984816    1.080    0.074
        54 -12.3759     23.3731    113.2972   9.3533288459e+01   5.0879495433e+01    0.2853054    0.2480692 -64.50 0.0002349716    1.040    0.038
        55 -10.0458     40.4886    114.0242   8.7291354998e+01   4.8950323066e+01    0.2281877    0.1348947 -65.41 0.0005820167    1.590    0.371
        56 -12.5412     14.3084    106.9691   9.5994296541e+01   5.3253042164e+01    0.6409276    0.3239147 -70.12  0.002950515    1.754    0.430
        57  -9.9593     56.3273    110.6863   8.0795137435e+01   4.7785044684e+01    0.1532051    0.1123353  68.60 0.0004752585    1.669    0.401
        58 -11.6954      2.9475    112.0393   1.0096177005e+02   5.2693775580e+01    0.4726897    0.2412548  76.96   0.00172216    2.318    0.569
        59 -10.9194      6.0287    103.7062   9.8735010443e+01   5.4646832259e+01    0.1743763    0.1657619 -42.14 0.0004400529    1.122    0.109
        60 -10.3893    109.0139    102.9629   6.1447934678e+01   4.0313862037e+01    0.2292998    0.2233708 -41.28 0.0003296858    1.046    0.044
        61 -10.6600    247.5791    101.7427   3.5081556884e+01   1.2596933128e+01    0.1813632    0.0904278 -46.46 0.0009535315    1.627    0.385
        62  -9.7241    112.7823    102.3773   6.0214028784e+01   3.9659768660e+01    0.2089378    0.1457108  35.08 0.0003520286    1.554    0.356
        63  -9.3951     50.0079    101.9608   8.1177783825e+01   5.0852201930e+01    0.1694011    0.1652134 -41.46 0.0003135154    1.031    0.030
        64  -9.9730    217.9189     98.6360   3.8138456360e+01   1.8262366503e+01    0.1712231    0.1572219 -73.82 0.0004804145    1.138    0.121
        65 -11.9110     17.9758     96.4030   9.2796416380e+01   5.5667936832e+01    0.5308112    0.3264932 -83.53  0.001400769    1.772    0.436
        66 -11.2655     20.9861     92.2578   9.0769270890e+01   5.6461331854e+01    0.3884186    0.2893517  72.94 0.0003976773    1.606    0.377
        67 -10.3121     56.1215     96.9893   7.7646686149e+01   5.1233159024e+01    0.2143358    0.2028408 -55.35 0.0002988252    1.033    0.032
        68 -10.0788     81.6617     94.6413   6.7761109087e+01   4.7577867273e+01    0.2673965    0.1857351  51.43 0.0009096405    1.553    0.356
        69 -10.9183     43.7970     94.2875   8.1809698788e+01   5.3560418696e+01    0.3153453     0.217576 -28.04  0.001122857    1.644    0.392
        70 -10.7733     10.6919     93.9622   9.5385669435e+01   5.6817537480e+01    0.2374974     0.192643 -71.70 0.0003428389    1.136    0.119
        71 -10.1451      8.0091     90.7100   9.5972045695e+01   5.7805689416e+01     0.370744     0.202344 -79.72  0.001613252    1.862    0.463
        72 -11.2655    125.2863     92.9788   5.4257568966e+01   3.8968457080e+01    0.2578434    0.2169177  50.70 0.0002351831    1.191    0.160
        73 -10.8602    105.9757     92.0174   5.9294636178e+01   4.3347627014e+01    0.3299155    0.2454067  65.48 0.0003378969    1.558    0.358
        74  -9.1810    142.2652     91.9974   4.9887279679e+01   3.5373484294e+01    0.1819376    0.1279938 -44.20 0.0003036031    1.397    0.284
        75 -12.1061     66.6921     91.6350   7.2255981036e+01   5.0883768121e+01    0.2595606    0.2515079 -55.87 0.0002555548    1.041    0.039
        76 -11.3778     58.1656     91.4083   7.5420101415e+01   5.2278728889e+01    0.3328891    0.2418499 -29.56 0.0009103689    1.529    0.346
        77 -12.2555    159.4715     89.3952   4.5549115187e+01   3.2002969116e+01    0.4041495    0.3007202  35.16 8.008283e-05    1.643    0.391
        78  -8.8696    132.6445     90.3274   5.1683997534e+01   3.7865045004e+01     0.160072    0.1178841 -84.59 -2.266394e-05    1.776    0.437
        79 -10.1325     96.0240     87.5928   6.1028249391e+01   4.6360789850e+01    0.2369887    0.2034073 -63.21  0.000418221    1.234    0.190
        80  -9.8407     31.1863     87.2034   8.5362528413e+01   5.6745599136e+01    0.1699889    0.1545403  71.90 0.0002672762    1.243    0.196
        81 -13.6245     65.5418     81.8068   6.9877955803e+01   5.3330571029e+01    0.4521311    0.4270634  61.93 0.0007257718    1.152    0.132
        82  -9.2800     26.4654     85.6019   8.7029069804e+01   5.7609437884e+01    0.1334206    0.1251934 -47.28 0.0001421527    1.037    0.036
        83 -10.0124     17.3387     84.9675   9.0882446722e+01   5.8564956206e+01    0.1933324    0.1525847 -58.01 0.0003510271    1.129    0.115
        84 -10.8117      3.6673     80.6439   9.6155118669e+01   6.0539683745e+01    0.3727842    0.1497298 -45.19  0.001208789    2.194    0.544
        85 -11.8895      5.1403     75.6448   9.4562938297e+01   6.1662304392e+01    0.3493214    0.2687859 -53.60  0.001483581    1.112    0.100
        86 -10.6218      7.3496     83.6227   9.5037172501e+01   5.9598090940e+01    0.3520412     0.220935 -64.76   0.00110462    1.388    0.279
        87 -10.9211      8.6298     79.3237   9.3661496067e+01   6.0564003116e+01    0.3834402     0.222119  50.90  0.001394006    2.195    0.544
        88  -8.7766    124.6614     79.3385   5.0509042873e+01   4.1812860792e+01    0.1581023    0.1165231 -82.14 0.0007050845    1.760    0.432
        89 -10.6595     48.0302     79.0109   7.6076532410e+01   5.6646870023e+01    0.2375051    0.1933577 -36.90 0.0003536051    1.185    0.156
        90  -9.4935     51.7118     75.6194   7.3542338945e+01   5.6890604018e+01    0.4932998    0.2307915  38.06  0.002052276    2.175    0.540
        91 -10.0144     87.4312     78.4808   6.1037111162e+01   5.0022940027e+01    0.2895644    0.1444581  42.89 0.0006232089    1.986    0.496
        92 -10.3556    177.0734     76.8523   3.9154478014e+01   3.0283881149e+01     0.275008    0.1967538  63.96  0.001397532    1.444    0.307
        93 -10.4937     11.6541     76.7985   9.1762752604e+01   6.0969069051e+01     0.209508    0.1366915 -47.17 0.0005308146    1.342    0.255
        94  -9.4262     18.3767     79.2147   8.9195596080e+01   5.9877400527e+01    0.1777916    0.1213249 -74.99 0.0009248899    1.543    0.352
        95  -9.4763     42.5586     76.5695   7.7714144684e+01   5.7940456668e+01    0.1379241    0.1289535 -29.29 2.337079e-05    1.007    0.007
        96 -10.3470     18.7946     75.2327   8.8095921641e+01   6.0792476320e+01    0.3059765    0.1408433  14.98 0.0008816343    2.456    0.593
        97 -10.3072     17.3191     72.6484   8.8178959121e+01   6.1523955531e+01    0.2665082    0.1760361  67.03 0.0009201053    2.167    0.539
        98 -10.4799    116.1736     72.6158   5.0661543177e+01   4.5008079941e+01    0.2851351    0.2143467  20.42 0.0009024724    1.771    0.435
        99  -9.6882    105.8274     71.8468   5.3257102806e+01   4.7467901839e+01    0.1979712    0.1641666  70.90 0.0005144668    1.310    0.237
       100 -13.2010     80.9504     67.3167   5.9622282196e+01   5.3566051647e+01    0.4891742    0.4176684  -2.12 0.0007358457    1.315    0.240
       101  -9.4529     33.9535     73.0000   8.0528648728e+01   5.9809237723e+01    0.2234214   0.07729646  26.26 0.0002062058    3.026    0.669
       102  -9.1502    142.6138     71.6917   4.4159260300e+01   3.9059626058e+01    0.1501742    0.1142383  23.69 0.0007018101    1.808    0.447
       103 -10.2758     45.7968     69.3646   7.4157265855e+01   5.9121180731e+01    0.2794796    0.2042785 -55.24  0.001468595    1.389    0.280
       104  -9.7450     39.3602     70.0808   7.7237492670e+01   5.9818148675e+01    0.1879606    0.1712073 -46.13 0.0004217162    1.090    0.083
       105  -9.5240     12.3633     70.2802   8.9996936515e+01   6.2461499163e+01    0.1405986   0.08369686 -31.89 0.0007013805    1.677    0.404
       106 -11.9451    211.9745     67.3745   3.2024454102e+01   2.4364335191e+01     0.237731    0.1968592 -57.34 0.0003503765    1.020    0.020
       107  -9.6615    154.9938     67.2570   4.0466856664e+01   3.6920664250e+01    0.1958192    0.1766521 -87.40 0.0004313813    1.048    0.046
       108  -9.5971     58.6053     67.1925   6.8026110936e+01   5.7643504275e+01    0.2071028    0.1254036 -38.15 0.0008807116    1.695    0.410
       109 -12.4674     11.7077     59.7306   8.7726252212e+01   6.4923938069e+01    0.7535761    0.4856892 -11.72 0.0002699216    1.662    0.398
       110 -10.1424     68.1998     64.7263   6.3393635272e+01   5.6492421407e+01    0.2028041    0.1927148  73.65 0.0006992663    1.196    0.164
       111 -10.9964    128.5702     63.5110   4.4817344725e+01   4.3758551085e+01    0.2695735    0.2373862  73.91 0.0006037302    1.107    0.096
       112 -10.7214     50.8546     61.7371   6.9453835282e+01   6.0000707091e+01    0.6264433    0.3426972 -70.23  0.002213911    3.877    0.742
       113  -9.8755    119.9303     62.5014   4.6549440657e+01   4.5950116834e+01    0.1972495    0.1873527 -54.98  0.001115571    1.081    0.075
       114  -9.2388    153.8264     60.8308   3.8893565379e+01   3.8235285510e+01    0.1870409    0.1484967 -72.11 0.0002914662    1.276    0.216
       115  -9.2981     98.5995     60.8293   5.1753629181e+01   5.1081474096e+01    0.1939501    0.1354416 -52.03 0.0004947495    1.571    0.363
       116 -10.0627     38.6455     59.9123   7.4360686999e+01   6.2114546270e+01    0.2517374    0.1936125  33.92  0.001127134    1.358    0.263
       117 -11.1242     58.6493     58.9742   6.5182562310e+01   5.9300048575e+01    0.2796499    0.1903138  36.33 0.0006690345    1.448    0.309
       118 -10.1088    229.1498     56.5178   2.7833544900e+01   2.2555622058e+01    0.1821088    0.1375417 -50.24 0.0006888618    1.104    0.094
       119  -9.4120    131.0956     57.3696   4.2372210616e+01   4.4173447844e+01    0.1973199    0.1303693  72.97 0.0005989728    1.654    0.395
       120 -10.3259     71.9347     56.8562   5.9207890493e+01   5.7308772456e+01    0.2929074     0.205282  72.49  0.001234157    2.228    0.551
       121 -10.3957      4.0278     57.4594   9.1182142756e+01   6.5946086744e+01    0.1764689    0.1198224   9.33 0.0006902593    1.563    0.360
       122 -13.6087    114.8357     53.4096   4.4869442433e+01   4.8638805165e+01    0.4131288     0.356413  47.26 0.0008012612    1.147    0.128
       123 -12.4352    106.0919     49.9482   4.5934721394e+01   5.1212252073e+01    0.5729838    0.3509236 -57.61 0.0004616322    2.068    0.516
       124 -11.9850     66.4797     52.7340   5.9758946365e+01   5.9089377389e+01     0.530858    0.2714531  38.80  0.001552214    1.915    0.478
       125 -10.6623     61.9701     49.9396   6.0483528252e+01   6.0416962992e+01    0.2135138    0.1758193  20.41 0.0003686263    1.202    0.168
       126  -9.7395     33.5193     55.3323   7.5283029672e+01   6.3719923825e+01    0.2560944    0.1178006  13.08  0.000947787    3.320    0.699
       127 -11.3158     17.4756     63.4472   8.5775659842e+01   6.3628796700e+01    0.3375239     0.269351 -55.36  0.001392584    1.180    0.153
       128 -11.7496     86.3618     53.8645   5.3109552080e+01   5.4934579442e+01    0.3522695     0.246732  38.13 0.0002568355    1.419    0.295
       129 -10.2540    225.4789     52.9242   2.7429020587e+01   2.3761467515e+01    0.1837786    0.1031485 -41.06 0.0004051766    1.527    0.345
       130  -9.6931    148.5381     52.0420   3.7343159634e+01   4.0841244693e+01    0.1933221    0.1345327 -40.50 0.0003101579    1.453    0.312
       131 -10.3908     80.7004     51.7567   5.4220869659e+01   5.6475489882e+01    0.3537536    0.2137217  64.50 0.0006214284    2.271    0.560
       132 -13.6015     20.9451     58.4847   8.2613762791e+01   6.4418206413e+01    0.5423157    0.3515279 -61.93 0.0008221528    1.580    0.367
       133 -10.4392    138.1340     50.1960   3.8736592349e+01   4.3602868955e+01    0.2063645    0.1835215  50.39 0.0004711173    1.189    0.159
       134 -10.3030     54.3483     48.3364   6.3041827202e+01   6.2034648511e+01     0.307724    0.2508954 -72.55 0.0006967712    1.717    0.418
       135  -9.6640    155.8326     46.7905   3.4604650255e+01   3.9869946283e+01    0.3108954    0.1456424  60.78  0.001045447    2.016    0.504
       136  -9.6134     74.8715     47.6011   5.4687947985e+01   5.8362086397e+01    0.1903594     0.127665  56.73 0.0005281874    1.639    0.390
       137 -10.9433     67.7196     44.7888   5.6225143299e+01   6.0235995895e+01     0.399514    0.2375422  24.20  0.001336233    2.147    0.534
       138 -10.2787     29.5005     45.5397   7.3823738083e+01   6.6178959259e+01    0.3996854    0.2317875  21.64  0.001142501    1.764    0.433
       139 -10.6922     24.1161     44.2435   7.6210996623e+01   6.7056566198e+01    0.5982701    0.2687901   9.59   0.00230039    3.472    0.712
       140  -9.7241     79.1677     45.4196   5.2357940770e+01   5.7844321260e+01    0.1821591    0.1288077  58.53 0.0004545897    1.519    0.342
       141 -10.2730     17.1876     44.1515   8.0008136016e+01   6.7785576766e+01    0.3403154    0.2363312  61.77  0.001457224    2.382    0.580
       142 -10.3180    117.0172     41.6364   4.0425963917e+01   4.9892901622e+01    0.3718364    0.2174218 -46.88  0.001452489    1.840    0.457
       143 -12.9865    141.4745     40.5494   3.5201900820e+01   4.4172650552e+01    0.2823645    0.2483599  79.99 0.0005362134    1.039    0.038
       144 -10.6652     37.5052     41.4468   6.8126816796e+01   6.5900273180e+01    0.3613794    0.2269637  41.23  0.001413684    1.719    0.418
       145 -11.3095    184.0506     40.1392   2.8918137994e+01   3.4230544820e+01    0.5067434    0.2624255  79.16  0.002402459    2.045    0.511
       146 -10.6752    110.3140     40.7318   4.1678261118e+01   5.1604189411e+01    0.2965714    0.2136769 -87.25 0.0009415045    1.737    0.424
       147  -9.0656    214.6583     40.7172   2.5820566390e+01   2.7562807149e+01    0.1094357   0.09534066  39.89 0.0007013446    1.633    0.388
       148  -8.9999    170.5186     40.4803   3.0717351022e+01   3.7284094560e+01    0.1354067    0.1162905 -77.12 -0.000129752    1.020    0.020
       149 -10.2934     18.2339     39.1240   7.7586054921e+01   6.8677890230e+01    0.2773816    0.1314071 -48.53  0.001173823    1.919    0.479
       150  -9.3490      9.9920     39.9544   8.2709352430e+01   6.9263012176e+01    0.1518029    0.1205125 -39.80 0.0005193045    1.119    0.106
       151 -12.0867    121.5768     37.3629   3.8006271308e+01   4.9391568017e+01    0.4112699    0.2997293 -39.61 0.0007397441    1.451    0.311
       152 -10.0645    117.1299     32.8692   3.7428929792e+01   5.1043245521e+01    0.2576364    0.1735042  61.73  0.001336198    1.351    0.260
       153 -10.6153     81.4083     38.7878   4.9038903546e+01   5.8398882234e+01    0.2776183    0.2070436  45.77 0.0005448236    1.240    0.194
       154 -10.3738     82.4407     34.8305   4.7143678720e+01   5.8748819334e+01    0.2690406    0.2512761  51.99  0.001579028    1.067    0.063
       155 -10.3802     51.4868     38.9868   6.0513963129e+01   6.4148534090e+01    0.2501713    0.1807969  37.85 0.0006646585    1.331    0.249
       156  -9.6199    191.7852     38.1981   2.7558166811e+01   3.2760103051e+01    0.1511738    0.1408871  70.88 0.0002347727    1.273    0.215
       157  -9.4119     76.3390     38.3195   5.0537096989e+01   5.9534428158e+01    0.1428693    0.1008518  18.85 0.0007049724    1.711    0.416
       158 -10.6694    177.3141     35.9602   2.8671912942e+01   3.6306929072e+01    0.1982745    0.1643434 -83.76 0.0004238652    1.064    0.060
       159  -9.6828    101.8465     35.5011   4.1908878278e+01   5.4301903816e+01    0.3056882    0.1887275 -86.76 0.0006814628    2.717    0.632
       160 -12.5351    144.4984     31.1891   3.1888123358e+01   4.4655947631e+01    0.3388644    0.2562403 -55.10 0.0004450856    1.318    0.241
       161  -9.7022     28.2720     33.4140   6.9607818282e+01   6.8584596533e+01     0.200094    0.1272283 -30.13 0.0004763265    1.539    0.350
       162  -9.9715     15.5393     34.0963   7.7219190851e+01   6.9906811047e+01    0.2582331    0.1486433  -2.08  0.001322581    2.016    0.504
       163  -9.8561    127.5100     32.5212   3.5236317319e+01   4.8592518136e+01     0.235386    0.1642106 -73.32 0.0008053593    1.640    0.390
       164 -11.2584     45.2294     32.0994   6.0378989083e+01   6.6316647588e+01     0.282397    0.2113795 -38.49 0.0009639029    1.407    0.289
       165  -9.5859    212.9979     31.9835   2.4052049184e+01   2.9016507890e+01     0.147395    0.1169537 -64.49 0.0003462319    1.015    0.015
       166  -9.0085     55.3161     32.7323   5.6169119290e+01   6.4475250324e+01    0.1198943    0.1044055  74.72 0.0002185886    1.552    0.356
       167  -9.7598     89.3393     31.3301   4.3696525417e+01   5.7707619043e+01    0.2247899    0.1499992  38.41 0.0006689857    1.510    0.338
       168 -11.8162     91.0326     26.6007   4.1370259605e+01   5.7927772331e+01    0.2798589    0.2196086 -38.74 0.0002737511    1.402    0.287
       169 -12.3661     11.0947     29.8287   7.8231100798e+01   7.1126382872e+01    0.2762575    0.2210884  23.09  0.001823852    1.335    0.251
       170  -9.6117      1.4671     31.4664   8.5029319046e+01   7.1573342944e+01    0.1186401    0.1003656 -26.58  3.65244e-06    1.049    0.047
       171 -11.0803    135.6946     29.0878   3.2681080461e+01   4.7037947662e+01     0.231236    0.1868783  74.91 0.0002840607    1.117    0.105
       172  -9.4528     39.2028     29.8647   6.2285201304e+01   6.7633011953e+01    0.1792175    0.1342467   5.47 0.0005001539    1.351    0.260
       173  -9.6570    226.8534     27.7879   2.2038369009e+01   2.6740130994e+01    0.1737843    0.1037085 -56.33 0.0007730987    1.344    0.256
       174 -11.1589     67.8994     26.9439   4.8722001497e+01   6.2877715333e+01    0.3159036    0.2798471  41.54  0.001081285    1.065    0.061
       175 -10.4790    101.3508     22.3512   3.7152269900e+01   5.6048663428e+01    0.2782327    0.2363248 -60.85  0.001670005    1.308    0.236
       176  -9.7634     51.1283     24.4704   5.4205510604e+01   6.6438714957e+01    0.3241333    0.1867304 -31.23  0.001684425    1.835    0.455
       177  -9.7492     45.4920     25.8806   5.7400292286e+01   6.7224082292e+01    0.1744754    0.1215105 -31.61 0.0005331733    1.477    0.323
       178  -9.4571    230.1767    247.2138   6.3611134705e+01  -7.0036163774e+00    0.1331907    0.1105588   3.53 0.0004556043    1.281    0.220
       179  -9.0721      7.6931     20.3647   7.6359324187e+01   7.3137192822e+01    0.1251035    0.1001808 -14.82 0.0007113934    1.024    0.023
       180 -10.6584     59.9889     24.1366   5.0412881936e+01   6.4822812801e+01    0.2676601    0.1879687 -22.80 0.0008196431    1.536    0.349
       181 -10.1552     84.2057     22.6607   4.1679147917e+01   5.9934835319e+01    0.2650897    0.1830869 -35.93  0.001455145    1.596    0.373
       182 -10.3151     33.4402     24.3990   6.2685724465e+01   6.9363449121e+01    0.2154743    0.1754819  37.72 5.734891e-05    1.329    0.248
       183 -10.2249     31.4862     21.0179   6.2075947423e+01   7.0166387589e+01    0.1708932     0.137787 -19.74 0.0004793383    1.186    0.156
       184  -9.6946     25.9261     23.3744   6.6342756267e+01   7.0579135312e+01    0.2787888    0.1177168 -35.72  0.001281551    2.425    0.588
       185 -10.0588    188.3238    247.6855   7.1121027328e+01  -2.3655848002e+00    0.1046541    0.0888533  45.29 0.0004202932    1.663    0.399
       186 -10.2660    131.3790    247.0747   8.2486985393e+01   5.0531734288e+00    0.1625506    0.1511833  11.06 0.0006162593    1.129    0.114
       187  -8.9452     21.6994     21.6406   6.7984172358e+01   7.1401885006e+01    0.3165653    0.1786299 -11.78  0.001552391    2.335    0.572
       188 -10.0369    115.9962    246.6850   8.5727129732e+01   7.1811552540e+00    0.1742605    0.1437668  29.04 0.0005487581    1.026    0.026
       189  -9.9495    211.0288     22.0164   2.2029443323e+01   3.0622649951e+01    0.1468811    0.1150593 -64.04 0.0003378994    1.035    0.034
       190  -9.5533    232.8120     20.7863   2.0192915454e+01   2.6410598100e+01    0.1615893   0.09960593 -62.52 0.0002486749    1.294    0.227
       191 -10.5208    124.4839     20.5812   3.1869723956e+01   5.0725322830e+01    0.2375003    0.1874486  82.24 0.0007518476    1.181    0.153
       192  -9.5568    170.2560    246.5927   7.4453156847e+01   3.5586004779e-02    0.1736882   0.09786917  19.06 0.0009443969    1.676    0.403
       193 -10.5181    238.8495     19.6954   1.9588535831e+01   2.5391093643e+01    0.1906985    0.1480385 -66.30 0.0008139304    1.064    0.060
       194  -9.9931    163.4882     19.9481   2.6100005626e+01   4.1440589232e+01    0.1752345      0.12266 -36.89 0.0003633078    1.498    0.332
       195 -10.3745     70.9444     18.8075   4.4079004039e+01   6.3261006896e+01     0.198492    0.1776866   4.69  0.000357494    1.162    0.140
       196 -10.3303    224.2732     17.9911   2.0198471308e+01   2.8397030330e+01    0.1465714   0.08657035 -41.39 0.0005043999    1.497    0.332
       197 -10.7542    204.4231     18.1905   2.1707501397e+01   3.2448273070e+01    0.1769741   0.08783324 -47.66 0.0009486898    1.693    0.409
       198 -10.8654    139.8511     18.0078   2.8608962422e+01   4.7290069591e+01    0.2233419    0.1654292  67.32 0.0002584134    1.215    0.177
       199  -9.9222    134.8875     18.1433   2.9386325810e+01   4.8473542809e+01    0.1936901    0.1561105 -82.26 0.0003147062    1.178    0.151
       200  -9.1499     90.9577     19.0000   3.8372967012e+01   5.8827848192e+01     0.220342   0.06767654  60.07 0.0007005595    2.895    0.655
       201 -10.4652    215.3131     16.0855   2.0423938005e+01   3.0416209250e+01    0.1695585    0.1199785 -56.44 0.0003880769    1.148    0.129
       202 -10.2190    159.8960     15.9879   2.5436081829e+01   4.2715953315e+01    0.1906513    0.1664178 -87.45  0.000447134    1.053    0.051
       203 -10.7734     52.3793    244.6784   9.9429438669e+01   1.5685557571e+01    0.2172075    0.1982234  23.25  0.001214998    1.280    0.219
       204  -9.5881     80.8327     14.8243   3.9342466389e+01   6.1557351286e+01    0.1616317    0.1448207  88.64 0.0002616931    1.263    0.208
       205  -9.6615     59.9780     15.4768   4.6360607142e+01   6.5898794480e+01    0.1725644    0.1117581  76.72 0.0008101962    2.585    0.613
       206  -9.8643    147.4550    243.5094   7.8654191457e+01   3.5059740207e+00    0.1245865    0.1043882  17.21 0.0001623529    1.009    0.009
       207  -9.5637     39.5977    243.2902   1.0209713709e+02   1.7423364007e+01    0.1378168   0.06621633  53.89 0.0006993366    1.801    0.445
       208  -9.1377    194.5095    242.5388   6.9213176084e+01  -2.3651405753e+00    0.1177666   0.09447268   4.12 0.0008091956    1.025    0.025
       209 -11.4576     10.5976    121.2597   9.9302050490e+01   4.9814755960e+01    0.4750682    0.3280859 -30.93 0.0009795246    1.651    0.394
       210 -10.4928    207.9404     12.9499   2.0277062679e+01   3.2288263764e+01    0.1821433    0.1417337 -66.43 0.0004337504    1.029    0.029
       211 -10.2773    153.0782     12.6700   2.5306369001e+01   4.4674538208e+01    0.1791352    0.1422735  83.11 0.0003329777    1.089    0.082
       212 -10.9004     26.4640    237.2324   1.0455751827e+02   2.0077366330e+01     0.164054   0.09812882  77.14 0.0004333337    1.604    0.377
       213  -9.5061     59.0076    236.0027   9.7280228319e+01   1.6648948956e+01    0.1492625    0.1255531  53.46 0.0003274674    1.021    0.020
       214  -9.0704    204.2791    235.6555   6.6379319247e+01  -2.5401373274e+00   0.09694554   0.09531611  50.27  0.000385504    1.632    0.387
       215 -10.0099    174.2371    234.9915   7.1998246699e+01   1.3417128335e+00    0.1473868    0.0987977 -39.61 0.0004274157    1.577    0.366
       216  -8.9885    109.3105     12.6642   3.1898031463e+01   5.5183770933e+01    0.1336198    0.0926383 -69.72 0.0007044161    1.682    0.405
       217 -10.0746     32.4537    233.0921   1.0299675723e+02   2.0306982704e+01     0.183541    0.1385641  45.71 0.0003829779    1.127    0.113
       218 -10.5010     56.6268    229.1015   9.7236890569e+01   1.8379567952e+01    0.3181247    0.2049322 -55.89  0.001763841    1.797    0.444
       219 -10.2204    246.0500    230.4682   5.8481732826e+01  -6.4850339966e+00    0.1977767     0.118938  23.78 0.0004960524    1.641    0.391
       220  -9.8655    210.2876    229.3855   6.4323470971e+01  -2.3483450343e+00    0.1255756    0.0754399 -10.60 0.0007011324    1.749    0.428
       221 -10.1094    140.1853    227.7632   7.8037360976e+01   7.2608096448e+00    0.2162973    0.1523967  47.03  0.001204946    1.523    0.344
       222  -9.2793     86.0271     10.2320   3.6030152211e+01   6.0850010520e+01    0.1608821   0.09424724  59.88 -0.000430966    1.478    0.323
       223 -10.5619      1.3821    227.2577   1.0945744411e+02   2.4596861233e+01    0.1957169    0.1405787 -72.48 0.0004265247    1.500    0.333
       224 -11.6265      3.2897    221.2588   1.0878806612e+02   2.5719448883e+01    0.5755739    0.1907681  74.01  0.002313007    3.337    0.700
       225 -10.7653      7.7611    221.4580   1.0781194514e+02   2.5273698137e+01    0.2529559     0.137469  83.25  0.001400017    1.697    0.411
       226  -9.7070    223.4669    226.4749   6.1558134029e+01  -3.4813173357e+00    0.1164268   0.09044292  -7.53 0.0001042955    1.001    0.001
       227 -10.1583    247.6445    127.3143   4.0053013842e+01   8.6094514053e+00    0.1213887   0.08469671 -62.72  0.000704494    1.740    0.425
       228  -9.8515     85.7536    215.0266   8.8910071681e+01   1.7614844536e+01    0.1726867    0.1642116  70.64            0    1.091    0.083
       229  -9.5949    111.3337    214.6737   8.2749444488e+01   1.4015477658e+01    0.1418402    0.0981022  60.53 0.0003845008    1.715    0.417
       230 -10.5628      3.6684    211.1048   1.0823292404e+02   2.7935542961e+01    0.2224507    0.1385113  47.43  0.001321161    1.359    0.264
       231 -10.3805     39.2946    207.1599   9.9496805233e+01   2.5297209952e+01    0.2009542    0.1725713  32.82 0.0004540586    1.229    0.187
       232  -9.8672    230.3085    209.6461   5.7661312632e+01  -1.8575781458e+00    0.1024323   0.09245177 -55.45 0.0007043135    1.721    0.419
       233  -9.6274     21.7615    180.1247   1.0175068347e+02   3.3660063090e+01     0.270473    0.1157119  40.25  0.001202216    2.092    0.522
       234  -9.0869    229.4863    165.5077   4.9954474640e+01   5.1342942308e+00    0.1263627     0.103316 -24.94 -2.205604e-05    1.025    0.024
       235 -10.4520     15.8257    163.1281   1.0195347183e+02   3.8503175783e+01    0.1808619    0.1464393 -54.89 0.0004462429    1.319    0.242
       236  -9.7938     10.4976    161.4782   1.0334688414e+02   3.9369763211e+01    0.1332546    0.1160894  89.13 -7.303049e-05    1.033    0.032
       237 -10.1432     22.5162    149.5327   9.8616546095e+01   4.1436232342e+01    0.1382503    0.1233672 -88.44 0.0002462594    1.009    0.009
       238  -9.6969      6.6847    148.3251   1.0336863006e+02   4.3045264137e+01    0.1432479   0.08577352  62.63   0.00070432    1.668    0.400
       239 -10.2140     28.9489    139.3630   9.5344096968e+01   4.3505298980e+01    0.2808407    0.1746335 -72.83 0.0005089457    1.476    0.323
       240  -9.1963    235.6908    138.3401   4.3808372399e+01   8.6636529415e+00    0.1241647   0.08917434 -60.88 0.0007044179    1.689    0.408
       241  -9.1130     46.7342    137.3110   8.9182042770e+01   4.2097972043e+01    0.1471665    0.1058193  70.76 0.0001630122    1.540    0.350
       242 -10.1262     96.0409    133.9135   7.2845529682e+01   3.5468973180e+01     0.304279    0.2123572 -55.08  0.000879728    1.416    0.294
