#   1 NUMBER                 Running object number                                     
#   2 MAG_AUTO               Kron-like elliptical aperture magnitude                    [mag]
#   3 X_IMAGE                Object position along x                                    [pixel]
#   4 Y_IMAGE                Object position along y                                    [pixel]
#   5 X_WORLD                Barycenter position along world x axis                     [deg]
#   6 Y_WORLD                Barycenter position along world y axis                     [deg]
#   7 A_WORLD                Profile RMS along major axis (world units)                 [deg]
#   8 B_WORLD                Profile RMS along minor axis (world units)                 [deg]
#   9 THETA_WORLD            Position angle (CCW/world-x)                               [deg]
#  10 FWHM_WORLD             FWHM assuming a gaussian core                              [deg]
#  11 ELONGATION             A_IMAGE/B_IMAGE                                           
#  12 ELLIPTICITY            1 - B_IMAGE/A_IMAGE                                       
         1 -13.6079    227.4330     32.1181   3.4612016441e+01   2.5929689748e+01     1.085521    0.8143278  43.50  0.006701439    1.868    0.465
         2 -10.2276    250.5544      8.4996   2.8212928392e+01   2.4087428846e+01    0.4049429   0.09532894 -33.76  0.001661426    4.077    0.755
         3 -11.4520    201.7549      4.8177   3.0996020610e+01   3.4462506579e+01    0.4168597    0.3977585  43.04  0.002776312    1.404    0.288
         4 -10.5724      2.4291      3.7913   8.4496213863e+01   7.4145356534e+01    0.3050965    0.1094057 -40.02  0.001606662    2.389    0.581
         5 -10.7850      6.5888      3.2550   8.1580203897e+01   7.3853952919e+01    0.3184648    0.1466117  -8.14  0.001542084    2.878    0.653
         6 -11.4868    172.9946      1.7367   3.2960402172e+01   4.1226449784e+01    0.8655538      0.15992  72.57  0.002657557    4.986    0.799
         7  -8.5855     78.8040      4.5711   5.0301494433e+01   6.2433815487e+01     0.158695    0.1093354  63.97 0.0004192377    1.555    0.357
         8 -10.2537    167.4395    224.6793   8.6616778185e+01   3.2568856092e+00    0.2365828    0.1329774 -50.17  0.001135658    2.066    0.516
         9 -13.5555    103.7055    240.4423   1.0280492959e+02   1.0004170129e+01     1.163252    0.6959074  11.65  0.005313437    2.608    0.617
        10 -11.2241     22.2768    243.6385   1.1993718837e+02   1.9590279508e+01     0.294055    0.2105898  56.41  0.001272856    1.129    0.114
        11 -13.6129    113.6342    239.1420   1.0048565656e+02   8.8058524188e+00    0.9141318    0.5571175  42.23  0.004415893    1.434    0.303
        12 -13.1420     34.9120    248.5550   1.1780495701e+02   1.7261793860e+01     2.300777    0.5395663  30.19  0.008444912    4.509    0.778
        13 -12.7770     84.2490    246.3666   1.0761377488e+02   1.1580684743e+01    0.9946969    0.4903066  44.15  0.001271401    1.703    0.413
        14 -12.3678     59.5801    246.6692   1.1275859085e+02   1.4732291517e+01    0.7183451    0.5434659  86.68  0.004706495    1.312    0.238
        15 -12.2309     69.3273    246.7730   1.1076606739e+02   1.3477618749e+01    0.7778818    0.5644608  81.35  0.003117857    1.419    0.295
        16 -11.8535     14.3511    248.0336   1.2166851296e+02   1.9526061308e+01    0.8181274    0.3658676  61.46  0.000586202    1.902    0.474
        17 -15.2479      4.1340    178.3528   1.1955865520e+02   3.5663069999e+01     8.466167    0.9984511 -74.86   0.02326231    6.150    0.837
        18 -11.4704     46.9508    179.2991   1.0898990420e+02   3.1374195931e+01    0.3833365     0.269657 -37.68  0.001262859    1.761    0.432
        19 -11.4839     54.1124    173.1095   1.0633011912e+02   3.2067926721e+01    0.2924401    0.2591012 -36.62 0.0004697664    1.295    0.228
        20  -8.7178    110.5573    167.4855   9.0125852917e+01   2.5085941759e+01      0.15055    0.1452312  76.52 0.0001472886    1.059    0.056
        21 -10.7476     66.3363    163.2634   1.0156037229e+02   3.2990427767e+01    0.2692736    0.2376607 -50.65 0.0003809539    1.154    0.133
        22 -13.0625     51.8994    159.5872   1.0506967605e+02   3.5748472514e+01    0.5488119    0.3249514 -36.46  0.001760055    2.129    0.530
        23 -12.1184     75.0422    156.4729   9.7968315323e+01   3.3504126215e+01    0.6849072    0.5882992  57.27  0.001697087    1.205    0.170
        24 -12.5864     67.9451    144.0043   9.7828312500e+01   3.7683609763e+01    0.8293508    0.5785379  71.67  0.003228571    1.812    0.448
        25 -12.2008     52.9130    117.1600   9.7389818605e+01   4.6432086422e+01     1.278925    0.4147369 -68.70  0.003377303    5.232    0.809
        26 -11.0552     32.8068    157.3701   1.1013377414e+02   3.8369139711e+01     0.333333    0.1692032 -88.92   0.00131224    2.296    0.564
        27 -10.0611     91.1845    143.1770   9.0727201280e+01   3.4377835016e+01    0.3174429    0.2606639 -22.18 0.0007180024    1.386    0.279
        28  -9.3335     94.8136    139.7391   8.8931484961e+01   3.4630911973e+01    0.3127149    0.2002157 -37.33 0.0008059858    1.715    0.417
        29 -11.7768     78.6211    141.3609   9.4102961696e+01   3.6817347319e+01    0.3361309    0.2821621 -46.08 0.0006357422    1.162    0.140
        30 -13.0140      6.5801    227.7471   1.2209310459e+02   2.4373171936e+01     1.537443    0.6254807  73.72  0.007528765    2.449    0.592
        31 -10.3636    105.6665    131.2285   8.3826043956e+01   3.4808323575e+01    0.4014473    0.3415763   4.53  0.001097021    1.326    0.246
        32 -11.8975     57.2549    132.3159   9.8961487157e+01   4.2073394464e+01     1.136488    0.5003101 -80.56  0.003080993    5.326    0.812
        33  -9.9132     91.7186    127.6298   8.7162696324e+01   3.8154191445e+01    0.3217542    0.2531222   0.63 0.0009089426    1.543    0.352
        34 -12.1271      2.6334    244.5602   1.2365055556e+02   2.1329595522e+01     1.196283     0.392294 -81.22  0.005901939    2.807    0.644
        35  -9.3139    103.6398    119.8276   8.1666157898e+01   3.7917288865e+01    0.2360514    0.2076682  16.11 0.0003833579    1.202    0.168
        36  -9.0921    204.5730    110.8518   5.5472320838e+01   1.8559393292e+01    0.3215162    0.1566446  37.51    0.0012371    2.794    0.642
        37 -11.6485      2.0000     83.9814   1.0948241051e+02   5.8689521225e+01     0.540349    0.1600336 -67.96  0.002155928    2.806    0.644
        38 -10.4421     74.4553    220.2251   1.0700412364e+02   1.8302380330e+01    0.5402502    0.1329501  42.14  0.001886955    3.331    0.700
        39  -8.9398     24.9217     82.6951   1.0012498023e+02   5.7535765512e+01     0.173969      0.15404 -28.18  0.000372477    1.091    0.084
        40 -13.6024     12.3913    206.4830   1.1964686613e+02   2.8456752530e+01    0.7768685    0.4898746  17.89  0.002566449    2.093    0.522
        41 -10.5791     13.3641     60.2794   9.9491066974e+01   6.3314970744e+01    0.2193229    0.1907056 -43.15 0.0004341359    1.145    0.127
        42 -11.6220    206.8455     49.8692   4.0752391555e+01   2.8008312697e+01    0.6064728    0.2859232 -52.52  0.002753022    2.116    0.527
        43 -12.5823    212.9091     44.6211   3.8827590650e+01   2.7397754157e+01    0.6084014    0.4503833  76.13  0.003652144    1.312    0.238
        44 -13.0313     87.1747    235.4326   1.0583885832e+02   1.3347135900e+01     1.198795    0.7291227  68.18  0.006089956    1.973    0.493
        45  -8.5074     91.6027     52.5028   6.5139175001e+01   5.3992998056e+01    0.1376746    0.1279542  11.59 8.808316e-05    1.044    0.042
        46 -13.8127     22.4556    199.0958   1.1688472458e+02   2.9201945797e+01     1.037637    0.7506076  75.41  0.002588639    1.211    0.174
        47 -10.7285      2.0817     37.4288   9.8373783718e+01   6.8568894740e+01    0.2491949    0.1848379 -70.23   0.00140405    1.776    0.437
        48  -9.2256    120.9042     28.9352   4.9005146689e+01   5.0791715236e+01    0.2042445    0.1564651 -73.12 0.0006423891    1.664    0.399
        49 -14.3590     30.7000    188.3375   1.1402017056e+02   3.0924646325e+01     4.163233     1.604562  68.13   0.01400722    4.253    0.765
        50 -13.7793    107.0617    229.5585   1.0072883980e+02   1.1670678983e+01      2.15805     0.434495  36.59  0.006762805    3.965    0.748
        51  -8.8843     27.5019    234.5282   1.1835257210e+02   2.0896628955e+01    0.1216231   0.09234874  66.32  0.000130335    1.060    0.057
        52 -11.8190     86.1036    222.5078   1.0460766090e+02   1.6193951214e+01    0.6405815    0.3973289  77.04  0.001663551    2.088    0.521
        53 -10.0512     77.0978    225.7333   1.0701101473e+02   1.6755157984e+01    0.2209993    0.1818296 -71.35 0.0004169211    1.282    0.220
