#   1 NUMBER                 Running object number                                     
#   2 MAG_AUTO               Kron-like elliptical aperture magnitude                    [mag]
#   3 X_IMAGE                Object position along x                                    [pixel]
#   4 Y_IMAGE                Object position along y                                    [pixel]
#   5 X_WORLD                Barycenter position along world x axis                     [deg]
#   6 Y_WORLD                Barycenter position along world y axis                     [deg]
#   7 A_WORLD                Profile RMS along major axis (world units)                 [deg]
#   8 B_WORLD                Profile RMS along minor axis (world units)                 [deg]
#   9 THETA_WORLD            Position angle (CCW/world-x)                               [deg]
#  10 FWHM_WORLD             FWHM assuming a gaussian core                              [deg]
#  11 ELONGATION             A_IMAGE/B_IMAGE                                           
#  12 ELLIPTICITY            1 - B_IMAGE/A_IMAGE                                       
         1 -11.3931    225.3418      2.0824   5.3096549899e+01   2.9866849104e+01    0.3690814    0.1767038  73.19 0.0004944638    1.764    0.433
         2 -11.5250    212.8095      3.8281   5.4471240268e+01   3.2367993734e+01     1.139821    0.4922605  84.63  0.005601145    2.202    0.546
         3 -14.4666    224.6746     44.3104   6.1611649993e+01   2.4854277230e+01     9.344706    0.5393733 -45.67   0.02296188    7.748    0.871
         4 -13.7933    163.8338     53.1192   7.2398224770e+01   3.7663702593e+01     4.727283     2.365032  87.73   0.01412246    4.986    0.799
         5 -11.8144    233.7159     34.6558   5.8700016010e+01   2.4223890726e+01    0.4453035    0.3775598  48.60  0.001673108    1.656    0.396
         6 -12.2798    211.7673     68.7164   6.8554824126e+01   2.4060823418e+01     2.346142     1.076048 -69.37  0.007416891    4.443    0.775
         7 -12.5247    120.1910     35.1782   7.6071204655e+01   5.0110047357e+01    0.7713612    0.5865224  51.39  0.003154493    1.159    0.137
         8 -12.4346    134.4574     23.9804   6.9675994808e+01   4.8176202259e+01    0.8343217    0.3338895  56.52  0.003714402    2.047    0.511
         9 -10.1837    249.9078     18.3192   5.4196002909e+01   2.2965645153e+01    0.4243753    0.1837937 -48.70   0.00231933    1.932    0.483
        10 -11.2877    246.4639     22.0524   5.5149438893e+01   2.3199053667e+01    0.5925722    0.2281314 -59.55  0.001590056    2.490    0.598
        11 -10.6270    241.3030     20.5219   5.5289541934e+01   2.4439210974e+01    0.3502379    0.1824902 -57.16  0.001690529    1.643    0.391
        12 -10.0488    224.0424     16.1655   5.5941344233e+01   2.8585932206e+01    0.4518989    0.2733481 -78.86  0.002395826    1.476    0.323
        13 -11.1941    154.2621     14.7353   6.3731336900e+01   4.4563058068e+01    0.5205368    0.1981439  61.83  0.002336365    2.104    0.525
        14  -9.1414    115.9827     12.5382   6.9813755697e+01   5.3396649358e+01    0.2674796    0.1732704  54.60 0.0008888904    1.272    0.214
        15 -10.7012    120.3786      8.9614   6.7817929799e+01   5.2750915426e+01    0.4213701    0.2887532  55.30   0.00157077    1.194    0.162
        16  -9.6155    140.1924      6.7318   6.3708331865e+01   4.8519776427e+01    0.2559819    0.1675266 -37.77 0.0009283975    1.773    0.436
        17  -9.0006    237.3394      2.6722   5.2302025137e+01   2.7310742572e+01    0.1730023    0.0915176 -84.11 0.0008186965    1.645    0.392
        18 -12.5231    186.3657      7.3836   5.7805681446e+01   3.7895767262e+01     2.039726    0.8092527  77.11    0.0091994    2.359    0.576
        19  -9.9041    134.4097      8.3943   6.5125327172e+01   4.9682269775e+01    0.2375295    0.2044088  84.94  0.001594846    1.180    0.153
        20  -7.6822    244.3415      1.3115   5.1564405041e+01   2.6040663559e+01    0.1011323   0.07939539  59.80 0.0007045885    1.698    0.411
        21  -8.9978    249.4832      2.4338   5.1412981160e+01   2.4894582103e+01    0.2476157    0.1462683 -69.56  0.001617547    1.336    0.252
        22 -11.1769    235.3751    145.3561   8.1656518574e+01   5.2442758568e+00    0.5531154    0.2465967  43.71  0.002301669    2.586    0.613
        23 -11.3660    241.6015    141.7902   7.9889130442e+01   4.7721182244e+00    0.4805471    0.2111685 -45.79  0.001765131    2.010    0.503
        24 -10.2903    237.3491    137.7448   7.9734204743e+01   6.3144794396e+00    0.5402909    0.1973103  46.99  0.002059076    3.116    0.679
        25  -9.9385     69.4945    145.4980   1.2080467713e+02   3.7647115742e+01    0.3669143    0.3210173  84.21  0.001416651    1.180    0.153
        26  -9.7852     66.5054    144.4774   1.2146002041e+02   3.8322409184e+01    0.4643668    0.3036125 -73.04  0.001613652    1.582    0.368
        27  -7.6738    222.6739    145.3065   8.3844055468e+01   7.6612222295e+00    0.1438209    0.1104299 -75.87 0.0004689792    1.650    0.394
        28  -8.5351    192.2490    144.2462   8.9436624456e+01   1.4061576399e+01    0.2026733    0.1729296 -76.15 0.0003850679    1.307    0.235
        29  -9.4004    230.0251    140.4865   8.1532562949e+01   7.1791910492e+00    0.2602136    0.1919412 -42.01 0.0003629131    1.214    0.176
        30  -9.2015    158.0217    139.9311   9.5979293838e+01   2.2385300784e+01    0.2426135    0.2352451 -49.87  0.001269121    1.033    0.032
        31  -8.4843    215.9599    139.4405   8.3780840455e+01   1.0145166602e+01    0.1954876    0.1284252  78.77 0.0008061774    2.446    0.591
        32 -10.1169    188.8206    138.5742   8.8850973850e+01   1.5989774635e+01    0.3102323    0.2579029 -41.82 0.0008634734    1.166    0.143
        33  -8.7714    168.2321    138.8198   9.3360490464e+01   2.0409231500e+01    0.2634176     0.172316 -89.71 0.0009212188    2.756    0.637
        34 -11.9722    236.2762    247.0905   1.0102972466e+02  -1.2452280367e+01    0.2736846    0.2108015 -26.42 0.0001687243    1.274    0.215
        35  -9.1673    136.6188    242.4050   1.2028182926e+02   3.9809625388e+00    0.2832034   0.09215172  48.83 0.0009602034    3.361    0.702
        36  -9.9227    148.3102    224.0570   1.1497023612e+02   5.5916666092e+00    0.2377186    0.2220827  53.09 0.0002448522    1.056    0.053
        37 -12.0438    179.7325     75.9692   7.5439496517e+01   3.0282912872e+01    0.9849898    0.7287396 -70.21  0.002479649    1.465    0.317
        38 -10.7883    185.7735     68.4233   7.2500052140e+01   3.0110087965e+01    0.6862648    0.3946331 -79.12  0.001901898    2.694    0.629
        39 -12.0139      3.0985    210.5620   1.4471362763e+02   2.9433139728e+01    0.7838367    0.3882371 -70.00  0.003599684    1.710    0.415
        40 -10.4847    200.1964    116.0341   8.1392696328e+01   1.8130532348e+01    0.4397274    0.2767316  68.83  0.001876878    1.965    0.491
        41 -13.7730     29.8031    187.5608   1.3710123429e+02   3.2103542978e+01     1.347276     1.118799 -25.26  0.008323639    1.726    0.421
        42 -10.3463    167.9582    113.6193   8.7319155313e+01   2.5891250759e+01     0.423768    0.3330309 -74.12  0.000944616    1.454    0.312
        43 -13.1879     44.0270    176.6770   1.3246384512e+02   3.3154702442e+01     1.077657     1.005373 -57.64  0.003675704    1.236    0.191
        44  -9.0966    134.1398    111.5693   9.4843317047e+01   3.3917946980e+01    0.5247428    0.2819948 -43.27  0.002088428    1.865    0.464
        45 -10.7505    204.8366    110.5967   7.9288282901e+01   1.8171806750e+01    0.4692731    0.3137223  35.45  0.002132024    1.959    0.490
        46  -8.2456    143.6849    101.6817   8.9844406534e+01   3.3884902605e+01    0.1544272    0.1239298   5.90   0.00046289    1.652    0.395
        47 -12.1072    179.5244     58.1864   7.0991758477e+01   3.3188493568e+01    0.4910343    0.3811747   9.04  0.001707236    1.995    0.499
        48 -12.2176    186.3677     92.0849   7.8234182919e+01   2.5864507844e+01      1.54191    0.4170741 -44.08    0.0047126    3.530    0.717
        49  -9.3926    150.3311     96.5778   8.6904531005e+01   3.3396559943e+01    0.3229398    0.2621458  28.72 0.0007857138    1.424    0.298
        50  -8.9641    135.9360     94.1293   8.9714940583e+01   3.7141762759e+01    0.3174544    0.2288429  83.66 0.0009179162    1.964    0.491
        51  -9.0617    171.8936     93.0423   8.1287074935e+01   2.9064061003e+01    0.2172624    0.2074719 -81.95 0.0002660512    1.021    0.020
        52  -9.1321    159.7488     89.2523   8.2847315429e+01   3.2620833885e+01    0.3832791    0.2368866  39.68   0.00122954    1.833    0.455
        53  -9.8285    163.4884     87.0254   8.1464723251e+01   3.2157989306e+01    0.3188874    0.3114338  46.10  0.000877306    1.106    0.095
        54  -9.8292    202.9701    126.6559   8.3323363383e+01   1.5407641972e+01    0.4445641    0.2824002 -77.35  0.001385934    2.541    0.606
        55  -9.9625    144.6369     85.5872   8.5256316326e+01   3.6811933382e+01    0.3105086    0.2862602 -60.24 0.0008380223    1.109    0.098
        56 -11.3586    160.4801     77.0098   7.9436494338e+01   3.4658024332e+01    0.4185047     0.331182 -40.95  0.002166858    1.314    0.239
        57  -8.8381    205.6600    122.3424   8.1838256586e+01   1.5692182438e+01     0.223803    0.1651723 -75.66 0.0004747567    1.633    0.388
        58  -8.1453    114.7580     75.1703   8.9820458675e+01   4.5310588585e+01     0.184942     0.157626  15.76 0.0003163719    1.255    0.204
        59 -11.2037    195.8668    119.2523   8.2960301441e+01   1.8443674709e+01    0.6206937    0.4260349 -82.65  0.002668379    2.054    0.513
        60 -10.0165    249.0300     67.0326   6.3521745381e+01   1.6381778218e+01    0.4355486    0.2332552 -79.91  0.002009663    2.443    0.591
        61  -8.5205     36.6660     62.9278   1.1203234049e+02   6.0106844280e+01    0.1690195     0.135493 -35.47 0.0003763015    1.119    0.106
        62 -10.1447    144.5486     59.1967   7.7868815233e+01   4.1306069740e+01    0.3451631    0.2479336 -43.82 0.0009555892    1.479    0.324
        63  -9.6327    243.8112     59.9764   6.2694633045e+01   1.8520586283e+01    0.2671573    0.1876362 -78.65  0.001574944    1.317    0.241
        64  -8.3880    116.2950     59.8810   8.4756909021e+01   4.7544433211e+01    0.2286674      0.15321 -77.90 0.0009491255    2.795    0.642
        65  -8.7529     34.9324     58.6203   1.1139547903e+02   6.1074049717e+01    0.2874219    0.1683414 -63.80   0.00140072    2.701    0.630
        66  -7.6454     72.7155     58.3224   9.7326199518e+01   5.6081569109e+01    0.1181788    0.1071786 -82.90 0.0004887133    1.596    0.373
        67  -9.1834    248.0874     54.2326   6.1108285527e+01   1.8507089551e+01    0.2823914    0.1669095 -24.40  0.001325097    2.927    0.658
        68 -12.3435    187.0759    113.5448   8.3318671765e+01   2.1555090793e+01      2.63307    0.7425969 -35.58  0.006290278    5.727    0.825
        69 -10.5586    197.4790     61.1753   6.8892395484e+01   2.8516264894e+01     0.429122    0.3464391 -63.68  0.001121552    1.165    0.141
        70 -10.3468    127.5466     52.9207   7.9837252304e+01   4.6125886533e+01    0.2526636    0.2258738  46.65 0.0001148058    1.032    0.031
        71  -9.1282    160.4899    128.5106   9.2673383346e+01   2.4389630420e+01    0.3298599    0.1530203 -45.07  0.001196968    2.117    0.528
        72 -11.5669    247.2142     44.1594   5.9245713607e+01   2.0129212726e+01    0.4748307    0.2736033 -79.30  0.001663548    1.742    0.426
        73  -9.7094    186.5106     40.9237   6.5657452546e+01   3.3987249038e+01    0.5946897     0.280284 -64.64  0.002309913    3.094    0.677
        74  -9.5001    206.4615     41.2534   6.3089938513e+01   2.9331920354e+01    0.3442524      0.16094 -58.98 0.0009390545    2.368    0.578
        75  -8.5615    211.6669    193.8371   9.5990538859e+01   2.3580761856e-01    0.2908613    0.1609347  60.28  0.001083751    3.389    0.705
        76  -9.5718    243.1104     31.6082   5.7226505378e+01   2.2666097341e+01    0.4599677    0.1855127 -53.19  0.002243428    2.167    0.538
        77 -11.3978    203.3835     57.0086   6.7067113267e+01   2.7787163313e+01    0.6015155    0.4429946  73.05  0.001077473    1.272    0.214
        78 -10.9495    143.4598     26.8653   6.8850083095e+01   4.5801239695e+01    0.4735118    0.1876392  61.75  0.002026649    2.180    0.541
        79 -10.7297    144.9951     22.6998   6.7402530674e+01   4.5896075164e+01    0.2715369    0.2266881 -77.95  0.001288915    1.288    0.224
        80  -8.7819    236.6406    174.8348   8.7498490108e+01  -5.0881798035e-01    0.2797323    0.1663049  66.69  0.001094218    3.562    0.719
        81 -10.3682    131.2868     20.0234   6.9103259943e+01   4.9301353240e+01    0.2897934    0.2192243  53.73  0.001763399    1.133    0.117
        82  -9.1579    228.0324    175.5164   8.9189255625e+01   8.4247859062e-01    0.1993574    0.1380701  43.61  0.001026901    1.594    0.373
        83  -9.0898     25.4984    175.4843   1.3680286866e+02   3.5454753338e+01    0.1305652    0.1067652 -81.49 -4.719045e-05    1.027    0.026
        84  -9.3289    242.4474    169.8922   8.5492465953e+01  -5.7888788313e-01    0.2878411    0.1924617  34.68 0.0005147832    1.702    0.413
        85 -10.0900    179.9368     24.1592   6.2510750543e+01   3.7592010931e+01    0.5076033    0.3211421  75.99  0.002524155    1.398    0.285
        86  -8.1845    169.0052     20.4459   6.3078064641e+01   4.0551017468e+01    0.1942575    0.1084821  67.67 0.0003866146    1.525    0.344
        87  -9.0760    195.5004    198.7139   1.0022400297e+02   2.1676408929e+00    0.2772684    0.2022566  84.82  0.001226893    2.474    0.596
        88  -9.4318    242.8022    165.0026   8.4446546130e+01   2.5631063495e-01    0.2068552    0.1941999   5.46 0.0003694489    1.153    0.133
        89  -9.5549    173.5190     15.8641   6.1333994652e+01   3.9986190950e+01    0.2639714    0.1463169  87.62  0.001313248    1.913    0.477
        90  -8.7705     97.9357    164.9060   1.1670984859e+02   2.8288466202e+01    0.2145559    0.2001949 -71.48 0.0003118481    1.032    0.031
        91  -8.3584    207.0356    164.0561   9.0803683553e+01   6.9560633066e+00    0.2246851    0.1796727 -88.45 0.0005463812    1.707    0.414
        92  -8.4698    164.2155    161.9995   9.9526875755e+01   1.6070260216e+01    0.2066427    0.1968623 -50.98            0    1.035    0.034
        93  -9.3511    243.1245    160.1425   8.3407250791e+01   1.0952633640e+00    0.2005294    0.1690947 -20.23 0.0003262107    1.190    0.160
        94  -9.9569    210.8772    158.0225   8.8766089323e+01   7.4292292260e+00    0.2496553    0.2114482  47.17 0.0003377824    1.275    0.216
        95 -10.6440    234.9942    151.7656   8.3059636116e+01   4.0995666366e+00    0.3623521     0.263368  74.30  0.001813008    1.981    0.495
        96  -8.3044     96.9529    149.5077   1.1393103962e+02   3.2293978105e+01    0.2036066    0.1516967  38.59 0.0009687465    1.406    0.289
