#   1 NUMBER                 Running object number                                     
#   2 MAG_AUTO               Kron-like elliptical aperture magnitude                    [mag]
#   3 X_IMAGE                Object position along x                                    [pixel]
#   4 Y_IMAGE                Object position along y                                    [pixel]
#   5 X_WORLD                Barycenter position along world x axis                     [deg]
#   6 Y_WORLD                Barycenter position along world y axis                     [deg]
#   7 A_WORLD                Profile RMS along major axis (world units)                 [deg]
#   8 B_WORLD                Profile RMS along minor axis (world units)                 [deg]
#   9 THETA_WORLD            Position angle (CCW/world-x)                               [deg]
#  10 FWHM_WORLD             FWHM assuming a gaussian core                              [deg]
#  11 ELONGATION             A_IMAGE/B_IMAGE                                           
#  12 ELLIPTICITY            1 - B_IMAGE/A_IMAGE                                       
         1 -13.0896    218.6755    161.7478   9.1413646075e+01   8.7861895779e+00     5.763677     1.761255 -24.55    0.0171786    6.161    0.838
         2 -15.7392    244.4889     36.3290   5.7087793212e+01   1.9253685864e+01     10.71758     3.936449 -26.41   0.04114951    2.419    0.587
         3 -14.7626    244.2407    137.1853   8.2180179737e+01   6.9481625179e+00     7.491388     2.674922 -15.68   0.02169803    5.789    0.827
         4 -11.3201    161.5184     10.0141   5.9859653076e+01   4.3661169116e+01    0.2918862    0.2116212 -88.35  0.001383082    1.647    0.393
         5 -11.0747    148.4778      9.1233   6.1746203731e+01   4.7179357498e+01    0.3018886     0.200682 -88.21  0.001337201    1.991    0.498
         6 -10.9913    138.8482      8.3074   6.3220844716e+01   4.9736901896e+01    0.2298463    0.1906832 -89.12  0.001201207    1.434    0.303
         7  -9.6779    103.6577      8.3136   7.1260588665e+01   5.8107019303e+01    0.1365726    0.1071035 -59.15 0.0007047126    1.705    0.413
         8 -11.1730    153.0724      3.7125   5.8878653137e+01   4.6508458617e+01     0.482768    0.2028677 -45.60  0.001719811    2.941    0.660
         9 -10.9765    144.0994      4.8832   6.0873802431e+01   4.8736792927e+01    0.2262148    0.2012178 -58.06  0.000995941    1.275    0.216
        10 -11.2091    118.0397      3.0657   6.5355742121e+01   5.5396962083e+01    0.3870138    0.2168733  82.30  0.001526786    2.912    0.657
        11 -11.1940    129.5707      2.3801   6.2607509386e+01   5.2661676338e+01    0.3980243    0.2315672  86.70  0.001620114    2.594    0.614
        12 -10.2404    138.0105      2.0234   6.0834054086e+01   5.0571660369e+01      0.23166    0.1694088 -58.25  0.001083599    1.687    0.407
        13 -10.3228    139.4769    235.1674   1.1561773595e+02   1.2732945026e+01    0.2655393    0.2101165  17.28  0.001391527    1.751    0.429
        14  -8.8533    248.8122    250.6557   1.0081156018e+02  -4.7504047841e+00    0.1313424    0.0694323  42.23 0.0005624543    1.529    0.346
        15 -10.6088    224.4875    249.4729   1.0416873725e+02  -1.2596037678e+00    0.1956886    0.1747146  20.41  0.001106233    1.398    0.285
        16 -11.0224    225.1652    242.2009   1.0314426342e+02  -7.4895788947e-01    0.3308441    0.2173834 -22.29  0.002516774    1.911    0.477
        17 -11.4499    210.0094    248.5194   1.0618950829e+02   9.0416073205e-01    0.3596975    0.2645761  30.65   0.00213069    1.092    0.085
        18  -9.0373    209.4690    242.4642   1.0552811531e+02   1.5283961269e+00     0.126811   0.09069198   2.11  0.000600652    1.657    0.397
        19 -11.5847    191.8001    246.5625   1.0869484330e+02   3.7471203896e+00    0.3968225    0.2949398  21.81  0.002015241    1.357    0.263
        20 -11.2603    176.7428    245.2551   1.1084499156e+02   6.0966468037e+00    0.4952583    0.2916524  25.94  0.002659838    1.908    0.476
        21 -10.9649    183.5807    238.3447   1.0899931653e+02   5.7993748181e+00    0.3549085     0.256259  -3.03  0.001849863    1.956    0.489
        22 -10.1873    167.9687    250.3569   1.1273194700e+02   6.8449987421e+00    0.4769076    0.1191616  39.99  0.002131971    3.255    0.693
        23 -10.1202    163.4598    245.9510   1.1296252130e+02   7.9714235117e+00    0.2375996    0.2092752 -50.97  0.001375219    1.599    0.374
        24 -10.7108    156.6148    247.3385   1.1415782816e+02   8.8127496747e+00    0.3083659    0.2289352  -4.81  0.002252345    2.282    0.562
        25 -11.6340    141.4446    247.5184   1.1650683564e+02   1.0963156458e+01    0.5474464    0.3285758  27.61   0.00360857    2.152    0.535
        26 -10.2482    148.5331    239.0096   1.1457040396e+02   1.0944144522e+01    0.2983928    0.2127375  28.11  0.001384791    1.575    0.365
        27 -11.0427    124.8237    248.3227   1.1912721283e+02   1.3184603307e+01    0.2970624    0.2033213  40.19  0.001694063    1.315    0.240
        28 -10.0252     87.9525    249.9901   1.2482651141e+02   1.7800176243e+01    0.2262882    0.1129401  39.34  0.001554277    1.831    0.454
        29  -9.8312     73.5154    250.4948   1.2699322298e+02   1.9483606260e+01    0.1939567   0.06857705  42.83  0.001197853    2.121    0.528
        30 -10.4440     62.4557    249.1220   1.2853227148e+02   2.0950689470e+01    0.2740769     0.164772  37.22  0.002115974    1.839    0.456
        31  -9.8710     48.6153    250.2585   1.3058634644e+02   2.2330335094e+01    0.2303225    0.1054307  36.79   0.00156662    2.335    0.572
        32  -9.9596     32.9120    247.8814   1.3270778614e+02   2.4295437763e+01    0.1975561    0.1103379  36.78  0.001541597    2.019    0.505
        33 -11.3464    113.9741    244.8643   1.2050155895e+02   1.5089616480e+01    0.2905339    0.2102155  31.30  0.001799779    1.688    0.408
        34 -10.7436    118.5935    239.4953   1.1932922261e+02   1.5146241222e+01    0.2418767    0.1956166  23.95  0.001589261    1.714    0.416
        35 -10.6193    169.5703    241.1757   1.1150375976e+02   7.5927632718e+00    0.3517266    0.2492924  15.40  0.002505381    1.857    0.462
        36 -10.7477     94.6757    244.8689   1.2345762018e+02   1.7624307653e+01    0.3202952     0.183126  32.79  0.002152209    2.177    0.541
        37 -10.5898     81.9175    244.4489   1.2536301840e+02   1.9278961187e+01    0.3189155     0.150344  34.25  0.001932042    2.611    0.617
        38  -9.8348     42.0214    244.9756   1.3128521981e+02   2.3758679080e+01    0.2050061    0.1143618  32.54    0.0014704    2.427    0.588
        39 -11.1202    105.0460    241.8936   1.2164014727e+02   1.6666077403e+01    0.3139483    0.2346573  28.22  0.002432093    1.827    0.453
        40 -10.6111    201.6791    241.4932   1.0658953548e+02   2.7734939501e+00    0.2621152    0.2033547   8.43  0.001228257    1.445    0.308
        41 -11.3059    204.9574    234.2492   1.0517835346e+02   2.9792616744e+00    0.3573788    0.3240339   8.44  0.002590867    1.338    0.252
        42 -11.1267    126.0378    240.5683   1.1825735230e+02   1.3975454568e+01    0.3082232    0.2074399  32.65  0.001827408    1.643    0.391
        43  -9.7628    129.6833    235.5236   1.1721381785e+02   1.4099769282e+01    0.1914996    0.1518975  13.60  0.001022722    1.937    0.484
        44 -10.3094     53.3118    241.4603   1.2946402168e+02   2.3031936990e+01    0.2611353     0.125919  45.71  0.001923383    1.577    0.366
        45 -10.2845     69.7142    240.2799   1.2694152986e+02   2.1320739068e+01    0.2254624    0.1499136  35.34  0.001743212    1.812    0.448
        46  -9.6824     25.3011    240.5369   1.3349471551e+02   2.6081430890e+01    0.1544035    0.1180736 -50.60  0.001325081    2.530    0.605
        47 -10.5575    193.5791    217.4268   1.0475370359e+02   6.5063139169e+00    0.3515522    0.2485006 -11.71  0.001997286    1.864    0.463
        48 -11.4218    191.0043    233.3912   1.0724111768e+02   5.1905429323e+00    0.4014268    0.3313572 -10.54  0.002397741    1.528    0.346
        49  -9.8822    190.6067    225.0945   1.0625257823e+02   6.1340456582e+00    0.2523789    0.1739567 -17.46  0.001400688    1.975    0.494
        50  -9.0773     62.4860    239.4698   1.2798436735e+02   2.2276887359e+01   0.09561265   0.06742097  60.43 6.376827e-05    1.052    0.049
        51 -10.7967    177.0812    234.1593   1.0952577124e+02   7.2319691062e+00    0.3647653    0.2489176 -13.72  0.002325806    2.293    0.564
        52  -9.7734    112.2391    237.8959   1.2018994995e+02   1.6225336961e+01    0.1754385    0.1177125  27.99 0.0009584455    2.029    0.507
        53 -10.0181     91.4348    236.3772   1.2333291059e+02   1.9184123912e+01    0.2702059    0.1608909  32.48  0.001820284    2.106    0.525
        54 -10.2242     78.7885    236.3915   1.2530105210e+02   2.0770792799e+01    0.1680658    0.1384343  34.39  0.001418427    1.660    0.398
        55  -9.2889     42.0201    236.8025   1.3090084388e+02   2.4915936703e+01    0.1231112    0.1047556  25.20   0.00108355    2.027    0.507
        56 -10.0303    170.8390    233.6847   1.1045926800e+02   8.2333949626e+00    0.2339047    0.1784388  15.17  0.001191382    1.603    0.376
        57  -9.4917    153.1293    233.3889   1.1325068086e+02   1.0936837822e+01    0.1919734    0.1423349  27.81  0.001072533    1.478    0.323
        58  -9.8223    108.4210    233.4417   1.2041569896e+02   1.7339919763e+01    0.1945982    0.1453755  25.32  0.001052664    1.908    0.476
        59 -10.2785    145.6393    231.4080   1.1424276478e+02   1.2294723892e+01    0.2625289    0.1779758  34.11  0.001386269    1.437    0.304
        60 -10.3813    123.8623    231.0466   1.1772220255e+02   1.5511557057e+01    0.3009102    0.1963845  24.14  0.001921764    2.312    0.568
        61 -10.1747    133.9073    230.7501   1.1607004778e+02   1.4103951938e+01    0.2085792    0.1705025  10.78  0.001202266    1.828    0.453
        62  -9.8998    100.3080    231.2621   1.2152878251e+02   1.8731562895e+01    0.1892252    0.1586774  25.74  0.001522126    1.713    0.416
        63  -9.5825     85.2300    231.8345   1.2397127652e+02   2.0610625748e+01    0.1700802    0.1233003  26.20  0.001237048    2.099    0.524
        64 -10.2345    163.4375    226.0010   1.1075399784e+02   1.0261291004e+01    0.2873316    0.1945107  11.54  0.001633292    2.327    0.570
        65  -9.8583     56.0044    231.0112   1.2848106708e+02   2.4230317455e+01    0.1836216    0.1301104  22.54  0.001321456    2.568    0.611
        66  -9.4554     35.9889    231.0111   1.3152382399e+02   2.6389839063e+01    0.1442852     0.105103 -31.90 0.0009503057    4.061    0.754
        67  -9.7231    174.2802    228.0178   1.0923935782e+02   8.3498983828e+00     0.223327     0.161363  22.20  0.001215566    1.524    0.344
        68  -9.1695    169.4624    228.4947   1.1007228056e+02   9.0380685976e+00    0.1482427    0.1027665 -23.06 0.0007336161    2.155    0.536
        69  -9.6899    152.7312    228.1183   1.1273818310e+02   1.1639256602e+01    0.2371801    0.1587531  24.05  0.001480688    1.876    0.467
        70  -9.3594    155.6350    223.8457   1.1177963407e+02   1.1727136262e+01    0.1501253    0.1293967  14.62  0.001016298    1.440    0.306
        71  -8.8222    130.3136    229.3102   1.1650905539e+02   1.4813694244e+01   0.09753066    0.0746337  26.56 0.0003678014    1.630    0.387
        72 -10.3413    114.2759    228.3421   1.1902318395e+02   1.7228132683e+01    0.2005582    0.1570884  27.47  0.001469447    1.675    0.403
        73 -10.5375    198.9807    225.8525   1.0501897768e+02   4.7448904896e+00    0.2734598    0.2087146   8.56  0.001277972    1.464    0.317
        74 -10.6725    202.7172    216.7108   1.0317745226e+02   5.1217554655e+00    0.4584053     0.268986 -19.02  0.002787242    2.363    0.577
        75  -9.6814    184.0453    226.9540   1.0754031888e+02   6.9544931265e+00     0.334086    0.1585121  34.67  0.001909499    1.864    0.464
        76  -9.5442    138.8136    227.6445   1.1495496754e+02   1.3784688769e+01     0.167959    0.1382651   2.72  0.001016667    1.859    0.462
        77  -9.1325    107.3216    228.3130   1.2014925972e+02   1.8194119769e+01   0.09229772   0.07581881  27.23 0.0003567919    1.654    0.396
        78  -9.1831     92.9895    228.1757   1.2245327625e+02   2.0132928040e+01    0.1497817    0.1084125  27.55  0.001074665    1.969    0.492
        79 -10.1831    206.0566    224.4467   1.0371293066e+02   3.7861310061e+00    0.2693942    0.1919027 -10.09  0.001428435    1.738    0.425
        80  -9.3899    143.8728    226.6257   1.1401978462e+02   1.3161763141e+01    0.1568257    0.1413347  30.02  0.000864912    1.322    0.243
        81  -9.7619    120.8476    224.8918   1.1762364095e+02   1.6771896396e+01    0.1570068     0.125819  40.02 0.0009437348    1.296    0.228
        82  -9.1771    170.5502    224.1995   1.0937961723e+02   9.3731694745e+00    0.1269556    0.1026453  -9.29 0.0009361111    1.673    0.402
        83 -10.0998    135.7182    223.1854   1.1499459276e+02   1.4829746805e+01    0.1663045    0.1484664  -6.22  0.001259221    1.632    0.387
        84  -9.7845    129.7116    223.9054   1.1606325099e+02   1.5620998986e+01    0.2439698    0.1298107  34.19  0.001442724    2.007    0.502
        85  -8.8011    104.3243    224.3186   1.2028706587e+02   1.9166671711e+01   0.09254358   0.07756161  25.44 0.0005204235    1.673    0.402
        86  -9.8192    180.6023    221.8090   1.0744356275e+02   8.0744882608e+00    0.2230793    0.1613913 -22.46  0.001530376    1.871    0.466
        87 -10.2167    148.5194    221.3558   1.1267020478e+02   1.3135878553e+01    0.2680702    0.2095296  -4.83  0.001808777    2.024    0.506
        88  -9.9067    185.9300    220.3528   1.0638824066e+02   7.3973504980e+00    0.2290151    0.1576258 -25.91  0.001293691    1.929    0.481
        89  -9.6362    174.7739    221.6036   1.0836851447e+02   9.0175676143e+00    0.2011259    0.1475372  20.95  0.001022127    1.516    0.340
        90  -9.1926     45.3234    229.3415   1.3002757048e+02   2.5654025004e+01   0.07556791   0.07334379 -88.54 0.0007050805    1.727    0.421
        91  -9.7824    158.1853    230.1650   1.1208360728e+02   1.0563670765e+01    0.2025658    0.1582874   1.12  0.001075726    1.885    0.469
        92  -9.4420    140.7240    220.6638   1.1389011918e+02   1.4413820928e+01     0.162975     0.138346 -27.85  0.001244484    1.697    0.411
        93 -10.5264     55.9931    216.3967   1.2759430033e+02   2.6440526074e+01    0.1909255    0.1170116 -83.47 0.0007112584    1.598    0.374
        94  -9.6284    159.1089    218.1659   1.1053253459e+02   1.1902719220e+01    0.2185575    0.1571167  13.15  0.001419891    1.982    0.495
        95  -9.5325    128.9832    219.0226   1.1567806006e+02   1.6395536883e+01    0.1580748    0.1231687  23.28   0.00081604    1.686    0.407
        96  -9.5805    179.5053    216.1272   1.0688537972e+02   8.9129903742e+00    0.2107175    0.1448011  25.74 0.0009230975    1.486    0.327
        97 -10.0990    170.8839    215.3698   1.0821828064e+02   1.0386257895e+01    0.2637694    0.1645669 -30.55  0.001658996    2.260    0.557
        98  -9.2741    120.2998    217.3388   1.1696556229e+02   1.7907031582e+01   0.09704092   0.08071304  20.54 0.0004585848    1.664    0.399
        99  -9.2846    165.2846    215.1384   1.0912507495e+02   1.1309062722e+01    0.1620657    0.1390338 -29.55  0.001053378    1.521    0.342
       100  -9.2228    185.6376    214.4988   1.0565515264e+02   8.1173615182e+00    0.1682391    0.1332861 -11.28 0.0008286183    1.588    0.370
       101  -9.3844    186.6591    209.9066   1.0485398132e+02   8.4917474455e+00    0.2202267    0.1512729  17.00 0.0008511752    1.705    0.413
       102 -10.3289    143.8892    214.4464   1.1265317143e+02   1.4764159738e+01    0.2880569    0.1555249  26.66  0.001460411    2.840    0.648
       103  -9.2948    101.4321    214.9785   1.1992703112e+02   2.0926809477e+01    0.1298292   0.09926285 -75.34            0    1.487    0.327
       104  -9.6300    154.4909    212.9363   1.1067183521e+02   1.3307138419e+01    0.2048784     0.156287 -17.97  0.001317864    1.974    0.493
       105 -10.0230    132.2617    213.8504   1.1456529321e+02   1.6625874814e+01    0.2005441    0.1309356  26.37   0.00123118    2.023    0.506
       106  -8.5936    189.3661    213.2832   1.0487423405e+02   7.6550603227e+00    0.1175666   0.07282897  25.32 0.0004357398    1.690    0.408
       107  -9.3622    200.2062    210.2039   1.0265875527e+02   6.2403108069e+00    0.1772235    0.1386103   0.01  0.000940226    1.458    0.314
       108  -9.8862    176.8944    209.7550   1.0646867325e+02   1.0107596513e+01    0.2308186    0.1715752 -31.98  0.001596221    1.724    0.420
       109  -9.8674    161.3131    209.3465   1.0905789992e+02   1.2690159471e+01    0.2436381    0.1894463 -10.13  0.001584903    1.852    0.460
       110  -9.9338    193.0238    209.1372   1.0368818598e+02   7.5382096689e+00    0.2242412    0.1703968 -21.67  0.001231654    1.626    0.385
       111  -8.9296    140.3306    210.3108   1.1277815751e+02   1.5885034381e+01    0.1070201   0.08084936  22.92 0.0005308836    1.670    0.401
       112 -10.2219    206.1675    205.7991   1.0103414852e+02   5.7526529525e+00     0.431086    0.1964094 -33.13  0.002333442    2.713    0.631
       113  -9.1838    183.1036    206.3130   1.0494567965e+02   9.5105170573e+00    0.1810269    0.1458066   4.77  0.001023812    1.463    0.316
       114  -9.2716    173.0000    203.0327   1.0620651056e+02   1.1599546234e+01    0.1887672    0.1465537 -17.93  0.001162207    1.692    0.409
       115  -8.6238    167.6699    207.7026   1.0775673913e+02   1.1873145710e+01    0.1137275   0.07870565  23.87 0.0007028171    1.639    0.390
       116  -9.0594    156.3749    205.8094   1.0945023639e+02   1.3959725234e+01    0.1393775    0.1088819 -28.90 0.0009275387    1.732    0.423
       117 -10.8924    149.6537    204.2798   1.1042281277e+02   1.5254120338e+01    0.3334337    0.1396514 -48.41  0.001722601    2.994    0.666
       118 -10.1372    197.8636    202.8723   1.0196831731e+02   7.4659711581e+00    0.3186561    0.1989548 -18.33  0.001352905    2.147    0.534
       119 -10.5099    139.3437    204.5604   1.1226254092e+02   1.6854170103e+01    0.1925122    0.1462023 -48.94   0.00134184    1.666    0.400
       120  -9.5808    186.8018    202.4118   1.0376067491e+02   9.3733820208e+00    0.2025416    0.1634071 -18.45  0.001339062    1.511    0.338
       121  -9.2997    178.8893    202.9293   1.0518216926e+02   1.0632094181e+01    0.1821369    0.1372038  25.12   0.00121714    1.329    0.248
       122 -10.4109    210.3091    200.5226   9.9548485172e+01   5.6526522266e+00    0.2905082    0.1901695 -41.75  0.001383561    2.029    0.507
       123  -9.0528    192.8413    201.6533   1.0262835384e+02   8.4521865160e+00    0.1541234    0.1279903  20.20 0.0008739497    1.182    0.154
       124 -10.0857    164.7788    201.1065   1.0736306668e+02   1.3218689072e+01    0.2456019    0.1693105   4.61  0.001396376    2.374    0.579
       125 -11.0711    132.6710    199.5761   1.1283753225e+02   1.8633555733e+01    0.2537675    0.1917576 -25.31            0    2.101    0.524
       126 -10.9316    139.3262    198.5049   1.1151533698e+02   1.7739426354e+01    0.2452501    0.1960299 -19.18  0.001632287    1.883    0.469
       127  -9.9917    202.2479    196.2868   1.0022648574e+02   7.5000645723e+00    0.2713753    0.1935533  -7.84  0.001604566    1.700    0.412
       128  -9.5097    176.1345    196.8170   1.0477637840e+02   1.1884215172e+01    0.2299958    0.1653371 -31.79  0.001386868    1.742    0.426
       129 -10.7057    125.7126    206.1373   1.1483683578e+02   1.8729483296e+01     0.227912    0.1170311  37.38  0.001283165    1.876    0.467
       130  -9.6708    194.1983    193.7968   1.0120122626e+02   9.1795641279e+00    0.2073722    0.1707464 -10.40  0.001026833    1.398    0.284
       131  -9.7353    184.3488    195.4521   1.0314860654e+02   1.0661633310e+01    0.3164691    0.1911637 -17.01  0.001688783    2.598    0.615
       132  -9.2838    185.4534    189.5946   1.0205680301e+02   1.1228818507e+01    0.2363106    0.1192845 -31.56  0.001207355    2.579    0.612
       133  -9.3802    170.0181    196.6923   1.0582710136e+02   1.2936294441e+01    0.2028001    0.1578898   5.53  0.001087245    1.652    0.395
       134  -9.9272    209.2619    193.9011   9.8674401782e+01   6.5823137931e+00    0.2659404     0.178469  -9.82  0.001006765    1.818    0.450
       135  -9.7581    210.1463    188.3488   9.7619568441e+01   7.0785049729e+00    0.2008892    0.1687898 -18.91 0.0009230626    1.357    0.263
       136  -9.9778    156.5988    197.1987   1.0826585654e+02   1.5113589235e+01    0.1895221    0.1134547 -32.21   0.00105741    2.439    0.590
       137  -9.9933    161.6822    192.0649   1.0663973251e+02   1.4986447695e+01    0.2407485    0.1439234 -38.14   0.00137433    2.131    0.531
       138 -10.0996    146.0000    192.9685   1.0959138340e+02   1.7477062517e+01    0.1671004   0.06879096 -49.69 0.0008042108    2.955    0.662
       139  -9.2113    205.1589    190.3090   9.8781874664e+01   7.7107815243e+00    0.1940838      0.14631  -9.18 0.0008921928    1.512    0.339
       140  -9.8318    198.8662    190.1183   9.9820478968e+01   8.8262492904e+00    0.2555318    0.1839305  -8.57  0.001467508    1.690    0.408
       141  -9.4170    172.1386    190.3081   1.0451487115e+02   1.3442811093e+01    0.1929988    0.1625366 -15.81   0.00130902    1.457    0.314
       142  -9.4700    178.7515    189.3458   1.0319624828e+02   1.2428356767e+01    0.2169223     0.162733 -23.36  0.001378206    1.662    0.398
       143  -9.2524    139.6520    190.6652   1.1043866941e+02   1.8864205883e+01    0.1153609   0.08881459  16.49 0.0007048122    1.776    0.437
       144  -9.5748    193.0664    187.4855   1.0039540029e+02   1.0169888594e+01    0.2134374    0.1592196   0.78  0.001013435    1.607    0.378
       145 -10.2738    156.5113    187.4604   1.0690865151e+02   1.6529930528e+01    0.2568127    0.1747835  10.94  0.001369767    2.403    0.584
       146  -9.6029    166.2799    185.3846   1.0482266414e+02   1.5148721427e+01    0.1962456    0.1507071 -24.28 0.0008675989    1.669    0.401
       147  -9.9979    150.5971    186.2189   1.0781296729e+02   1.7719148233e+01    0.1478545    0.1161347 -32.08 0.0009466565    1.644    0.392
       148  -9.5249    128.6577    186.6755   1.1194514784e+02   2.1265009263e+01    0.1125069   0.09061722  15.08 0.0004137656    1.732    0.423
       149 -10.2256    203.3103    182.8224   9.7856138775e+01   8.9491752033e+00    0.2617185    0.2119531 -13.88  0.001076341    1.373    0.271
       150  -9.0676    189.5964    184.2384   1.0047505663e+02   1.1202819718e+01      0.15501    0.1139855 -14.70 0.0009404845    1.672    0.402
       151  -8.8433    173.4499    184.4969   1.0338983025e+02   1.4020730102e+01     0.123635    0.1025322  38.71 0.0001137432    1.026    0.026
       152 -10.4825    139.9944    184.0220   1.0946891158e+02   1.9835680625e+01    0.1828749    0.1449205  13.23  0.001138182    1.730    0.422
       153  -9.8512    183.5194    182.2310   1.0122392849e+02   1.2551215987e+01    0.2451863    0.1939229 -14.33  0.001497588    1.517    0.341
       154  -9.1798    154.5052    182.9668   1.0661667887e+02   1.7542311620e+01    0.1604255    0.1231769 -47.43  0.000955671    1.555    0.357
       155  -9.3295    197.3428    181.6110   9.8684550017e+01   1.0165391343e+01    0.2068143    0.1479339 -24.94  0.001157139    1.628    0.386
       156  -9.5018    176.5141    180.5763   1.0221421270e+02   1.4028718058e+01    0.2207553    0.1248531 -39.74  0.001045097    2.105    0.525
       157  -9.9962    190.5690    178.4491   9.9343057967e+01   1.1797223228e+01    0.2602293    0.2554813 -54.45  0.001822129    1.285    0.222
       158 -10.1730    145.4758    179.0294   1.0772192908e+02   1.9697027028e+01    0.1662692    0.1228485 -49.19 0.0008339719    1.594    0.372
       159 -10.1758    169.0084    177.2671   1.0305164167e+02   1.5844629098e+01    0.2054288    0.1601624 -14.56 0.0009284275    1.652    0.395
       160 -10.4128    150.4029    177.3283   1.0653632779e+02   1.9116158310e+01    0.2152927    0.1202515 -42.38  0.001141574    2.172    0.540
       161 -10.0068    205.0110    176.0723   9.6400466182e+01   9.4931243223e+00    0.2575657    0.1768569 -18.32  0.001121723    1.689    0.408
       162 -10.0571    210.3256    174.7542   9.5251359156e+01   8.6957511235e+00    0.2559209    0.1904491 -28.90 0.0009600313    1.518    0.341
       163  -9.6632    197.7209    175.6740   9.7603517135e+01   1.0868738007e+01    0.2292033    0.1734675   6.49 0.0009822242    1.475    0.322
       164  -9.5792    182.1722    175.2967   1.0031752980e+02   1.3751950217e+01    0.2020498    0.1693757  -6.89  0.001009956    1.370    0.270
       165  -9.6018    101.0037    175.9837   1.1587570362e+02   2.7328620462e+01    0.1701837    0.1386409  64.94  0.001174525    1.029    0.029
       166  -9.6884    161.4100    174.7812   1.0406564267e+02   1.7572921860e+01    0.1580967     0.120193 -27.14  0.000947114    1.660    0.398
       167  -9.5039    192.7252    172.3900   9.7916120002e+01   1.2222120249e+01    0.2344837    0.1662453 -18.00  0.001122329    1.693    0.410
       168  -9.3565    129.6689    173.6492   1.0997032126e+02   2.3233810493e+01    0.1175747   0.09577552   7.66 0.0007047622    1.773    0.436
       169  -9.0855    187.4780    171.9333   9.8779816908e+01   1.3251116269e+01    0.1693196    0.1260438 -30.80 0.0007197075    1.546    0.353
       170  -9.2523    200.8899    171.0518   9.6229644687e+01   1.0896438558e+01    0.2005275    0.1368348  14.32 0.0009731464    1.689    0.408
       171 -10.0564    205.0684    168.3928   9.5014134149e+01   1.0472183577e+01    0.2886437    0.2033144 -21.71  0.001257898    1.591    0.371
       172  -9.9423    158.0097    169.9805   1.0393208449e+02   1.8923028014e+01    0.1953856     0.149134  13.43 0.0007875449    1.694    0.410
       173  -9.4323    143.3051    170.3389   1.0682253685e+02   2.1467295548e+01    0.1201207   0.09642494  10.61 0.0005806756    1.676    0.403
       174  -9.0588    196.9717    169.0902   9.6571520534e+01   1.1883945729e+01    0.1978788    0.1377668  16.02 0.0006035613    1.624    0.384
       175 -10.0897    178.7924    168.1214   9.9704648739e+01   1.5401739520e+01    0.2608449    0.1708471 -28.77  0.001160391    1.853    0.460
       176 -10.3808    150.6296    167.6998   1.0498125890e+02   2.0607616139e+01    0.1918513    0.1494006  10.89   0.00110891    1.723    0.419
       177  -9.0107    169.9785    167.5000   1.0124441083e+02   1.7125361810e+01    0.1978466    0.1111677  43.80  0.000840545    1.538    0.350
       178 -10.0794    191.6789    164.4583   9.6683035845e+01   1.3513869867e+01    0.3113608     0.210408 -14.24  0.001238476    1.885    0.470
       179  -9.3150    127.6921    166.6730   1.0933817472e+02   2.4751441265e+01    0.1163424   0.09786665   6.84 0.0007037994    1.655    0.396
       180  -9.8251    199.4786    163.8678   9.5168500228e+01   1.2122809882e+01    0.2562709    0.1940028 -10.52 0.0009431174    1.491    0.329
       181  -9.5470    184.8012    164.5189   9.7953173741e+01   1.4802142345e+01     0.236963    0.1669006 -10.08  0.001014587    1.861    0.463
       182  -9.0088    159.3477    164.3020   1.0272702390e+02   1.9577419775e+01    0.1292812   0.09564753  18.27  0.000505358    1.690    0.408
       183 -10.2977    205.1638    160.5225   9.3527289936e+01   1.1497338961e+01    0.3080655    0.2546257  14.37  0.001423603    1.159    0.138
       184  -9.9062    139.0087    162.5046   1.0642984751e+02   2.3527495149e+01    0.1804643    0.1055977  25.39  0.000810492    2.588    0.614
       185  -9.2056    163.5026    160.9830   1.0134818532e+02   1.9337500646e+01    0.1709305    0.1132476 -12.45 0.0008099118    2.498    0.600
       186  -9.6111    176.7354    158.3477   9.8334927371e+01   1.7249438270e+01    0.2474654    0.1806572 -21.81  0.001380911    1.659    0.397
       187  -9.6336    135.3054    168.3610   1.0808354751e+02   2.3175256347e+01     0.119528   0.09765768   5.10 0.0007039044    1.731    0.422
       188  -9.9685    197.2637    155.9372   9.4062973289e+01   1.3646640184e+01    0.3122645    0.2070104  -5.75  0.001262918    2.002    0.501
       189  -9.1405    211.4184    154.7720   9.1309023719e+01   1.1067609326e+01    0.3103291    0.2019235  -1.32  0.001582011    1.933    0.483
       190  -9.2971    211.5954    151.1925   9.0564142731e+01   1.1511933762e+01    0.1872199     0.139259  12.99 0.0007406755    1.385    0.278
       191 -10.3555    215.3055    147.8485   8.9236103019e+01   1.1233785933e+01    0.3554787    0.2567462  20.27  0.001984022    1.368    0.269
       192 -11.8690    227.9258    222.4953   1.0003617275e+02   5.8879860520e-01     2.018213     1.263858 -31.51   0.01395184    2.025    0.506
       193  -9.4318    187.6428    154.9084   9.5634960708e+01   1.5663030007e+01    0.2663631    0.1582993 -23.35  0.001270754    2.141    0.533
       194  -8.8002    192.4969    153.4978   9.4461888212e+01   1.4923596101e+01    0.1343057    0.1163376  29.86 -0.000154129    1.021    0.021
       195  -8.5627    171.3310    153.3054   9.8432212201e+01   1.9070244198e+01     0.134682   0.09846456  17.49 0.0005009632    1.659    0.397
       196 -12.2062    248.7654    179.9928   8.9913657039e+01   1.3806735241e+00     0.988766    0.2794266 -32.48   0.00414888    3.775    0.735
       197  -9.4427    202.4700    150.5251   9.2054247425e+01   1.3391796179e+01    0.2102959    0.1256477 -18.38 0.0007468892    2.077    0.518
       198  -9.0733    157.6692    151.6645   1.0081869945e+02   2.1951434352e+01    0.1339177    0.1014208  12.54 0.0007052145    1.731    0.422
       199  -9.3081    196.8460    148.9466   9.2760647068e+01   1.4727158080e+01    0.2111618    0.1629873  14.12  0.001086153    1.370    0.270
       200  -8.7812    181.7805    148.9432   9.5580554073e+01   1.7710753104e+01    0.1623043    0.1107343 -34.90 0.0007028388    1.620    0.383
       201  -9.8849    207.9501    144.3339   8.9807335774e+01   1.3170421759e+01    0.4448343    0.2589924   1.43  0.001866527    2.796    0.642
       202  -9.6735    205.7673    153.4806   9.2051829094e+01   1.2336779972e+01    0.2723111    0.1749032   4.68 0.0009187594    2.082    0.520
       203  -9.1048    200.4767    144.0242   9.1092218923e+01   1.4712905645e+01    0.1891069    0.1318351 -25.33  0.001000866    1.550    0.355
       204  -9.6700    214.0426    141.4634   8.8127931362e+01   1.2346226891e+01    0.2431835    0.1764008  -3.24 0.0007685139    1.505    0.335
       205  -8.7348    194.5020    142.5090   9.1879459197e+01   1.6139525206e+01     0.139816    0.1189179  23.61 0.0002309034    1.100    0.091
       206 -10.1923    224.4478    139.0686   8.5824137439e+01   1.0586452428e+01    0.3112846    0.2077752  -2.41 0.0008311214    1.690    0.408
       207  -8.4710    203.6860    140.6185   8.9796462680e+01   1.4554296786e+01    0.1461141   0.09774645  13.71 0.0007023434    1.811    0.448
       208  -8.6474    181.5133    140.4809   9.3924236489e+01   1.9081935685e+01    0.1387452    0.1226993  28.32 0.0004542957    1.058    0.055
       209  -9.9400    218.6997    137.1516   8.6396134603e+01   1.1994215007e+01    0.3143445    0.2158383   1.57  0.001013507    1.657    0.397
       210  -9.5496    208.9051    136.5937   8.7997548783e+01   1.4063704596e+01    0.2508897    0.1819197  -0.79  0.001066387    1.550    0.355
       211  -9.3789    198.9952    135.7141   8.9608099370e+01   1.6228757968e+01    0.2722163    0.1658986  -0.88  0.001152539    2.562    0.610
       212  -8.7994    192.5728    135.5347   9.0767564997e+01   1.7582687323e+01     0.139334    0.1230149  23.04 0.0005116462    1.056    0.053
       213  -8.9625    205.9724    129.6818   8.7008430679e+01   1.5661810529e+01     0.198742    0.1655738  32.77 0.0006451461    1.096    0.087
       214  -8.7607    179.6700    130.6846   9.2203115555e+01   2.1026484476e+01    0.1450178    0.1048143  16.23 0.0007045592    1.679    0.405
       215  -9.2435    212.0747    127.7160   8.5475450085e+01   1.4664754387e+01    0.1994384    0.1703442  26.15 0.0006887997    1.061    0.058
       216  -8.9600    192.4565    127.7565   8.9082086092e+01   1.8800113507e+01    0.1884462    0.1331127 -15.40 0.0009352496    1.633    0.387
       217  -8.9199    217.5481    124.5266   8.3793023162e+01   1.3963623156e+01    0.1427939    0.1211961  16.53 0.0003812375    1.087    0.080
       218  -9.1246    212.7594    121.2277   8.3871768444e+01   1.5443732681e+01    0.1988039    0.1523918  13.95  0.000795423    1.345    0.257
       219  -8.8183    220.2914    119.3524   8.2126943636e+01   1.4101904738e+01    0.1475501    0.1000455  13.71 0.0007028645    1.676    0.403
       220  -9.0721    225.2065    114.8781   8.0245118059e+01   1.3668856306e+01     0.197125    0.1484058   9.21 0.0004644848    1.365    0.267
       221  -9.9859    219.2203    114.0233   8.1054405699e+01   1.5073591396e+01    0.3945498    0.1751371  40.39  0.001586403    2.255    0.557
       222 -13.1320    247.3202    159.1887   8.6220417759e+01   3.8385281923e+00     1.669045     0.611677 -18.84  0.006424377    3.717    0.731
       223 -10.8700    222.1540    102.9126   7.7856330892e+01   1.5981445075e+01    0.3187574    0.1809113 -39.23  0.001435545    1.855    0.461
       224  -8.5644    218.2917    103.3258   7.8608514730e+01   1.6783257633e+01     0.149339    0.1041476  15.51 0.0007016842    1.617    0.382
       225  -8.3229    128.2302     91.2634   9.4095493645e+01   3.8924028206e+01    0.1303201    0.1105172  -7.09            0    1.409    0.290
       226 -11.3489    235.9705    228.6400   9.9691906285e+01  -1.1758172550e+00     0.633008    0.3202651 -35.40  0.003997793    2.660    0.624
       227 -10.9219    159.7913    236.5886   1.1253681857e+02   9.5647329680e+00    0.4458292    0.2815363  23.64  0.002131859    2.035    0.509
       228  -9.4008    165.4263    232.8354   1.1122361168e+02   9.1513910459e+00    0.1565768     0.123044  23.58 0.0009623023    1.403    0.287
       229  -8.8778    172.1146     50.0810   7.1859116820e+01   3.5868142578e+01    0.1930651    0.1724325 -58.87            0    1.235    0.191
       230 -10.2968    151.5817    245.1501   1.1471427998e+02   9.7861396339e+00    0.2370646    0.1791449  19.78 0.0009827822    1.714    0.416
       231  -9.5203    154.9740    241.5072   1.1381648966e+02   9.7097293316e+00    0.1557665    0.1222185  18.75 0.0008749269    1.609    0.378
       232  -9.9357    108.3084    249.2843   1.2171816842e+02   1.5285960523e+01    0.1784181   0.09607144  38.60 0.0008709417    1.701    0.412
       233  -8.6784     15.0393     17.9766   1.0991527160e+02   6.9737512968e+01      0.13316    0.1026267 -45.40            0    1.022    0.021
       234 -11.6100    238.3136    219.1312   9.7957630213e+01  -6.9253520330e-01    0.5035403    0.3940547 -22.93    0.0031268    1.597    0.374
       235 -12.2565    227.6689    194.5425   9.5766232892e+01   3.4005655552e+00     1.455209     1.191332  -1.44   0.01043126    1.252    0.201
       236 -13.3022    248.0153    221.7686   9.6893045236e+01  -2.3791537766e+00     1.899011     0.524978 -24.06  0.008253147    4.938    0.798
       237 -13.8165    243.7251    192.8589   9.2946456969e+01   9.2491703676e-01     2.082286    0.7303424 -31.65    0.0100191    3.175    0.685
       238  -9.4005     17.3234    249.1648   1.3491838467e+02   2.5640386208e+01    0.1202115   0.07868002  57.32 0.0008295811    1.164    0.141
       239 -12.4668    236.8038    194.6700   9.4334147657e+01   1.8754777308e+00     2.026837     0.443855 -27.45  0.006840419    6.387    0.843
       240 -11.6040    246.9481    241.2609   9.9826554683e+01  -3.7919393009e+00    0.6786995    0.5630176  76.05  0.004897853    2.784    0.641
       241 -10.7383    132.9307    245.9824   1.1767599905e+02   1.2344125102e+01    0.2651816    0.2163527  11.93  0.001525259    1.869    0.465
       242 -10.2668    135.1846    239.4808   1.1671974912e+02   1.2817427898e+01    0.3015831    0.1645148  40.94  0.001683355    1.458    0.314
