#   1 NUMBER                 Running object number                                     
#   2 MAG_AUTO               Kron-like elliptical aperture magnitude                    [mag]
#   3 X_IMAGE                Object position along x                                    [pixel]
#   4 Y_IMAGE                Object position along y                                    [pixel]
#   5 X_WORLD                Barycenter position along world x axis                     [deg]
#   6 Y_WORLD                Barycenter position along world y axis                     [deg]
#   7 A_WORLD                Profile RMS along major axis (world units)                 [deg]
#   8 B_WORLD                Profile RMS along minor axis (world units)                 [deg]
#   9 THETA_WORLD            Position angle (CCW/world-x)                               [deg]
#  10 FWHM_WORLD             FWHM assuming a gaussian core                              [deg]
#  11 ELONGATION             A_IMAGE/B_IMAGE                                           
#  12 ELLIPTICITY            1 - B_IMAGE/A_IMAGE                                       
         1 -12.7802     68.4890    144.2302   1.0292078382e+02   3.7586167711e+01     2.357854     1.197656  80.83  0.007064099    4.734    0.789
         2 -12.6408    200.9338     39.5406   4.3623586376e+01   3.0211779048e+01     1.139236     1.017415  18.08  0.006111919    1.459    0.315
         3 -12.5540    212.1950     28.5865   3.9620739409e+01   2.8955558220e+01    0.8704616    0.7531922  28.72  0.003240115    1.568    0.362
         4 -10.2985     32.8320     19.8998   8.1546850736e+01   6.8835157383e+01     0.614389   0.08002439 -42.45  0.001683222    7.417    0.865
         5 -10.9201    239.6567      4.6731   3.1972568356e+01   2.5599992989e+01    0.4850622    0.4365631  62.57  0.003518839    1.440    0.306
         6 -10.6645    234.1179      4.8798   3.2403535573e+01   2.6757155146e+01    0.4954625    0.3118235 -50.47   0.00305311    1.381    0.276
         7  -9.3282     21.6850      3.8086   7.9515017992e+01   7.2375857380e+01    0.2271409   0.08249408 -31.08  0.001092614    2.606    0.616
         8  -9.4084     16.9936      3.1661   8.1837155295e+01   7.2968987316e+01    0.1575611    0.1279633  41.67 0.0009616853    2.019    0.505
         9  -9.4246     48.6222    217.6127   1.1679882281e+02   2.2943627035e+01     0.333575    0.2367059  34.70   0.00175373    1.504    0.335
        10 -12.2250     42.2024    200.3408   1.1668562361e+02   2.7457234476e+01     1.165897    0.6781943  69.26  0.002816663    1.652    0.395
        11 -13.0320     53.0408    189.4240   1.1314569010e+02   2.8641582886e+01     5.323065     2.301249  70.85   0.01916496    3.687    0.729
        12  -8.4077     65.5373    179.4740   1.0895484054e+02   2.9360476924e+01     0.239076    0.1565047  52.09 0.0005878091    1.464    0.317
        13 -10.3908     67.6655    174.5146   1.0776804901e+02   3.0255513913e+01     0.471029    0.2888078 -37.39   0.00131326    2.301    0.565
        14 -10.2412     72.0590    169.7016   1.0596740098e+02   3.0804867489e+01    0.3424536    0.2575532 -52.26 0.0007431867    1.400    0.286
        15 -15.4203      7.0586    200.7688   1.2418648005e+02   3.0940071012e+01     17.28197     1.276826 -77.03   0.01777324   11.583    0.914
        16 -12.8816     24.1218    226.8353   1.2237082689e+02   2.3818685200e+01     1.672057    0.6990563  69.04  0.004108464    2.357    0.576
        17 -12.6227     56.9762    238.9823   1.1684247489e+02   1.7573444259e+01    0.7377604     0.562522  62.22 0.0006654512    1.032    0.031
        18  -8.1894     34.0976    171.5229   1.1582576769e+02   3.5011841636e+01    0.1755383    0.1236563  35.25   0.00101335    1.535    0.349
        19 -11.6978     80.7680    160.6622   1.0227197128e+02   3.1734838209e+01     1.534792     0.534112  52.91 0.0004364418    4.481    0.777
        20 -11.9686     69.1301    156.1004   1.0469558132e+02   3.4546944071e+01    0.6341945    0.5252905  -4.89  0.001526448    1.591    0.371
        21  -9.8112     95.4465    241.2816   1.0934937212e+02   1.1862439039e+01    0.3578176    0.2360362  88.71  0.002040096    1.832    0.454
        22  -7.9959     33.2926    144.3509   1.1293340188e+02   4.1694861217e+01    0.1364058   0.08797633 -45.78 0.0007029949    1.676    0.403
        23  -9.4378     82.4102    142.2897   9.8569319498e+01   3.6020654561e+01    0.2895352    0.2341202  78.36 0.0004071904    1.355    0.262
        24  -9.4845    133.5001    142.5287   8.4530633038e+01   2.6676913372e+01    0.5141087     0.157131 -53.03  0.001443508    3.782    0.736
        25  -9.4223    102.1220    139.4689   9.2376866644e+01   3.3420671978e+01    0.5131341    0.2952698 -33.29  0.001976565    2.367    0.578
        26 -10.5335     89.2592    139.2680   9.6006646799e+01   3.5673558798e+01    0.2990219     0.265619 -29.75 0.0005505651    1.246    0.197
        27  -8.1771     34.1090    139.5250   1.1207195051e+02   4.2806725260e+01    0.1840232     0.130863  30.90  0.001028657    1.585    0.369
        28  -9.7280     25.2458    137.1337   1.1428638068e+02   4.4206782798e+01    0.2564566    0.1768374  37.32  0.000893856    1.599    0.375
        29 -10.6177     87.7518    154.1229   9.9252337610e+01   3.2255482226e+01    0.5900373    0.4309581 -18.68  0.001650086    1.979    0.495
        30  -8.8139    105.7350    130.8114   8.9448241051e+01   3.4860824435e+01     0.368897    0.2780401 -52.73  0.001759972    1.303    0.233
        31  -8.4158    135.3246    130.0262   8.1135342125e+01   2.9167320921e+01    0.2669024    0.1215013 -29.85 0.0007048438    4.423    0.774
        32  -9.1126    111.3210    130.1019   8.7695885722e+01   3.3980964668e+01    0.3284095     0.201168  18.98  0.001244089    2.418    0.586
        33  -9.1985     98.4967    126.1837   9.0494051364e+01   3.7293331126e+01     0.330689    0.2489719 -21.60  0.001506431    1.675    0.403
        34  -8.8386     67.6713    125.3188   9.9653026353e+01   4.2413834565e+01    0.2306444    0.1667331  74.08   0.00110539    1.717    0.418
        35  -9.4172     33.0000    128.9690   1.1091777810e+02   4.5521989554e+01     0.461367   0.06649107 -67.62  0.001160797    5.979    0.833
        36  -8.3552    107.7893    118.9011   8.6031020974e+01   3.7313747623e+01    0.2225726    0.2049686 -10.37 0.0003536979    1.170    0.146
        37  -9.0626     32.2236    156.4195   1.1467469289e+02   3.8841660070e+01    0.1778869    0.1100087  45.75 0.0006293925    1.646    0.393
        38 -14.3795     29.7596    249.6919   1.2265439650e+02   1.8773961082e+01     9.250789     2.982434  25.01   0.02173755   14.419    0.931
        39  -8.1587     91.4653    214.8757   1.0725235924e+02   1.7675036051e+01    0.1819053    0.1275523 -72.72  0.001003299    1.530    0.346
        40  -8.4994    205.6824    110.0688   6.0524397911e+01   1.7690953150e+01    0.2553628    0.2068612  18.79 0.0008085929    1.507    0.336
        41  -8.6907    114.6471    109.2204   8.1558996189e+01   3.8202870249e+01    0.2301559    0.1414444 -39.23 0.0009520351    1.688    0.408
        42  -9.5842     41.9102    104.3177   1.0381427379e+02   5.0696300784e+01     0.251617    0.2214566 -31.36  0.001524327    1.166    0.143
        43  -8.2570     99.2250    180.7668   1.0072324044e+02   2.4008698182e+01    0.1863335    0.1719015 -12.25 0.0007082633    1.308    0.235
        44  -7.6211    110.2937    149.3277   9.2167772328e+01   2.9559769036e+01    0.1528442      0.12035 -19.06 0.0003544711    1.626    0.385
        45  -8.8931    107.6050    203.8656   1.0215615099e+02   1.7480564255e+01    0.2331218    0.1907158  57.09 0.0005852605    1.135    0.119
        46  -9.3358    127.4719     95.0505   7.4029838249e+01   3.8581782521e+01    0.3163385    0.2438913 -77.55  0.001336678    1.730    0.422
        47  -9.4307    109.5329    200.5714   1.0123580158e+02   1.7872552949e+01    0.2961857    0.2214398 -80.81  0.001416608    1.530    0.346
        48  -9.2097    243.5217     95.5008   5.1184790501e+01   1.2295818065e+01    0.1360243    0.1175186 -47.91 -3.680458e-05    1.014    0.014
        49  -8.7301     30.6941    202.0948   1.1933708024e+02   2.8346813157e+01    0.3247172    0.1112145  43.93  0.001490935    2.448    0.591
        50  -7.6510     74.7202     85.3397   8.7657798358e+01   5.0853642196e+01    0.1392447    0.1153342  89.82 0.0002148786    1.623    0.384
        51  -8.4020    115.4506     84.5231   7.4321457763e+01   4.3372916881e+01    0.1507284     0.148187   0.80  0.000232429    1.019    0.019
        52 -10.2089     55.7969    146.5874   1.0692303153e+02   3.8661625521e+01    0.4393257    0.1648314  44.10  0.001684044    2.777    0.640
        53  -8.6937     54.3216     65.5479   8.9292854112e+01   5.8027991059e+01    0.2183449    0.1891705  47.94  0.000665345    1.433    0.302
        54  -9.2239     32.5606     57.2626   9.5761617883e+01   6.2203108013e+01    0.3469516   0.08402283 -49.39   0.00127592    3.127    0.680
        55 -12.0927    191.0938     46.8513   4.6853268536e+01   3.1591546693e+01    0.9199717    0.6714821  32.51  0.003043879    1.811    0.448
        56  -9.5428     59.0079    229.8983   1.1569653739e+02   1.9108871089e+01    0.2794237    0.1760944 -75.03  0.001110494    1.613    0.380
        57 -10.8914    149.3034    227.9140   9.6398510946e+01   5.8643320172e+00     0.458505    0.2516114  31.27  0.002235713    1.701    0.412
        58  -9.6708    140.9567     46.5637   5.5726803121e+01   4.4058939878e+01    0.3499341    0.2588038  88.78 0.0009166458    1.677    0.404
        59  -8.3831    141.6225     39.3013   5.3255583716e+01   4.4901900480e+01    0.2140455    0.1601932 -72.49 0.0005821958    1.643    0.391
        60  -9.2475     61.4256    199.4319   1.1227231345e+02   2.5290425117e+01    0.2582784    0.2012096  82.57 0.0005841755    1.173    0.147
        61  -9.1303    194.3615    197.1143   8.1726445911e+01   3.6559123937e+00    0.3572388    0.2275214 -72.18  0.001285546    4.360    0.771
        62 -14.6955      6.5379    246.5682   1.2656097642e+02   2.1780022290e+01     2.545782     1.159739  31.58   0.01501829    2.423    0.587
        63  -7.7939    120.3323    194.2110   9.7726220615e+01   1.7426721828e+01    0.1872599    0.1328044 -69.96 0.0003344972    1.631    0.387
        64  -7.8992     53.4457    220.2037   1.1601233575e+02   2.1804069488e+01    0.1614671    0.1026135  84.70 0.0004123303    1.525    0.344
        65  -8.8456     59.2706    220.6134   1.1482902625e+02   2.0978111788e+01    0.2826093    0.1977994 -47.34  0.001640552    1.925    0.480
        66 -11.4087     11.1369    188.9541   1.2259019608e+02   3.3175109511e+01    0.3276153    0.2409872  19.82  0.001677722    1.817    0.450
