#   1 NUMBER                 Running object number                                     
#   2 MAG_AUTO               Kron-like elliptical aperture magnitude                    [mag]
#   3 X_IMAGE                Object position along x                                    [pixel]
#   4 Y_IMAGE                Object position along y                                    [pixel]
#   5 X_WORLD                Barycenter position along world x axis                     [deg]
#   6 Y_WORLD                Barycenter position along world y axis                     [deg]
#   7 A_WORLD                Profile RMS along major axis (world units)                 [deg]
#   8 B_WORLD                Profile RMS along minor axis (world units)                 [deg]
#   9 THETA_WORLD            Position angle (CCW/world-x)                               [deg]
#  10 FWHM_WORLD             FWHM assuming a gaussian core                              [deg]
#  11 ELONGATION             A_IMAGE/B_IMAGE                                           
#  12 ELLIPTICITY            1 - B_IMAGE/A_IMAGE                                       
         1 -16.9715    139.3791     35.4041   5.1348802413e+01   4.5541326095e+01     10.63437     4.414532 -32.30   0.04322671    2.482    0.597
         2 -18.6579    232.7412     61.0725   4.3956721080e+01   2.0186366839e+01     9.970221     3.750417 -34.41   0.04101619    2.481    0.597
         3 -12.8611    169.0476     24.7437   4.3053369031e+01   3.9604672947e+01    0.5430363    0.2706157 -12.76  0.001793619    3.093    0.677
         4 -11.7282    206.7450     25.0771   3.8471858587e+01   3.0660677125e+01    0.4422585    0.2291884 -30.73  0.002187035    2.015    0.504
         5 -11.8274    198.3072     23.1589   3.8924994702e+01   3.2823153772e+01    0.4468214    0.2677621  -5.45  0.002049163    2.829    0.647
         6 -11.5327     89.0010     10.4918   5.3982354058e+01   5.9681806325e+01    0.2481127    0.1774866 -12.62 0.0005488809    1.471    0.320
         7 -11.4787     59.5494      2.4888   5.9537539473e+01   6.6165446112e+01    0.2351043   0.08097906  40.51  0.001039299    2.447    0.591
         8 -12.8943    179.8809    133.3353   7.0418117023e+01   1.8932184589e+01    0.5395784    0.3915697  56.97  0.002277844    1.604    0.376
         9  -9.5345    167.2867    139.3085   7.4636057536e+01   2.0337975218e+01    0.1551699    0.1198305  -4.54 0.0001879042    1.572    0.364
        10 -11.5043    190.0270    131.0338   6.7740621000e+01   1.7262795558e+01    0.3398794    0.3203171 -74.98 0.0009611113    1.213    0.176
        11 -13.5227    170.7439    124.7115   7.0299398944e+01   2.2640311347e+01    0.8195282    0.7602137 -44.25  0.004338069    1.079    0.073
        12 -14.1742    160.8942    128.1839   7.3407552478e+01   2.4037237766e+01     1.062908    0.8182181  86.30  0.004721724    1.891    0.471
        13 -13.5423    162.0096    119.5073   7.0960055427e+01   2.5616838095e+01     0.779897    0.6075591  79.69  0.001245453    1.748    0.428
        14 -12.7095    167.8801    114.1704   6.8255752431e+01   2.5417174950e+01    0.5952619    0.5218286 -18.33  0.001045444    1.178    0.151
        15 -10.0589    197.1832    129.2786   6.5888490809e+01   1.6114501839e+01    0.1983894    0.1718503 -64.09 0.0007929009    1.333    0.250
        16 -15.6286     20.4852    161.9652   1.1711166729e+02   3.8090038274e+01     2.280426     1.846538  53.20    0.0132417    1.291    0.226
        17 -11.2557    181.9605    128.2725   6.8747747507e+01   1.9510854351e+01    0.3867202    0.3041358   0.84  0.001652922    1.528    0.346
        18 -11.9067    183.6897    122.9823   6.7086140175e+01   2.0193113447e+01     0.467862    0.3411651 -49.79  0.001297567    1.407    0.289
        19 -11.3853    186.0092    119.9682   6.5861708714e+01   2.0285270759e+01    0.4476388    0.3535861 -84.12   0.00155863    1.739    0.425
        20  -9.9751     98.5048    127.5425   8.9690205329e+01   3.6624772866e+01    0.1520349    0.1448074 -39.38 7.075998e-05    1.019    0.018
        21 -10.7353    203.3422    123.1346   6.3237953290e+01   1.6002351015e+01    0.2793187    0.2014723  72.16 0.0008727543    1.942    0.485
        22 -14.9325    194.0892     80.0119   5.4121260019e+01   2.5785260272e+01     2.005411     1.017694  39.87  0.007880102    2.534    0.605
        23  -9.9430    202.4415    248.4696   8.8345494300e+01  -5.4352990681e+00    0.1217302   0.09639644  13.58 5.960016e-05    1.016    0.016
        24 -11.9612    193.1352    177.8714   7.7535610709e+01   7.5768383701e+00    0.2065253    0.2024731 -59.49 0.0006278573    1.264    0.209
        25 -11.2777    175.0569    115.0458   6.6913953319e+01   2.3651817560e+01    0.3905711    0.2684695 -64.62 0.0008623899    1.940    0.485
        26 -10.2626    226.9023    114.6953   5.7148573443e+01   1.2746181085e+01    0.2244301    0.1628487 -30.88 0.0003076152    1.276    0.216
        27 -11.9024    227.9942    110.5262   5.6014760093e+01   1.3250735486e+01    0.3395032    0.2596361 -49.92  0.001105514    1.269    0.212
        28 -11.9332    230.2166    106.1194   5.4655563482e+01   1.3562380219e+01    0.3042086    0.2408276  62.26 0.0008637499    1.470    0.320
        29 -10.1321    178.4207    109.6938   6.4828589303e+01   2.3958282652e+01    0.2821178    0.1411606 -43.49  0.001093607    1.932    0.482
        30 -12.8090    178.5546    170.1192   7.9017245280e+01   1.1763901358e+01    0.5445945    0.3087915  52.80   0.00208166    2.226    0.551
        31 -11.5431    190.0882    106.8072   6.1745896267e+01   2.1915123389e+01    0.4947288    0.3526874  28.26  0.002289363    1.711    0.415
        32 -11.0718    150.0027    130.9832   7.6701273257e+01   2.5748221792e+01    0.2387191    0.2339976 -49.58 0.0005967225    1.062    0.058
        33 -11.6639    222.4789    105.0614   5.5617976665e+01   1.5303367297e+01    0.2794608    0.2229753  45.27 0.0004533747    1.398    0.285
        34 -12.6035    199.7749    163.3735   7.3123957324e+01   9.0803658600e+00    0.5324011    0.3503221 -71.58  0.002031144    3.320    0.699
        35 -13.2413    200.2827     99.6947   5.8058135210e+01   2.0968011143e+01    0.4539146    0.4230514 -18.01  0.001746464    1.104    0.094
        36 -10.3188    206.2584    102.6004   5.7726705983e+01   1.9146388312e+01    0.3332595    0.1810942 -54.55  0.001347262    2.194    0.544
        37 -11.9099    187.3015     98.7447   6.0218648660e+01   2.4036664648e+01    0.5009958    0.3941925  -2.34 0.0008643747    1.594    0.373
        38 -11.9408    194.7734    166.6652   7.4849804241e+01   9.3895337740e+00    0.2566948     0.207499 -36.29  0.001052106    1.204    0.169
        39 -10.5548    207.9720     92.1684   5.4866877087e+01   2.0600683400e+01    0.2787565    0.2053897   2.02  0.001000357    1.937    0.484
        40 -10.6624    200.8582     88.3855   5.5112852456e+01   2.2826351875e+01    0.3154913    0.1831978  70.88  0.001309759    2.303    0.566
        41 -15.7967     65.8943    144.1807   1.0252558268e+02   3.7531724873e+01     1.937327     1.520551  -8.69  0.003827647    1.654    0.395
        42 -10.6934      6.4958    208.4674   1.2379775629e+02   2.8789505563e+01    0.1150619   0.08814185  78.59 0.0002235383    1.004    0.004
        43 -12.1337    192.4169    153.6840   7.2497851288e+01   1.2338910279e+01     0.526326      0.23095 -47.67  0.001954477    2.457    0.593
        44 -11.4570    175.4458    164.0385   7.8403312468e+01   1.3577062321e+01     0.230057    0.1426579 -41.87 0.0009677163    1.589    0.371
        45 -11.0474    189.8046    148.9288   7.1967806559e+01   1.3784217664e+01    0.3633495    0.2425845 -70.94  0.001316234    2.710    0.631
        46 -10.8628    180.3633     54.6966   4.9663155515e+01   3.3003802761e+01     0.323027    0.1968463 -24.94  0.001477552    1.874    0.466
        47 -11.4121    150.8920    150.8139   8.1151912000e+01   2.1212024074e+01    0.3514644    0.2655123  55.77  0.001290683    1.505    0.336
        48 -12.8991    192.7725     53.1025   4.7301069674e+01   3.0284110099e+01    0.3509249    0.2779759 -80.12   0.00118018    1.323    0.244
        49 -10.9836    188.4713     52.5415   4.7799024708e+01   3.1380969359e+01     0.216176    0.1873425 -29.27 0.0005270489    1.230    0.187
        50 -12.2322    104.0659     53.1733   6.6094448137e+01   5.1078347849e+01    0.5638373    0.2645884 -19.82   0.00192927    3.414    0.707
        51 -11.7703    104.9706     45.9871   6.3270262952e+01   5.1995770732e+01    0.3339992    0.1933372 -28.22 0.0005323943    1.803    0.445
        52 -13.5372    181.8668     43.5002   4.6367288691e+01   3.4207954827e+01    0.5704671    0.3309819 -29.54  0.001707759    1.836    0.455
        53 -10.3501    189.3963     41.3027   4.4687961541e+01   3.2701592031e+01    0.3860009    0.2426006  58.42  0.001642326    1.549    0.354
        54 -11.8653    193.0128     46.7636   4.5610310527e+01   3.1114402350e+01    0.2911644    0.2185438 -12.13 0.0006459556    1.699    0.412
        55 -12.0192    133.8164    145.8208   8.4265538804e+01   2.5715450113e+01     1.086173    0.3029196 -54.25  0.002672761    5.101    0.804
        56 -11.0547    132.4690    138.9544   8.3036106908e+01   2.7553484717e+01    0.4574541    0.2834488 -72.35  0.001664557    2.697    0.629
        57 -11.6462    191.9548     35.8302   4.2911513588e+01   3.2798235206e+01    0.3440278    0.1955434  58.51  0.001368338    1.699    0.411
        58 -11.1568    172.1367    149.7883   7.5979742712e+01   1.7153965232e+01    0.3178675    0.2144042  54.43  0.001413194    1.743    0.426
        59 -12.7728    182.4118    207.2936   8.5440439819e+01   4.0819454430e+00    0.6595337    0.3536034   7.92  0.002310291    3.826    0.739
        60 -11.6828    143.9884    146.3740   8.1832929891e+01   2.3575880880e+01     0.704885    0.3416572 -61.15  0.002258045    3.299    0.697
        61 -10.9143    164.4551    142.1054   7.5945683388e+01   2.0334610539e+01    0.3171569    0.2117167  62.70  0.001320662    2.042    0.510
        62 -12.8696    189.5986    138.3172   6.9557359796e+01   1.5918433433e+01    0.6569623    0.4424618  42.13  0.002830675    1.552    0.356
        63 -10.5773    202.6778     19.4933   3.7554862298e+01   3.2224781758e+01    0.2036373    0.1237435 -71.74  0.000558023    1.726    0.421
        64 -11.0393    216.7900    148.0279   6.6467203178e+01   8.7420886009e+00    0.3498604    0.2032181  48.73  0.001605342    1.978    0.494
        65 -10.5869    171.5842     16.3157   4.0352926850e+01   3.9893207568e+01    0.2012626     0.128719  -4.65 0.0009963064    2.220    0.550
        66 -13.7851     54.3588    149.7605   1.0667376539e+02   3.7600798092e+01    0.4506671    0.4274899 -27.23 0.0009620095    1.209    0.173
        67 -11.1064    209.3758    145.1209   6.7205761780e+01   1.0680516382e+01    0.4019894    0.2559359  64.44  0.001291599    2.489    0.598
        68 -12.7115    179.0536    146.4568   7.3689899078e+01   1.6438402446e+01    0.4326893    0.3603871 -66.50 0.0008416372    1.477    0.323
        69 -14.4476    206.1457     73.8910   5.0609710591e+01   2.4040068913e+01    0.6333038    0.5163381  40.63  0.003468874    1.405    0.288
        70 -10.8980    202.4844     11.3050   3.5607872507e+01   3.3143410058e+01     0.213683   0.09639836  66.93 0.0009320477    1.994    0.499
        71 -12.7210    174.9496    133.7774   7.1595855592e+01   1.9880720439e+01      0.40374    0.3101101 -75.67  0.001476084    1.833    0.454
