#   1 NUMBER                 Running object number                                     
#   2 MAG_AUTO               Kron-like elliptical aperture magnitude                    [mag]
#   3 X_IMAGE                Object position along x                                    [pixel]
#   4 Y_IMAGE                Object position along y                                    [pixel]
#   5 X_WORLD                Barycenter position along world x axis                     [deg]
#   6 Y_WORLD                Barycenter position along world y axis                     [deg]
#   7 A_WORLD                Profile RMS along major axis (world units)                 [deg]
#   8 B_WORLD                Profile RMS along minor axis (world units)                 [deg]
#   9 THETA_WORLD            Position angle (CCW/world-x)                               [deg]
#  10 FWHM_WORLD             FWHM assuming a gaussian core                              [deg]
#  11 ELONGATION             A_IMAGE/B_IMAGE                                           
#  12 ELLIPTICITY            1 - B_IMAGE/A_IMAGE                                       
         1 -13.7822    176.2334     85.0526   1.4883092165e+01   2.9450838869e+01     2.377439     1.427292   9.48  0.007235133    5.417    0.815
         2 -12.3476    197.5649     30.6796   3.5775452238e+02   3.2832692655e+01     1.590312    0.6834248 -48.32  0.007414962    1.954    0.488
         3 -12.9895    188.4516     34.6039   3.5966252286e+02   3.4355845160e+01    0.6780056    0.5785272 -41.25  0.001854205    1.156    0.135
         4  99.0000     35.8273     21.3844   3.3793478714e+01   7.1680673637e+01     3.549927     1.343628  47.42   0.01354315    3.139    0.681
         5 -11.1543     76.4460      6.7861   7.6429961175e+00   6.5092793043e+01    0.6870598    0.6083769  17.19   0.00178871    1.199    0.166
         6 -12.4047     64.9310      4.7829   9.9872092921e+00   6.8011806864e+01    0.7221655    0.4552988  36.87  0.001465613    1.611    0.379
         7 -13.8155     35.4210     56.2091   4.9844220054e+01   6.4480680157e+01     1.886185     1.407503  -3.58  0.008275613    1.563    0.360
         8 -13.5930     23.9482     41.7362   5.1314189112e+01   6.9203853701e+01     1.980178     1.170242 -17.99  0.009042807    2.182    0.542
         9 -13.9774      8.3990     35.7314   5.9770829487e+01   7.1986253342e+01     1.669459    0.9130074 -56.23  0.008522321    1.581    0.367
        10 -13.4001     79.3445     21.8682   1.4551975223e+01   6.2658019294e+01     1.708025    0.6682454  46.40  0.003788707    2.538    0.606
        11 -14.0221      7.0375     68.4246   6.8640376812e+01   6.3956008345e+01     1.402165     1.000343  86.53  0.006643376    1.449    0.310
        12 -13.5294     54.5849     56.6924   4.0321548546e+01   6.1515505443e+01     2.234221      1.44396  88.35  0.008385074    3.191    0.687
        13 -13.4076     51.4249     44.7972   3.7001197075e+01   6.4603255341e+01    0.9403496    0.6387197 -20.91  0.001554454    1.855    0.461
        14 -14.2024     79.8702     44.9698   2.5007524182e+01   5.8914560108e+01     1.408997     1.119257 -55.83  0.007261864    1.362    0.266
        15 -13.5184     63.6406     37.3816   2.7971966656e+01   6.3718265265e+01     1.209498     0.694822 -56.99  0.001249334    2.349    0.574
        16 -13.8056    227.3147     63.6256   2.9201026756e+00   2.2496579743e+01     1.747348     1.231242 -43.94   0.01082105    1.121    0.108
        17 -11.5355    244.3175     22.2154   3.5247549008e+02   2.4516814635e+01    0.6391009    0.3610876  89.55  0.002565383    1.945    0.486
        18 -11.0152    211.1978     21.9015   3.5446372305e+02   3.0968947245e+01    0.5593359    0.3125991  67.70  0.002483169    1.961    0.490
        19 -11.7612    232.8261      3.0935   3.4891678014e+02   2.8664314910e+01    0.9223148     0.324431 -34.88   0.00474057    2.098    0.523
        20 -13.8822    244.6046      8.6900   3.4960514629e+02   2.5911240376e+01    0.9868526    0.3608381 -67.95  0.004815036    2.827    0.646
        21 -12.7897    219.8936     27.8397   3.5526357244e+02   2.8514334426e+01    0.4559899    0.3553759 -35.17 0.0008662821    1.247    0.198
        22 -12.8620    221.5848     39.4626   3.5785997748e+02   2.6771993235e+01    0.8200006     0.372274 -57.22  0.001281074    2.122    0.529
        23 -13.6255    227.8542     24.0279   3.5384534888e+02   2.7389249456e+01    0.7660075    0.5200711 -46.05  0.002342146    1.135    0.119
        24 -12.2633    228.1415     15.5465   3.5190962190e+02   2.8273357505e+01    0.3655292    0.3238373 -44.59 0.0007610007    1.245    0.197
        25 -13.1312    221.1292     10.2218   3.5107972167e+02   3.0218295085e+01    0.5929915    0.4633919 -56.55  0.004128684    1.032    0.031
        26 -10.8741    113.0693     22.6879   6.4459069943e+00   5.4244882595e+01    0.6322184    0.4449892  -9.42  0.003138699    1.793    0.442
        27 -11.9549    113.0192     14.5674   3.1674877026e+00   5.5180471755e+01    0.3834986    0.2921311   7.29 0.0006223077    1.674    0.403
        28 -12.4781    116.4470      7.4916   3.5973936285e+02   5.5014406101e+01    0.5947043    0.4316452 -14.85  0.002043254    1.602    0.376
        29 -11.4128     20.5402     22.0107   4.4591188183e+01   7.3776503848e+01    0.4235761     0.228056 -58.92 0.0009240875    2.209    0.547
        30 -10.8826    203.4908     17.9381   3.5403226276e+02   3.3034871639e+01    0.3981047    0.2704044  38.06  0.001408396    2.250    0.555
        31  -9.6203    124.4821      8.4669   3.5894801764e+02   5.2874197379e+01    0.1857191    0.1181144 -42.12 6.461506e-05    1.549    0.354
        32  -9.9468    130.2356     10.9502   3.5908410253e+02   5.1168675933e+01    0.2350941    0.1948035  89.84 0.0007021926    1.102    0.093
        33 -10.7680    125.4672     16.5129   1.8465780622e+00   5.1801523977e+01    0.5401775    0.1754552 -26.29  0.001946977    3.191    0.687
        34 -11.4640    125.6293     12.2460   2.1471510876e-01   5.2209209856e+01    0.6376627     0.239134  75.80  0.001367948    2.713    0.631
        35 -13.0094     67.2325     14.0347   1.4500542217e+01   6.6458734006e+01    0.8245671    0.4456469  54.03  0.001038316    1.696    0.410
        36 -10.2378    154.7709     14.9695   3.5747919696e+02   4.4609699401e+01    0.2653017    0.1820892  -2.38  0.001079122    2.042    0.510
        37 -11.0077    150.3682     13.4128   3.5746290976e+02   4.5860208194e+01    0.2484188    0.2080466 -59.59 0.0006619905    1.086    0.079
        38 -11.4770     13.9565     12.3164   4.4178708105e+01   7.6404618552e+01    0.2394515    0.2175961  59.84 0.0003761289    1.493    0.330
        39  -8.7242    102.8423     10.1083   3.1701438917e+00   5.8222655006e+01    0.4110616    0.2359584 -54.85  0.001911088    1.961    0.490
        40  -9.1538    107.4783      9.5950   2.0889561636e+00   5.7097376914e+01    0.5391929     0.271965 -31.65  0.002247847    2.006    0.501
        41  -9.4689    110.2717      7.6758   7.9847148961e-01   5.6570891145e+01    0.2084788    0.1264824  74.70 0.0002413385    1.536    0.349
        42 -11.2958     38.1054     12.3740   2.6808389153e+01   7.2726902110e+01    0.2144559    0.1829655  -4.53 0.0003267066    1.138    0.121
        43 -10.0248     88.7276     12.0089   7.1078347272e+00   6.1561847543e+01    0.1788106     0.166017  -8.38 0.0004696048    1.177    0.150
        44 -12.7867    173.2776      6.2288   3.5313057866e+02   4.1048348838e+01    0.4535315    0.2790169 -23.90  0.002045981    1.753    0.430
        45  -9.2279    143.7996      9.4768   3.5689160965e+02   4.7894365944e+01    0.3929599    0.1332803 -42.52  0.001370029    2.612    0.617
        46  -9.4912    142.1065      3.9812   3.5520943251e+02   4.8837237594e+01    0.1853803    0.1598933  65.13 0.0003588931    1.213    0.176
        47  -9.8859     44.1903      8.3580   2.0807709774e+01   7.2112746352e+01     0.313359    0.1877789  48.52   0.00162617    1.570    0.363
        48 -10.6020     48.9797      6.4130   1.7204326800e+01   7.1368906055e+01     0.373401    0.2996568  20.97  0.001906541    1.237    0.192
        49 -11.8163     46.0638      2.6213   1.5971126975e+01   7.2409429582e+01      0.23395    0.1897608   8.68 0.0001002859    1.252    0.201
        50 -11.1857    195.2643      7.6201   3.5196400951e+02   3.5910983362e+01    0.3384761     0.199093  75.82  0.001908494    1.713    0.416
        51 -10.1263    164.7217      7.7826   3.5428618682e+02   4.2927058920e+01    0.2206386      0.15879  73.96  0.001269161    1.360    0.265
        52  -9.7008     84.7520      6.9899   5.6034454934e+00   6.3050438549e+01    0.1536552    0.1164173 -21.77 0.0006046497    1.439    0.305
        53  -9.2500    207.5742      3.2234   3.5014578742e+02   3.3705198155e+01    0.1388454    0.1070981 -29.10 0.0005056504    1.384    0.278
        54  99.0000    209.8770      6.1428   3.5072861953e+02   3.2932708826e+01    0.2760442    0.1582738  76.87  0.001602297    1.801    0.445
        55 -11.1799    217.4868      2.4913   3.4947422935e+02   3.1734177032e+01    0.2136316    0.1725105 -60.96 0.0005223703    1.078    0.072
        56 -10.5118    213.4953      2.4968   3.4966940930e+02   3.2547073419e+01    0.2468205    0.2056772 -41.56  0.001739386    1.218    0.179
        57 -10.2411     99.4806      5.6676   1.8338755980e+00   5.9495169430e+01    0.3098558    0.1449924  69.33 0.0009277868    1.942    0.485
        58  -9.7939    188.6236      4.9494   3.5169262818e+02   3.7650991180e+01    0.1740389    0.1020588 -36.87 0.0003911156    1.505    0.335
        59 -10.1390    184.3546      3.2960   3.5152667422e+02   3.8774614349e+01    0.2723124    0.1291073  63.58  0.001089495    2.216    0.549
        60 -10.7202     26.3095      9.4656   3.2450203934e+01   7.5184861709e+01    0.3749545    0.2088564  28.16  0.001880749    1.884    0.469
        61 -10.7506     55.8292      3.5548   1.2470406793e+01   7.0201575988e+01    0.4210968    0.1965642  40.73  0.001290871    2.146    0.534
        62  -9.8198    154.8956      2.5708   3.5353320403e+02   4.5801510902e+01    0.1917252     0.154954 -41.89 0.0005777186    1.217    0.179
        63 -10.5045      3.2777      6.2791   5.0426984740e+01   7.8626164844e+01    0.2705196    0.1462145   0.23  0.001277803    2.158    0.537
        64 -10.1680    126.8780      1.7607   3.5610834378e+02   5.2871022589e+01    0.1879967    0.1604327  71.91 0.0003427422    1.124    0.110
        65 -11.1167     87.8589      1.2505   2.0409763722e+00   6.2796599868e+01    0.3394222    0.1008475  68.01  0.000495186    2.943    0.660
        66 -11.4624    147.0492     78.4400   1.8527942261e+01   3.7119806318e+01    0.4273444    0.2976927 -48.24  0.001155492    1.362    0.266
        67 -11.8767      3.0785    247.2978   8.1563638686e+01   2.0496502982e+01    0.5372008    0.2089655  81.44  0.002884402    2.598    0.615
        68 -12.8508    102.5148     96.6779   3.5325984052e+01   4.3143364189e+01    0.7408553    0.5399998  11.16  0.001465581    2.016    0.504
        69 -11.7881     95.2994     90.0124   3.5678966700e+01   4.6166387921e+01     0.480776    0.4096489 -87.89 0.0008979961    1.313    0.239
        70 -12.0591    107.0057     86.8233   3.1095001269e+01   4.4439056508e+01    0.5086519    0.3677917  42.20  0.001713899    1.442    0.306
        71 -11.9761    114.2031     86.5997   2.8953035666e+01   4.2923474412e+01    0.4616169    0.3530934  44.95  0.001650471    1.355    0.262
        72 -12.9412    114.6807     80.6815   2.7008845206e+01   4.4074137556e+01    0.7797135    0.4844177 -45.70  0.002287147    1.568    0.362
        73 -11.2398     87.2129     98.0964   4.0651984817e+01   4.5818849309e+01    0.4305977    0.3829479   6.99  0.001184718    1.306    0.234
        74 -11.6808     82.0502     98.8115   4.2616259583e+01   4.6600051303e+01     0.368261    0.2834823  62.05  0.001727476    1.450    0.311
        75 -10.8603    246.9844     92.6521   7.2090207111e+00   1.5069421157e+01    0.2700571    0.2242551   3.21  0.001404064    1.529    0.346
        76 -11.4603    250.2206     97.6686   7.8987230083e+00   1.3865579806e+01    0.2812282    0.1486878 -39.04 0.0005180383    1.428    0.300
        77 -10.3971    250.5049     93.5283   7.0219605174e+00   1.4397300125e+01    0.2707211    0.1218738 -32.05 0.0007506772    1.817    0.450
        78 -12.2154    199.6134     96.3942   1.3999072314e+01   2.2790748344e+01    0.3381402    0.2741437 -50.01  0.001988166    1.140    0.123
        79 -10.7741     11.6827     98.0477   7.0764379215e+01   5.5731662715e+01    0.2080671    0.1638955 -76.15 0.0007367509    1.125    0.111
        80 -10.5060     16.9566     97.0087   6.8353776512e+01   5.5648401055e+01    0.2118925     0.189134 -71.64 0.0003242733    1.027    0.026
        81 -12.4780     46.0237     93.1834   5.5107438544e+01   5.3734360085e+01    0.6247182     0.327766  32.35  0.002622084    1.953    0.488
        82  -8.9930    239.2399     94.3537   8.4073282792e+00   1.6069990950e+01    0.1184682   0.08330609 -17.30 0.0001691018    1.580    0.367
        83 -12.7624     59.2985     90.7707   4.9026392173e+01   5.2487396771e+01    0.4926118    0.3962927 -78.68  0.001652517    1.317    0.240
        84 -11.4333    182.3293     49.1387   4.3095910719e+00   3.3782721161e+01    0.7050716    0.6066881   0.91  0.002211679    1.521    0.343
        85 -11.8579    206.9876     89.2802   1.1263054296e+01   2.2531363999e+01    0.2470904    0.2300027 -42.48 0.0009547875    1.107    0.096
        86 -11.8563    207.4922     85.0512   1.0195564210e+01   2.3099528227e+01    0.2730977    0.2320405 -31.80 0.0008162939    1.133    0.117
        87 -14.8259     67.1001     83.5362   4.3890834946e+01   5.3047648029e+01     2.486058     1.373289  56.09  0.009529913    2.372    0.578
        88 -14.7868     41.4511     77.6660   5.3300935058e+01   5.8388934963e+01     1.976073     1.515494 -22.58   0.00993943    1.499    0.333
        89 -13.9334     98.4373     71.4854   2.8809833518e+01   4.9615118137e+01     1.945808     1.762927  54.68   0.01025129    1.115    0.103
        90 -13.7410    118.0931     62.5869   2.0188903620e+01   4.6854052610e+01      1.42686    0.8740802 -61.02   0.00592507    2.000    0.500
        91 -11.3467     99.2522     54.8449   2.2610462022e+01   5.2718211214e+01     1.323172    0.6799639  38.60  0.005057072    2.380    0.580
        92 -11.1639     15.2003    238.8185   7.8819686755e+01   2.1042605049e+01    0.2983164    0.1941548   2.06  0.001553409    2.219    0.549
        93 -10.5058     26.8218    207.1926   7.4805036443e+01   2.6464983729e+01    0.1569327    0.1493728 -29.87   0.00107794    1.354    0.262
        94 -10.0262    236.8702    146.1217   1.9215483543e+01   8.8280998652e+00    0.1708247    0.1387177 -33.90 0.0004174537    1.170    0.145
        95 -10.2644    250.1816    131.9986   1.4735460430e+01   9.0337095723e+00    0.1732057     0.131747 -29.70 0.0005004341    1.014    0.014
        96 -12.8976      4.4888     56.9346   6.7940475736e+01   6.7051374515e+01    0.9700651    0.5744171 -52.71  0.005007783    1.454    0.312
        97 -11.1053    228.6889    119.0046   1.4905624903e+01   1.4104757283e+01    0.2868008     0.183906  47.43 0.0006897301    1.916    0.478
        98  -9.9803    222.3172    124.7025   1.6981217137e+01   1.4234566887e+01    0.1931876    0.1524091 -40.34 0.0005384749    1.143    0.125
        99 -10.9056    220.0916    121.0887   1.6539099461e+01   1.5160639609e+01    0.4228177    0.2593473  61.47  0.002224141    2.366    0.577
       100 -10.1315    196.2014    123.0661   2.0677614615e+01   1.8899053733e+01    0.2548569    0.1670999 -50.70  0.001143628    1.569    0.362
       101 -11.0435    247.7789    118.2180   1.2323759605e+01   1.1327699022e+01    0.4203812    0.2287102 -48.70  0.002332741    1.866    0.464
       102 -11.0290    181.1030    115.5356   2.1594761415e+01   2.3016294541e+01    0.4605152    0.4299899  30.99  0.002767567    1.182    0.154
       103 -14.0313     77.2931     58.8495   3.1556545718e+01   5.6769807320e+01      1.12104    0.4431341  45.48  0.004007343    2.550    0.608
       104  -9.4662     50.4830    117.4135   5.8271635390e+01   4.6622349870e+01    0.1485558    0.1400008  88.38 0.0001083047    1.015    0.015
       105 -13.2992     60.9592     43.2920   3.1854029528e+01   6.3151529643e+01    0.4910491    0.4401928 -66.80 0.0005423365    1.258    0.205
       106  -9.6917    171.8041    116.5627   2.3582482811e+01   2.4619429469e+01    0.2076411    0.1659341 -45.90  0.001110628    1.170    0.145
       107 -11.7198    237.4853     86.5254   6.9299758391e+00   1.7481509298e+01    0.3475617     0.268294  81.59 0.0007440984    1.679    0.404
       108 -11.1601    233.5329     84.4906   6.9201065456e+00   1.8444077587e+01    0.2943319     0.237229  83.62  0.001015175    1.551    0.355
       109 -13.7120     17.9599     63.7504   6.1692801168e+01   6.4428444598e+01     1.758369    0.7301068  48.57  0.006508681    3.246    0.692
       110 -10.6563     17.2960     83.4344   6.6065449653e+01   5.9305946742e+01    0.3904451    0.1897113 -28.99  0.001543336    2.673    0.626
       111 -12.5163    248.9184     83.0857   5.0246746508e+00   1.6085654506e+01    0.2469501    0.2076247 -46.23 0.0004508127    1.125    0.111
       112 -11.0256    238.0974     81.0263   5.6801837741e+00   1.8156943066e+01    0.1798368    0.1527128 -43.33  0.001237842    1.090    0.082
       113 -12.2914    241.2369     73.1680   3.6722528671e+00   1.8712608975e+01     1.260143    0.3954303 -39.51  0.004127382    2.297    0.565
       114 -12.5985    249.2997     72.8704   2.8555235474e+00   1.7405182921e+01     1.425661    0.1678587 -36.75  0.004568365    4.597    0.782
       115  -9.7277    172.2447    112.7804   2.2591828047e+01   2.5246109727e+01    0.1928842    0.1638691  -6.45 0.0007494542    1.339    0.253
       116 -11.3965    126.4583    115.9993   3.3680350980e+01   3.3832793215e+01    0.3331334    0.2217848  42.82 0.0007136643    1.552    0.355
       117 -12.2161    205.0828    116.7916   1.7847904523e+01   1.8396707702e+01    0.4094709    0.3053393  75.84 0.0005832061    1.954    0.488
       118 -10.0987    196.3795    113.2097   1.8426038293e+01   2.0564968655e+01    0.2633304    0.1645248 -50.22 0.0009344735    1.596    0.374
       119 -11.5531    197.3898    107.7050   1.6995568584e+01   2.1317427330e+01     0.459998    0.4147704 -47.39  0.002845621    1.090    0.083
       120 -11.0125    191.8590    104.0253   1.7020990702e+01   2.2993799935e+01    0.3555214    0.1641371 -46.59  0.001257063    2.035    0.509
       121 -10.5224     65.7772    114.5993   5.2162928231e+01   4.5239259849e+01    0.2223266    0.1352391  44.51 0.0009478745    1.676    0.403
       122 -12.0939    233.2382     36.5164   3.5629298508e+02   2.4897762852e+01    0.4893902    0.2045274 -64.08  0.001421529    2.801    0.643
       123 -10.0358    210.6091    111.9143   1.5927986769e+01   1.8230522475e+01    0.2516768    0.1682228  57.21  0.001274579    1.863    0.463
       124 -12.3444    238.1767     51.4307   3.5921729271e+02   2.2132055900e+01    0.6511806    0.2021249 -43.24  0.002130168    2.318    0.569
       125 -13.2897    230.4523     46.4926   3.5875010758e+02   2.4181909233e+01    0.8642552    0.5456555  53.92  0.005021496    2.048    0.512
       126 -10.8263    140.2964    111.9471   2.9215756989e+01   3.1892728748e+01    0.2284091    0.1958539 -43.54  0.001153022    1.116    0.104
       127  -9.7003    236.8047    110.3692   1.2057842119e+01   1.4123359618e+01    0.1429108    0.1136855  30.98 0.0004039435    1.576    0.365
       128 -11.3469     83.0410     79.4167   3.6603977713e+01   5.1086252929e+01    0.5422942    0.2472887  43.68  0.002013358    2.233    0.552
       129 -10.8918     86.8900     76.0340   3.4151826317e+01   5.1082628618e+01    0.5751824    0.3055814 -55.31   0.00200383    2.023    0.506
       130 -11.1588     84.3600     71.6962   3.3590343948e+01   5.2566229485e+01    0.4976752    0.3656485  16.32 0.0008694951    1.842    0.457
       131 -10.8034     70.5190     70.4692   3.8390098850e+01   5.5557142754e+01    0.3221638    0.2628011  50.28  0.001003094    1.277    0.217
       132 -12.4330     73.8927     75.2707   3.8665219418e+01   5.3813857448e+01     0.852368    0.5472757  52.70 0.0009113305    1.725    0.420
       133 -10.8754     74.5284     70.0678   3.6678373658e+01   5.4887967055e+01    0.4615368    0.2509353 -37.24  0.001820192    2.097    0.523
       134  -9.7921    155.3003     76.8214   1.6405789835e+01   3.5527486884e+01    0.2059027    0.1818128  79.53  0.001115319    1.184    0.155
       135 -12.0069    136.7699     71.5183   1.8656834552e+01   4.0785747223e+01     1.204757    0.3994319  57.19  0.003847555    3.303    0.697
       136  -8.8932    136.4772     62.0324   1.5730970420e+01   4.2553154641e+01    0.2946447    0.2540804  52.75 0.0007143771    1.222    0.182
       137 -10.9821    136.5002     57.6719   1.4316424408e+01   4.3291638461e+01    0.4712342    0.2982487 -72.43  0.001986022    2.099    0.524
       138 -11.7476    154.6777     64.6853   1.2978394456e+01   3.7774391264e+01    0.6273326    0.3526119 -36.58  0.001888763    1.700    0.412
       139 -11.4612    152.0473     59.1672   1.1791067323e+01   3.9306702223e+01    0.3175497    0.2665729  17.47 0.0003330591    1.561    0.359
       140 -10.8584    142.1444     55.0782   1.2352057088e+01   4.2351033561e+01    0.3047147    0.2823608 -11.33  0.001697102    1.254    0.203
       141 -10.3919    145.8070     52.3437   1.0792745287e+01   4.1898237186e+01    0.3480775    0.2158025  38.81  0.001360617    2.113    0.527
       142 -11.5237    143.9222     67.7746   1.5983030468e+01   3.9776486393e+01    0.4648055    0.3840635  81.89  0.002131409    1.280    0.219
       143 -11.6230    148.0851     65.0839   1.4334187654e+01   3.9260002930e+01    0.6264319    0.3570919 -62.85  0.002524455    2.250    0.556
       144 -11.7578    144.9052     59.8782   1.3341489804e+01   4.0896460660e+01     0.597458    0.4143011  25.43  0.002630173    2.171    0.539
       145 -10.7991    127.1885     58.7866   1.6708500627e+01   4.5354678400e+01    0.4306428     0.274771  32.43  0.001804866    2.187    0.543
       146 -11.7756    173.7363     56.8817   7.6189945140e+00   3.4597396382e+01    0.2833412    0.2555574 -47.23 0.0003739636    1.082    0.076
       147 -10.4118    168.0749     51.5814   6.9292290324e+00   3.6699743624e+01    0.4126772    0.2300375  48.35  0.001357271    2.121    0.529
       148 -11.2331    161.0385     51.4973   7.9659730857e+00   3.8368579147e+01    0.5076252    0.3326584 -25.74  0.002441979    1.694    0.410
       149 -11.0717    162.5174     57.1193   9.3983381938e+00   3.7157910987e+01    0.5910952    0.3979057 -28.26  0.002891183    1.582    0.368
       150 -10.6279    156.4350     54.4391   9.5935596802e+00   3.9013243433e+01    0.4517202    0.2151809  58.02   0.00120745    2.137    0.532
       151 -11.2043    244.9856     53.4550   3.5910892608e+02   2.0670004665e+01    0.4655505    0.1552179 -31.23  0.001704294    2.599    0.615
       152  -9.7330    250.1249     55.0722   3.5904935848e+02   1.9584072852e+01    0.1679465     0.130595 -33.05 0.0006682594    1.216    0.178
       153 -10.8712     68.0355     52.1235   3.2572668679e+01   6.0017813231e+01    0.4231973    0.2004557 -48.83    0.0014022    2.170    0.539
       154 -11.3538    123.3628     53.6523   1.5830966679e+01   4.7162780387e+01    0.3679372    0.2558878  69.43 0.0005633143    1.517    0.341
       155 -10.5248    131.2940     51.9180   1.3489808697e+01   4.5510687922e+01    0.3346836    0.2169652 -77.42 0.0009870694    2.034    0.508
       156 -10.7464    249.8353     49.9997   3.5800451887e+02   2.0269423439e+01    0.3365711     0.157378 -36.19  0.001425662    1.611    0.379
       157  -9.5944    120.8882     44.3791   1.3094089138e+01   4.9274880032e+01     0.357818    0.2811704  89.83  0.001818388    1.367    0.268
       158 -12.2642    133.5423     46.6591   1.1243783254e+01   4.5789264407e+01    0.3664111    0.2984018  73.45 0.0006769511    1.218    0.179
       159 -11.9414    125.9193     45.9709   1.2568802743e+01   4.7781615425e+01    0.3513312    0.3105024 -88.88 0.0003514206    1.112    0.100
       160 -11.5640    132.8577     40.4652   9.2437662086e+00   4.6885763746e+01    0.5177473    0.3301758 -56.39  0.002160954    1.640    0.390
       161  -9.9649    143.1119     45.9309   9.2076534517e+00   4.3540058538e+01    0.4439527    0.2233319  42.85  0.001738569    2.598    0.615
       162  -8.4858    165.9564     31.0271   1.1467653387e+00   4.0023189678e+01    0.7009742    0.5175708 -39.15  0.003893982    1.277    0.217
       163 -12.0474    149.4958     40.8244   6.4794221714e+00   4.2713613758e+01    0.6843252    0.6042178  75.83   0.00306215    1.133    0.118
       164 -10.9672    156.3340     41.9051   5.7649611112e+00   4.0894171531e+01    0.2422034    0.2344905 -22.56 0.0006205486    1.198    0.165
       165 -11.9283    160.8617     40.4365   4.6552916226e+00   4.0005838747e+01    0.6686844    0.3607482  43.81  0.002868152    2.446    0.591
       166 -11.6055    161.4902     35.9298   3.1966394757e+00   4.0463180897e+01    0.2949944    0.2556172 -73.72 0.0007664021    1.052    0.050
       167 -11.0634    157.9445     36.0143   3.7059922806e+00   4.1309579098e+01    0.2611119    0.1896142  83.54 0.0007284604    1.379    0.275
       168 -10.5933    104.1752     42.5510   1.6470501266e+01   5.3667906790e+01    0.5947123    0.2616529  70.52  0.001898884    3.568    0.720
       169  -9.8092    102.5170     46.5645   1.8494744506e+01   5.3408399036e+01    0.2454169    0.1304869  46.22 0.0001156652    1.946    0.486
       170  -9.5956     99.4473     46.4781   1.9328517179e+01   5.4155262597e+01      0.21327    0.2025367 -66.53  0.001184061    1.052    0.049
       171 -10.2831     97.5691     42.7656   1.8385481965e+01   5.5222700792e+01    0.2563982    0.2199307 -56.46 0.0004923573    1.202    0.168
       172 -10.7070     93.8748     42.1165   1.9206034200e+01   5.6206199368e+01    0.2836091    0.2550507  60.36 0.0003456088    1.089    0.081
       173 -11.3023    247.7729     41.0826   3.5626845716e+02   2.1717465376e+01    0.3786453    0.2970597 -46.23  0.002716778    1.074    0.069
       174  -9.9750    124.0163     39.3228   1.0583757657e+01   4.9259736271e+01    0.2046621    0.1761025  75.91 0.0003354484    1.128    0.113
       175 -12.0832     91.8573     33.5597   1.6174981069e+01   5.8034802437e+01    0.6607317     0.399698  37.73  0.002935866    1.911    0.477
       176 -10.9793    131.6511     33.7339   7.1024363119e+00   4.8131735195e+01    0.3298811    0.2050777 -49.73 0.0002932778    1.595    0.373
       177  -9.2057    106.6213     35.7312   1.3130256762e+01   5.4115771704e+01     0.150577    0.1065351  34.35 0.0006992446    1.687    0.407
       178 -11.1366    239.7161     32.3131   3.5492272156e+02   2.4199940225e+01    0.3548855     0.169005 -39.87 0.0005105702    1.549    0.354
       179 -10.1673    112.7517     32.0206   1.0226231437e+01   5.3117585331e+01    0.4232085     0.313276  40.10  0.001886366    1.509    0.337
       180  -8.8238    114.4977     28.3926   8.4239773494e+00   5.3165916565e+01    0.3326159    0.1291121  62.62 0.0001107056    2.408    0.585
       181 -10.6461    211.0898     31.2474   3.5674806035e+02   2.9896990194e+01    0.3601764    0.1881796 -32.98  0.001885658    1.685    0.407
       182 -10.3302    122.0560     32.7433   8.5545764859e+00   5.0680745624e+01    0.2240492    0.1808408 -53.90 0.0003881145    1.224    0.183
       183  -9.6678    120.4481     28.4646   7.2562198115e+00   5.1654475499e+01    0.2112322    0.1519524 -64.86 6.589088e-05    1.477    0.323
       184 -11.8775     97.3610     22.2378   9.7199793249e+00   5.8243451144e+01    0.2691793    0.2570884  24.44 0.0005337403    1.127    0.112
       185 -11.9661    103.9834     29.5057   1.1230036451e+01   5.5650733259e+01    0.4323294    0.3495671  82.83  0.001327171    1.271    0.213
       186 -10.4108    102.0164     23.4099   9.1219230576e+00   5.6938038570e+01     0.239338    0.1978876 -31.55 0.0005486443    1.275    0.216
       187  -9.8252    101.4505     19.5076   7.5667582103e+00   5.7553903696e+01    0.2304844    0.1737466 -14.68 -1.97793e-06    1.536    0.349
       188 -11.6085    149.9945     22.4485   4.5449303872e-01   4.4956118657e+01    0.3964608     0.273295  36.34 0.0003168934    1.916    0.478
       189 -11.9013    159.1329     26.4528   5.8372169316e-01   4.2235046859e+01     0.347746    0.2588074 -11.30  0.001640161    1.706    0.414
       190 -10.7773    154.0557     25.8015   1.0150626960e+00   4.3556017651e+01    0.3363196    0.2406214 -68.70  0.001069316    1.348    0.258
       191  -9.3342    154.4789     30.4924   2.4502065966e+00   4.2872322410e+01    0.1390812    0.1247009 -70.38 -4.328201e-05    1.014    0.014
       192 -10.5283    138.4265     29.2822   4.4002758646e+00   4.7013312028e+01    0.3851131    0.1852615 -15.22  0.001409977    3.249    0.692
       193 -10.1995     90.5141     27.5050   1.3876993215e+01   5.9230068248e+01     0.192528    0.1676186 -48.69 9.040518e-06    1.195    0.163
       194  -9.7885     80.4388     30.4351   1.8315957585e+01   6.1192593145e+01    0.1977591    0.1889535  51.07 0.0001147721    1.010    0.009
       195 -10.9520     85.4146     29.0705   1.6093303722e+01   6.0229172888e+01    0.5012019     0.234478  51.78  0.002081462    2.004    0.501
       196 -10.5639    134.9277     26.4950   3.9850663239e+00   4.8243066896e+01    0.2910784    0.2334741 -11.84 0.0009314307    1.507    0.336
       197 -11.6626    134.5030     21.0122   2.1090686510e+00   4.9004885817e+01    0.4188792    0.3160151  82.74  0.001145879    1.262    0.207
       198 -10.2637    108.9968    109.2208   3.6769063191e+01   3.8896545197e+01    0.2082407    0.1280711  42.20 0.0005824763    1.665    0.399
       199 -11.2161    209.8119    105.1582   1.4531424655e+01   1.9466628340e+01    0.4179021    0.2922642 -62.13  0.002266249    1.716    0.417
       200 -12.2058    160.7797    104.5431   2.2813883846e+01   2.9140950816e+01    0.5165838    0.2564826 -45.94 0.0002522335    1.896    0.473
       201 -11.4954    159.7406     95.8811   2.0776714301e+01   3.1021121737e+01    0.4118546    0.2316782  58.12  0.001054848    2.030    0.507
       202 -11.1851    124.2115     24.0020   4.8727413397e+00   5.1260115039e+01    0.4003754    0.1944797  69.09   0.00161195    1.987    0.497
       203  -9.6256    169.9845     23.0131   3.5831352887e+02   4.0032634043e+01    0.1611822    0.1293952 -45.69 0.0003829165    1.152    0.132
       204  -9.2970    170.3693     19.3167   3.5718837314e+02   4.0363384037e+01    0.1975953    0.1279537 -20.53  0.001017791    1.781    0.439
       205  -9.1515    180.6235     20.7016   3.5660944298e+02   3.7807712037e+01    0.3308109     0.171012 -61.07 0.0005211052    1.872    0.466
       206 -10.4340    176.0344     25.1084   3.5829622470e+02   3.8361982081e+01    0.4087575    0.1631889 -61.70   0.00153852    3.047    0.672
       207 -11.4844    161.8764     20.1313   3.5831584959e+02   4.2308422496e+01    0.3871059    0.2543356  87.58 0.0008878979    1.486    0.327
       208 -11.5099     15.4367    106.6538   7.0254950549e+01   5.3116277891e+01    0.2592645    0.2313446 -78.50 0.0002549372    1.023    0.022
       209 -10.3515    200.5826     15.7815   3.5369439722e+02   3.3895707153e+01    0.1941139     0.141411 -70.91 0.0003047055    1.208    0.172
       210 -11.2303    148.8385    103.9142   2.5186712803e+01   3.1770300821e+01    0.2370566    0.2225531 -52.89 0.0009227281    1.018    0.018
       211 -10.7751    144.3818    103.1267   2.5982066701e+01   3.2875358799e+01    0.3311671    0.3102527 -33.92  0.001061355    1.073    0.068
       212  -9.5338     90.6328    104.2840   4.1160801743e+01   4.3653731654e+01    0.1627371    0.1203237  73.13 0.0007018077    1.694    0.410
       213 -12.6668    182.8382     96.6188   1.6716878741e+01   2.6061786380e+01    0.9280537    0.7360505   5.88  0.003719204    1.672    0.402
       214 -10.6568      5.2239     19.1289   5.5672018629e+01   7.5890742379e+01    0.3040161    0.1890777 -28.13 0.0008467824    1.540    0.351
       215  -9.7312    194.4837     18.4686   3.5483773109e+02   3.4931271521e+01    0.1307193    0.1031732 -59.43 0.0003297445    1.036    0.035
       216  -9.0260    121.7092     17.3104   2.7562006685e+00   5.2670762521e+01    0.1445131   0.09629379 -63.44 0.0002576065    1.584    0.369
       217 -11.6941     12.6788    247.4892   7.9620928341e+01   1.9640632223e+01    0.2855408    0.1826578  86.26  0.001950256    1.610    0.379
       218 -10.5848    212.9884     16.0353   3.5292608152e+02   3.1250540286e+01    0.1898911    0.1322196 -55.99            0    1.141    0.124
       219 -12.9458    195.9764     56.3666   4.5601268249e+00   2.9760636221e+01     0.822463    0.7308035  69.00  0.003742247    1.277    0.217
       220  -9.5281    102.3137     14.8409   5.3471952122e+00   5.7864750572e+01    0.1821984    0.1301261 -12.80 0.0009291767    1.652    0.395
       221  -9.9872    160.2514     13.9393   3.5658148909e+02   4.3379407628e+01    0.1776453    0.1579623 -78.47 0.0004219014    1.059    0.056
       222 -10.8018    180.3479    244.1410   4.4944555818e+01   1.7473903013e+00    0.1937503    0.1246662  13.00 0.0007951348    1.294    0.227
       223 -12.8600    190.4196     43.0335   1.7092936502e+00   3.2819225415e+01     1.510127    0.7144096  80.49   0.00656572    2.591    0.614
       224  -9.2861    187.6166     13.3161   3.5400058250e+02   3.7023131906e+01    0.1457011   0.07340842 -60.36 0.0007020382    1.823    0.451
       225  -9.6300    218.4936    239.9387   3.7793126049e+01  -1.7379382148e+00    0.1453388   0.08757025 -28.89 0.0005812409    1.531    0.347
       226 -13.0288    184.4398     61.3582   7.3411758833e+00   3.1520527511e+01     0.974986    0.7587764 -61.38  0.001767076    1.211    0.174
       227 -12.4399    219.2581     54.0818   1.5001893844e+00   2.5328484771e+01    0.7586626    0.5870813 -41.41  0.003490932    1.097    0.089
       228 -12.4732    213.6990     44.3823   3.5971188928e+02   2.7716647305e+01    0.8788449    0.6370948  77.09    0.0011403    1.524    0.344
       229 -12.3743    162.3217     83.3806   1.6909125449e+01   3.2772387506e+01    0.5128247    0.5078599 -52.70  0.003014028    1.102    0.093
       230 -12.7294    168.7961     79.1294   1.4577374850e+01   3.2090936029e+01    0.8082456    0.4215817 -47.46  0.001700094    1.803    0.445
       231 -13.7354    219.9929     70.1373   5.1782988182e+00   2.2950813559e+01     1.247012    0.5949513 -30.35  0.005927213    1.967    0.491
       232 -12.1905    171.4558     44.0198   4.2703563487e+00   3.6997213580e+01    0.6356169    0.3827619  63.53  0.001595707    1.721    0.419
       233 -12.5984    177.8853     37.5212   1.6179449411e+00   3.6382472191e+01    0.7573826    0.5443423 -64.70  0.003343063    1.302    0.232
       234 -13.2688    178.2026     70.9423   1.0818422821e+01   3.1388841316e+01     4.579288      1.57453  71.51   0.01049252    8.629    0.884
       235 -12.6818    164.8318     65.2789   1.1386034643e+01   3.5317223582e+01     1.383529    0.4543651  51.60  0.004808127    3.273    0.694
       236 -13.5486    209.9634     67.9668   5.7996792023e+00   2.5203500617e+01    0.8061591    0.5688387 -33.45  0.001468217    1.286    0.222
       237 -13.2493    202.6065     69.4112   7.0396623527e+00   2.6463448853e+01    0.9833819    0.4488776 -49.89  0.004361577    2.068    0.516
       238 -13.1341    209.5543     59.1158   3.7018664992e+00   2.6556834633e+01    0.6646165    0.5455729 -72.86  0.004181477    1.221    0.181
       239 -13.1191    121.4799    100.7628   3.1019820105e+01   3.8257442795e+01    0.6901847     0.360577 -51.76  0.002637996    1.937    0.484
       240 -11.0321    215.3049    101.3709   1.2906662628e+01   1.9090771275e+01    0.2642045    0.1753078 -21.15  0.001167977    1.643    0.391
       241 -11.7105    169.6423     97.2698   1.9224302537e+01   2.8663832998e+01     0.572378    0.3341251 -37.88  0.002610735    1.590    0.371
       242 -14.3878    195.6442     81.5390   1.0973943222e+01   2.5993413060e+01      2.72564     1.410191  68.32   0.01212804    2.535    0.606
       243 -12.3405    151.1089     97.1461   2.2902169398e+01   3.2634095846e+01    0.5987616    0.4043278 -54.88  0.002779483    1.523    0.343
       244 -12.2443    137.7893     81.8391   2.1546628128e+01   3.8594198310e+01    0.8390825    0.6512226  81.31  0.004066222    1.511    0.338
       245 -13.8795    131.3315     95.8959   2.7128218674e+01   3.7188963069e+01     1.038672    0.6348112  46.23  0.003430393    1.708    0.415
       246 -11.4815    141.1324     96.6276   2.4982524178e+01   3.4901905248e+01      0.43954    0.3567483 -89.50  0.001039736    1.471    0.320
       247 -13.1949    129.2448     89.0680   2.5705466022e+01   3.9072284688e+01      1.07353    0.5943835  28.69   0.00373822    3.081    0.675
       248 -13.2068    123.5137     84.3685   2.5773810327e+01   4.1325069075e+01     1.124832    0.7143013  -7.35  0.003382494    3.611    0.723
       249 -11.3041    128.3562     75.9043   2.1970144744e+01   4.1917676159e+01    0.4541643    0.2687923  45.86 0.0009476335    1.798    0.444
       250 -12.0332    148.2086     84.6179   2.0063556288e+01   3.5697664339e+01    0.4570072    0.3600229 -88.56 0.0007706661    1.502    0.334
