#   1 NUMBER                 Running object number                                     
#   2 MAG_AUTO               Kron-like elliptical aperture magnitude                    [mag]
#   3 X_IMAGE                Object position along x                                    [pixel]
#   4 Y_IMAGE                Object position along y                                    [pixel]
#   5 X_WORLD                Barycenter position along world x axis                     [deg]
#   6 Y_WORLD                Barycenter position along world y axis                     [deg]
#   7 A_WORLD                Profile RMS along major axis (world units)                 [deg]
#   8 B_WORLD                Profile RMS along minor axis (world units)                 [deg]
#   9 THETA_WORLD            Position angle (CCW/world-x)                               [deg]
#  10 FWHM_WORLD             FWHM assuming a gaussian core                              [deg]
#  11 ELONGATION             A_IMAGE/B_IMAGE                                           
#  12 ELLIPTICITY            1 - B_IMAGE/A_IMAGE                                       
         1 -13.5592     65.8789    141.8763   1.3530239830e+02   3.7783702657e+01     2.643696      1.20773  80.23   0.00390127    5.838    0.829
         2 -14.4408    195.8084     14.0146   6.9391931249e+01   3.4209747222e+01     2.930116      1.70501  22.22     0.010227    2.212    0.548
         3 -13.3786    200.9720      7.2197   6.6797087213e+01   3.3562878375e+01     1.273554     0.594234  51.92  0.001582451    2.212    0.548
         4 -10.1779     29.5007      2.4881   1.1011749961e+02   7.3554701528e+01    0.1312672    0.1044613 -20.25 0.0001798271    1.003    0.003
         5 -10.4631    199.1198    246.8839   1.2159682250e+02   2.7989981918e+00     0.154806    0.1166309  29.50  0.001236413    1.290    0.225
         6 -11.7647    247.7086    248.4308   1.1418128631e+02  -3.0737444467e+00    0.5320162    0.2111427  28.79  0.003379782    1.841    0.457
         7 -11.1588    126.1542    250.1779   1.3432694076e+02   1.1440176798e+01    0.3185585   0.09694301  38.81  0.001413832    2.334    0.572
         8 -11.6312     95.4523    240.8756   1.3893117277e+02   1.6297605385e+01    0.3341093    0.2240579 -54.53  0.002045018    1.945    0.486
         9 -11.1646     98.7923    249.4984   1.3900681098e+02   1.4737481644e+01    0.2556973    0.1860181  50.83  0.001540113    1.200    0.167
        10 -11.6514    102.8441    248.0856   1.3819503302e+02   1.4460510602e+01    0.2688946    0.2006157  37.49 0.0004770172    1.053    0.050
        11 -11.1929     77.1737    245.1617   1.4245244320e+02   1.7737077470e+01    0.2300487     0.209623  58.21  0.001984576    1.247    0.198
        12 -10.1483     88.6693    249.3258   1.4074283115e+02   1.5900000064e+01    0.2063794    0.1125204  50.78 0.0008892319    1.541    0.351
        13 -10.7880     81.6976    248.6902   1.4190089929e+02   1.6753843410e+01    0.2702311    0.1773029  56.40  0.001179428    1.356    0.263
        14 -11.3569     84.1722    245.3575   1.4124726931e+02   1.6944533186e+01    0.4879495    0.2094468  58.98  0.002728472    2.802    0.643
        15 -11.6371     67.6546    244.3123   1.4405050539e+02   1.8871562858e+01    0.3664237     0.235341  44.45  0.002862876    1.141    0.124
        16 -10.6993     67.3214    250.4682   1.4446549186e+02   1.8035649547e+01    0.2267235    0.1351587  48.40  0.001083326    1.243    0.196
        17  -9.9863     63.7040    250.6844   1.4508890134e+02   1.8377915617e+01    0.1829697    0.1104572  41.65  0.000572337    1.206    0.171
        18 -14.5322     33.1654    246.0127   1.4997973010e+02   2.2001236190e+01     9.352594     2.092395  25.93   0.02149073   18.046    0.945
        19 -13.9586     11.1793    206.9637   1.5240473781e+02   3.0136605256e+01     1.080774    0.7738988  51.58  0.003069437    1.117    0.105
        20 -15.1482      3.1933     19.2877   1.3584500231e+02   7.2325943543e+01     23.70346     1.877138 -67.87   0.03577719   20.368    0.951
        21 -15.5422      9.4818    239.6695   1.5366808108e+02   2.4980534028e+01     6.986957     1.028454 -71.85   0.03196424    6.031    0.834
        22 -11.7606    173.6211    222.3180   1.2281100639e+02   8.8070974265e+00    0.3751831     0.275597  33.18  0.002058809    1.178    0.151
        23  -9.0213    152.6780    212.9969   1.2544730817e+02   1.2902446660e+01    0.1456536    0.1280969  15.22 0.0003037593    1.135    0.119
        24 -10.6001     33.1650    205.8594   1.4820482892e+02   2.8440676772e+01    0.2812357    0.1756115  43.67  0.001423741    1.301    0.231
        25 -10.7810    193.1991    195.1985   1.1526143904e+02   9.4433158438e+00    0.6722369    0.3882727 -60.14  0.002265041    7.802    0.872
        26 -11.6647     72.3379    197.2865   1.3976413897e+02   2.5908509246e+01    0.3286978    0.2240693 -38.13  0.002003949    2.105    0.525
        27 -11.7317     76.9614    189.9248   1.3811410743e+02   2.6697716480e+01    0.2435187    0.2122606 -44.20 0.0007428842    1.417    0.294
        28 -11.1116     85.2579    177.6432   1.3500245945e+02   2.7974289884e+01    0.2107106    0.1935383  69.64 0.0003829801    1.074    0.069
        29 -13.3099     73.0010    175.3077   1.3751112370e+02   2.9942461524e+01    0.4176702    0.2537512 -41.12  0.001614887    2.230    0.552
        30 -12.3247     91.5608    168.5995   1.3246224409e+02   2.8901193033e+01     1.053926    0.4373874  44.61  0.002729143    2.235    0.553
        31  -9.8106    162.4163    249.2292   1.2800495663e+02   7.1056311722e+00    0.1090308    0.1032554 -62.42 0.0009487364    1.636    0.389
        32 -12.1389     91.9200    151.2925   1.2996625532e+02   3.2354642587e+01    0.2621574    0.2369346 -11.06 0.0005294051    1.288    0.224
        33 -11.2734     46.4245    146.3985   1.4089181976e+02   3.8932638010e+01    0.2503988    0.1967557  69.38  0.001611976    1.172    0.147
        34  -8.4610    192.0326    144.0009   1.0590795655e+02   1.6862636001e+01    0.1610906    0.1369398   5.13 0.0003250417    1.004    0.004
        35 -12.7712     49.1878    231.7827   1.4658725765e+02   2.2626178171e+01    0.2722578     0.249029 -59.47 0.0008757219    1.503    0.334
        36  -9.2795    242.3088    138.7006   9.5983005427e+01   8.9178589456e+00    0.1121602   0.09705172 -38.28 0.0002096309    1.598    0.374
        37 -10.1056    112.6859    136.7931   1.2226503352e+02   3.2232014037e+01    0.3476309    0.2352421 -18.71  0.001098171    2.120    0.528
        38 -10.6540    100.4126    134.2303   1.2495906509e+02   3.4720794401e+01    0.2747458    0.2242687 -30.64 0.0007566641    1.375    0.273
        39 -15.1453     57.0807    219.4978   1.4443547223e+02   2.3781578375e+01      4.81957    0.9007967  36.74    0.0210798    3.320    0.699
        40 -10.1050    102.8415    151.8460   1.2735376304e+02   3.0663003261e+01     0.266193    0.2545726  35.49 0.0007973305    1.039    0.037
        41 -12.3487     42.8919    129.3305   1.3996403625e+02   4.3133641137e+01    0.4144937    0.2601374  48.94  0.002323767    1.578    0.366
        42 -10.1887    228.6053    228.0371   1.1426180881e+02   9.6980586748e-01    0.2521286     0.185546 -47.36  0.001572357    2.915    0.657
        43  -9.2742    108.9989    123.9590   1.2067227269e+02   3.5550098863e+01    0.1975037    0.1927028  11.06 0.0003140381    1.022    0.021
        44 -10.9808    168.2571    113.3970   1.0370893683e+02   2.6441447130e+01    0.3811424    0.3231712 -74.40  0.001411922    1.687    0.407
        45  -9.4414    154.4944     75.5146   9.6194576005e+01   3.6102295525e+01    0.1547593    0.1436625  -6.76 7.263266e-05    1.001    0.001
        46  -9.4869    105.3158    147.5722   1.2604400895e+02   3.1165442612e+01    0.2847492    0.1906091 -18.12  0.001115357    2.292    0.564
        47  -9.9242    186.3000    239.6318   1.2282638990e+02   5.1503916973e+00    0.1485209    0.1125944  46.38 0.0008323839    1.710    0.415
        48 -12.0150    140.9872    249.8101   1.3173302377e+02   9.6846853995e+00    0.5051671    0.1474898  34.41  0.002500317    2.587    0.613
