#   1 NUMBER                 Running object number                                     
#   2 MAG_AUTO               Kron-like elliptical aperture magnitude                    [mag]
#   3 X_IMAGE                Object position along x                                    [pixel]
#   4 Y_IMAGE                Object position along y                                    [pixel]
#   5 X_WORLD                Barycenter position along world x axis                     [deg]
#   6 Y_WORLD                Barycenter position along world y axis                     [deg]
#   7 A_WORLD                Profile RMS along major axis (world units)                 [deg]
#   8 B_WORLD                Profile RMS along minor axis (world units)                 [deg]
#   9 THETA_WORLD            Position angle (CCW/world-x)                               [deg]
#  10 FWHM_WORLD             FWHM assuming a gaussian core                              [deg]
#  11 ELONGATION             A_IMAGE/B_IMAGE                                           
#  12 ELLIPTICITY            1 - B_IMAGE/A_IMAGE                                       
         1 -12.4966      3.6544     77.0912   1.3444808734e+02   5.9121214682e+01    0.9555998    0.3173407 -59.39  0.004758592    2.104    0.525
         2 -13.4767    201.1745     13.1996   6.3488821464e+01   3.3469332836e+01     1.416947     1.054511  39.34  0.008109151    1.701    0.412
         3 -13.5662    190.2254     28.0277   6.8578971474e+01   3.4435957633e+01      2.09659     1.520975   8.25   0.01025943    2.111    0.526
         4  -8.9726    231.8689     14.3134   6.0567745324e+01   2.6106063440e+01    0.2279581    0.1743602 -41.24 0.0009398706    1.409    0.290
         5 -11.0866      6.7832     13.9799   1.1545107848e+02   7.0173095085e+01    0.2504354     0.137761 -29.24  0.001707955    1.386    0.279
         6  -9.8207    164.9697     11.9920   6.7891580099e+01   4.2413760443e+01    0.2042456    0.1781161  73.56 0.0004408015    1.023    0.023
         7 -11.1291      3.5727      4.0766   1.1289861924e+02   7.1773507687e+01     0.326713    0.2894949  44.84  0.002626206    2.241    0.554
         8  -7.9984    154.6681     39.6922   7.7699450245e+01   4.1743068349e+01    0.1470646    0.1020066  32.24 0.0002194106    1.666    0.400
         9 -10.7940    165.4033    250.0217   1.2316005450e+02  -8.4224717116e-01     0.721529    0.1868042  38.47   0.00246233    3.736    0.732
        10 -12.2079    179.3937    247.5930   1.2015855899e+02  -2.8620338311e+00      1.27732    0.3327879  35.88  0.003944346    4.681    0.786
        11 -12.4554    150.3078    247.3073   1.2565424379e+02   2.1885537583e+00      1.48702    0.5510074  35.29  0.005805227    3.014    0.668
        12 -10.1785    134.4571    249.7156   1.2897025056e+02   4.4876670373e+00    0.4515529     0.187557  49.57  0.001796292    2.059    0.514
        13 -12.8078     10.6038    206.8483   1.4786312354e+02   3.0323728413e+01    0.7242059    0.6106682  16.00  0.005361082    1.987    0.497
        14 -12.0515     35.8687    229.2005   1.4502011664e+02   2.3028125261e+01    0.6124604    0.4016995 -64.44  0.002009218    1.689    0.408
        15 -12.7696     47.8202    231.8661   1.4312277065e+02   2.1020947162e+01    0.9471428    0.6135495 -59.11  0.005949891    1.868    0.465
        16 -12.1879     54.7579    229.9041   1.4170910797e+02   2.0508603905e+01    0.6880907    0.4063758  82.79  0.001169284    1.552    0.356
        17 -15.9189     57.3050    209.2962   1.3927334476e+02   2.4433882279e+01     8.302876     3.603202  66.51   0.02229415    2.825    0.646
        18  -9.8728     92.4499    207.4768   1.3191410466e+02   1.9665032289e+01    0.2632158    0.1830887  73.15 0.0007589146    1.400    0.286
        19 -12.4420     57.5987    130.2039   1.2834082090e+02   4.2605434681e+01        1.384    0.5496648 -72.16  0.004741934    3.568    0.720
        20 -13.3250     68.1894    144.8843   1.2815035489e+02   3.7741328781e+01     6.196975     2.321558  58.16   0.01585498    7.052    0.858
        21 -11.4368     87.7023    169.6935   1.2748577336e+02   2.8948030096e+01    0.5401456    0.4643812  15.76 0.0004880683    1.555    0.357
        22 -11.7610     93.0525    162.7662   1.2503316755e+02   2.9712791606e+01     1.207662    0.8758562 -80.32  0.001981379    1.424    0.298
        23 -15.2431     13.5178    240.0181   1.4946920521e+02   2.3452886766e+01     3.368116     1.182756 -65.49   0.01821019    2.761    0.638
        24  -8.5492    167.0575    212.3742   1.1700762578e+02   5.3104666661e+00    0.2672435     0.185133 -72.41  0.001293019    2.045    0.511
        25  -9.0962    138.2337    171.4112   1.1585533081e+02   1.9395970776e+01    0.2223295    0.1351456  53.64 0.0009555932    1.680    0.405
        26  -9.4393    229.8194    166.8235   9.5524712452e+01   1.4824396035e+00    0.1962364    0.1697624 -60.58 0.0009278122    1.370    0.270
        27  -9.2050    116.6767    151.5449   1.1706218443e+02   2.8169046615e+01    0.2428502    0.2230504 -46.79 0.0003857062    1.155    0.135
        28 -10.3309     48.9107    151.6161   1.3408252713e+02   3.8597760132e+01    0.3262684    0.1951539 -57.78  0.001080156    1.494    0.331
        29 -11.5768     54.2755    146.9446   1.3204140439e+02   3.9058671196e+01    0.7155331    0.3108966 -56.04   0.00320812    2.001    0.500
        30  -9.4237     98.3435    151.3290   1.2162265501e+02   3.1534012500e+01    0.3058565    0.1578082  58.71  0.001172989    2.518    0.603
        31 -10.6080     32.6426    149.7672   1.3778527226e+02   4.0791883640e+01    0.2314011    0.2121527  22.80 0.0009236328    1.429    0.300
        32  -9.8278    104.5131    146.4976   1.1909893252e+02   3.1599564596e+01    0.3238676     0.302065  71.19  0.001061615    1.068    0.064
        33  -9.4833    106.3332    143.3609   1.1798648864e+02   3.2013790016e+01    0.3607332    0.2431118 -36.89  0.001554896    1.759    0.431
        34 -11.5891     93.6536    145.7652   1.2173887052e+02   3.3650343150e+01    0.3002268    0.2764668 -43.82 0.0005308879    1.186    0.157
        35  -8.5402    181.9519    144.1566   1.0005354786e+02   1.5990671997e+01    0.2217811    0.2035744 -85.55 0.0003027299    1.170    0.145
        36  -8.7754    133.3463    143.8825   1.1128004290e+02   2.6648867156e+01     0.312915     0.141773 -57.00  0.001087237    2.505    0.601
        37 -11.7300     45.7730    136.0802   1.3250249021e+02   4.2609296783e+01    0.6507937    0.2703921 -63.36  0.002900943    2.016    0.504
        38 -11.8172     41.3429    126.4581   1.3210098259e+02   4.5331262918e+01    0.5198771    0.4108572  54.86  0.003216201    1.430    0.301
        39 -10.3019    228.2873    137.7629   8.9419718720e+01   7.1084322340e+00    0.2460868     0.237916 -54.09  0.000304945    1.065    0.061
        40  -9.9105    113.9249    134.7918   1.1416439397e+02   3.2615421586e+01    0.4348092    0.2910618 -60.98  0.001973945    1.532    0.347
        41  -9.9866    193.1116    195.8282   1.0864280713e+02   3.3669806145e+00    0.7033088    0.3685564 -66.23  0.002032838    5.725    0.825
        42  -8.9358     91.6658    195.4859   1.3046638726e+02   2.2407294976e+01    0.2481445    0.1674005  62.53 0.0005543726    1.423    0.297
        43 -10.0884    101.2777    130.6136   1.1656768144e+02   3.5922241979e+01    0.2781186    0.2311264 -30.02 0.0005351584    1.374    0.272
        44  -9.7437    119.5508    126.0887   1.1067681622e+02   3.3533545821e+01    0.3980701    0.2528016 -25.76  0.001573672    2.319    0.569
        45  -9.0413    109.3846    121.9428   1.1238529894e+02   3.6451589741e+01    0.2436065    0.2115815  30.50 0.0002416918    1.257    0.204
        46  -9.7797    246.4157    119.1428   8.2179522532e+01   6.7254888118e+00    0.2419517     0.228973  42.53 0.0002932639    1.177    0.150
        47  -8.8853    167.6410    113.1445   9.5622619955e+01   2.5786747300e+01    0.3325116     0.243421  86.59  0.001415183    1.847    0.459
        48 -12.7318     75.9751    165.8534   1.2966955619e+02   3.1650070509e+01    0.6963507    0.4681436 -41.57  0.002012677    1.856    0.461
        49  -9.4202     23.7590    113.3149   1.3477712553e+02   4.9966669288e+01     0.221376    0.1482654 -63.05  0.001148339    1.187    0.157
        50 -10.3185     11.7444    111.0185   1.3777553070e+02   5.1377042255e+01    0.2086617    0.1758692  14.28 0.0007603965    1.535    0.349
        51 -10.4796      3.0736    104.6648   1.3925743764e+02   5.3317880607e+01    0.2818761    0.2257918  77.90  0.002016408    1.405    0.288
        52  -8.9654     43.6621    114.3024   1.2928143550e+02   4.7892428454e+01    0.1279277   0.09408083  77.39 0.0004371807    1.668    0.400
        53 -11.1825      6.4081     98.9937   1.3743647930e+02   5.4351079323e+01    0.4037787    0.3032925 -84.85   0.00276312    1.350    0.259
        54 -11.5491      2.3699     91.1177   1.3735913899e+02   5.6266892083e+01     0.762568    0.1798572 -64.72  0.003168852    2.972    0.664
        55  -9.0766      1.8595    224.6581   1.5047090159e+02   2.7588955521e+01    0.3273093    0.1028666 -65.32  0.001482473    2.909    0.656
        56  -7.5988    113.3304     95.2937   1.0439574503e+02   4.1552715782e+01    0.1503807    0.1175817  -0.35 0.0003358681    1.632    0.387
        57  -9.6577    240.3876     63.1186   7.0395289907e+01   1.7482357702e+01    0.2292369    0.2017614  82.13 0.0003489837    1.140    0.123
        58  -8.3887    126.0867     60.7358   9.0622960408e+01   4.5334312347e+01    0.1967139    0.1726013  40.50 0.0002797063    1.093    0.085
        59  -8.1617    163.5999     79.2710   8.7374519456e+01   3.3354420921e+01    0.2290225    0.1727801 -79.06 0.0005426043    1.662    0.398
        60  -8.3532    154.2278     78.0080   8.9080041529e+01   3.5848055246e+01     0.199437    0.1264932 -38.10 0.0004850341    1.616    0.381
        61  -9.9900    169.7573    207.1970   1.1555460942e+02   5.7651321215e+00     0.228981    0.2046588  35.81  0.000288102    1.058    0.055
        62 -11.5035    181.9861     34.5290   7.1501886636e+01   3.5666092339e+01    0.6147455    0.4500021  69.45  0.001085701    1.242    0.195
        63 -11.5133    122.9565    248.6940   1.3100591556e+02   6.5886425131e+00    0.7650617    0.3156273  45.75  0.002840836    1.972    0.493
        64 -10.3201    137.0975     37.7560   8.0707378087e+01   4.6189845379e+01    0.2207036    0.2083059  15.36 0.0002344979    1.098    0.090
        65 -10.2822      2.3028     25.8269   1.2181174628e+02   6.8662270920e+01    0.2569376   0.06797012 -49.57  0.001237788    2.772    0.639
        66  -8.2668    184.9590     74.6710   8.1824059706e+01   2.8896211137e+01    0.1962688    0.1860504  82.00  0.001068169    1.017    0.016
        67 -12.6156     29.4919    250.1560   1.4753347944e+02   1.9768761216e+01     1.069285    0.3757351  35.57  0.002113916    3.642    0.725
        68 -11.5127     76.0189    186.4150   1.3265096656e+02   2.6868615686e+01     0.503779    0.3449952 -73.20  0.001500116    1.351    0.260
        69 -11.0554     79.8947    180.5488   1.3096176917e+02   2.7633308356e+01    0.3237757    0.2896513 -51.51 0.0007625161    1.331    0.248
        70 -10.8104    168.5823    222.7936   1.1842706020e+02   3.1365318000e+00     0.513431    0.3169095   8.05  0.002006339    3.467    0.712
