#   1 NUMBER                 Running object number                                     
#   2 MAG_AUTO               Kron-like elliptical aperture magnitude                    [mag]
#   3 X_IMAGE                Object position along x                                    [pixel]
#   4 Y_IMAGE                Object position along y                                    [pixel]
#   5 X_WORLD                Barycenter position along world x axis                     [deg]
#   6 Y_WORLD                Barycenter position along world y axis                     [deg]
#   7 A_WORLD                Profile RMS along major axis (world units)                 [deg]
#   8 B_WORLD                Profile RMS along minor axis (world units)                 [deg]
#   9 THETA_WORLD            Position angle (CCW/world-x)                               [deg]
#  10 FWHM_WORLD             FWHM assuming a gaussian core                              [deg]
#  11 ELONGATION             A_IMAGE/B_IMAGE                                           
#  12 ELLIPTICITY            1 - B_IMAGE/A_IMAGE                                       
         1 -13.2541    207.9203     97.0297   2.8618158737e+01   2.1087345863e+01     2.632871     1.384088 -38.51  0.009323668    1.668    0.400
         2 -14.4272    218.2214     74.6673   2.2312030903e+01   2.2533129580e+01     15.81121    0.9794397 -41.69   0.04006039    6.873    0.855
         3 -12.6960    247.4215     10.0167   6.6335295540e+00   2.5057964302e+01     3.046933     1.009476 -31.82   0.01544128    2.765    0.638
         4 -12.8722    227.2707     55.7608   1.7263530332e+01   2.3426505703e+01     1.946021    0.9953594 -35.87   0.01055972    1.721    0.419
         5  -8.3176    230.3091     21.2181   9.8133573908e+00   2.6997412483e+01    0.3958377    0.1130618 -46.95   0.00183846    2.597    0.615
         6  -9.4747    230.1682     14.3617   8.4299097092e+00   2.7755558653e+01    0.3962591    0.1054815 -46.77  0.001837315    2.681    0.627
         7  -8.0928     22.9906      2.4819   4.6618582141e+01   7.4339558739e+01    0.1564483    0.1030125  57.86 0.0008103179    2.587    0.613
         8  -8.3462      1.5266    233.5095   9.9622902346e+01   2.3478139662e+01    0.2108615    0.1018398 -84.79  0.000804521    2.054    0.513
         9 -11.5610    240.0773    243.8177   5.0852455438e+01  -5.5824450739e+00    0.9952267    0.4875975 -16.36  0.005974842    1.929    0.481
        10 -11.4903    249.2070    244.8237   4.9554771459e+01  -6.5630989656e+00     1.505762    0.4081358 -40.27  0.006873328    3.989    0.749
        11  -9.6877    243.6044    248.7014   5.1010386992e+01  -6.4979232665e+00    0.3806833    0.2547938   3.71  0.002631731    1.146    0.128
        12  -9.3193    243.7491    223.4054   4.7126762466e+01  -3.4017805119e+00     0.231234    0.1166347 -24.94  0.001358698    1.659    0.397
        13 -11.6819    244.1566     44.8572   1.3575703151e+01   2.1737166261e+01    0.5409493    0.4099689 -37.72 0.0004024893    1.258    0.205
        14 -13.1823    242.3011    128.1944   3.0377339393e+01   1.0441000241e+01     1.398569     1.071867 -73.75  0.003793818    1.928    0.481
        15 -12.3010    233.5434    126.4352   3.1210832283e+01   1.2041014949e+01     1.549443    0.5236482 -32.33  0.001727028    3.043    0.671
        16 -12.3616    237.0886     62.2368   1.7682952603e+01   2.0783270680e+01    0.7039514    0.3648325 -24.19 0.0009731296    2.465    0.594
        17 -12.1756    244.5484     60.7979   1.6713075561e+01   1.9665716301e+01     0.508018    0.3391702 -32.20  0.003259187    1.436    0.304
        18 -12.9043    242.5943     78.3386   2.0416961519e+01   1.7651328121e+01     0.657789      0.50995  20.11  0.004199836    1.963    0.491
        19 -12.4338    245.6972     68.2961   1.8103822756e+01   1.8485605413e+01    0.8248385    0.5595514  23.72  0.004606277    2.794    0.642
        20  -8.1893    197.7279    204.4148   5.1947806751e+01   4.7202346548e+00    0.2422716    0.1889219 -80.08  0.001244604    3.033    0.670
        21  -7.6070    223.9406    198.4572   4.6237315954e+01   2.2757144184e+00    0.1334167    0.1048861  55.37 0.0006741699    2.282    0.562
        22  -9.0923    238.2002    195.9998   4.3484930807e+01   9.1483284019e-01    0.2199154    0.1674311  34.64  0.001244712    1.667    0.400
        23  -7.8835    224.8103    193.6425   4.5254765613e+01   2.8826696967e+00    0.1510893    0.1065301  37.19 0.0006282388    1.717    0.418
        24  -8.3108    199.3407    192.0596   4.9488136318e+01   6.4961044624e+00    0.1943752    0.1779111  52.70  0.000966567    1.590    0.371
        25  -8.5323    224.2807    184.0320   4.3638762305e+01   4.4020384824e+00    0.2047055    0.1656612  42.15 0.0008660515    1.658    0.397
        26  -9.3124    236.9011    187.6245   4.2236465212e+01   2.2723055151e+00    0.2237317    0.1963135 -40.19  0.001601078    1.506    0.336
        27  -9.4703    232.8660    187.0125   4.2769196195e+01   2.8593233583e+00    0.2519996     0.193063  36.98  0.001022337    1.647    0.393
        28  -8.1507    211.7716    183.8827   4.5753021923e+01   6.1019148589e+00     0.216998    0.1605832 -47.02  0.001298082    1.599    0.375
        29  -8.4203    201.6372    183.6721   4.7542917567e+01   7.5542707751e+00    0.2228312    0.1865583 -74.06  0.001294165    2.036    0.509
        30  -8.8109    235.1999    181.3125   4.1386043127e+01   3.4087331573e+00    0.3604391    0.1992596  46.55  0.001946794    2.633    0.620
        31  -9.3212    231.8988    175.2031   4.0803996571e+01   4.7475364942e+00    0.4838656    0.2042476 -44.33  0.002292419    2.402    0.584
        32  -8.0561    193.2919    179.5326   4.8344982326e+01   9.4685834023e+00    0.2656664    0.1481269 -51.08  0.001253709    2.216    0.549
        33  -8.2709    226.2633    179.1953   4.2437376364e+01   4.8815584444e+00    0.1829922    0.1624698  72.32 0.0009020435    1.934    0.483
        34  -8.0277     68.3545    179.6914   7.8719992153e+01   2.8676229245e+01    0.1538167   0.09876963  58.30 0.0007042996    1.723    0.420
        35  -8.1523    211.0251    176.9172   4.4602165806e+01   7.3274676601e+00    0.2025824    0.1629858 -16.38  0.001144114    1.044    0.043
        36  -7.7937    221.0452    179.4778   4.3353647695e+01   5.5345949864e+00    0.2000725    0.1358488 -32.26  0.001208471    1.268    0.212
        37  -7.9107    219.4736    174.5056   4.2701817313e+01   6.5303294088e+00    0.1243657    0.1038765 -20.33 0.0001245617    1.066    0.062
        38  -8.0369    217.9539    168.4831   4.1828914619e+01   7.7037288034e+00     0.171129     0.163188  42.11 0.0009330329    1.416    0.294
        39  -9.5881    215.2859    164.2519   4.1472516099e+01   8.7739187620e+00    0.3350354    0.2111737 -30.14  0.001874628    1.389    0.280
        40  -9.1033    191.9346    167.4866   4.6303101451e+01   1.1775256992e+01    0.2655498    0.1794803 -47.99 0.0006075472    1.600    0.375
        41  -8.1094    207.4519    163.1833   4.2616728941e+01   1.0119014411e+01    0.2525826    0.1116633 -36.39 0.0009582206    2.034    0.508
        42  -7.4141    196.4806    164.4646   4.4853462868e+01   1.1591900334e+01    0.1311474    0.1171806 -21.23 0.0001525424    1.084    0.077
        43  -7.5387    204.4698    160.5311   4.2625166882e+01   1.1023913972e+01    0.1312292     0.112751 -20.10 5.920127e-05    1.016    0.016
        44  -8.1630    218.2824    157.3416   3.9637896752e+01   9.4552525984e+00    0.1301833   0.08750455 -12.14 0.0004884583    1.632    0.387
        45  -8.4325    203.8074    156.3708   4.1918788386e+01   1.1836831786e+01    0.3399179    0.1205368  48.48   0.00124369    3.908    0.744
        46  -7.5526    179.6487    153.2751   4.5853823651e+01   1.6376717575e+01    0.1295186    0.1121314  85.77 0.0004596618    1.639    0.390
        47  -9.5404    213.9554    150.4857   3.9003481195e+01   1.1237667922e+01     0.413263    0.2300348 -50.12  0.002026169    2.037    0.509
        48  -7.9524    198.7752    149.7961   4.1491061066e+01   1.3784842733e+01    0.1728881    0.1600846 -68.92  0.001066625    1.374    0.272
        49  -7.6343    163.3202    150.6318   4.8723420107e+01   1.9752519185e+01    0.1425627    0.1162109 -85.12 0.0004742025    1.791    0.442
        50  -8.7711    192.6936    148.2558   4.2287749943e+01   1.5071036880e+01    0.2843381    0.2098683 -28.94 0.0008889873    1.250    0.200
        51  -7.9044    205.9454    146.9899   3.9653762185e+01   1.3097238119e+01    0.1962055    0.1567358 -63.98  0.000690413    1.671    0.402
        52  -8.2273    186.5897    146.2691   4.3026088984e+01   1.6473874518e+01     0.196063    0.1526446 -46.29  0.001078136    1.299    0.230
        53  -8.0271    202.0360    145.0290   3.9931621546e+01   1.4075053510e+01    0.1930585    0.1616396 -70.73 0.0009411491    1.627    0.385
        54  -7.4726    127.3736    144.4565   5.6005896689e+01   2.7636515900e+01    0.1473923    0.1418762 -24.49 6.021227e-05    1.031    0.031
        55  -7.7161    183.3186    142.6745   4.2895441823e+01   1.7707146878e+01    0.1342045    0.1106928 -76.02 0.0007045662    1.676    0.403
        56  -8.9322    198.6938    140.1503   3.9505361263e+01   1.5485845426e+01    0.2642198    0.2030487 -42.96  0.001506405    1.238    0.192
        57  -8.9144    174.6642    139.2313   4.3871101751e+01   1.9911903172e+01    0.4556683    0.2895338 -63.15  0.001983223    2.333    0.571
        58  -8.5278    193.2028    136.3278   3.9678241543e+01   1.7112601664e+01    0.4462715     0.297674  38.95  0.002341188    1.636    0.389
        59  -9.3205    200.5026    133.9333   3.7874647276e+01   1.6257944311e+01    0.4787374    0.1890361 -48.48  0.001843499    2.791    0.642
        60  -7.4579    178.5129    131.5050   4.1394746737e+01   2.0657819429e+01    0.1403531    0.1300208 -31.99 0.0008103086    1.033    0.032
        61  -9.6349    210.5236    127.4845   3.4843561698e+01   1.5630408072e+01     0.674607    0.3905637 -66.39  0.002657385    3.656    0.726
        62  -8.6865    192.5413    129.1656   3.8246436660e+01   1.8504958503e+01    0.2791501    0.1994611 -49.67  0.001081164    1.417    0.294
        63  -7.7280    153.3976    130.2160   4.6414197481e+01   2.5719312259e+01    0.2039313    0.1366908 -52.54 0.0006896636    1.585    0.369
        64  -8.4548    201.0433    128.4962   3.6618926209e+01   1.7103864004e+01    0.1836555    0.1342288  46.51 0.0007275381    1.543    0.352
        65  -8.3947    165.9459    125.9258   4.2675188647e+01   2.4119560948e+01    0.2610352    0.2087077  55.47  0.001366374    1.403    0.287
        66  -9.3024    201.1127    123.1583   3.5451976330e+01   1.8009378085e+01    0.4184149    0.3057155 -21.52  0.002292858    1.439    0.305
        67  -9.4412    196.0053    121.6547   3.5986847147e+01   1.9194982876e+01    0.3394488    0.2767027 -71.29  0.001231351    1.528    0.346
        68  -7.6883    175.2360    120.9434   3.9636196929e+01   2.3254710461e+01    0.1888724    0.1120728 -41.76  0.000814047    1.576    0.366
        69  -7.6548    157.3918    121.2055   4.3400248520e+01   2.6737234010e+01     0.213769    0.1332086 -52.00 0.0009471734    1.704    0.413
        70  -9.7631    188.0973    117.1479   3.6359738491e+01   2.1465262947e+01    0.5434192    0.3519282  73.57  0.002440565    2.503    0.600
        71  -7.3302    177.6555    117.6949   3.8413921036e+01   2.3383603266e+01    0.1431264    0.1095391   2.72 0.0007041562    1.690    0.408
        72  -8.6287    170.1084    117.0351   3.9737207821e+01   2.4997076411e+01     0.263657    0.1934966  83.73  0.001173757    2.047    0.512
        73  -7.6057    162.2696    117.6656   4.1501937635e+01   2.6448729059e+01    0.1436371    0.1131586 -71.54 0.0002654868    1.592    0.372
        74  -8.1364    140.4054    116.7501   4.6238547151e+01   3.1091816498e+01    0.2094065    0.1408262 -34.60 0.0007713383    1.548    0.354
        75  -8.7946    194.7773    113.0833   3.4280707330e+01   2.0907972228e+01    0.3414275     0.186039 -50.72  0.001561134    1.918    0.479
        76  -8.1494    176.4706    112.4918   3.7419439086e+01   2.4570564244e+01    0.2524454    0.1221433 -49.43 0.0007467118    2.167    0.538
        77  -7.8536    168.0000    110.9618   3.8705959654e+01   2.6561220928e+01    0.2476396   0.07819299 -40.83 0.0008107559    3.000    0.667
        78  -8.5755    182.3380    108.9788   3.5503736833e+01   2.4035848338e+01    0.2993154    0.2811349 -59.76  0.001358995    1.092    0.084
        79  -8.0671    179.0000    106.5052   3.5525109852e+01   2.5143522947e+01    0.3302629    0.1540018 -43.86  0.001270489    2.008    0.502
        80  -8.8950    189.6003    107.3864   3.3856224485e+01   2.2885380993e+01    0.4005449    0.2207661 -55.47  0.001755374    2.162    0.538
        81  -9.8043    188.5330    102.2045   3.2829762922e+01   2.3986688806e+01    0.4747091    0.2651006 -52.28  0.001499401    1.904    0.475
        82  -8.4133    160.6309    109.1530   3.9773838079e+01   2.8418177428e+01    0.2152809    0.1326021 -31.23 0.0009492022    1.750    0.428
        83  -9.0159    154.7204    107.1353   4.0531983493e+01   3.0039013773e+01    0.3529586    0.2299034 -36.54  0.001406157    1.531    0.347
        84  -7.5392    169.4887    106.5144   3.7329483879e+01   2.7080271778e+01    0.1424757    0.1343696 -46.48 0.0008103098    1.022    0.022
        85  -8.2899    174.1791    101.5523   3.5220306162e+01   2.7010908506e+01    0.2737661    0.1903773 -42.44  0.001382131    1.348    0.258
        86  -7.2528     24.4798    108.5319   8.2710728388e+01   5.1905794886e+01    0.1391469     0.128973 -60.84 0.0001814084    1.011    0.010
        87  -8.9672    149.2797    101.0796   4.0178559076e+01   3.2361336499e+01    0.3579378    0.1635452 -52.83  0.001283443    2.653    0.623
        88  -8.6893    179.6147     99.7994   3.3803482059e+01   2.6201564501e+01     0.236518    0.1726802 -74.29 0.0009028387    1.782    0.439
        89  -9.0755    159.5543     95.2394   3.6478489812e+01   3.1241512265e+01    0.3732017    0.1918483 -47.48  0.001524539    1.953    0.488
        90  -8.1001    128.5250     96.9648   4.4035639679e+01   3.7654582249e+01    0.2338616     0.147869 -40.98  0.001027341    1.587    0.370
        91  -9.6029    182.8342     92.8836   3.1568890724e+01   2.6726079744e+01    0.6197507     0.202737 -36.32  0.002176834    2.998    0.666
        92  -9.3509    164.7514     94.1501   3.5166337518e+01   3.0319541597e+01    0.3115212    0.2539006 -38.60 0.0007172821    1.186    0.157
        93  -8.3924    154.7492     94.9464   3.7394519262e+01   3.2335658111e+01    0.2883966    0.1726685 -43.64  0.001296168    1.620    0.383
        94  -9.0273    169.5753     91.6138   3.3604474916e+01   2.9733506565e+01    0.5804505    0.2156469 -54.92  0.001577535    5.234    0.809
        95  -8.4059    176.8499     92.6121   3.2536766245e+01   2.8018710332e+01    0.2886066     0.167133 -54.17  0.001156674    1.888    0.470
        96  -8.1479    142.8241     91.3047   3.9027925486e+01   3.5628888517e+01    0.2976258    0.1924744 -61.53  0.001286739    1.936    0.484
        97  -8.2429    159.0000     89.9336   3.5209485105e+01   3.2319000650e+01    0.2444629   0.07961506 -39.11 0.0008072556    2.976    0.664
        98  -8.4519    151.2012     88.5603   3.6447625421e+01   3.4282798397e+01    0.2911829    0.2222659 -68.16  0.000985368    1.532    0.347
        99  -9.2582    186.2668     82.9896   2.8601585447e+01   2.7643315728e+01    0.2991908    0.1860123 -40.41 0.0006929762    1.477    0.323
       100  -9.2064    189.6456     77.2235   2.6683686452e+01   2.7848731292e+01     0.314544    0.1898702 -57.35  0.001287065    1.778    0.438
       101  -7.7619    170.1349     82.8124   3.1255569134e+01   3.1117809177e+01    0.1861749      0.16466 -11.70 0.0006416079    1.301    0.232
       102  -8.7565    175.8028     80.9926   2.9809127974e+01   3.0190113770e+01    0.2355818    0.1404666 -58.58  0.001063673    1.941    0.485
       103  -8.6445    150.4064     79.2488   3.4073490790e+01   3.6112142405e+01    0.4540312    0.2320551 -60.01  0.001637273    2.979    0.664
       104  -8.4054    180.2138     79.2641   2.8646234241e+01   2.9522202864e+01     0.310417     0.181995 -70.47  0.001293332    2.595    0.615
       105  -9.0098    197.0957     78.7005   2.5958206522e+01   2.6083757122e+01    0.2054854    0.1593841 -86.55  0.001109193    1.457    0.314
       106  -9.3842    175.8994     75.6820   2.8443270712e+01   3.1026951878e+01    0.3064588    0.1911279 -39.23 0.0009132589    1.517    0.341
       107  -9.2214    157.9518     75.3264   3.1510983493e+01   3.5071822187e+01    0.3959809    0.2273718 -38.34  0.001198279    1.707    0.414
       108  -7.7786    163.5191     75.4985   3.0527191005e+01   3.3791801466e+01    0.1392818    0.1329265 -65.46 0.0008103381    1.015    0.015
       109  -8.7323    180.0964     73.8209   2.7298865773e+01   3.0409872683e+01    0.2190256    0.1690815 -66.78 0.0009475865    1.348    0.258
       110  -7.2556    128.4915     73.4620   3.7273725964e+01   4.2128568023e+01    0.1451487    0.1418471  59.77 8.092324e-05    1.015    0.015
       111  -8.1799    170.2794     70.7808   2.8104979500e+01   3.3040498329e+01    0.2890889    0.1750374 -42.83   0.00086668    1.563    0.360
       112  -8.0144    151.4025     72.2122   3.1915802822e+01   3.7077951957e+01    0.2074221    0.1267144 -48.26 0.0009480334    1.654    0.395
       113  -9.4724    164.0653     64.6678   2.7521979256e+01   3.5388680911e+01    0.3826956    0.1683915 -47.73  0.001062462    2.323    0.570
       114  -8.3382    182.5220     67.4691   2.5331550801e+01   3.0858502307e+01    0.2355344    0.2134621 -56.40 0.0008158267    1.027    0.027
       115  -7.2919    122.6723     68.6809   3.7235811233e+01   4.4304213026e+01    0.1502873    0.1151559  17.34 0.0007046984    1.683    0.406
       116  -9.6776    239.9665    216.1382   4.6563155919e+01  -2.0539364257e+00    0.3159633    0.1366793 -42.67  0.001653703    2.542    0.607
       117  -8.7622    178.4792     60.6268   2.4188623844e+01   3.2756645785e+01    0.4781415    0.1286315 -33.91  0.001585283    3.691    0.729
       118  -8.2673    171.8084     62.6745   2.5729082620e+01   3.3941069818e+01    0.2361028     0.175088 -30.45 0.0009183302    1.428    0.300
       119  -8.4409    158.2211     61.4037   2.7631999327e+01   3.7226000117e+01    0.1900239     0.130394  75.68 0.0004330909    1.585    0.369
       120  -8.4678    139.3016     57.6444   3.0099906361e+01   4.2223762832e+01    0.1497089    0.1057514 -69.78 0.0007038285    1.708    0.415
       121  -7.5227    127.6773     61.3495   3.3749646506e+01   4.4375502889e+01     0.152049    0.1108891 -74.58 0.0005929884    1.747    0.427
       122  -8.9940    145.9897     67.9070   3.1772229828e+01   3.9032753264e+01    0.4155672    0.2237887 -42.25  0.001769569    1.835    0.455
       123  -8.0565    132.4347     58.7639   3.1881784433e+01   4.3670385709e+01    0.2577107    0.1341735 -40.69 0.0008397634    1.942    0.485
       124  -7.7911    153.2808     58.6600   2.7734302820e+01   3.8786612096e+01     0.145242    0.1016165 -66.87 0.0003180441    1.626    0.385
       125  -9.2226    190.9983     55.8989   2.1298099037e+01   3.0700135394e+01    0.3697619    0.2700799  15.57  0.001921435    2.219    0.549
       126  -9.8180    183.2615     53.2730   2.1650379141e+01   3.2743426764e+01     0.357189    0.2169971 -46.72  0.001859901    1.519    0.342
       127  -9.2485    179.3022     49.5374   2.1225465233e+01   3.4130639269e+01    0.4095503    0.2295592 -22.02  0.001887232    2.320    0.569
       128  -9.3986    237.6590    210.2583   4.5970917082e+01  -1.0088861360e+00    0.2797943    0.1763716  49.74   0.00152331    3.260    0.693
       129 -12.6295    231.5800     99.4764   2.5980954067e+01   1.6475675137e+01     1.491102    0.6519489 -28.36  0.006507613    2.638    0.621
       130  -9.4509    153.2084     52.1451   2.5885229016e+01   3.9759536197e+01    0.3258916    0.2378071 -18.79  0.001680085    1.684    0.406
       131  -9.1427    148.4434     52.2162   2.6741940225e+01   4.0871524867e+01    0.2499654    0.1390953 -29.62  0.001122262    1.985    0.496
       132 -12.2427    246.5075     99.1094   2.4144477276e+01   1.4081708995e+01     1.027431    0.6832815 -32.87  0.003470025    1.300    0.231
       133 -13.2120    239.9591     89.0677   2.2865155117e+01   1.6587313170e+01     1.084922     0.531735  42.49  0.001532936    2.945    0.660
       134  -9.1958    150.9631     40.5360   2.2892901277e+01   4.1874672348e+01    0.5895302    0.2070626 -41.05  0.002292621    2.718    0.632
       135  -9.0244    185.5614     44.2761   1.9096961548e+01   3.3439639829e+01    0.2421178    0.1097967 -38.57 0.0009364502    2.004    0.501
       136  -8.3060    196.9770     44.0212   1.7722844460e+01   3.1005166697e+01    0.1998254    0.1720437 -60.34  0.001300402    1.031    0.030
       137  -7.9242    189.3070     43.3189   1.8416384102e+01   3.2743399259e+01    0.1196961   0.09927925  28.82 0.0004385645    1.635    0.388
       138  -7.8279    169.5265     54.5036   2.3913691607e+01   3.5646620417e+01    0.1324065    0.1257587 -78.52 0.0001244388    1.062    0.058
       139  -8.2712    201.2320     40.5231   1.6446834482e+01   3.0548909105e+01    0.2133481    0.1536661 -38.56  0.000535763    1.323    0.244
       140  -8.6623    173.8028     40.0592   1.9480097320e+01   3.6612129258e+01    0.2332615    0.1890399  -6.41  0.001295938    1.638    0.389
       141  -8.1933    158.4900     45.4596   2.3120544067e+01   3.9447481322e+01    0.1344265    0.1242365 -86.83 6.496492e-05    1.020    0.020
       142 -13.1919    242.2739    110.5079   2.6899821877e+01   1.3087212040e+01     1.215398    0.9090741 -38.43  0.002067927    1.077    0.072
       143  -7.9265    173.4531     33.7798   1.7869207553e+01   3.7467760743e+01    0.1705814    0.1268305 -13.93 0.0009369635    1.752    0.429
       144  -9.0792    234.6192    215.2487   4.7281384503e+01  -1.3523879655e+00    0.2144308   0.09273751 -39.16  0.001144224    2.172    0.540
       145  -9.8091    248.3549    213.0645   4.4749725021e+01  -2.5376728512e+00    0.2987433    0.1604139 -41.21  0.001805405    1.996    0.499
       146 -12.6302    250.2514     51.5355   1.4413521715e+01   1.9863938993e+01    0.4249999    0.2012731 -37.18  0.002303026    1.719    0.418
