#   1 NUMBER                 Running object number                                     
#   2 MAG_AUTO               Kron-like elliptical aperture magnitude                    [mag]
#   3 X_IMAGE                Object position along x                                    [pixel]
#   4 Y_IMAGE                Object position along y                                    [pixel]
#   5 X_WORLD                Barycenter position along world x axis                     [deg]
#   6 Y_WORLD                Barycenter position along world y axis                     [deg]
#   7 A_WORLD                Profile RMS along major axis (world units)                 [deg]
#   8 B_WORLD                Profile RMS along minor axis (world units)                 [deg]
#   9 THETA_WORLD            Position angle (CCW/world-x)                               [deg]
#  10 FWHM_WORLD             FWHM assuming a gaussian core                              [deg]
#  11 ELONGATION             A_IMAGE/B_IMAGE                                           
#  12 ELLIPTICITY            1 - B_IMAGE/A_IMAGE                                       
         1 -13.3068    231.5883     24.4684   1.0364234348e+01   2.7289737796e+01    0.7248165    0.5451261 -52.28  0.004836369    1.044    0.043
         2 -12.0089     15.5967     12.1771   5.3997810435e+01   7.5240025995e+01    0.2884249    0.1967063  36.47 0.0007311446    1.458    0.314
         3 -14.6334    129.0895    231.0886   6.8992191070e+01   9.7914060648e+00     1.974725     1.303577  12.97   0.01126106    1.383    0.277
         4  -9.9282    101.3852    250.2439   7.7489599153e+01   9.6148297763e+00    0.2395086    0.1821859  39.74 0.0006834438    1.304    0.233
         5 -10.9332    101.0127    246.4859   7.7175582745e+01   1.0320669556e+01    0.3510911    0.2595754  70.45  0.002017887    1.966    0.491
         6 -10.4220     50.7240    249.2617   8.8908300435e+01   1.5191238562e+01    0.2365658    0.1877106  86.69  0.001047212    1.457    0.314
         7  99.0000     52.8404    245.3064   8.8142268698e+01   1.5740288741e+01    0.2787942    0.1952223  15.58  0.001693586    1.387    0.279
         8 -11.6764     26.8854    250.2282   9.4341836079e+01   1.7260754284e+01    0.2944066    0.1950001  -8.13  0.001712987    2.067    0.516
         9 -12.0277     33.6864    245.6711   9.2566609313e+01   1.7527125101e+01    0.3064596    0.1889747 -39.79 0.0008858246    2.194    0.544
        10  -9.2675     36.8502    240.9752   9.1560158219e+01   1.8161902004e+01    0.1990731    0.1425517  85.69 0.0009785948    1.547    0.354
        11 -18.4268     12.7210    206.5131   9.5475105463e+01   2.7771545784e+01     10.06065     3.429106 -79.80    0.0410824    2.988    0.665
        12 -13.3197     46.9511    180.1884   8.3827614597e+01   3.0953817435e+01     1.593922    0.8250057  67.74  0.005859246    2.600    0.615
        13 -13.9283    113.2444    228.9518   7.2324574906e+01   1.2102244211e+01     1.813052     0.783794  29.27  0.007890838    1.970    0.492
        14 -11.8520     29.5831    242.7007   9.3338840674e+01   1.8492841828e+01    0.2506297    0.1678044  43.96 0.0003222674    1.231    0.188
        15 -10.1587     76.1425    244.4589   8.2671791928e+01   1.3455193181e+01    0.1668266    0.1533823 -20.39 0.0002748799    1.229    0.186
        16 -10.4729     95.8866    210.3412   7.4125458412e+01   1.7979596767e+01    0.2219986    0.1904789 -79.62 0.0007402447    1.420    0.296
        17 -12.4075    124.0953    203.3618   6.6172062593e+01   1.5694547855e+01    0.4126862    0.2799319 -69.66  0.001704097    2.131    0.531
        18 -10.0645     46.2369    238.5111   8.9197902513e+01   1.7745838402e+01    0.1081867    0.1019512  79.30 0.0007431725    1.186    0.157
        19  -9.7767    210.9914    198.5289   4.7492253968e+01   5.2959334082e+00    0.1583412    0.1070162  21.67 0.0004517566    1.506    0.336
        20 -10.0878     68.8445    195.2361   7.9338134460e+01   2.4744550446e+01    0.3692437    0.1931396 -59.25   0.00166725    1.974    0.494
        21 -12.5222     82.3679    193.2334   7.5381563431e+01   2.3507663248e+01    0.4738318    0.3540811  57.70  0.001389848    1.508    0.337
        22  -9.9488     54.4320    232.8064   8.6809206336e+01   1.8073074936e+01     0.210405    0.1262247 -79.64    0.0011254    1.993    0.498
        23  -9.5653     46.0200    189.9908   8.5140766059e+01   2.8620184825e+01    0.2210391    0.1422416  57.67 0.0005042728    1.620    0.383
        24 -11.3558    205.2049    232.0221   5.3878939654e+01   1.0309283289e+00    0.2494681    0.1453295  19.85  0.001100855    1.571    0.363
        25  -9.0446     72.3012    186.2815   7.7233848831e+01   2.6441589127e+01    0.1412457    0.1066663 -20.82 0.0004133886    1.548    0.354
        26 -12.1921    127.9198    183.6860   6.2014736586e+01   1.9207914805e+01    0.3597033    0.2535281 -59.79  0.001806747    1.684    0.406
        27 -10.9635    116.0112    181.5112   6.4627225532e+01   2.1446242943e+01    0.2248101    0.1350619  29.31 0.0008137905    1.598    0.374
        28  -9.5154     62.9962    181.2770   7.9245461725e+01   2.8822606718e+01    0.1930427    0.1721185  41.07 0.0003927567    1.073    0.068
        29 -10.7522    173.2718    177.5081   5.0730042652e+01   1.3707221661e+01    0.2557665    0.2107211 -65.73  0.001458378    1.752    0.429
        30 -10.3489     96.8779    175.6897   6.8745188362e+01   2.5597489007e+01    0.2528507    0.2129142 -64.44 0.0003494349    1.299    0.230
        31 -11.5975     54.7918    227.5418   8.6288249650e+01   1.9129061268e+01    0.2235671    0.2044105 -64.17 0.0003314801    1.245    0.197
        32 -12.8414     57.4220    170.5302   7.9493320332e+01   3.2202369948e+01    0.8421736    0.6186353  59.32  0.004201857    1.462    0.316
        33 -10.9523     59.5016    163.4660   7.7864313371e+01   3.3762745227e+01    0.4335282     0.218221  60.66  0.001552248    2.888    0.654
        34 -10.3907    105.1492    173.1435   6.6044527488e+01   2.4960177229e+01    0.1939641    0.1755064  69.33 0.0004703678    1.290    0.225
        35 -10.1066    139.5919    171.7250   5.7015181145e+01   1.9929515545e+01    0.1884645    0.1353887 -55.97 0.0006023672    1.582    0.368
        36 -10.6595    178.8210    166.5978   4.7545228430e+01   1.4873378979e+01    0.2084209    0.1758828  49.18 0.0009025638    1.531    0.347
        37 -10.3437    110.7746    167.3703   6.3486677896e+01   2.5423138731e+01    0.2927053    0.1794866  88.22 0.0009547721    4.097    0.756
        38 -10.4099     86.0357    168.3363   7.0596826855e+01   2.8937010102e+01    0.2146465    0.1889178  33.37  0.001148305    1.106    0.096
        39 -10.1894    101.5312    166.9217   6.5935164234e+01   2.6963029457e+01    0.2188474    0.1455809 -54.42 0.0003794525    1.541    0.351
        40 -11.0675     81.3231    165.9962   7.1593439282e+01   3.0189615929e+01    0.4318613    0.2583411 -16.73  0.001431297    2.596    0.615
        41 -10.9504     89.8626    165.0571   6.8925313257e+01   2.9176265768e+01    0.2248586    0.1990215  63.21 0.0004271445    1.251    0.200
        42  -9.8381     47.2472    229.0391   8.8259411303e+01   1.9593918278e+01    0.1851699    0.1374574  54.73 0.0009735567    1.288    0.224
        43 -11.8298     59.5152    155.9038   7.6726501525e+01   3.5728592264e+01    0.5247634     0.327915 -48.13  0.002231846    1.632    0.387
        44 -14.3025     56.4476    145.9468   7.6147510773e+01   3.8746915318e+01     1.299658     1.071219  33.99  0.006703307    1.208    0.172
        45 -13.7702     69.6850    144.4916   7.1480098391e+01   3.7332820115e+01    0.9932036    0.7042291  55.20   0.00276217    1.588    0.370
        46 -11.1482     85.7650    160.3377   6.9303967509e+01   3.0945616974e+01    0.2880539     0.247046  60.52 0.0007772388    1.284    0.221
        47 -10.4490     45.9060    156.5398   8.1246201199e+01   3.7197833331e+01    0.3475393    0.1946329 -61.06 0.0008445913    1.718    0.418
        48 -10.3920     92.7015    156.0089   6.6457037804e+01   3.0955202791e+01    0.2622123    0.2239787  52.56 0.0003431893    1.257    0.205
        49 -14.2857     61.5446    130.0626   7.1506758688e+01   4.2275995826e+01     1.730939     1.267957   5.84  0.008020127    1.594    0.372
        50 -10.6844     83.4438    150.5837   6.8229445473e+01   3.3732523090e+01    0.2638951    0.2412051 -16.82  0.001398482    1.128    0.113
        51 -11.1032    133.3324    143.0020   5.2661513274e+01   2.7096715489e+01     0.599472    0.1438987 -50.30  0.001606921    4.553    0.780
        52 -10.3960     87.8289    149.8004   6.6734581748e+01   3.3250694890e+01    0.3141837    0.2242745 -52.93 0.0003068353    1.396    0.284
        53 -12.3681     88.7420    146.4229   6.5793909728e+01   3.3947904450e+01      0.77326    0.4688232 -15.83  0.002042344    2.694    0.629
        54 -10.5188     43.0041    148.9905   8.1170313277e+01   3.9537762281e+01    0.2134831    0.2069283  79.29            0    1.013    0.013
        55 -10.8710    108.9493    145.3560   5.9630232693e+01   3.0850922583e+01    0.2925754    0.2837669 -19.23 0.0006972862    1.020    0.019
        56 -10.4316     81.8048    143.1774   6.7312664399e+01   3.5856666860e+01    0.2237254    0.2071061  61.27 0.0004340113    1.148    0.129
        57 -11.4695    105.1984    131.6047   5.7666812933e+01   3.4756886793e+01    0.5605372    0.3959506 -26.39  0.001804561    1.664    0.399
        58 -11.3632     91.2783    132.1191   6.1994493197e+01   3.7078654097e+01    0.2949671    0.2587774 -33.42 0.0004055341    1.152    0.132
        59 -10.9255     77.1650    147.1999   6.9562766302e+01   3.5539465421e+01    0.2732637    0.2402917  77.08 0.0006822346    1.267    0.211
        60 -10.1143    112.0890    126.1958   5.4417018304e+01   3.4751289233e+01    0.2418374    0.2049171  -5.21  0.000981362    1.322    0.244
        61 -10.8662    134.5206    124.1993   4.8030810251e+01   3.0913506455e+01    0.2663815    0.2312127 -83.16 0.0006326689    1.401    0.286
        62 -12.4433     50.0896    122.5456   7.4218364303e+01   4.5819068393e+01    0.4470608    0.3233851 -15.38 0.0007585644    1.662    0.398
        63 -10.2762     99.4858    121.2617   5.6915097040e+01   3.8248496575e+01    0.2867952    0.2289599  -5.42 0.0007761811    1.506    0.336
        64 -11.3469     58.2756    119.9571   7.0619358073e+01   4.5402119865e+01    0.3306642    0.2200475  33.45 0.0004940192    1.507    0.336
        65 -13.1063     73.1733    158.5998   7.2837115020e+01   3.3201799276e+01    0.8985717    0.7565076 -25.19  0.002803254    1.284    0.221
        66  -9.3357    108.0491    116.0502   5.3064391663e+01   3.7842402082e+01    0.1809363    0.1769976   0.71  0.000356813    1.021    0.020
        67 -11.0295     58.2025    111.5615   6.8786153000e+01   4.7607459357e+01    0.2963879    0.1403721  34.74   0.00113084    2.081    0.519
        68 -10.8849     40.6920    101.1758   7.3507151847e+01   5.2669877711e+01    0.2739657    0.2312403 -17.20 0.0002064933    1.240    0.194
        69 -12.2168     29.9931     99.4835   7.7803452788e+01   5.4315421410e+01    0.4958178    0.2745351  36.20  0.002160167    1.870    0.465
        70 -11.6063     29.1796     96.3879   7.7521391864e+01   5.5217436194e+01    0.4394963    0.2246122  52.38  0.001689629    2.595    0.615
        71 -11.1415     35.0046     88.3014   7.2989921278e+01   5.6681962487e+01    0.3605884    0.2436319 -18.95  0.001661042    1.715    0.417
        72 -10.8931     89.7987    223.5517   7.7262463125e+01   1.5995881856e+01    0.2706522    0.2129401  82.99 0.0006104906    1.664    0.399
        73  -9.5197     71.8480    224.3500   8.1774395525e+01   1.7930000404e+01    0.1687928    0.1118029  14.80 0.0003502232    1.497    0.332
        74 -10.8978     27.0854     77.7212   7.4122473574e+01   6.0235103716e+01    0.2017107     0.181459   1.71 0.0006668785    1.112    0.101
        75 -10.0518    241.5034    245.4827   4.9921321992e+01  -4.0460293821e+00    0.1058111   0.07069097 -10.63 -6.041611e-05    1.005    0.005
        76 -10.0738     60.5511    220.8748   8.4262255643e+01   1.9927841643e+01    0.3072159     0.237357 -31.31  0.001735489    1.524    0.344
        77  -9.4397     88.9817     68.2225   4.4731774524e+01   5.1962280382e+01    0.1970717    0.1192464  47.25 0.0003822598    1.616    0.381
        78 -11.5982    184.6057     63.2537   2.3246692886e+01   3.1482181049e+01    0.3056074    0.2880299 -67.85 0.0009077778    1.111    0.100
        79 -11.6409     13.4453     60.1342   7.6780455833e+01   6.5819087674e+01     0.277102    0.2376494 -53.35 0.0007624386    1.140    0.123
        80 -13.4608    200.9888     51.1990   1.8510109425e+01   2.9830792248e+01    0.9228656    0.7627501  14.47  0.004268275    1.783    0.439
        81 -12.5953    207.1408     46.4628   1.6842751502e+01   2.9239204556e+01    0.5083927     0.391196 -38.34  0.001539756    1.223    0.182
        82 -11.7633    102.8707    238.1648   7.5833941954e+01   1.1618853200e+01    0.4272341    0.2455104 -49.60  0.001764061    1.941    0.485
        83 -10.0719     60.6513     21.1873   3.5015208097e+01   6.5624030026e+01    0.1872863     0.157989  54.91 0.0007138034    1.146    0.127
