#   1 NUMBER                 Running object number                                     
#   2 MAG_AUTO               Kron-like elliptical aperture magnitude                    [mag]
#   3 X_IMAGE                Object position along x                                    [pixel]
#   4 Y_IMAGE                Object position along y                                    [pixel]
#   5 X_WORLD                Barycenter position along world x axis                     [deg]
#   6 Y_WORLD                Barycenter position along world y axis                     [deg]
#   7 A_WORLD                Profile RMS along major axis (world units)                 [deg]
#   8 B_WORLD                Profile RMS along minor axis (world units)                 [deg]
#   9 THETA_WORLD            Position angle (CCW/world-x)                               [deg]
#  10 FWHM_WORLD             FWHM assuming a gaussian core                              [deg]
#  11 ELONGATION             A_IMAGE/B_IMAGE                                           
#  12 ELLIPTICITY            1 - B_IMAGE/A_IMAGE                                       
         1 -14.1912     68.5567    144.3850   9.8604878803e+01   3.7475552395e+01      3.77261      2.17725  83.22  0.006329014    2.883    0.653
         2 -13.6127    202.4008     42.1420   4.0283914067e+01   3.0089871440e+01     1.323263     1.195029 -10.68   0.00511046    1.437    0.304
         3 -12.3156      2.7508     39.1513   9.9812073536e+01   6.8201768459e+01    0.8754409    0.2670961 -55.65  0.004002369    2.555    0.609
         4 -12.4004      3.5859     24.0798   9.4220667394e+01   7.0916306775e+01    0.6454376    0.5275073 -53.07  0.004660219    1.492    0.330
         5 -13.5468    213.4925     31.6762   3.6610529242e+01   2.8970956408e+01    0.9223873    0.8496488  19.86  0.002391758    1.513    0.339
         6 -11.5511      2.0840     12.1912   9.0230414137e+01   7.2985991223e+01    0.6039842    0.2338704 -50.63  0.003108016    2.595    0.615
         7 -11.0575      2.7177      3.1292   8.5523441383e+01   7.4297512724e+01    0.3269172    0.2503873 -34.10  0.002049136    1.419    0.295
         8 -12.8286    239.2008      6.1385   2.9126773292e+01   2.6532162760e+01    0.7759945    0.5723725 -82.12  0.005500105    1.123    0.110
         9 -10.5965     56.1267      5.8704   5.9516614126e+01   6.6912500557e+01    0.3617375    0.2270533  65.21  0.001854874    2.674    0.626
        10 -10.4023    119.4997    212.0429   9.6236503506e+01   1.3381139465e+01    0.2578444    0.2081646 -58.89 0.0007322511    1.348    0.258
        11 -10.1215    140.2936    249.9229   9.6918306499e+01   2.9138908289e+00    0.2529939    0.1908078  44.55  0.001547198    1.252    0.201
        12 -10.1050    102.3275    249.8513   1.0485273350e+02   8.4548511401e+00    0.2804415    0.2107224  73.11  0.001713575    1.493    0.330
        13 -11.0791    101.3139    244.0829   1.0443299425e+02   9.6818232505e+00    0.4430841    0.2325464 -74.42  0.001885292    2.646    0.622
        14 -13.0250     51.7201    186.6924   1.0935125139e+02   2.9005487465e+01     1.210307    0.9596191  46.53  0.007063982    1.238    0.193
        15 -13.8894     41.2225    197.2087   1.1299926976e+02   2.7714164147e+01     2.373945     1.110903  69.63   0.00489335    2.645    0.622
        16  -9.6146     21.4938    195.4890   1.1742206270e+02   3.0164536228e+01     0.280386    0.1202156  58.36  0.001279295    2.349    0.574
        17  -8.5456     82.4908    194.5341   1.0265751303e+02   2.3024575256e+01    0.1378348    0.1301882  69.46 0.0008093157    1.039    0.038
        18  -9.1257    118.4796    190.9526   9.3160153803e+01   1.8182325366e+01    0.1985095    0.1291951 -88.69 0.0008082429    2.434    0.589
        19 -10.0938    111.0147    203.4289   9.6959183570e+01   1.6606842041e+01    0.2669647    0.2078131  67.62 0.0006413637    1.428    0.300
        20  -9.8027    148.3175    189.6390   8.5715678857e+01   1.3296139333e+01    0.3069476    0.2246038  56.39  0.001486096    1.605    0.377
        21  -9.4911    146.4754    186.4581   8.5562098116e+01   1.4306942013e+01    0.2653847    0.1933124 -61.17 0.0007773273    1.592    0.372
        22  -8.9727     85.1861    185.9719   1.0076715193e+02   2.4666571909e+01    0.3137291    0.2964652   0.12  0.001824619    1.220    0.181
        23  -9.9211     81.4933    181.9909   1.0113232069e+02   2.6175756061e+01    0.3929563    0.2546923  41.58  0.001072715    1.495    0.331
        24  -9.6228     99.4364    180.8096   9.6293349983e+01   2.3698705820e+01    0.2683459    0.2514022  42.49 0.0006308985    1.064    0.060
        25 -15.3673      6.9260    158.8263   1.1794123311e+02   4.0173280586e+01     7.077232     1.701973 -74.88  0.004801066    3.404    0.706
        26 -10.1992    240.1715    177.8328   6.4552622306e+01   2.5677233441e-02    0.1892314    0.1385287  -8.25  0.001090642    1.363    0.266
        27 -10.2617    186.9637    175.2639   7.4209826167e+01   9.3143672573e+00    0.3553071    0.3034823 -45.68  0.001207422    1.235    0.190
        28 -10.8799     40.8407    175.8838   1.1088463955e+02   3.2897828582e+01    0.4448567    0.3655451 -18.84  0.002578619    1.617    0.382
        29  -8.9922     90.6150    175.7596   9.7776044654e+01   2.6319328444e+01    0.2030263    0.1378604 -74.30 0.0007351529    1.612    0.380
        30 -12.3029     79.8068    159.0604   9.7930041752e+01   3.2125853899e+01     1.240799    0.5701935  58.26 0.0004070868    3.525    0.716
        31 -12.7182     67.8640    154.4303   1.0054242541e+02   3.5005902043e+01    0.6306703    0.4205889 -49.35 0.0009331782    1.491    0.330
        32  -8.8117     89.0152    210.3259   1.0316108442e+02   1.8451107150e+01    0.1858028    0.1570909  46.62 0.0002180002    1.090    0.083
        33 -10.8717    104.0861    172.1374   9.3595415003e+01   2.5028634949e+01    0.4444572    0.3450312  39.82  0.001420218    1.270    0.213
        34  -9.7190     46.9051    172.8357   1.0895217645e+02   3.2976016119e+01    0.2127258    0.1798431 -48.75  0.001239663    1.301    0.231
        35 -10.7172    240.1518    169.6047   6.2938119948e+01   1.4068358488e+00    0.2272646    0.1608738 -41.06 0.0006245231    1.330    0.248
        36  -8.6109    110.8070    167.8048   9.1025842292e+01   2.4933593544e+01    0.2087941    0.1752713  76.18 0.0004726358    1.340    0.254
        37  -8.9322    230.3016    166.3229   6.3974531759e+01   3.5253475761e+00     0.137903   0.09580928  -9.26 0.0002586744    1.632    0.387
        38  -9.4636     36.4920    162.1515   1.1044116745e+02   3.6779850268e+01    0.2686532    0.1809401  17.90  0.001152062    1.825    0.452
        39 -11.7315     87.1507    152.5349   9.4671917728e+01   3.2648116461e+01    0.6744972    0.4668621 -27.61  0.002428136    1.871    0.465
        40 -10.4667    133.9685    145.4251   8.0269279187e+01   2.5980832695e+01    0.9167368    0.2567238 -53.85  0.002364473    4.489    0.777
        41  -8.2568    112.1728    150.4143   8.7209477620e+01   2.8921904072e+01    0.2104554    0.1430538  48.58 0.0004140621    1.543    0.352
        42  -9.5662    174.7802    148.9224   7.1216368486e+01   1.7019575483e+01    0.2855446    0.2126208 -61.90 0.0009663695    1.605    0.377
        43 -10.8612     29.3772    143.9749   1.1017280844e+02   4.2060816646e+01    0.4054649    0.2962567   8.58  0.002243526    1.723    0.420
        44 -10.5849    101.6622    138.3855   8.7603167265e+01   3.3761406001e+01     0.599245    0.3720509 -21.71  0.002248206    2.571    0.611
        45 -11.5908     88.7285    138.0631   9.1339662500e+01   3.6040492156e+01    0.3083983     0.268306 -45.68 0.0003850318    1.129    0.114
        46 -11.6867     25.5022    137.5502   1.1047498334e+02   4.4027495814e+01    0.4900942    0.3154294  62.21   0.00253692    1.759    0.431
        47 -10.0047    105.8510    131.0183   8.4723471312e+01   3.4813326971e+01    0.3968435     0.332873 -57.67  0.001378269    1.191    0.161
        48  -9.5428    110.9443    129.4730   8.2886844972e+01   3.4238431381e+01    0.3601405     0.265389   7.19  0.001037208    1.806    0.446
        49 -10.5704    134.7917    128.6850   7.6124102963e+01   2.9693993238e+01    0.4665747       0.3241 -57.45      0.00205    1.555    0.357
        50 -13.3448     18.3540    218.6865   1.1973512802e+02   2.5258805970e+01     0.769393    0.5920948 -17.46  0.004808341    2.143    0.533
        51 -10.4209     97.9545    125.2457   8.5713085141e+01   3.7645399828e+01     0.336399    0.2668238  -8.14 0.0009956824    1.550    0.355
        52 -11.4177     66.4343    172.3716   1.0370315290e+02   3.0666049261e+01    0.4477126    0.2963072 -35.61  0.001508063    1.935    0.483
        53  -9.6215    117.0824    123.7649   7.9751792208e+01   3.4412373196e+01    0.2966872    0.2231768  15.17 0.0008645966    1.635    0.388
        54  -8.3782    163.6515    121.3086   6.7199787266e+01   2.5179470030e+01    0.1582413    0.1239196 -86.94 0.0007044094    1.708    0.414
        55 -10.6105     43.9178    129.6124   1.0359852746e+02   4.4280185369e+01    0.2586147    0.2118147  74.37  0.001150845    1.337    0.252
        56  -9.0530    107.3681    118.2887   8.1200839832e+01   3.7584171048e+01    0.2344207    0.2019526  21.54   0.00076254    1.235    0.190
        57  -8.9751     83.9168    118.2078   8.8399561159e+01   4.1756983310e+01    0.2254086    0.2022592  70.52 0.0004784537    1.255    0.203
        58 -10.1507    231.4073    113.7671   5.2688366136e+01   1.2623258049e+01    0.2834019    0.2522701  76.56 0.0008663317    1.300    0.231
        59 -10.1975     40.1293    113.7936   1.0200315075e+02   4.8661997277e+01    0.2040498     0.181696  81.91 0.0004989945    1.236    0.191
        60  -9.4470    205.2124    110.4328   5.6199926622e+01   1.8419232085e+01     0.320274    0.2250716  36.24  0.001148352    1.695    0.410
        61 -11.2794     33.1541    108.5701   1.0342107328e+02   5.0629053176e+01    0.4589995    0.2992837 -70.04  0.002366991    1.459    0.314
        62 -16.8220     14.9494    242.7453   1.2178175369e+02   2.0607089465e+01     6.548201      2.37362  23.32   0.02743356    4.374    0.771
        63  -8.5644    134.6828    105.6733   7.0229615522e+01   3.4834324933e+01    0.1601569     0.124654  -0.67 0.0006815238    1.676    0.403
        64 -11.4944    243.5579    102.8323   4.8606330901e+01   1.2215844774e+01    0.3218253    0.2269549 -65.96  0.001776904    1.597    0.374
        65 -10.0904     36.0428    101.0461   1.0091059887e+02   5.2199207106e+01    0.2997768    0.2252166  50.46  0.001049263    1.607    0.378
        66  -9.6553    120.8309     98.8503   7.2110655509e+01   3.9266888620e+01    0.2141104    0.1892714 -88.17 0.0005178013    1.334    0.250
        67  -9.4750    115.4119    107.7688   7.6106774476e+01   3.8430465463e+01    0.2293533     0.144131 -36.41 0.0009452734    1.682    0.406
        68  -9.4626     42.3095    103.7887   9.9232491812e+01   5.0903623179e+01    0.2206042     0.182101  39.27 0.0007312355    1.372    0.271
        69  -8.1813     60.2861     94.6933   9.0604604545e+01   5.0922681497e+01    0.1354304    0.1128797  79.33 0.0003649519    1.567    0.362
        70  -9.7073     58.6840    196.1111   1.0870751710e+02   2.5890554614e+01    0.2079006    0.2052092 -83.08 0.0002601122    1.190    0.160
        71 -11.4793     71.0153    167.5772   1.0175394047e+02   3.1242501473e+01    0.5352932    0.3121908 -56.54 0.0008956384    1.638    0.390
        72 -10.4791    183.9176    212.9229   8.1997859888e+01   2.7060484303e+00    0.2436002    0.1901757 -42.51  0.001386516    1.395    0.283
        73  -9.3623    159.3140     82.9911   5.8101864391e+01   3.3747168969e+01    0.2112612     0.195492 -45.83 0.0005384472    1.079    0.073
        74 -10.6177    113.2468    173.2235   9.1387495674e+01   2.3210281099e+01    0.3917133    0.1950155  44.71  0.001549584    2.021    0.505
        75  -8.7092     51.3545     64.0641   8.5194977039e+01   5.8785309146e+01    0.1851169    0.1602263 -28.90 0.0004809869    1.068    0.064
        76 -11.2733      2.0193     60.3328   1.0575180930e+02   6.3920306377e+01    0.6000239    0.1253661 -63.48  0.002175244    3.707    0.730
        77 -10.4649     13.4479     59.8633   1.0047341261e+02   6.3383480252e+01    0.2482622    0.1967437 -52.23 0.0004056286    1.170    0.146
        78 -12.9749    192.5322     49.3764   4.3340168210e+01   3.1353491038e+01      1.10515    0.7601318  43.96  0.001197337    1.746    0.427
        79 -10.9343    119.9836    244.7834   1.0054604130e+02   6.8301204439e+00    0.2271631    0.1896916  51.32 0.0007262341    1.148    0.129
        80  -8.9927     34.1756    206.5263   1.1544889600e+02   2.6333563898e+01    0.3747031    0.1188793  56.21  0.001352839    3.687    0.729
        81 -11.1692    192.4515    193.8465   7.6722844716e+01   4.7985375776e+00    0.7166051    0.4290314 -66.22  0.002673867    3.755    0.734
        82  -8.6914     78.0356     57.6938   7.2729238786e+01   5.5835573614e+01    0.3077006     0.178767  54.81  0.001329881    2.370    0.578
        83 -10.0268    107.5369    204.0070   9.7880378398e+01   1.7032387615e+01    0.2525994    0.1843638 -69.36  0.001303585    1.512    0.339
        84  -8.8741    189.6616     14.9656   3.5204296347e+01   3.6264363453e+01     0.173959    0.1475475 -64.29 0.0006209948    1.128    0.114
        85 -10.0627    122.3232    198.7377   9.3504454940e+01   1.5795780827e+01    0.3579559    0.2634998 -87.18  0.001298245    1.807    0.447
        86 -14.5479      9.4302    207.3309   1.2088459073e+02   2.8587358910e+01     1.164433     1.023266 -34.89  0.006410056    1.603    0.376
        87  -9.3433     59.9608    218.4020   1.1075419888e+02   2.0636664993e+01    0.2269925     0.154755  80.05 0.0002929886    1.473    0.321
