#   1 NUMBER                 Running object number                                     
#   2 MAG_AUTO               Kron-like elliptical aperture magnitude                    [mag]
#   3 X_IMAGE                Object position along x                                    [pixel]
#   4 Y_IMAGE                Object position along y                                    [pixel]
#   5 X_WORLD                Barycenter position along world x axis                     [deg]
#   6 Y_WORLD                Barycenter position along world y axis                     [deg]
#   7 A_WORLD                Profile RMS along major axis (world units)                 [deg]
#   8 B_WORLD                Profile RMS along minor axis (world units)                 [deg]
#   9 THETA_WORLD            Position angle (CCW/world-x)                               [deg]
#  10 FWHM_WORLD             FWHM assuming a gaussian core                              [deg]
#  11 ELONGATION             A_IMAGE/B_IMAGE                                           
#  12 ELLIPTICITY            1 - B_IMAGE/A_IMAGE                                       
         1 -12.7509    249.9097     12.9253   2.5136399135e+01   2.4758287832e+01    0.4002614   0.08252942 -36.97  0.001682488    4.178    0.761
         2 -11.6493     49.6196     14.0828   5.8545861076e+01   6.6583271519e+01    0.2497726    0.1703716  17.16  0.000834003    1.338    0.253
         3 -13.0233    114.3635     10.3325   3.8983538499e+01   5.3690831943e+01    0.4241342    0.2798115  11.47  0.001551706    2.063    0.515
         4 -12.0799     34.8046     13.4092   6.4720196642e+01   6.9030589647e+01     0.272694    0.1745793  19.13  0.001381897    1.346    0.257
         5 -12.2701     32.0099     10.9694   6.4883170334e+01   6.9723603339e+01    0.2751945    0.1520595 -21.62  0.000858255    1.839    0.456
         6 -13.1875    241.1662     10.9539   2.5330126545e+01   2.6546590721e+01     0.249445     0.134627 -42.44  0.001623915    1.679    0.404
         7 -11.3915     45.1965     12.1828   5.9492354846e+01   6.7531894095e+01     0.187406    0.1351545  16.64 0.0008064724    1.182    0.154
         8 -12.7803     56.2879      9.2908   5.3830494540e+01   6.5885141904e+01    0.3705629    0.2151908  32.07  0.001379705    1.488    0.328
         9 -11.8845     98.6666      8.8978   4.1663024669e+01   5.7299537238e+01     0.164258    0.1520216  47.22  0.001022662    1.119    0.106
        10 -11.0640     69.4471      9.5225   4.9518376501e+01   6.3359969873e+01     0.123295   0.09945501  35.81 0.0001202138    1.005    0.005
        11 -11.0822      3.3182      8.8377   7.9974578449e+01   7.3407065054e+01    0.1841976    0.1270688  17.18 0.0008785433    1.364    0.267
        12  -9.9619    213.6904      8.3210   2.6711606190e+01   3.2079918361e+01    0.1204086   0.06488662 -66.69 0.0005009829    1.645    0.392
        13 -11.9229    124.7785      7.3855   3.6257984149e+01   5.1587206278e+01    0.2522614    0.1742507 -76.97 0.0008763213    1.672    0.402
        14 -12.9194     86.2926      7.2035   4.3922412674e+01   6.0105327186e+01    0.3989822    0.1899637  46.84  0.001130527    1.702    0.413
        15 -13.1074    245.4104      7.5987   2.4488092884e+01   2.6140348773e+01    0.1943996    0.1547708 -76.89 0.0007500298    1.162    0.139
        16 -11.4631    131.5197      3.0633   3.3953019778e+01   5.0412721306e+01    0.1581173    0.1228501 -21.93  0.001029423    1.588    0.370
        17 -12.3757    113.8596      2.0293   3.6413857399e+01   5.4473816451e+01    0.3748069     0.173992  67.10  0.001299002    1.800    0.445
        18 -12.5188     38.5659      2.6670   5.7745819047e+01   6.9575087486e+01    0.3267279    0.1864153  45.08  0.001582877    1.624    0.384
        19 -12.5793    232.0459      1.9456   2.4288659309e+01   2.9182826687e+01    0.3544498    0.1216558  78.13  0.001834471    2.672    0.626
        20 -14.6985    102.6461    229.8478   9.6253059118e+01   1.1309570703e+01    0.6790261    0.6178821 -35.99  0.004102913    1.196    0.164
        21 -11.7531     65.0610    250.3862   1.0716802594e+02   1.1997740955e+01    0.3152319    0.1522045  28.45  0.001511669    2.011    0.503
        22 -13.3501      6.4832    189.9246   1.1563025196e+02   3.2156756791e+01     1.347431    0.2699935 -56.12  0.004383225    4.445    0.775
        23 -12.8283     48.8844    233.0459   1.0919794836e+02   1.7676725245e+01    0.7759759     0.333627  51.58  0.002311311    2.266    0.559
        24 -14.2376     29.3217    190.1173   1.0989118916e+02   3.0077797659e+01     1.458901    0.7829518  33.63  0.007088576    1.869    0.465
        25 -13.4867     34.9908    221.4174   1.1136745557e+02   2.1888328291e+01    0.7146711     0.487952 -38.74  0.003056187    1.952    0.488
        26 -14.0978     46.0714    241.4027   1.1054024145e+02   1.6172791146e+01     1.337032    0.5827048  74.49  0.005211331    3.513    0.715
        27 -16.8831     13.1698    237.6366   1.1729148535e+02   2.0466198966e+01     2.693282     2.086372  80.83   0.01821472    1.112    0.101
        28 -13.9564     93.7123    222.5717   9.7438678316e+01   1.4192306114e+01     0.731734    0.4046406  35.01 0.0004251457    1.657    0.396
        29 -14.1772     95.4771    228.4830   9.7784259426e+01   1.2628128156e+01     1.042228    0.4675359 -41.91  0.004117272    2.892    0.654
        30 -13.6726     91.0874    228.8183   9.8875466089e+01   1.3171478624e+01    0.5182219    0.4573624 -77.58   0.00212254    1.221    0.181
        31 -13.2463     90.3612    215.3791   9.7300514978e+01   1.6314334515e+01    0.4425442    0.3293798 -61.59   0.00179021    1.403    0.287
        32 -11.6311     64.7482    220.0889   1.0418405265e+02   1.8690140157e+01     0.600284    0.2537644 -69.67  0.002466057    2.537    0.606
        33 -11.5358     67.5217    213.0650   1.0269716445e+02   1.9987349202e+01    0.3919508    0.2321089 -32.97  0.001705772    2.453    0.592
        34 -12.1789     59.8193    225.2134   1.0591240994e+02   1.8127191175e+01    0.9112678    0.6771546  77.42  0.005136278    1.381    0.276
        35 -11.9104     60.1099    233.1811   1.0664625356e+02   1.6294167248e+01    0.3032768    0.2779041  85.17  0.001096853    1.099    0.090
        36 -13.0280    135.6400    231.9222   8.8795792535e+01   6.0493708437e+00    0.2742351    0.2472517  61.08  0.001270361    1.328    0.247
        37 -15.7281    122.4716    215.0243   8.9316218305e+01   1.1598302466e+01     1.613115    0.8727089 -72.84  0.006048259    3.183    0.686
        38 -10.8788     79.1234    232.1217   1.0210644576e+02   1.4079249868e+01    0.1865302    0.1463553  70.50 0.0007204838    1.342    0.255
        39 -10.7145     65.5219    227.0650   1.0475743691e+02   1.6987720795e+01    0.2284005    0.1224295 -61.10 0.0009424961    1.908    0.476
        40 -10.8806     50.7934    225.5814   1.0807087042e+02   1.9138249392e+01    0.3432187   0.08354708 -64.63  0.001193515    3.693    0.729
        41 -11.6431     80.8570    223.9208   1.0072924483e+02   1.5679753297e+01    0.2851328    0.2244856  79.58 0.0009578431    1.390    0.280
        42 -12.8051     81.1137    218.6165   1.0001191702e+02   1.6861029505e+01    0.4811578    0.3094074  63.23  0.002305751    1.807    0.447
        43 -11.6965     81.5214    214.4905   9.9385043675e+01   1.7766826642e+01    0.2345461    0.2194943  34.32  0.000573152    1.068    0.064
        44 -11.5212     78.6188    213.8137   1.0002236791e+02   1.8326137280e+01    0.2711809    0.1955631 -65.98  0.001084097    1.429    0.300
        45 -13.5704    110.2891    209.6620   9.1488119118e+01   1.4679474096e+01    0.4521649    0.3009089 -68.61  0.002127906    1.780    0.438
        46 -14.3135    108.9813    216.7506   9.2884399672e+01   1.3267165923e+01    0.8012664    0.4884323 -89.98  0.003171298    2.968    0.663
        47 -13.3584    113.4618    215.5650   9.1605299943e+01   1.2856786303e+01    0.4439339    0.2590149 -59.44  0.001551752    1.879    0.468
        48 -11.5592     63.3820    234.8301   1.0605699020e+02   1.5522044819e+01    0.2942598    0.2224735   1.05 0.0006092558    1.768    0.435
        49 -10.6894     74.3096    218.2900   1.0164391420e+02   1.7859586758e+01    0.1330422    0.1060141 -22.49 0.0002639476    1.581    0.367
        50 -12.8658    100.9416    212.8706   9.4308561963e+01   1.5351686591e+01      0.41325    0.2250108  33.80  0.001629407    1.723    0.420
        51 -14.2340    117.6050    224.8865   9.1989095758e+01   1.0189578523e+01    0.5419394    0.4286503 -47.61  0.002995078    1.344    0.256
        52 -15.2771     33.3063    236.9725   1.1297683054e+02   1.8561761251e+01     1.018952    0.8128188  57.34   0.00661975    1.077    0.072
        53 -10.7562      1.6149    211.3691   1.1820559935e+02   2.7403934351e+01    0.1391186    0.1176851  13.84 0.0006582594    1.515    0.340
        54 -12.1734     94.2741    208.6057   9.5369079262e+01   1.7332484922e+01    0.3876194   0.09829148 -53.93  0.001212113    3.672    0.728
        55 -11.3550     74.2278    210.1436   1.0065785570e+02   1.9796186456e+01    0.2923788    0.1767399  38.03   0.00079827    1.556    0.357
        56 -10.2914     70.2865    207.6740   1.0134414954e+02   2.0918637578e+01    0.1459512    0.1003895  66.08 0.0003027166    1.607    0.378
        57 -12.6854     88.1708    201.6590   9.5927160370e+01   1.9888831659e+01    0.3433837    0.2560229 -70.71 0.0004583356    1.423    0.297
        58 -13.1719    131.2999    202.0477   8.5002047232e+01   1.3099779299e+01    0.4626837    0.2557494 -44.33  0.001999449    1.842    0.457
        59 -10.8754     65.6449    203.2915   1.0198177784e+02   2.2597489255e+01    0.2678177    0.1498113  41.14  0.001227174    1.702    0.412
        60 -14.4537     18.6010    214.5207   1.1459099709e+02   2.5162891781e+01     1.347594    0.5093589  50.81  0.005878371    2.498    0.600
        61 -11.5559     55.9962    197.7382   1.0379774725e+02   2.5194706175e+01     0.416564    0.2975101 -56.65  0.001716164    1.402    0.287
        62 -11.2308    145.7606    202.5999   8.1584835956e+01   1.0634497698e+01    0.2008474    0.1315524  41.19 0.0005749366    1.571    0.363
        63 -15.6331     98.3530    194.9179   9.2229882886e+01   2.0008397944e+01     1.223069    0.9528389  76.25  0.006043438    1.550    0.355
        64 -14.4979     77.0816    189.1994   9.7033766087e+01   2.4569433215e+01     1.353117     0.531287  50.10  0.004489929    3.243    0.692
        65 -12.0038     69.2701    188.1191   9.8997375037e+01   2.5918806728e+01    0.3138888     0.220041  28.21  0.001376342    1.480    0.324
        66 -12.3070     69.3384    175.0801   9.7034601263e+01   2.9271114216e+01    0.2741913     0.241532 -24.65  0.000346489    1.259    0.206
        67 -15.4680     88.1602    185.9018   9.3509561796e+01   2.3793188498e+01     1.266016    0.8308689 -65.99  0.005810685    1.589    0.370
        68 -15.0621    112.9161    229.8116   9.3809294654e+01   9.8299528275e+00     1.012732    0.5417742  56.53  0.004157023    2.636    0.621
        69 -10.4912     46.0828    197.6334   1.0635465878e+02   2.6396929788e+01    0.2242396     0.150436 -65.10  0.001152996    1.420    0.296
        70 -14.5613     46.1400    214.0050   1.0805385668e+02   2.2389537856e+01     1.463087     0.988516 -39.47   0.00759633    1.878    0.467
        71 -12.5460    129.1056    193.7532   8.4084240407e+01   1.5353298475e+01    0.3440928    0.2293887 -71.35  0.001489795    2.035    0.509
        72 -11.4102     41.6519    193.7776   1.0707671846e+02   2.7863065947e+01    0.2698613    0.1952406  82.91 0.0007916759    1.384    0.277
        73 -12.1814     40.8526    189.1135   1.0676907023e+02   2.9132295336e+01    0.3684781    0.2396584  39.04 0.0004166545    1.531    0.347
        74 -10.6110     50.9996    192.5193   1.0448096265e+02   2.7111252457e+01    0.2369001    0.1825302  19.24 0.0008496149    1.467    0.318
        75 -14.3544     64.6357    168.7063   9.7386738062e+01   3.1571047006e+01    0.6593955    0.5082879  12.72  0.002758411    1.494    0.331
        76 -10.8652     11.1782    191.8544   1.1462594219e+02   3.1298116327e+01    0.1810282    0.1452534  69.11 0.0005289745    1.142    0.124
        77 -13.1350    111.5179    189.2590   8.7813976706e+01   1.9306013997e+01    0.4534873    0.2625872 -71.76  0.001544548    2.389    0.581
        78 -13.1577     53.3503    179.7401   1.0221875583e+02   3.0110495708e+01    0.5117171    0.3972164 -23.36  0.002120533    1.581    0.367
        79 -13.5754     36.1980    175.2778   1.0642899135e+02   3.3191486136e+01    0.8164648    0.4997425 -85.36  0.002475656    1.674    0.403
        80 -12.5800     11.9196    161.9252   1.1175425960e+02   3.8832196754e+01    0.5367047    0.3499464  18.29  0.002871883    1.808    0.447
        81 -13.4597     19.6206    160.8091   1.0944262805e+02   3.8513525523e+01    0.5816683    0.5286976 -89.62  0.003590005    1.064    0.060
        82 -12.9327     27.3183    169.4281   1.0822899486e+02   3.5586854185e+01    0.5626929    0.3881943  89.85  0.001629069    1.423    0.297
        83 -14.1877     28.6096    162.1467   1.0699771871e+02   3.7372805333e+01    0.7978008    0.4672795  29.62  0.002921549    1.828    0.453
        84 -11.6927     23.6969    177.9511   1.1014690975e+02   3.3713553420e+01    0.3833746    0.2856693  51.42  0.001479121    1.358    0.264
        85 -11.5928     28.2131    177.1548   1.0884070808e+02   3.3497204254e+01    0.2603903    0.2116362  69.11 0.0009132334    1.206    0.171
        86 -14.6853     21.5986    151.6927   1.0778328862e+02   4.0736584519e+01     1.199911    0.5634941  -0.67  0.004578442    3.467    0.712
        87 -12.3246     12.0988    180.9656   1.1349177039e+02   3.3944161126e+01    0.5015076    0.3052114  59.15  0.001237232    1.659    0.397
        88 -11.6616      8.5025    177.4867   1.1412477161e+02   3.5107825199e+01    0.2905516    0.2172694 -32.50  0.001672197    1.644    0.392
        89 -12.4742     53.3029    185.4783   1.0298702200e+02   2.8633132187e+01    0.3598526    0.2537649 -61.83 0.0005193231    1.348    0.258
        90  -9.8886      2.2532    176.6893   1.1567343292e+02   3.5770770871e+01    0.1302842   0.08315939  70.53 0.0001477503    1.519    0.342
        91 -13.4142     61.9175    176.0102   9.9284821688e+01   3.0013005600e+01    0.5790706    0.2902621 -78.74  0.002186046    2.512    0.602
        92 -15.0701     73.7902    181.8714   9.6832059761e+01   2.6899686696e+01      1.57428    0.5022097  35.57  0.005345731    2.906    0.656
        93 -11.0082     15.6569    173.8279   1.1190037175e+02   3.5470347558e+01    0.1926489    0.1818303 -28.80 0.0005991638    1.252    0.201
        94 -13.1780     57.9937    174.3498   1.0015752359e+02   3.0945715198e+01    0.4641972    0.2684312 -58.81  0.002093088    1.610    0.379
        95 -14.3396     47.0131    158.8241   1.0108622526e+02   3.6354109935e+01    0.7340947    0.4641347  72.38  0.003246453    2.001    0.500
        96 -13.8202     52.7737    156.1824   9.8929350403e+01   3.6382464048e+01    0.4622267    0.4120417 -26.98  0.002544869    1.208    0.172
        97 -12.5107     71.5233    159.4583   9.3799426653e+01   3.3064692490e+01    0.2393492    0.2356593  83.62 0.0008092488    1.042    0.040
        98 -13.3474     62.5470    155.8154   9.5882524831e+01   3.5249944751e+01    0.5052434    0.2369537  33.47  0.002002683    2.160    0.537
        99 -11.2623     85.6605    153.2989   8.8392776884e+01   3.2569904518e+01    0.1595447    0.1194759  67.77 0.0004507758    1.663    0.399
       100 -10.2924    130.6834    151.3085   7.5148588018e+01   2.5171447965e+01    0.1568779    0.1267405  80.29 0.0007030628    1.633    0.388
       101 -10.3113     29.6511    156.2689   1.0594708374e+02   3.8823248727e+01    0.1432291   0.09807315  61.15 0.0003886636    1.621    0.383
       102 -13.4518     53.3093    149.1541   9.7604718135e+01   3.8182850651e+01    0.5133588    0.2925135  62.81  0.002021807    2.492    0.599
       103 -11.4402     85.5161    148.5023   8.7473112035e+01   3.3836858376e+01    0.1548232     0.148996 -46.15  5.36659e-05    1.003    0.003
       104 -11.9509     81.0199    145.8061   8.8303318999e+01   3.5239840625e+01    0.2626845     0.179468 -12.93  0.001092333    2.004    0.501
       105 -13.3884     26.6305    143.1560   1.0509816196e+02   4.2553469198e+01    0.4704193    0.2514516  70.04  0.001889618    2.675    0.626
       106 -14.7449     47.3672    134.5298   9.6948604043e+01   4.2743856315e+01     1.161818    0.4226155 -41.67  0.003824173    3.181    0.686
       107 -14.0423     39.8992    140.6221   1.0045903003e+02   4.1953345415e+01    0.4992681    0.3962392  83.71  0.002626437    1.390    0.281
       108 -13.1859     43.6529    181.8418   1.0516481083e+02   3.0689254886e+01    0.6874285    0.3902043  83.47  0.002956099    2.159    0.537
       109 -13.4913      4.5768    139.7312   1.1155826999e+02   4.5072928253e+01    0.4921107    0.3624968 -35.23  0.002835053    1.453    0.312
       110 -14.4650     16.3256    136.8826   1.0751903605e+02   4.5025834995e+01    0.5868291    0.3748713 -50.36  0.002506545    1.411    0.291
       111 -13.7684     10.8154    133.4547   1.0884207062e+02   4.6300143601e+01    0.4217918    0.3054452 -79.76  0.002345079    1.273    0.215
       112 -10.8323    105.2122    138.4629   7.9366558920e+01   3.3043199937e+01    0.2147759    0.1486213  48.35 0.0005174362    1.578    0.366
       113 -14.0160     59.1656    132.2104   9.2566491621e+01   4.1907334511e+01    0.8223172    0.3598427 -59.04  0.003130238    2.113    0.527
       114 -14.3518     21.3733    124.9033   1.0410946551e+02   4.7754081882e+01    0.6439605    0.3543754 -39.80  0.003017288    1.799    0.444
       115 -13.7331      6.9494    123.1023   1.0875633204e+02   4.9202403760e+01    0.4474137    0.3002173 -78.84  0.001325428    1.389    0.280
       116 -12.4328     14.1363    118.1160   1.0556161521e+02   5.0021060581e+01    0.2235491    0.1629331 -45.82  0.001244488    1.225    0.184
       117 -13.3673     50.1561    122.7152   9.3704382217e+01   4.5487911935e+01    0.4290565    0.2847606  46.33  0.001572776    1.749    0.428
       118 -11.2050     63.3220    113.3225   8.6989036353e+01   4.6147214244e+01    0.1596264    0.1082822 -24.65 0.0007046065    1.677    0.404
       119 -11.6045     44.8435    113.6304   9.3686638488e+01   4.8413653407e+01    0.1993117    0.1289156  36.33 0.0008222031    1.695    0.410
       120 -10.9672     12.9967    106.0427   1.0400520400e+02   5.3134256851e+01     0.165275    0.1345441 -54.61 0.0003482178    1.035    0.034
       121 -11.1241    103.4587     97.7588   6.9474695256e+01   4.2901302395e+01    0.2503487    0.2211543 -51.60  0.001090351    1.186    0.157
       122 -10.6756    142.9901     96.0129   5.8305861547e+01   3.4909550301e+01    0.2380964    0.1857653 -82.37  0.001023683    1.639    0.390
       123 -11.8562    132.0061     92.8310   6.0124910407e+01   3.7940001669e+01     0.308997    0.2448637  38.57 0.0004389918    1.289    0.224
       124 -10.7503     90.4920     89.9808   7.1332346892e+01   4.7053230208e+01     0.202652    0.1352153 -71.25 0.0007724888    2.457    0.593
       125 -10.4632    107.5132     89.4830   6.5876852013e+01   4.3811715841e+01    0.1498171    0.1439333   8.09 0.0003280255    1.007    0.007
       126 -13.4691     49.1398     82.4649   8.4270332622e+01   5.5281435456e+01    0.7499226    0.2103216  32.43  0.002539947    3.484    0.713
       127  -9.9178    105.6750     79.7230   6.3512524118e+01   4.6105515211e+01    0.1488234    0.1133431  10.70 0.0002670333    1.587    0.370
       128 -10.1881    215.7607     78.6554   4.1049360697e+01   2.2423612293e+01    0.1175487   0.09893637 -17.91 0.0003104224    1.562    0.360
       129 -10.4249     78.2274     78.0218   7.1871288484e+01   5.1740861935e+01    0.1848302    0.1169036 -42.11 0.0003248886    1.578    0.366
       130 -11.2772     53.2814     77.5947   8.1169160151e+01   5.5775794809e+01    0.1946706    0.1288645  14.56 0.0009511478    1.599    0.375
       131 -12.7931     40.5841     70.2663   8.4214949628e+01   5.8942024140e+01     0.316239    0.2412302  14.23  0.001154541    1.287    0.223
       132 -10.8985      7.8420     68.2537   9.8387593961e+01   6.2301908076e+01    0.2153918     0.155032 -62.76 0.0009342693    1.408    0.290
       133 -10.4961     63.8423     70.1653   7.4663215159e+01   5.5711250397e+01    0.1932879    0.1506198  -9.54            0    1.293    0.226
       134 -11.8932    192.1669     66.0156   4.1460067959e+01   2.9256294740e+01      0.20364     0.177108  82.87  0.000344767    1.114    0.103
       135 -10.6840     43.9200     62.6569   8.0342570923e+01   6.0054269088e+01    0.1865872    0.1593674   1.68 0.0005022257    1.075    0.070
       136 -11.1684     98.8972     61.6089   5.9803221829e+01   5.0732932403e+01    0.2857661    0.1901743 -57.78  0.001322792    2.053    0.513
       137 -12.8269    249.7104     55.8315   3.2811754555e+01   1.9461050573e+01    0.4314454   0.07647909 -39.99  0.001533389    4.308    0.768
       138 -10.7570     64.1357     56.1523   6.9766914033e+01   5.8236955623e+01    0.1754075    0.1651407  43.85 0.0007082491    1.309    0.236
       139 -10.1487    118.5680     42.5077   4.8415489508e+01   4.9260399406e+01    0.1338373    0.1227139  56.23 0.0001881179    1.024    0.024
       140 -10.2598    151.5376     40.5460   4.1351339354e+01   4.1949164073e+01     0.131904    0.1175914  80.86 3.464574e-05    1.016    0.016
       141 -10.5351     69.6551     39.3160   6.1451676656e+01   5.9899568148e+01      0.12245    0.1068505  81.64 0.0006061759    1.717    0.418
       142 -10.7740     40.8025     36.1838   7.1980458570e+01   6.5085779769e+01      0.18192    0.1286846  -0.39 0.0006981601    1.332    0.249
       143 -10.4432     51.5005     33.4282   6.6153994287e+01   6.3871409926e+01     0.129868    0.1052711  12.16 6.080998e-05    1.028    0.027
       144 -11.4222     17.6977     31.7562   8.1725169259e+01   6.8576889236e+01    0.2004947    0.1641053  -8.25 0.0002667481    1.106    0.096
       145 -10.7992    160.3493     27.0726   3.6424502543e+01   4.1539929776e+01    0.1674636    0.1491628 -65.71 0.0004064384    1.142    0.125
       146 -10.1930     46.7620     26.9634   6.5450757315e+01   6.5511082282e+01    0.1478844   0.09764187 -26.19 0.0003019131    1.532    0.347
       147 -11.3466     98.4154     22.9465   4.6674622156e+01   5.6037318973e+01      0.22807     0.157612  48.21 0.0002502213    1.230    0.187
       148 -10.8322     72.8757     22.5040   5.3736995081e+01   6.1391319361e+01    0.1851437     0.109533  48.23  0.000432766    1.480    0.324
       149 -10.8328     84.5360     20.5065   4.9434803596e+01   5.9245957049e+01    0.1271979    0.1083912  40.84 7.937895e-05    1.030    0.029
       150 -11.4422     20.1619     17.3495   7.4100127977e+01   7.0482257925e+01    0.2091152    0.1541486 -29.06  0.001027677    1.393    0.282
       151 -13.7237    105.5875    246.0295   9.7635084091e+01   7.5262173363e+00    0.4848219    0.4102158  89.23  0.002949843    1.412    0.292
       152 -12.5936     99.0716    246.1707   9.9131063427e+01   8.3971596980e+00     0.427626    0.2994227  67.54  0.002200705    1.755    0.430
       153 -11.4903    127.9043     14.3525   3.7838875037e+01   5.0262732180e+01    0.2580103    0.1090176  73.71  0.001094969    2.524    0.604
       154 -13.5151    101.7419    241.1541   9.7913652667e+01   9.0517725193e+00    0.4509033     0.305263 -24.06  0.002107569    2.008    0.502
       155 -12.3902    132.0188    247.1936   9.1817924644e+01   3.5919566066e+00    0.2221118    0.1980747 -40.11  0.001088897    1.250    0.200
       156 -10.5820     91.2954    247.6815   1.0106333284e+02   9.1482949264e+00    0.1780788    0.1017709  32.99 0.0003309817    1.541    0.351
       157 -11.2589     89.5902    243.7991   1.0101179241e+02   1.0174544327e+01    0.3469691    0.2360273 -57.16   0.00192016    1.619    0.382
       158 -10.9021     71.0553    246.4738   1.0547436853e+02   1.2054108379e+01    0.2355374    0.1661629  81.25  0.001330733    1.591    0.372
       159 -10.4310    161.7116     11.6500   3.2326114857e+01   4.2832567095e+01    0.1174564   0.08513207  42.55 0.0007024613    1.664    0.399
       160 -10.2586     63.6976    246.7047   1.0712788101e+02   1.2931408980e+01    0.1168295   0.09782002 -19.57  0.000699458    1.577    0.366
       161 -13.9487    115.8971    242.8121   9.4876470092e+01   6.7237246253e+00    0.4384503    0.3102025   0.58  0.002296494    1.734    0.423
       162  -9.8947     77.2902    243.3860   1.0376058301e+02   1.1896316165e+01     0.128616    0.0973405 -26.55  7.74592e-05    1.757    0.431
       163 -11.8760     55.7048    241.8490   1.0845452759e+02   1.4939616733e+01    0.2548704    0.2191086  61.05   0.00122358    1.026    0.025
       164 -14.1155     26.3943    200.9749   1.1164792603e+02   2.7663052142e+01     1.798859    0.7773426  48.33    0.0079753    2.248    0.555
       165 -12.9233     82.8737    238.1849   1.0191845294e+02   1.2260862546e+01    0.3985975    0.3442713  63.97  0.001021471    1.146    0.127
       166 -11.9768     73.0283    237.7053   1.0413528182e+02   1.3663215010e+01    0.3292559    0.2870228 -50.17   0.00135521    1.305    0.234
       167 -11.4249     74.1460    232.7954   1.0334871464e+02   1.4589878132e+01    0.2582112    0.2500747 -47.37 0.0008034956    1.171    0.146
       168 -12.7482     75.6603    227.4825   1.0239628168e+02   1.5573687266e+01    0.5188999    0.2686429 -54.85  0.002422845    2.032    0.508
       169 -12.1516     67.3636    239.7197   1.0563547970e+02   1.3955086270e+01     0.381759    0.2927501 -88.98  0.002213513    1.381    0.276
       170 -11.2944     86.1096    212.5273   9.7977840384e+01   1.7585631379e+01    0.2558301    0.1810833  45.63 0.0006847128    1.361    0.265
