#   1 NUMBER                 Running object number                                     
#   2 MAG_AUTO               Kron-like elliptical aperture magnitude                    [mag]
#   3 X_IMAGE                Object position along x                                    [pixel]
#   4 Y_IMAGE                Object position along y                                    [pixel]
#   5 X_WORLD                Barycenter position along world x axis                     [deg]
#   6 Y_WORLD                Barycenter position along world y axis                     [deg]
#   7 A_WORLD                Profile RMS along major axis (world units)                 [deg]
#   8 B_WORLD                Profile RMS along minor axis (world units)                 [deg]
#   9 THETA_WORLD            Position angle (CCW/world-x)                               [deg]
#  10 FWHM_WORLD             FWHM assuming a gaussian core                              [deg]
#  11 ELONGATION             A_IMAGE/B_IMAGE                                           
#  12 ELLIPTICITY            1 - B_IMAGE/A_IMAGE                                       
         1 -15.3475    185.1505    153.0162   9.0903752352e+01   1.4610518852e+01     3.444376     2.540588 -32.28   0.01760421    1.381    0.276
         2 -13.0638    197.5997     28.9036   5.5823575646e+01   3.2155942879e+01     0.684673    0.4859092   8.28  0.003350106    1.894    0.472
         3 -12.1129      4.5087      3.9249   1.0382462700e+02   7.3711358650e+01    0.7646784    0.4615176   7.76  0.005130824    1.728    0.421
         4 -13.4829      7.6375     13.5483   1.0643177615e+02   7.1878031340e+01    0.8313291    0.4657925 -14.18   0.00505462    1.851    0.460
         5 -13.8484     19.1016      6.7036   9.6942668708e+01   7.2032781949e+01     1.392835    0.6646674 -17.35  0.006851568    2.624    0.619
         6 -12.2303    213.1169     11.6549   4.9382040048e+01   3.0234465084e+01    0.6177608    0.5057235 -72.35  0.003696985    1.141    0.124
         7 -12.8571    129.9704      8.3373   5.9639945172e+01   5.1452983406e+01    0.6485995    0.4207153 -84.20  0.003033429    2.151    0.535
         8 -11.7241    138.0280    236.3630   1.1436529543e+02   8.7457651591e+00    0.4149482    0.2961746  40.89   0.00271027    1.142    0.124
         9 -13.9145    246.5554    240.8030   9.5826636621e+01  -8.1897488758e+00     1.408146    0.6189784 -24.01  0.007841424    2.463    0.594
        10 -12.3231    117.0273    238.1061   1.1843690280e+02   1.1648614729e+01     0.604462    0.4230978  39.55  0.002765305    1.248    0.199
        11 -11.6998    106.3000    238.3967   1.2042995726e+02   1.3167428264e+01    0.5634376     0.427794  61.29  0.002914852    1.155    0.134
        12 -12.3342    105.4127    248.6203   1.2158049381e+02   1.1671435579e+01     0.660578    0.3124316  47.64   0.00333147    1.644    0.392
        13 -11.8049     96.8378    248.8841   1.2311021690e+02   1.2823379393e+01    0.3149967    0.2347819  49.58  0.001407797    1.077    0.072
        14 -10.8675     82.3281    239.5578   1.2486177114e+02   1.6302832408e+01    0.6320537    0.3376621  65.94  0.003694168    1.911    0.477
        15  99.0000     54.0848    242.4978   1.2999969209e+02   1.9370701194e+01    0.9698932    0.5319972  33.60  0.006080405    2.029    0.507
        16 -13.5908     70.3048    246.0522   1.2748052026e+02   1.6787882212e+01    0.7498333    0.5765662 -61.22  0.005659175    1.681    0.405
        17 -11.9170     75.3629    246.9045   1.2667554917e+02   1.6002749002e+01    0.3103109     0.194061  36.74  0.001570273    1.600    0.375
        18 -14.4020     17.2694    182.4495   1.3273211738e+02   3.4683527489e+01     1.455461    0.6796583 -72.60  0.008441627    1.831    0.454
        19 -15.2164      6.4089    171.7892   1.3422584774e+02   3.7839180314e+01     2.343309    0.6889434 -68.13   0.01128091    2.705    0.630
        20 -15.5325      7.8324    130.9947   1.3071108773e+02   4.6654905976e+01     2.328357     1.943637  71.12    0.0157218    1.205    0.170
        21 -16.8471     12.3587    242.6334   1.3682857489e+02   2.3848500838e+01     1.574828     1.035702  62.29   0.01186942    1.086    0.079
        22 -14.8543     30.3424    239.5569   1.3379432380e+02   2.2544268747e+01    0.9109812    0.4223054  78.55  0.004584451    2.034    0.508
        23 -11.7205    133.4536    229.8347   1.1442879105e+02   1.0475826151e+01    0.5626529    0.3472831  40.14  0.002858373    1.350    0.259
        24 -11.0768    127.9917    229.2288   1.1538769446e+02   1.1420307996e+01    0.2739645    0.1461617  46.29  0.001225052    1.549    0.355
        25 -11.1537     89.1400    228.7250   1.2264395755e+02   1.7225929214e+01    0.4807164    0.2832053 -88.07  0.002782285    2.064    0.516
        26 -10.5534    145.9909    230.8112   1.1219021876e+02   8.3557143958e+00    0.3098936     0.146558  40.97  0.001601841    1.723    0.420
        27 -10.4778    120.7608    226.4208   1.1642826679e+02   1.2994901268e+01    0.2916356    0.2003317  27.66  0.001522186    1.637    0.389
        28 -13.8305    144.2655    197.6171   1.0782724008e+02   1.4173832433e+01     2.047868     1.575808 -41.11   0.01200556    1.491    0.329
        29  99.0000     69.7848    189.0034   1.2241917193e+02   2.7453156432e+01     1.566996    0.9385327  41.60  0.007514849    1.585    0.369
        30 -12.1822    153.2774    217.9456   1.0905632535e+02   9.2019855390e+00    0.9566604    0.6012348  29.82  0.005301913    1.574    0.365
        31 -10.3277     44.3964    214.1198   1.2974653725e+02   2.5583984588e+01    0.1517408    0.1334838  76.69 0.0006538023    1.231    0.187
        32 -16.0946     11.3930    204.4538   1.3518578171e+02   3.0826996416e+01     1.661765    0.9049426  80.87   0.01099262    1.494    0.331
        33 -10.7448     56.2413    203.0728   1.2658651584e+02   2.6326349179e+01    0.2784441    0.1829366 -77.75  0.001370687    1.446    0.309
        34 -10.9316     38.9728    194.6871   1.2930372328e+02   2.9999434026e+01    0.3420622    0.2030044  70.02  0.001617298    1.500    0.333
        35 -11.2039     38.9945    183.2756   1.2834674243e+02   3.2350203478e+01    0.4017648    0.2303367 -63.71  0.002010294    1.708    0.414
        36 -14.1965     84.8008    204.9357   1.2105409629e+02   2.2207164998e+01     1.693381    0.8764896 -50.68  0.007459496    2.379    0.580
        37 -13.0898    134.7431    179.9415   1.0698620447e+02   1.9156020115e+01    0.5599498    0.5281205 -72.72  0.003461209    1.132    0.117
        38 -11.3817    153.6529    246.2995   1.1271761283e+02   4.8958524803e+00    0.4740504    0.2944633  36.44  0.002713726    1.308    0.235
        39 -13.6284     77.1382    125.7405   1.1134038992e+02   4.0593760615e+01     1.325987     1.143928 -17.74  0.006062537    1.432    0.301
        40 -13.6675     64.6201    138.5642   1.1696598617e+02   3.9308944128e+01     2.136904     1.088067  89.27  0.008059372    3.339    0.701
        41 -14.1802     86.8329    164.6351   1.1545835489e+02   3.0274775094e+01     1.624517     1.352149  34.82  0.007831794    1.322    0.243
        42 -13.0358     69.9380    165.1434   1.1950506630e+02   3.2551823705e+01    0.6245327    0.4646609 -17.71  0.001175039    2.239    0.553
        43 -13.8835     61.6285    156.3668   1.2031493548e+02   3.5598502266e+01     1.243318    0.7992898 -82.86  0.005805236    1.538    0.350
        44 -12.4969     48.4194    164.1035   1.2438164038e+02   3.5447251613e+01    0.7005151    0.4816335  77.85   0.00292429    1.371    0.271
        45 -11.5838     36.5039    165.6377   1.2725429721e+02   3.6403357758e+01    0.8174862    0.5559444  19.50  0.004887305    2.054    0.513
        46 -11.7703    148.3402    169.4972   1.0214264752e+02   1.8718203253e+01    0.5264444    0.3978375  42.47  0.002801983    1.242    0.195
        47 -12.0082    132.7133    158.2300   1.0353692298e+02   2.3920619541e+01    0.8142512    0.4329918  25.67   0.00308609    2.824    0.646
        48 -12.5690     43.5007    148.9690   1.2378813461e+02   3.9400958508e+01    0.7726372    0.5592917 -42.64  0.004221268    1.703    0.413
        49 -13.0070    163.3719    174.6297   9.9862882544e+01   1.4912829827e+01    0.6575983     0.576705 -42.30  0.003825683    1.229    0.186
        50 -11.2615     90.3553    144.1921   1.1125615315e+02   3.4329626803e+01    0.2603971    0.2349947 -49.33 0.0004899981    1.180    0.153
        51 -15.2170     29.7282    213.1297   1.3237225723e+02   2.7372361021e+01      2.18039    0.8292177  85.91   0.01035429    3.077    0.675
        52 -13.9477    117.0585    127.9368   1.0107667686e+02   3.3420881546e+01     1.626786     1.268397 -29.81  0.008133444    1.471    0.320
        53 -10.4371     73.9115    178.2711   1.2027354261e+02   2.9155989714e+01    0.2200829    0.1645227 -61.53 0.0005194434    1.378    0.274
        54 -13.2942     67.8576    112.9658   1.1144551526e+02   4.4885358971e+01    0.7843248    0.5538999 -43.50  0.004086351    1.433    0.302
        55 -15.1336    103.1026    206.0599   1.1747056155e+02   1.9314625217e+01     3.109607     2.237398  28.25   0.01608427    1.613    0.380
        56 -13.6638    224.7540    100.9343   7.1117428215e+01   1.5208916572e+01    0.9114527    0.5956769 -39.60  0.004422983    1.439    0.305
        57 -13.1406     54.8403     94.7755   1.1155608943e+02   5.0779522934e+01     1.302823    0.7151771 -69.81  0.006005013    1.987    0.497
        58 -12.0452     32.0229     98.1146   1.1950799345e+02   5.2365045137e+01    0.6658435    0.1974798 -54.37  0.002713413    2.576    0.612
        59 -13.4613     21.0881     94.8473   1.2240535117e+02   5.4011578705e+01      0.81568    0.5169517  22.57  0.004518878    1.949    0.487
        60 -10.5305     76.1544    103.4980   1.0690489638e+02   4.5920838467e+01    0.3327175    0.2190616  60.89  0.001568889    1.976    0.494
        61 -12.0861     72.0806     92.6824   1.0554658337e+02   4.8991108890e+01    0.6343378    0.4490122  60.88  0.003186632    1.826    0.452
        62 -11.8015     32.4408     87.5260   1.1736894406e+02   5.4773586041e+01    0.3547069    0.1996119 -57.92  0.001903968    1.433    0.302
        63 -13.9880      6.6880     43.2961   1.1701602870e+02   6.6268070721e+01    0.7367529    0.5043762 -33.22  0.004943343    1.312    0.238
        64 -13.1690     21.2783     35.1636   1.0790384519e+02   6.6893516789e+01    0.4330164    0.3052884  38.52  0.002739259    1.889    0.471
        65 -12.7018    190.2822     34.8655   5.8531943173e+01   3.3272634258e+01    0.5331916     0.312837  45.39  0.002160694    1.835    0.455
        66 -10.5924    144.2537    248.2215   1.1462844280e+02   6.0486334614e+00    0.2824138    0.1330963  29.84  0.001399802    2.386    0.581
        67 -11.4168    166.2464    240.3468   1.0969267091e+02   3.7845174111e+00    0.5116706    0.2987562  40.49  0.003059474    1.366    0.268
        68 -11.0134    173.9555    236.0123   1.0770662950e+02   3.1777100775e+00    0.3963575    0.2703055  -4.62  0.002315535    2.060    0.515
        69 -10.5107    134.5486    241.6747   1.1562741273e+02   8.4709762990e+00    0.2356337    0.1864491  45.63  0.001652027    1.006    0.006
        70 -12.0344    206.5428     20.2018   5.2339432153e+01   3.0928280397e+01    0.4065427    0.2565868  32.15  0.001160899    2.129    0.530
        71 -10.3657    127.9288    223.6483   1.1472037756e+02   1.2348268903e+01    0.3200169    0.2574491  85.87  0.002070179    1.448    0.309
