#   1 NUMBER                 Running object number                                     
#   2 MAG_AUTO               Kron-like elliptical aperture magnitude                    [mag]
#   3 X_IMAGE                Object position along x                                    [pixel]
#   4 Y_IMAGE                Object position along y                                    [pixel]
#   5 X_WORLD                Barycenter position along world x axis                     [deg]
#   6 Y_WORLD                Barycenter position along world y axis                     [deg]
#   7 A_WORLD                Profile RMS along major axis (world units)                 [deg]
#   8 B_WORLD                Profile RMS along minor axis (world units)                 [deg]
#   9 THETA_WORLD            Position angle (CCW/world-x)                               [deg]
#  10 FWHM_WORLD             FWHM assuming a gaussian core                              [deg]
#  11 ELONGATION             A_IMAGE/B_IMAGE                                           
#  12 ELLIPTICITY            1 - B_IMAGE/A_IMAGE                                       
         1 -14.4041      7.3363     46.5702   1.0172934403e+02   6.5832742277e+01     1.573468    0.7047811 -53.17   0.00835644    1.742    0.426
         2 -14.2186    189.8415     25.5419   4.0516956856e+01   3.4534224885e+01     1.765637     0.846233 -55.35  0.007791307    2.348    0.574
         3 -13.5097    187.8683     13.0038   3.7528496636e+01   3.6356644460e+01    0.9306942    0.5483422 -43.77  0.005013119    1.679    0.405
         4 -12.4441    121.1246     25.7338   5.1932181185e+01   5.1000272078e+01    0.8171729    0.5083527  58.94  0.004132481    1.499    0.333
         5 -14.4554    166.5912     30.1001   4.4943260876e+01   3.9586184262e+01     1.075191    0.7727925  61.39  0.003675817    1.286    0.223
         6 -14.6972    147.2760     29.4256   4.7946222654e+01   4.4356281157e+01      1.51629     0.876995  57.96  0.007195709    1.558    0.358
         7 -13.0521    131.6835     32.7218   5.2049506075e+01   4.7706764974e+01    0.6983053    0.4581525 -39.19  0.003043921    1.650    0.394
         8 -14.1927    122.0488     37.4415   5.5808618500e+01   4.9370323985e+01     1.019118    0.5383461  33.29  0.002534456    2.245    0.554
         9 -13.6248      2.7315     10.7122   9.0969118941e+01   7.2553161704e+01    0.7997158    0.4420258 -46.03  0.005000738    1.728    0.421
        10 -13.1901      7.9954      2.6675   8.3920108449e+01   7.3300033062e+01    0.5276609    0.4044177  38.13  0.002575482    2.118    0.528
        11 -16.0758     14.1284     20.2121   8.8839550071e+01   7.0131592772e+01     1.986821     1.028797 -24.78   0.01128415    1.726    0.421
        12 -14.3658     25.1609     14.0485   8.0242197717e+01   6.9950543015e+01    0.7752157    0.4109468  21.93  0.003919834    1.821    0.451
        13 -11.8398    232.5729      2.1339   3.1107238988e+01   2.7493196520e+01    0.3911677    0.2342205  55.68   0.00231426    1.964    0.491
        14 -12.5123    225.0969      3.6033   3.1953385329e+01   2.8925030727e+01    0.5109222    0.2500799  59.08  0.002726615    2.148    0.534
        15 -13.3644    216.4151     28.8307   3.8345918120e+01   2.8036124316e+01    0.8027465    0.4261902 -78.03  0.003740479    2.299    0.565
        16 -13.0607    224.2493     20.8517   3.5778086552e+01   2.7250509079e+01     0.543431    0.3668498  86.87  0.002302254    1.401    0.286
        17 -12.9984    214.9431     20.7063   3.6612028633e+01   2.9313882238e+01    0.6578522    0.4202695  30.51  0.003301728    2.614    0.617
        18 -14.4125    217.2641     11.9935   3.4418569761e+01   2.9756233484e+01    0.9616014    0.6942145 -84.79  0.002504693    1.240    0.194
        19 -12.3771     60.3635     17.7787   6.6426746510e+01   6.4405829178e+01    0.3892373    0.2400927 -42.06  0.001765952    2.113    0.527
        20 -12.8800     48.1883     20.9993   7.2788464964e+01   6.5950513415e+01    0.6627316    0.2754112  34.83  0.002715144    2.306    0.566
        21 -13.6343    137.9791     22.2779   4.7358881066e+01   4.7391417306e+01      1.27685    0.2826721  51.82  0.004177138    3.534    0.717
        22 -15.3977     97.8253     12.3300   5.2422813406e+01   5.7625220215e+01     1.783955    0.7134045  51.84  0.007943927    2.071    0.517
        23 -14.2667     41.1882      6.1503   6.8651789708e+01   6.8827465089e+01     1.034997    0.5522973 -11.30  0.004776665    1.978    0.494
        24 -11.8313     46.6301     13.2460   6.9811306723e+01   6.7178066689e+01    0.3038099    0.2293931  40.41  0.001438005    1.526    0.345
        25 -11.5707    152.8623      9.2890   4.0883743758e+01   4.5081080248e+01    0.2412475    0.2022242  31.42 0.0008865707    1.323    0.244
        26 -12.2097     71.4193     17.6509   6.2404856371e+01   6.2441640460e+01     0.349272    0.2613499 -34.10    0.0013908    1.548    0.354
        27 -11.0405     68.5650      9.6818   5.9804325301e+01   6.3824773217e+01    0.2327843    0.1427771  50.03 0.0008426377    1.605    0.377
        28 -11.7631    182.6936      2.4914   3.5395742615e+01   3.8579673659e+01    0.4009804    0.2094236 -75.54  0.001912812    2.214    0.548
        29 -12.3494    118.9455      2.9947   4.4352353137e+01   5.3662327352e+01    0.4937045    0.2823033  86.05  0.002321905    2.342    0.573
        30 -11.8176     78.2321      2.6230   5.3630484724e+01   6.2588144816e+01    0.3350126    0.2209244  39.56  0.001668227    1.254    0.203
        31 -11.0618     83.0151      1.2321   5.1697476178e+01   6.1724863122e+01    0.2774248    0.1077605  57.31  0.001240587    2.306    0.566
        32 -12.2704     61.6152      1.9875   5.8573374002e+01   6.5836912481e+01    0.3819274    0.1925717  52.44   0.00138787    1.980    0.495
        33 -10.4879    171.6279      1.7130   3.6371213594e+01   4.1258273816e+01    0.1583403    0.1109576 -42.16  0.000641309    1.501    0.334
        34 -11.1072    152.2141     14.2736   4.2473541083e+01   4.4770440958e+01    0.2099352    0.1904961 -44.63 0.0007915248    1.204    0.169
        35 -13.2615     73.8608    153.5532   1.0192956284e+02   3.4112292320e+01    0.7432414    0.5629117  30.22   0.00334292    1.443    0.307
        36 -12.4672    109.5200    249.2211   1.0675885668e+02   8.1523816289e+00    0.3838955    0.2012247  48.59  0.002043393    1.699    0.411
        37 -12.6296     57.7022    246.7034   1.1659998965e+02   1.5598650231e+01     0.466101    0.3084405  28.13   0.00289221    1.763    0.433
        38 -13.1501     28.4598    246.1697   1.2193650728e+02   1.9072951603e+01    0.4359796    0.2837783  69.52  0.003020499    1.239    0.193
        39 -12.0197      2.8317    249.7859   1.2652768065e+02   2.0980026259e+01    0.3344215    0.2020719  47.77  0.001821071    1.398    0.285
        40 -13.6477      9.3279    245.6605   1.2525011828e+02   2.1121807436e+01    0.7315263    0.3487106  57.56  0.003488572    1.631    0.387
        41 -13.3540     22.2247    181.2957   1.1851545490e+02   3.3380619253e+01    0.6992361    0.4092376 -61.62  0.003245075    1.611    0.379
        42 -10.9388    101.8044    161.3854   9.5837535065e+01   2.7880435986e+01    0.2104526    0.1429632  23.58 0.0009548285    1.727    0.421
        43 -12.3153    111.7105    156.2689   9.2243938749e+01   2.7399309016e+01    0.5014422    0.3128669  78.06  0.001820382    2.998    0.666
        44 -12.7682    208.9934    154.6441   6.9400971273e+01   8.9873268577e+00    0.6519958    0.4111301  33.10  0.003101813    1.705    0.413
        45 -11.4074     55.5300    156.1925   1.0732518534e+02   3.5866488708e+01    0.3036594    0.1997928  -3.15  0.001395541    2.445    0.591
        46 -11.6873     85.8094    152.9657   9.8558095595e+01   3.2493145681e+01    0.4510363     0.189591 -50.88  0.001719156    2.262    0.558
        47 -13.9009     97.0010    238.7612   1.0812362241e+02   1.1847332733e+01    0.8647521    0.4364863  37.68  0.004463307    1.723    0.419
        48 -11.6877    103.2519    150.0266   9.3240390110e+01   3.0367483257e+01    0.4061121    0.2712249 -31.23  0.001782927    1.840    0.456
        49 -12.4215     60.8980    147.8438   1.0455376238e+02   3.7269777910e+01    0.3970713    0.2880333 -32.33  0.001865718    1.659    0.397
        50 -11.3803    136.8318    211.3355   9.5956016228e+01   1.0975100919e+01    0.2204941    0.1912011 -72.99 0.0008097435    1.358    0.263
        51 -10.5508     62.9614    138.6932   1.0239347969e+02   3.9285128216e+01    0.1873638    0.1784352 -82.52 0.0004233554    1.060    0.057
        52 -12.9202    246.7362    134.0775   5.8336346679e+01   5.7617254386e+00    0.4392586    0.3658341 -41.70  0.002658536    1.160    0.138
        53 -12.0652     45.1214    135.3464   1.0701879407e+02   4.2243764209e+01    0.3521632    0.2567758 -80.93  0.001900206    1.353    0.261
        54 -14.2916    233.2296    129.1093   5.9388470236e+01   9.0324044651e+00     0.964412    0.6594156 -41.02  0.005069355    1.311    0.237
        55 -13.0919    223.3623    128.1767   6.0826071088e+01   1.1066021348e+01    0.5264611    0.4018303 -68.17  0.002684174    1.752    0.429
        56 -10.1216     10.7035    134.3184   1.1670467946e+02   4.5533776759e+01    0.1270288   0.08362967  73.06 0.0007017032    1.612    0.379
        57 -14.2709    105.7939    121.7518   8.6197054564e+01   3.6698514400e+01      1.59448     1.100715  31.48  0.007278542    1.555    0.357
        58 -14.8660    106.6257    105.2381   8.1673962299e+01   4.0353578280e+01     1.803595     1.418763   7.58  0.008624818    1.510    0.338
        59 -13.3496    120.5843    102.2781   7.6847682589e+01   3.8222545772e+01    0.5646107    0.3611214  41.82  0.002463808    1.599    0.375
        60 -12.7703     28.5699    122.4415   1.0990377005e+02   4.7054860511e+01    0.3923218    0.2671268 -62.04  0.002194053    1.222    0.181
        61 -11.1901     60.2912    125.1825   1.0064457453e+02   4.2991247801e+01    0.3036241    0.1733778   8.65  0.001237053    2.719    0.632
        62 -12.1835    181.1591    121.0831   6.7143406780e+01   2.1115768862e+01    0.3303013    0.2278863  53.06  0.001048695    1.581    0.368
        63 -12.0732     88.5100    110.0004   8.8425496910e+01   4.2518575014e+01     0.353226    0.2313683 -48.44   0.00129352    1.431    0.301
        64 -12.4389     77.1369    117.5724   9.3799194900e+01   4.2520030442e+01    0.6485169     0.425775 -65.64   0.00298198    1.637    0.389
        65 -13.0701     84.8673    115.4176   9.0895840134e+01   4.1832215274e+01     1.003921     0.570683  47.39  0.003970291    2.027    0.507
        66 -11.7114      3.9358    119.9523   1.1694884131e+02   4.9433624448e+01    0.4589828    0.1825295  16.44  0.002134491    3.195    0.687
        67 -14.5157     26.1455     93.8432   1.0559961840e+02   5.4173828810e+01     1.626352     1.222733   1.82  0.009662711    1.554    0.357
        68 -14.0019     17.8407    111.1962   1.1148897190e+02   5.0649472014e+01    0.8354726    0.6059126 -45.56  0.003546997    1.286    0.222
        69 -13.8242     11.2220    103.2316   1.1238331653e+02   5.3006520571e+01    0.6879485    0.5924713  27.83  0.004357066    1.419    0.295
        70 -14.9291      6.6206     71.5292   1.0826418123e+02   6.0595906149e+01     1.101198    0.8643572 -32.92  0.007381098    1.186    0.157
        71 -11.7415    121.5052    112.3568   7.9341564391e+01   3.5813979607e+01     0.295502    0.2641855 -78.51 0.0008198094    1.294    0.227
        72 -12.0078     61.8924    109.3349   9.6768338995e+01   4.6668654462e+01    0.5361027    0.3417343 -73.38  0.002441179    1.898    0.473
        73 -12.2100     32.3617    110.5981   1.0670915041e+02   4.9622854437e+01    0.2711401    0.2158008 -47.11  0.001556191    1.142    0.124
        74 -11.4194    222.8312    109.5513   5.6613022006e+01   1.4453847787e+01    0.2498381    0.1580327 -41.93  0.001212391    1.421    0.296
        75 -11.3170    176.6615    110.6744   6.5450090772e+01   2.4159123368e+01    0.1595096    0.1210457   5.69 2.352535e-05    1.725    0.420
        76 -10.4227     46.3134    110.3253   1.0209138896e+02   4.8300902879e+01    0.1465934   0.09336726 -34.97  0.000704185    1.664    0.399
        77 -13.2953      2.1595     97.2894   1.1447357799e+02   5.4922548930e+01    0.7762748    0.2486744 -71.71  0.003204135    2.646    0.622
        78 -12.3908    136.1667    103.3507   7.2960666492e+01   3.4678586020e+01    0.7044688    0.2955153  47.70  0.002418683    2.477    0.596
        79 -12.2413     61.3600     98.6738   9.4401096283e+01   4.9278585419e+01    0.4766276    0.3575859  75.74  0.002343958    1.931    0.482
        80 -11.6237     46.1631     98.8451   9.9664612724e+01   5.1080741996e+01    0.3285075    0.2603993 -62.61  0.001360734    1.206    0.170
        81 -12.0232     52.4806     98.0209   9.7288203382e+01   5.0551600716e+01    0.7679656     0.369038 -20.01  0.002335943    4.951    0.798
        82 -12.1003     49.1038     94.6170   9.7647943072e+01   5.1747250344e+01    0.5341191    0.3391001 -73.21  0.001963997    1.940    0.485
        83 -11.8261    249.5084     99.5272   5.0425620416e+01   1.0932145419e+01    0.2605427   0.09657739 -45.23   0.00104075    2.422    0.587
        84 -11.8768    163.0945     98.2617   6.5088884118e+01   2.9654666689e+01    0.3926097    0.2966441  31.48  0.001074363    1.475    0.322
        85 -10.6101     67.4082     97.7579   9.2116423760e+01   4.8661940878e+01    0.2161751    0.1204463 -43.88 0.0009539791    1.648    0.393
        86 -12.6327    136.7716     95.6056   7.0622189396e+01   3.6146771264e+01    0.4971446    0.3418571  57.18  0.001576401    1.637    0.389
        87 -11.1766     65.3029    126.6520   9.9405928194e+01   4.1972956755e+01    0.2544164    0.2220823  83.12   0.00140965    1.256    0.204
        88 -11.9309     42.5016     90.5105   9.9008605354e+01   5.3432168207e+01    0.3058456    0.2251604 -63.17 0.0005562234    1.332    0.249
        89 -11.8866     90.3114     88.3605   8.1905483826e+01   4.7098709052e+01    0.4260003     0.333142  48.67  0.002148131    1.446    0.308
        90 -13.2809    188.1447     84.4435   5.6326281402e+01   2.6399920687e+01    0.7659114    0.3387053  43.10  0.002552994    2.665    0.625
        91 -13.4933    237.5105     80.4629   4.7763613229e+01   1.6281414826e+01    0.4815605      0.33165  88.28  0.002524666    1.853    0.460
        92 -14.0123    164.3917     71.6003   5.7334842543e+01   3.4187647775e+01     1.486165    0.8947428  56.11  0.006607859    1.666    0.400
        93 -13.6211    161.0653     80.7578   6.0644374616e+01   3.3392324410e+01    0.9359801    0.6049851  17.72  0.003686995    2.482    0.597
        94 -14.3951    169.2656     77.0566   5.7905862440e+01   3.2101272640e+01     1.629984    0.5908144  53.69  0.005574691    2.744    0.636
        95 -12.6478     61.3905     58.9838   8.2624112256e+01   5.7794995133e+01    0.9538135    0.5014331 -15.67  0.003571763    3.248    0.692
        96 -13.1730     65.6915     49.1554   7.7432960416e+01   5.8916642300e+01    0.5927112    0.5659851 -24.54  0.002122477    1.269    0.212
        97 -12.5869     57.4641     66.8691   8.6767360784e+01   5.6803690160e+01    0.5902582    0.4078083  35.17  0.003151168    1.589    0.370
        98 -11.8237     37.6738     68.1206   9.4924339176e+01   5.8923201441e+01    0.8666929    0.2628046  26.37   0.00327226    3.614    0.723
        99 -11.2248     43.2929     64.9271   9.1708068254e+01   5.8981880104e+01    0.1900536    0.1672866 -41.82 0.0005601274    1.165    0.141
       100 -12.6776     52.6606     70.0306   8.9605225448e+01   5.6788814590e+01    0.7796407    0.5743751  78.41  0.003722268    2.570    0.611
       101 -13.1223     55.0929     82.0050   9.2210552628e+01   5.3899736904e+01    0.5616614    0.4358343 -30.21  0.002463631    1.192    0.161
       102 -13.8912     60.9889     75.8700   8.8257388172e+01   5.4446313070e+01    0.7348879    0.4137066 -36.11  0.001312161    1.703    0.413
       103 -13.5407    213.8351     78.9502   5.0698389340e+01   2.1517444467e+01    0.9717534    0.5796277  79.52  0.004250784    2.347    0.574
       104 -12.6708    218.4982     74.7856   4.9012167292e+01   2.1162064766e+01    0.3764025    0.3097792  63.31  0.002153785    1.299    0.230
       105 -12.0003    214.6481     71.9033   4.8862675289e+01   2.2457122153e+01    0.2973366    0.2822195 -54.75  0.001236889    1.062    0.058
       106 -12.7858    135.0638     79.9535   6.6445631843e+01   3.9585833800e+01    0.7203242    0.4132722  49.96  0.002542124    1.757    0.431
       107 -11.9420    114.2628     80.2180   7.2118030882e+01   4.4099759823e+01    0.3912131    0.3232902 -52.85 0.0008992255    1.329    0.247
       108 -13.5161      3.9175     63.6396   1.0763149804e+02   6.2463889603e+01    0.5690109    0.3615764   9.67  0.003493632    1.832    0.454
       109 -12.8745     87.5279     65.3489   7.5501196202e+01   5.2242474362e+01    0.4976506    0.3688782  -0.99  0.001222165    1.532    0.347
       110 -13.0007     91.4894     58.2940   7.1762820582e+01   5.2765585757e+01    0.5640075    0.4908243 -51.59  0.002526474    1.367    0.268
       111 -12.8900     70.6606     75.6482   8.4688670817e+01   5.3071534485e+01    0.5938148    0.4417228 -11.58  0.002406132    1.463    0.317
       112 -11.9624     77.1133     73.8323   8.1846156263e+01   5.2412129293e+01    0.3474753    0.2734959 -34.79 0.0007920185    1.180    0.152
       113 -11.3380     41.8003     76.4401   9.5655019888e+01   5.6689924627e+01    0.2504078    0.1690193 -50.60 0.0009261789    1.302    0.232
       114 -11.2937     88.5839    249.4998   1.1091137066e+02   1.1053995065e+01     0.259173    0.1004822  37.05  0.001219945    2.196    0.545
       115 -13.7294    199.0862     69.8373   5.0675670752e+01   2.6291366463e+01    0.8417745    0.4994033  43.34  0.002848377    1.966    0.491
       116 -11.7938    242.1512     71.8848   4.5265989722e+01   1.6657864978e+01     0.214209    0.1596061 -60.03  0.001141877    1.276    0.216
       117 -13.1480    134.1087     65.5763   6.2231118519e+01   4.2361899376e+01    0.6908036    0.6524652 -19.23  0.002318929    1.066    0.062
       118 -10.2672    113.3155     66.3015   6.7922429719e+01   4.6893951945e+01    0.1519721     0.112579  10.64 0.0003574189    1.616    0.381
       119 -11.2923    100.0709     65.1528   7.1434534476e+01   4.9857605336e+01    0.2965259    0.2150676 -27.26  0.001463049    1.385    0.278
       120 -12.4069     79.3181     60.8795   7.6744075369e+01   5.4546037615e+01      0.54258    0.4330045 -19.00  0.002658649    1.192    0.161
       121 -12.7521     82.4848     54.4988   7.3384563245e+01   5.5115538785e+01    0.5981928    0.3776383 -14.55  0.002768311    1.912    0.477
       122 -11.5922     77.7029     53.9835   7.4848180938e+01   5.6062377455e+01    0.3240038    0.2706782 -16.33 0.0008730623    1.104    0.094
       123 -13.6744    177.9635     57.7918   5.0917025626e+01   3.3121923594e+01    0.7846717    0.6250396 -53.98  0.002862295    1.270    0.212
       124 -10.7137     38.8385     60.4822   9.2131544143e+01   6.0387238510e+01    0.2534979    0.1738711 -67.45  0.001317531    2.000    0.500
       125 -14.4687    119.8485     54.5847   6.2231147230e+01   4.7411664536e+01    0.9235563    0.6240235  34.43  0.002364956    1.522    0.343
       126 -12.3590    247.2378     53.4890   4.0690378207e+01   1.8287590786e+01     0.511474    0.3034659 -48.38  0.002834376    1.433    0.302
       127 -11.4808    249.2814     48.7719   3.9483442823e+01   1.8523753924e+01    0.2658053    0.1864202  72.55  0.001598851    1.522    0.343
       128 -11.5585    231.8186     55.9910   4.2910016272e+01   2.1108963173e+01     0.227866    0.1874578  78.80  0.001050127    1.257    0.204
       129 -11.1500     47.5488     57.3236   8.7518589117e+01   6.0000661366e+01    0.2610947    0.2174212 -27.77  0.001032019    1.050    0.047
       130 -13.3569    103.0890     50.5276   6.5440413574e+01   5.1703212905e+01    0.6860474     0.444524 -53.92 0.0005812831    2.104    0.525
       131 -12.2650     97.5487     50.3410   6.7022891846e+01   5.2882092683e+01    0.5972566    0.3583232 -43.87  0.002687205    1.858    0.462
       132 -11.8330     24.5933     60.1340   9.8007402102e+01   6.1827883584e+01    0.2998352    0.1979188 -47.05 0.0007827926    1.249    0.199
       133 -12.3687    135.4430     50.6140   5.7123104177e+01   4.4412846140e+01    0.5638302    0.3201062  35.77  0.001881785    2.009    0.502
       134 -12.2127     80.8144     69.7872   7.9253391625e+01   5.2593632975e+01    0.4943495    0.3491646  46.36  0.002475475    1.611    0.379
       135 -11.0580     22.5697     50.4571   9.5952416302e+01   6.3963414264e+01    0.2278807    0.1177128  17.89  0.001191619    2.118    0.528
       136 -12.9915    157.9416     44.2829   5.0558224603e+01   3.9896596036e+01    0.7501737    0.4731336  37.17  0.003499442    1.822    0.451
       137 -13.8054    171.0927    242.7902   9.3570043372e+01  -1.7210566529e-02    0.8185431    0.5466165  24.05  0.004781773    1.338    0.252
       138 -14.1730     91.3568    231.7185   1.0850860933e+02   1.3997954419e+01    0.6105954    0.5966474 -18.24  0.004267669    1.271    0.213
       139 -14.3113    217.7673     42.2378   4.1338154165e+01   2.6042870094e+01     1.301671    0.5401378  64.44  0.004108853    2.386    0.581
       140 -13.1617    205.0098     40.3717   4.2401004474e+01   2.9172701962e+01     0.668475    0.3714297 -88.18  0.002990193    2.312    0.568
       141 -11.9686    147.3180    239.0333   9.7830597615e+01   4.2351443902e+00    0.1722478    0.1613802  26.41 0.0009724213    1.111    0.100
       142 -12.1070     24.7669    217.1195   1.2076828981e+02   2.5227079859e+01    0.5449498    0.4207723  63.01  0.003819806    1.105    0.095
       143 -12.0005     14.6323    224.1137   1.2316292037e+02   2.4796791355e+01    0.3952966    0.2097179  70.88  0.001516105    1.640    0.390
       144 -13.6217     25.8513    227.2729   1.2124090875e+02   2.3029811268e+01    0.6780869    0.3454865 -60.64  0.003887462    2.139    0.532
       145 -13.4368     20.7635    225.2509   1.2207707272e+02   2.3960539047e+01    0.4597195    0.3642071 -83.75  0.002709067    1.227    0.185
       146 -12.8055    113.7729     38.1608   5.8090733689e+01   5.1162248343e+01    0.3911529    0.3434597  28.31   0.00137938    1.059    0.056
       147 -10.7745     55.3140     41.0880   7.8379464542e+01   6.1875144289e+01    0.1774837    0.1449119 -18.01 0.0004112997    1.081    0.075
       148 -13.1076    242.4875     35.8001   3.7372016497e+01   2.1592335182e+01    0.6277541    0.3509739  71.89  0.002493293    1.841    0.457
       149 -12.5397     75.8873     37.3055   6.9112513958e+01   5.9061913150e+01    0.3399567    0.2399518  38.37  0.000776696    1.369    0.269
       150 -12.0825     69.5158     36.5511   7.1082451242e+01   6.0305852095e+01    0.5085271    0.2189707  33.28  0.001685117    2.436    0.590
       151 -10.7683    104.4976     36.9987   6.0118367996e+01   5.3365678544e+01    0.2072186    0.1343824 -28.53  0.001035992    1.601    0.375
       152 -11.7131    238.6717    230.3358   7.8684074211e+01  -7.9346123172e+00    0.1003377   0.09850047  21.62 0.0004591232    1.725    0.420
       153 -13.5707     65.7848    223.4920   1.1296887320e+02   1.9133525269e+01    0.8343468    0.5535404  40.63  0.004952824    1.396    0.283
       154 -14.2698     63.7146    214.7907   1.1253988017e+02   2.1220703248e+01    0.9081022    0.4815629  45.00  0.004762664    1.680    0.405
       155 -12.7955     94.6883    218.3603   1.0624109962e+02   1.6187347337e+01    0.3437304    0.2203581  44.06  0.001397897    1.392    0.282
       156 -12.4979     46.0988     33.8362   7.9288547577e+01   6.4361068332e+01    0.4699447    0.3130759 -10.82  0.002669058    1.464    0.317
       157 -13.4751      8.7913    211.2873   1.2351853231e+02   2.7990309913e+01     0.875779    0.6595884  72.86  0.006284071    1.049    0.047
       158 -12.9486     16.9948    195.0876   1.2077696423e+02   3.0740189614e+01    0.9197571    0.3133499 -74.58  0.004180327    2.513    0.602
       159 -14.0444     29.9902    169.3321   1.1553550646e+02   3.5451745399e+01    0.9419119    0.8004082 -50.38  0.005791183    1.333    0.250
       160 -15.0438      8.3917    183.4917   1.2176936042e+02   3.4096637654e+01     1.222259    0.9024549  84.29  0.008181751    1.093    0.085
       161 -15.1982     15.9203    175.6269   1.1946579260e+02   3.5262429557e+01     2.320527     1.061534  70.19   0.01076677    2.470    0.595
       162 -11.1280    249.0001    225.2505   7.5986083421e+01  -8.6056036309e+00    0.1542006   0.08912143  28.41 0.0007063407    1.631    0.387
       163 -10.2302     31.9506     31.0000   8.4489945694e+01   6.6587170720e+01    0.1811656    0.0651067  29.42 0.0005583997    2.860    0.650
       164 -10.8679    150.2740    207.1753   9.2311975983e+01   9.5321875701e+00    0.2079953    0.1629458  29.09  0.001143588    1.188    0.158
       165 -13.0024     56.1300     27.3348   7.2336635698e+01   6.3857066391e+01     0.693926    0.2989372  41.28  0.002408133    2.327    0.570
       166 -12.6053     67.8116     24.4127   6.6617550645e+01   6.2284485849e+01    0.5608547    0.3407311  43.62  0.003021755    1.611    0.379
       167 -10.9121     97.9710     27.2012   5.8208431287e+01   5.6008933891e+01    0.2005106     0.182196  63.04  0.001221555    1.277    0.217
       168 -11.3146     35.9899     24.4032   7.9764782166e+01   6.7145012585e+01    0.2311053    0.1975791 -71.71 0.0009771322    2.301    0.565
       169 -12.5696     41.3909    206.0687   1.1648368574e+02   2.5806720970e+01    0.2380593    0.1611115  71.37  0.001421736    1.348    0.258
       170 -12.4803     57.5153    203.4737   1.1272302366e+02   2.4464625952e+01    0.5341541    0.2665823 -88.01  0.002394151    2.473    0.596
       171 -13.3635     40.4656    195.1221   1.1567671340e+02   2.8347013710e+01    0.4690228    0.2574829  87.66  0.001905686    1.895    0.472
       172 -10.5469    248.5053     18.4671   3.3287329288e+01   2.2464852982e+01    0.1175666   0.09565545 -66.55 0.0008095647    1.030    0.029
       173 -12.6343    109.4389     42.2271   6.0682395655e+01   5.1569393919e+01    0.5116477     0.241775  50.33  0.001245662    1.985    0.496
       174 -11.3927     40.1985    243.4955   1.1963469125e+02   1.8279934229e+01    0.2117437    0.1438508 -86.63  0.001429435    1.386    0.279
       175 -12.9961    164.5513    195.8902   8.7181573734e+01   9.2492782120e+00    0.5002221    0.3300294 -78.87  0.001963624    3.328    0.700
       176 -11.0945     79.7228    192.9827   1.0638898572e+02   2.3862062625e+01    0.3541744     0.133303  44.23  0.001404134    2.509    0.601
       177 -12.4577     98.0854    187.9229   1.0127399788e+02   2.2268974450e+01    0.3044073     0.239619   4.00  0.001579043    1.681    0.405
       178 -12.4669    201.0600    191.6983   7.8688757318e+01   3.6875794973e+00    0.3874586    0.2809796 -13.72  0.001288714    1.406    0.289
       179 -11.8831     49.0872    181.6405   1.1227404765e+02   3.0479796341e+01    0.3922948      0.23651 -53.26  0.002041015    1.727    0.421
       180 -13.0679    197.6051    180.5883   7.7173259343e+01   6.2761792725e+00    0.5487821    0.4143549 -74.02   0.00259599    2.328    0.570
       181 -12.8312     85.4947    180.3065   1.0319632787e+02   2.5954171242e+01    0.4270736    0.2572723  66.94  0.001883197    2.135    0.532
       182 -12.0580     95.5227    171.4798   9.9260371064e+01   2.6496355308e+01    0.3037338    0.2634262 -24.94  0.001514576    1.348    0.258
       183 -13.2419    124.2792    166.8211   9.1108781512e+01   2.2687198418e+01    0.6947265    0.4510693 -71.90  0.002953266    2.075    0.518
       184 -12.1262     77.3672    156.9191   1.0155161060e+02   3.2781616136e+01    0.4706822    0.3022723  23.96   0.00178805    1.848    0.459
