#   1 NUMBER                 Running object number                                     
#   2 MAG_AUTO               Kron-like elliptical aperture magnitude                    [mag]
#   3 X_IMAGE                Object position along x                                    [pixel]
#   4 Y_IMAGE                Object position along y                                    [pixel]
#   5 X_WORLD                Barycenter position along world x axis                     [deg]
#   6 Y_WORLD                Barycenter position along world y axis                     [deg]
#   7 A_WORLD                Profile RMS along major axis (world units)                 [deg]
#   8 B_WORLD                Profile RMS along minor axis (world units)                 [deg]
#   9 THETA_WORLD            Position angle (CCW/world-x)                               [deg]
#  10 FWHM_WORLD             FWHM assuming a gaussian core                              [deg]
#  11 ELONGATION             A_IMAGE/B_IMAGE                                           
#  12 ELLIPTICITY            1 - B_IMAGE/A_IMAGE                                       
         1 -14.7702    157.8147     43.7612   2.9033036765e+02   6.2896806032e+00   0.06346218   0.04737164 -58.97  0.003872816    1.357    0.263
         2 -14.6136    169.8982     11.0986   2.8998298528e+02   6.5848169717e+00   0.06125142   0.05117013  -7.75  0.004773885    1.306    0.234
         3 -12.5183    189.1213     13.5799   2.8977368156e+02   6.4366268017e+00   0.02774476   0.01698273 -89.56  0.002285192    2.484    0.597
         4 -10.2866     22.0000    222.0209   2.9303801630e+02   5.1069756278e+00   0.00947707  0.005968846 -46.94 0.0003406212    1.613    0.380
         5 -13.4843    189.6599    249.6756   2.9125176603e+02   3.7520270887e+00   0.02474352    0.0188546 -36.24  0.002719466    1.393    0.282
         6 -19.8887     93.5641    232.8129   2.9226868171e+02   4.5408527071e+00    0.4361593    0.3947448  57.98   0.04771529    1.163    0.140
         7 -12.2848     23.7042    217.6399   2.9299075413e+02   5.1462747497e+00   0.01259918   0.01073374 -51.79 0.0005875697    1.181    0.153
         8 -10.4024     18.1017    221.8537   2.9308256492e+02   5.1329881365e+00  0.009459377  0.007281487 -30.91 0.0003585151    1.415    0.293
         9 -11.8596     16.3468    250.0699   2.9327894754e+02   4.8228366398e+00  0.009674385  0.007942945 -55.84  0.001049029    1.227    0.185
        10 -13.4849    156.5881    179.3589   2.9119727987e+02   4.7569880853e+00    0.0273494   0.01962339  75.32  0.002792323    1.808    0.447
        11 -14.3909    155.0830    188.0375   2.9126930444e+02   4.6677057108e+00   0.04348515   0.03256041  65.99  0.004643189    1.601    0.375
        12 -13.7423    138.0427    198.4422   2.9153369087e+02   4.6554152414e+00   0.03687331   0.02609082  40.51  0.003556773    1.405    0.288
        13 -13.5935    147.0500    189.7649   2.9137402271e+02   4.6980453500e+00   0.03819373    0.0213884  -6.43  0.002974498    3.146    0.682
        14 -12.5852    154.0517    195.8150   2.9133012320e+02   4.5857150457e+00   0.02834225   0.01738649  75.27  0.002458992    2.586    0.613
        15 -12.3730    163.9260    203.0360   2.9126001671e+02   4.4421981910e+00   0.01740574   0.01453792 -83.61  0.000399217    1.340    0.254
        16 -12.6493    161.7483    197.6703   2.9125181875e+02   4.5167386612e+00   0.02151309   0.01802043 -89.46  0.001532752    1.356    0.263
        17 -13.1335     11.7559    205.9668   2.9305769132e+02   5.3529692986e+00   0.03362453   0.01642971  21.96  0.002898395    2.216    0.549
        18 -10.5366     12.4229    243.4853   2.9328379890e+02   4.9220032229e+00  0.006584228  0.006406588 -16.57 7.900614e-05    1.027    0.027
        19 -10.2364     30.3751    199.7174   2.9280084615e+02   5.3088909213e+00  0.008856954  0.006001849 -49.30 0.0003233979    1.481    0.325
        20 -10.8946    150.9777    240.8556   2.9164817383e+02   4.0928317383e+00   0.01230598  0.009975278 -79.59  0.001052004    1.377    0.274
        21 -13.9505    195.6926    171.1398   2.9068876415e+02   4.6068631328e+00   0.04038031   0.02370985 -75.66  0.002809264    2.149    0.535
        22 -14.4322    207.5156    178.3860   2.9059619039e+02   4.4508509804e+00   0.05291608   0.03537971 -68.09  0.004145846    1.620    0.383
        23 -12.4580    203.1961    172.7025   2.9061093752e+02   4.5423441108e+00   0.02176865   0.01410495 -74.64  0.001639477    1.821    0.451
        24 -13.4065    157.4928    202.3035   2.9133058825e+02   4.4905512289e+00   0.02920828   0.02285273  71.41  0.002404642    1.522    0.343
        25 -14.6868    177.4221    172.2879   2.9090942745e+02   4.7076430291e+00    0.0486343   0.03263603 -74.54  0.004930576    1.730    0.422
        26 -11.6196    168.8572    202.3606   2.9119817220e+02   4.4191885581e+00   0.01259669  0.009816122  69.79 0.0006999509    1.524    0.344
        27 -12.6675    185.7056    168.0731   2.9078617697e+02   4.7039375440e+00   0.02174327   0.01126887 -59.71  0.001991513    1.940    0.485
        28 -12.2355    230.2217    167.0616   2.9025994293e+02   4.4379051376e+00   0.01992548  0.009931171 -74.90  0.001589795    2.827    0.646
        29 -12.1232    201.2849    165.1543   2.9058584535e+02   4.6400133300e+00   0.01989638   0.01376049  81.07  0.001335791    1.964    0.491
        30 -11.4291    222.6610    162.0623   2.9031678574e+02   4.5418475321e+00   0.01654661   0.01083209  83.44  0.001287794    2.212    0.548
        31 -10.8667    167.9304    240.3437   2.9144699629e+02   3.9932438709e+00  0.009333217  0.008346787  22.54   0.00033697    1.101    0.092
        32 -10.3623      4.2002    157.6608   2.9284447965e+02   5.9492125185e+00   0.01503336  0.008480021 -23.09  0.001235041    2.715    0.632
        33 -13.1759    165.0052    158.5101   2.9096804456e+02   4.9415481461e+00   0.01598408   0.01407694  -0.69  0.001892527    1.186    0.157
        34 -14.3207    152.9239    145.1556   2.9102543662e+02   5.1685421609e+00    0.0362269   0.02419005  64.08  0.003549013    1.929    0.482
        35 -12.6151    140.1357    149.1837   2.9120028313e+02   5.2023566837e+00   0.02400581   0.01235596  48.08   0.00146194    2.203    0.546
        36 -14.3404    143.5223    144.0660   2.9112854434e+02   5.2394489116e+00   0.04712098   0.02646583 -81.54   0.00398254    2.642    0.621
        37 -11.4118    191.9138    153.9843   2.9062514141e+02   4.8253288600e+00   0.01802349   0.01067287 -47.22  0.001753256    1.715    0.417
        38 -11.3253     17.6255    154.1849   2.9266553156e+02   5.9057282334e+00   0.01373826   0.01072881 -33.43 0.0003120051    1.368    0.269
        39 -11.6568     18.5990    149.3257   2.9262373949e+02   5.9549731366e+00    0.0210389   0.01317568  40.77  0.002112163    1.591    0.371
        40 -12.9106    154.6739    152.9779   2.9105409257e+02   5.0687473178e+00   0.01656796   0.01209085  66.38  0.001725158    1.678    0.404
        41 -14.4864    133.8589    146.2598   2.9125534629e+02   5.2746448814e+00   0.07270976    0.0269755 -71.42  0.004554693    4.559    0.781
        42 -10.2748     23.0738    156.1418   2.9261396909e+02   5.8497599112e+00   0.01007303  0.008794757 -20.05  0.000490698    1.209    0.173
        43 -10.6870    182.7494    149.5827   2.9070457549e+02   4.9324556139e+00   0.01108008  0.008209988  82.76 0.0005744699    1.708    0.415
        44 -13.0909    174.0284    148.4149   2.9079916791e+02   5.0000635130e+00   0.02211587   0.01689237  88.82  0.001569426    1.592    0.372
        45 -11.2320     21.8553    238.6016   2.9314309448e+02   4.9192405754e+00   0.00981158  0.008431515 -40.47 0.0005065001    1.185    0.156
        46 -12.2829     27.4387    145.2243   2.9249455109e+02   5.9469158080e+00   0.02173375   0.01925825  -9.59  0.001615756    1.185    0.156
        47 -10.9371     26.3513    138.8888   2.9246763489e+02   6.0256985259e+00   0.01222538   0.01046715  -9.68 0.0005057475    1.253    0.202
        48 -12.1732    176.2882    142.8745   2.9073794296e+02   5.0489369525e+00    0.0120565  0.008891435  41.70 0.0008954583    1.358    0.263
        49 -12.6704    134.6636    108.8311   2.9101084050e+02   5.6949957696e+00   0.04911083  0.008888667 -62.54  0.002452566    6.650    0.850
        50 -10.9884      2.4828    135.6583   2.9272702580e+02   6.2100807342e+00   0.01359331  0.009650489  -8.70  0.001278703    1.743    0.426
        51 -10.7527    167.6446    245.4698   2.9148242912e+02   3.9367600199e+00   0.01293961  0.007950556 -53.80 0.0009552974    1.613    0.380
        52 -11.8898    156.1586    132.8496   2.9091030789e+02   5.2882443859e+00   0.01020071  0.008981608  56.49 0.0003620738    1.201    0.167
        53 -13.5423    160.7352    128.2118   2.9082764405e+02   5.3124371300e+00   0.02362455   0.02015522  43.08  0.002245841    1.179    0.152
        54 -13.0521     38.5855    124.0146   2.9223117450e+02   6.1190808426e+00    0.0274997   0.01336646  26.73  0.002426362    2.049    0.512
        55 -11.6535    141.5116    121.1233   2.9100795839e+02   5.5126942148e+00   0.01455689  0.007690461  44.86  0.001183655    2.000    0.500
        56 -10.4887     35.3386    117.3047   2.9222717152e+02   6.2154836925e+00   0.00704106  0.005022489 -22.24 0.0003908459    1.675    0.403
        57 -19.1246     77.5675     94.5336   2.9158956597e+02   6.2124405405e+00    0.8366795   0.04268953 -61.16   0.02484654   18.751    0.947
        58 -10.3755     28.2519    240.1479   2.9307795083e+02   4.8620830256e+00   0.01029445  0.007477866  64.04    0.0010628    1.659    0.397
        59 -10.8154    205.2321    110.1898   2.9019411765e+02   5.2397045136e+00   0.01353869  0.009320563  11.34  0.001015436    1.634    0.388
        60 -14.1066    135.8689    127.3334   2.9111299100e+02   5.4772458417e+00    0.0881999   0.02072698 -66.17  0.004091214    7.966    0.874
        61 -11.8410     28.2460    105.5096   2.9223636185e+02   6.3935032035e+00   0.01853789   0.01171534   8.07  0.001062386    1.940    0.485
        62 -13.2124    198.8199    223.1481   2.9097860994e+02   3.9964391964e+00   0.01978375   0.01635421 -18.54  0.001119257    1.323    0.244
        63 -11.6983     42.0250     92.9540   2.9199613934e+02   6.4508691120e+00    0.0191214   0.01038367 -67.69   0.00164423    2.062    0.515
        64 -11.5623     62.0420     93.7225   2.9176637851e+02   6.3180179827e+00  0.009344501  0.008581163  18.88 0.0002315901    1.075    0.070
        65 -12.1692     51.3581     91.8394   2.9187976098e+02   6.4056836598e+00   0.01734362   0.01371519   6.79 0.0007384304    1.367    0.268
        66 -11.5930      5.7413     89.0700   2.9239713605e+02   6.7196315569e+00   0.03064463   0.01454523   7.48  0.002086097    3.951    0.747
        67 -10.0684    106.0502     82.3343   2.9117927625e+02   6.1740642291e+00  0.009141226  0.008276929  26.87 0.0003914165    1.083    0.076
        68 -10.9197    142.1714     80.3665   2.9074396891e+02   5.9715995002e+00   0.01152123  0.008844806 -46.57 0.0006916953    1.318    0.241
        69 -14.5467    146.7877     58.6402   2.9055317440e+02   6.1895393668e+00   0.05878945   0.04534218 -31.74  0.003262077    1.405    0.288
        70 -12.8723     31.7037    220.0654   2.9291232979e+02   5.0691862422e+00   0.01748163   0.01346046 -60.54 0.0008603219    1.322    0.244
        71 -13.1834    161.4958     34.8913   2.9023137734e+02   6.3673710791e+00   0.01992039   0.01929729  -1.92 0.0008654579    1.024    0.024
        72 -11.0178     13.4203     59.8708   2.9212395330e+02   7.0039383948e+00   0.01097936  0.008837007  40.97 0.0004442162    1.241    0.194
        73 -12.1742     28.6973    218.6280   2.9293852147e+02   5.1041422000e+00   0.01877462   0.01100689 -35.59  0.001291678    2.012    0.503
        74 -11.1768    160.2930    247.8113   2.9158292555e+02   3.9558594265e+00   0.01886447    0.0127854  31.06  0.001583195    1.432    0.301
