#   1 NUMBER                 Running object number                                     
#   2 MAG_AUTO               Kron-like elliptical aperture magnitude                    [mag]
#   3 X_IMAGE                Object position along x                                    [pixel]
#   4 Y_IMAGE                Object position along y                                    [pixel]
#   5 X_WORLD                Barycenter position along world x axis                     [deg]
#   6 Y_WORLD                Barycenter position along world y axis                     [deg]
#   7 A_WORLD                Profile RMS along major axis (world units)                 [deg]
#   8 B_WORLD                Profile RMS along minor axis (world units)                 [deg]
#   9 THETA_WORLD            Position angle (CCW/world-x)                               [deg]
#  10 FWHM_WORLD             FWHM assuming a gaussian core                              [deg]
#  11 ELONGATION             A_IMAGE/B_IMAGE                                           
#  12 ELLIPTICITY            1 - B_IMAGE/A_IMAGE                                       
         1 -11.9319     62.4018     69.8534   2.9156588587e+02   6.5833131908e+00   0.04415143   0.00232384 -58.29  0.002095405    7.163    0.860
         2 -11.5197     50.8003     66.8275   2.9168017769e+02   6.6874303926e+00   0.03460568   0.01002025 -66.43  0.002118827    4.534    0.779
         3 -11.4730    100.2416     55.7068   2.9104476991e+02   6.5175513161e+00    0.0258181   0.00910705 -52.57  0.002020812    2.632    0.620
         4  -9.5502     58.5900     22.4709   2.9131657838e+02   7.1468843454e+00   0.00654337  0.006248761 -37.86 8.355234e-05    1.043    0.041
         5 -11.3968    160.4564    239.4431   2.9149019067e+02   4.0571074443e+00   0.01537783  0.009193146  63.73  0.001374696    2.355    0.575
         6 -10.0355     92.6454    238.3338   2.9225803331e+02   4.4769294036e+00  0.007153676  0.004899158  62.51 0.0007044348    1.791    0.442
         7  -9.7708    114.3252    234.6401   2.9198758458e+02   4.3890657282e+00  0.007104288  0.004950909  65.51 0.0007042972    1.782    0.439
         8 -10.2236    144.8936    232.7501   2.9162672279e+02   4.2270873065e+00   0.01303997  0.008561924  78.36  0.001231808    2.139    0.533
         9 -10.5662     92.8010    230.9704   2.9221099370e+02   4.5601472577e+00    0.0111918  0.007561108  76.38   0.00108541    2.001    0.500
        10 -10.8244     84.4077    227.2476   2.9228404424e+02   4.6530277529e+00  0.009340349  0.006408124 -77.32 0.0009502168    1.668    0.400
        11 -10.6430    163.0996    225.1533   2.9137198704e+02   4.2044430272e+00   0.01314239   0.01120059 -14.21  0.001539336    1.279    0.218
        12 -10.3518    148.7734    222.5701   2.9151971348e+02   4.3200695399e+00   0.01437399  0.008455556 -80.15  0.001298028    2.235    0.553
        13 -10.2479    114.4137    223.2237   2.9191633688e+02   4.5189878233e+00  0.009397957  0.006407116 -78.51 0.0008433287    1.706    0.414
        14 -10.3048    193.3361    221.6516   2.9100514090e+02   4.0625621897e+00  0.007116512  0.004940323  64.36 0.0007047483    1.780    0.438
        15  -9.7554    126.4749    220.5876   2.9176227813e+02   4.4766876021e+00  0.006471172  0.006344533 -12.44 8.325293e-05    1.023    0.023
        16 -10.3933     73.7933    219.5899   2.9235831758e+02   4.8041835892e+00  0.009859804  0.005731204  40.18 0.0009509907    1.730    0.422
        17  -9.9004    143.5293    216.4980   2.9154222244e+02   4.4209536765e+00  0.006476464  0.006437259 -61.14  0.000809929    1.012    0.012
        18 -10.0381    111.9822    216.2186   2.9190101653e+02   4.6136318734e+00  0.009758228  0.007379394  84.45  0.001040408    1.599    0.375
        19 -10.4074     76.6948    213.7035   2.9228895388e+02   4.8540700566e+00   0.01335962  0.008135146  87.46  0.001173202    2.476    0.596
        20 -10.5741    116.6745    210.5157   2.9181227658e+02   4.6506269498e+00   0.01371522  0.009910087  73.66   0.00142278    1.738    0.425
        21  -9.6882    177.3046    210.6487   2.9112034749e+02   4.2846781091e+00  0.006954765  0.004997085  66.82 0.0003589139    1.705    0.413
        22  -9.5980    148.3105    209.6666   2.9144550450e+02   4.4702610514e+00   0.00691784  0.004991618  65.30 0.0005298441    1.676    0.403
        23 -10.7176     99.4106    206.1320   2.9198264960e+02   4.8043541971e+00   0.01574163    0.0100883  69.68   0.00138757    2.170    0.539
        24 -10.2777    124.0682    205.9089   2.9169939669e+02   4.6588634979e+00  0.009540179  0.008296448  62.63            0    1.237    0.192
        25 -11.1189    185.9698    204.2284   2.9098178793e+02   4.3058612478e+00   0.01477431  0.009533039 -74.17  0.001472599    1.758    0.431
        26 -11.1001    164.8523    201.8897   2.9120857114e+02   4.4596300661e+00    0.0304685   0.01341772 -65.36  0.002534482    2.431    0.589
        27 -10.9015    162.5509    193.9086   2.9118564376e+02   4.5646375505e+00   0.01806785   0.01197368 -86.81  0.001699461    1.953    0.488
        28 -10.0133     79.9983    201.4849   2.9217602825e+02   4.9739146410e+00  0.009833534  0.004774185  49.54 0.0008095598    2.481    0.597
        29 -11.0120     88.7844    199.0636   2.9206065135e+02   4.9488911362e+00   0.01406154  0.009465256 -81.89  0.001410013    1.804    0.446
        30 -10.3238    149.3168    198.4226   2.9136470244e+02   4.5926614693e+00   0.01533186  0.009205703  72.29  0.001321973    2.602    0.616
        31 -10.8081    124.3273    197.6789   2.9164573755e+02   4.7513430057e+00   0.01500982   0.01047394  65.36  0.001532932    1.777    0.437
        32 -10.6087    112.8156    197.7162   2.9177757225e+02   4.8200571506e+00    0.0131207  0.008619821  78.41  0.001240475    2.136    0.532
        33  -9.5253    193.6510    196.3094   2.9084520603e+02   4.3500559001e+00   0.00702352  0.004916903  61.29 0.0007044539    1.711    0.416
        34 -10.4537     66.4834    194.5164   2.9228773717e+02   5.1345851319e+00   0.01209141  0.006591459 -77.65  0.001033593    2.438    0.590
        35 -10.3859    102.6207    193.8004   2.9187002625e+02   4.9260102348e+00  0.009421255  0.006340329 -76.88 0.0007691701    1.709    0.415
        36 -10.0044    198.6714    204.3358   2.9083741346e+02   4.2281781995e+00  0.007026095  0.004961424  64.16 0.0007051951    1.726    0.421
        37 -10.1410     77.8361    192.9954   2.9214852190e+02   5.0839099156e+00   0.01127409  0.007557997  75.74  0.001085759    2.031    0.508
        38 -10.4315    172.8960    191.1760   2.9105059333e+02   4.5336074230e+00   0.01076421  0.008830232  62.89  0.001227433    1.350    0.259
        39 -10.4290    138.9344    189.1180   2.9142600026e+02   4.7613758921e+00   0.01651443  0.009749594 -77.07  0.001527402    2.100    0.524
        40 -10.9278     86.9920    188.5720   2.9201656947e+02   5.0795472360e+00   0.01299844  0.009509495 -88.56  0.001345247    1.650    0.394
        41 -10.2855    129.5467    188.0382   2.9152665896e+02   4.8301345857e+00   0.01342467  0.008705117 -87.63  0.001279929    2.053    0.513
        42 -11.3729    120.4611    185.1288   2.9161260343e+02   4.9179660646e+00   0.02885879   0.01239989 -73.43  0.002096334    3.397    0.706
        43 -11.4402     94.8103    185.5756   2.9190869580e+02   5.0668793616e+00   0.02518418   0.01232457 -70.80  0.002130248    2.441    0.590
        44 -10.1274    165.4689    186.4806   2.9110648046e+02   4.6319265345e+00   0.01177651  0.006580287 -77.37  0.001029007    2.325    0.570
        45 -10.1916    156.3161    186.8736   2.9121349653e+02   4.6824984183e+00   0.01320264  0.006331336 -71.28  0.001080654    2.558    0.609
        46 -10.4170     54.7746    186.3875   2.9237168689e+02   5.2976586250e+00   0.01423527  0.007558499  78.49 0.0009562781    4.317    0.768
        47 -10.7670    109.4366    185.6725   2.9174201845e+02   4.9779677100e+00   0.01509752   0.01010245  70.39  0.001400756    1.992    0.498
        48 -10.2047    203.9821    184.1930   2.9065242978e+02   4.4261931300e+00  0.009892538  0.007502899  82.19  0.001056252    1.599    0.375
        49  -9.5274    183.3246    184.6344   2.9089108694e+02   4.5455492368e+00  0.007122214  0.004952106  65.89 0.0007038254    1.796    0.443
        50 -10.5302    174.2245    182.9751   2.9098480698e+02   4.6192755909e+00   0.01427764  0.009315724 -79.05  0.001409806    1.841    0.457
        51 -10.3793     74.4596    183.9596   2.9213153394e+02   5.2074271284e+00  0.009419595  0.005743488  84.13 0.0008090331    2.533    0.605
        52 -10.6891     83.4304    181.7360   2.9201522067e+02   5.1790382016e+00    0.0125854  0.006623752 -68.29  0.001126764    2.087    0.521
        53 -11.0813    147.7605    179.7684   2.9126745227e+02   4.8151184436e+00   0.02091836  0.009545236 -70.90  0.001670902    2.732    0.634
        54 -10.1976    138.0049    178.7777   2.9137286411e+02   4.8850946751e+00   0.01197309  0.008660275 -83.71 0.0008509415    1.631    0.387
        55 -10.3010    183.1027    175.6306   2.9083803547e+02   4.6497063086e+00   0.01183161  0.009211771 -78.29  0.001280226    1.407    0.289
        56 -11.0889     76.9034    175.5494   2.9205179866e+02   5.2888907405e+00   0.01539957   0.01039296  59.93  0.001528102    1.791    0.442
        57 -10.6109    105.8576    175.1352   2.9171801932e+02   5.1198662556e+00   0.01072987  0.008917419  64.11  0.001167718    1.329    0.248
        58 -10.4398     88.7177    176.4275   2.9192204307e+02   5.2079827710e+00   0.01223914  0.008300527 -76.64  0.001247952    1.685    0.407
        59 -11.0515    121.5049    168.7124   2.9149945989e+02   5.0992606375e+00   0.02217969   0.01351344 -89.16  0.001989103    2.391    0.582
        60 -10.1635    168.3054    168.8209   2.9096507180e+02   4.8165548584e+00   0.01319383  0.006279328 -71.32 0.0009707712    2.594    0.614
        61  -9.7573    149.6668    169.3352   2.9118128878e+02   4.9228322533e+00  0.007049306  0.004951648  63.80 0.0007052186    1.736    0.424
        62 -10.2705     88.6930    168.5359   2.9187370883e+02   5.2983129320e+00   0.01165899  0.008243098  85.88  0.001115055    1.805    0.446
        63 -10.0654     54.4280    168.6546   2.9226654321e+02   5.5024194135e+00   0.01315104  0.006431247 -80.53 0.0009570027    3.444    0.710
        64 -10.0827    111.7097    167.1568   2.9160189977e+02   5.1758827199e+00   0.01082906  0.008414009  82.90  0.001116985    1.528    0.346
        65 -10.0121     59.3531    176.6683   2.9225950148e+02   5.3813157300e+00   0.00713631  0.004903724  62.46 0.0007046132    1.781    0.439
        66 -10.1530    192.5497    165.2748   2.9066615194e+02   4.7110645779e+00   0.01302244   0.00667664 -68.15  0.001147688    2.157    0.536
        67 -10.9355    139.4435    164.7291   2.9126974908e+02   5.0369333278e+00   0.02112547   0.01329486  80.76  0.001918543    2.368    0.578
        68 -10.8332     98.9973    165.8654   2.9173936178e+02   5.2669800570e+00   0.01432723   0.01078815  77.79   0.00133716    1.621    0.383
        69 -10.8421     79.4705    163.2420   2.9194661951e+02   5.4141439197e+00   0.02343357   0.01296632  81.60  0.001758544    3.535    0.717
        70 -10.0420    159.5976    163.8507   2.9103391296e+02   4.9257273749e+00  0.009505509   0.00637833 -78.78 0.0009478301    1.756    0.430
        71  -9.9081     69.4076    162.6338   2.9205803293e+02   5.4814457304e+00   0.01266968  0.006374028 -80.69 0.0009555402    3.202    0.688
        72 -10.3886    205.0000    161.9869   2.9050362049e+02   4.6735900169e+00   0.01107434  0.003718035 -61.60 0.0008045796    2.957    0.662
        73 -10.0148    151.7058    160.7267   2.9110484484e+02   5.0088948262e+00   0.01336978  0.008097235  88.04  0.001166442    2.508    0.601
        74 -10.3723    177.6124    159.8845   2.9080352367e+02   4.8625791843e+00   0.01335684   0.00872512 -83.02  0.001300381    1.928    0.481
        75 -10.8644     92.3945    159.2796   2.9177431181e+02   5.3818701323e+00   0.01649725   0.01190216 -77.60  0.001521033    1.557    0.358
        76  -9.9281    128.4898    158.9869   2.9135958117e+02   5.1683876732e+00  0.009377402  0.005752925  83.79 0.0008100632    2.504    0.601
        77 -10.4599    196.5195    156.7925   2.9056838878e+02   4.7839959106e+00    0.0162527  0.006728292 -64.95  0.001297954    2.589    0.614
        78 -11.0237    105.2594    156.9505   2.9161275483e+02   5.3312381033e+00   0.01964502    0.0127569 -83.01  0.001916065    1.946    0.486
        79 -10.5657    167.6546    156.8639   2.9089867418e+02   4.9570279027e+00   0.01413274  0.008235086  84.13  0.001154914    2.902    0.655
        80 -11.0295    119.2903    154.7005   2.9143836035e+02   5.2726500261e+00    0.0200965   0.01183833 -88.00  0.001741836    2.554    0.608
        81 -11.1079     81.3647    153.8513   2.9186707367e+02   5.5100890893e+00   0.01849444   0.01155011 -89.03  0.001701616    2.254    0.556
        82 -10.1308    144.6588    154.3494   2.9114604971e+02   5.1241310585e+00   0.01075327  0.007633335  64.20  0.001106862    1.711    0.415
        83 -10.8512    133.2697    152.3169   2.9126374975e+02   5.2158435381e+00   0.02022829   0.01263625 -86.98  0.001876883    2.203    0.546
        84 -10.5498     67.0449    152.7742   2.9202433838e+02   5.6082864869e+00     0.012363  0.008759955 -84.72  0.001277485    1.699    0.411
        85 -10.4425     98.4777    150.0599   2.9164785667e+02   5.4506929822e+00   0.01509625  0.006847785 -69.90  0.001209337    2.661    0.624
        86 -10.4996     90.7546    150.5291   2.9173913032e+02   5.4916991128e+00   0.01393324  0.008209055 -78.47  0.001272347    2.160    0.537
        87 -10.1505    189.4974    149.5042   2.9060357438e+02   4.9095173189e+00   0.01222612  0.006610078 -77.25    0.0010386    2.467    0.595
        88 -10.6955    200.2634    147.4563   2.9046791032e+02   4.8680203468e+00   0.01760491  0.006296049 -68.17  0.001204469    3.612    0.723
        89 -10.5418     38.8437    147.2394   2.9231311770e+02   5.8405162271e+00   0.01175696  0.006467096  63.32 0.0009515412    2.838    0.648
        90 -11.5089    148.8538    144.0324   2.9103437070e+02   5.2167273500e+00   0.02675137   0.01596725 -87.10  0.002370619    2.444    0.591
        91 -10.4358     49.0178    154.5204   2.9224145940e+02   5.6963709956e+00   0.01411688  0.007666842  71.86  0.001038926    3.576    0.720
        92 -11.2576     55.1307    144.0125   2.9210675303e+02   5.7798293252e+00    0.0253945   0.01248303 -75.94  0.002031384    2.842    0.648
        93 -11.5093    124.6399    141.7261   2.9129708952e+02   5.3887079896e+00   0.02827662   0.01497688 -80.13  0.002320788    2.776    0.640
        94 -11.1601     87.8420    142.2927   2.9172167548e+02   5.6032883570e+00   0.02501869   0.00941603 -65.65  0.001884598    2.960    0.662
        95 -11.2212     68.2271    137.2448   2.9191509592e+02   5.7786486552e+00   0.01950368  0.009566313 -69.72  0.001664891    2.364    0.577
        96 -10.7698     23.0041    137.7400   2.9243603310e+02   6.0438842491e+00   0.01405979   0.00834949  81.47  0.001179202    2.760    0.638
        97 -11.8164    107.0891    143.8396   2.9151094512e+02   5.4700378647e+00   0.03379359   0.01954043 -82.87  0.002977027    2.436    0.589
        98 -10.8553    112.4304    132.4582   2.9137957812e+02   5.5679611405e+00   0.01560043   0.01058819 -65.70  0.001637371    1.508    0.337
        99 -10.9172    143.0792    130.4115   2.9101627401e+02   5.4070330231e+00   0.02169048  0.009658164 -62.46  0.001848228    2.262    0.558
       100 -11.3755    131.6709    129.6942   2.9114235228e+02   5.4838555116e+00   0.02660264   0.01373873 -73.95  0.002273005    2.451    0.592
       101 -11.9507     83.2247    128.1909   2.9168754734e+02   5.7921117548e+00   0.04368575   0.01149039 -60.78  0.002933031    3.633    0.725
       102 -10.7520    168.4206    129.1450   2.9071863583e+02   5.2689360613e+00      0.01534  0.006792378 -73.34  0.001137761    3.190    0.686
       103 -10.9540    152.7798    128.0846   2.9089093959e+02   5.3752223408e+00   0.02357164   0.01121648 -72.09  0.001919672    2.660    0.624
       104 -12.1228     98.3625    124.7739   2.9149315841e+02   5.7402571489e+00   0.04178733   0.01701498 -66.24   0.00329122    2.739    0.635
       105 -11.0049     72.6484    127.5675   2.9180479764e+02   5.8626957427e+00    0.0214754  0.008464829 -67.73  0.001612374    3.018    0.669
       106 -11.3364    117.4737    123.2447   2.9126497039e+02   5.6428853124e+00   0.03001591   0.01275038 -62.29   0.00250627    2.366    0.577
       107 -11.4789     58.4149    122.4508   2.9193624351e+02   6.0065117351e+00   0.02638804   0.01365465 -85.41  0.001960697    3.497    0.714
       108 -10.9318    179.6744    123.0532   2.9055230475e+02   5.2706871645e+00    0.0185599  0.006690296 -53.57  0.001463345    2.565    0.610
       109 -11.8315     42.7947    120.9732   2.9210605168e+02   6.1169969794e+00    0.0367583   0.01701019 -81.35  0.002422912    4.389    0.772
       110 -11.2393     27.6947    121.5060   2.9228232193e+02   6.2013215490e+00   0.02916387   0.01496109  79.52  0.001768231    5.483    0.818
       111 -10.5400    158.4873    120.0495   2.9077599497e+02   5.4326057444e+00   0.01811929   0.00645597 -61.74  0.001379904    2.796    0.642
       112 -11.7379    141.5163    116.7980   2.9095002542e+02   5.5718947550e+00   0.03534717    0.0138341 -67.26  0.002668721    3.002    0.667
       113 -10.2017    172.4937    119.9957   2.9061549288e+02   5.3488568442e+00   0.01048061  0.006468342 -62.29  0.001042537    1.620    0.383
       114 -11.0147    130.4420    117.1418   2.9107886225e+02   5.6345989305e+00   0.02256335   0.01257779 -73.33  0.002051846    2.141    0.533
       115 -10.6251     70.4947    117.9203   2.9176994920e+02   5.9858274918e+00   0.01822368  0.008729048 -56.45  0.001636659    1.988    0.497
       116 -10.6727      2.6238    116.3818   2.9253803158e+02   6.4098177282e+00   0.01696343  0.008812202 -82.18  0.001321609    3.084    0.676
       117 -11.7886    108.8015    111.3789   2.9129094060e+02   5.8305295080e+00   0.03746362   0.01487152 -65.54   0.00292785    2.766    0.638
       118 -11.5371     78.2199    110.7615   2.9163729654e+02   6.0212505170e+00   0.03174561   0.01388701 -74.15   0.00231709    3.392    0.705
       119 -11.8833     92.2701    108.7831   2.9146418245e+02   5.9594961761e+00   0.04331718   0.01291265 -60.24  0.003101951    3.187    0.686
       120 -11.1083    159.3294    110.5451   2.9070759115e+02   5.5360448983e+00   0.01751602  0.009230086 -61.24  0.001630063    1.880    0.468
       121 -11.4969    122.2620    110.3306   2.9113038681e+02   5.7615776957e+00    0.0237258   0.01070085 -51.41  0.002068792    2.129    0.530
       122 -10.4678    174.5869    110.2943   2.9053155016e+02   5.4469902371e+00   0.01316025  0.006610689 -67.64  0.001149427    2.190    0.543
       123 -10.9786     14.1614    109.5172   2.9236353046e+02   6.4192690750e+00   0.02328371   0.01230278 -70.71  0.002080721    2.181    0.541
       124 -11.2614     65.7914    108.7246   2.9176707914e+02   6.1190845796e+00    0.0214104  0.009513822 -70.52  0.001685913    2.806    0.644
       125 -10.4206    133.2022    108.4885   2.9099379459e+02   5.7168041594e+00   0.01303333  0.009330081 -62.12  0.001408387    1.393    0.282
       126 -10.1596    189.0000    106.9704   2.9034619572e+02   5.3980484002e+00   0.01109874  0.003717815 -61.58 0.0008055915    2.964    0.663
       127 -11.2819    139.5501    102.9397   2.9088684619e+02   5.7419593838e+00   0.02397917   0.01227409 -59.71  0.002216233    1.906    0.475
       128 -11.5539     22.5577    102.0546   2.9222131116e+02   6.4542933149e+00   0.03091322   0.01613619  71.22  0.002124617    4.229    0.764
       129 -11.8168    150.0784    100.3574   2.9075040830e+02   5.7080574002e+00    0.0337971   0.01012362 -62.68  0.002338885    3.451    0.710
       130 -11.9027     44.3023    101.0304   2.9196580285e+02   6.3357913422e+00   0.02714458   0.01459286  71.21  0.001991515    3.692    0.729
       131 -11.4898    128.7629     99.9034   2.9099152676e+02   5.8415361965e+00   0.02425462   0.01283781 -49.95  0.002277141    1.849    0.459
       132 -10.3610    175.5939    101.1884   2.9046369156e+02   5.5448568062e+00   0.01009596   0.00567073 -49.76 0.0009592797    1.748    0.428
       133 -11.0690    159.6362     99.5680   2.9063617931e+02   5.6595051837e+00   0.01673223  0.006665161 -67.31  0.001265728    2.938    0.660
       134 -11.7331     81.7073     97.1935   2.9151357943e+02   6.1552807554e+00   0.02759751  0.007055074 -57.94  0.001884495    3.451    0.710
       135 -12.0886    108.1504     95.5487   2.9120058034e+02   6.0152138489e+00   0.03790054   0.01696281 -58.12  0.003307599    2.134    0.531
       136 -11.3223     95.1293     93.8847   2.9133940734e+02   6.1124617802e+00   0.03152879   0.01264067 -48.43  0.002566355    2.482    0.597
       137 -11.7793     62.9950     95.4590   2.9171723662e+02   6.2873728272e+00   0.02525284   0.01336369 -83.09  0.002000289    3.033    0.670
       138 -11.1783    138.7431     89.8649   2.9081521456e+02   5.8960777845e+00   0.02223592   0.01090965 -55.90  0.002024263    1.944    0.486
       139 -11.7830    125.0036     87.1645   2.9095578341e+02   6.0095864289e+00   0.03622266    0.0142005 -48.66   0.00292156    2.528    0.604
       140 -11.0626     34.5883     86.3771   2.9198672577e+02   6.5613425345e+00   0.03673142   0.01016983 -53.68  0.002614014    3.187    0.686
       141 -10.5350    166.6111    102.4116   2.9057399189e+02   5.5850276264e+00   0.01703797  0.005255897 -55.92   0.00125552    2.915    0.657
       142 -11.2165     85.7305     85.7701   2.9139692175e+02   6.2615700676e+00   0.01792524   0.01024827 -78.92  0.001597366    2.304    0.566
       143 -11.5812     86.3362     81.3224   2.9136249657e+02   6.3087140326e+00    0.0224108   0.01279911  -4.51  0.001836544    2.909    0.656
       144 -12.4507     47.9007     81.5654   2.9180443656e+02   6.5365371053e+00      0.03525  0.009737713 -56.71  0.002505273    3.194    0.687
       145 -11.2584    104.4895     78.0035   2.9113403403e+02   6.2375317894e+00   0.01895993   0.01229804 -22.09  0.001827904    2.017    0.504
       146 -10.4253    158.4893     81.4822   2.9053737371e+02   5.8728334743e+00    0.0129404  0.005094244 -50.07  0.001039172    2.458    0.593
       147 -10.6130    119.2532     78.3981   2.9096739880e+02   6.1442493542e+00   0.01970848  0.009105315 -49.65  0.001725641    2.118    0.528
       148 -10.6701    150.4200     78.2611   2.9060977170e+02   5.9582044463e+00   0.01360181  0.005786933 -55.82  0.001149244    2.212    0.548
       149 -10.2032    167.6586     76.6632   2.9040263186e+02   5.8725638918e+00  0.007151176  0.004884267 -26.64 -7.906639e-06    1.763    0.433
       150 -11.1775    140.9199     81.1406   2.9073632104e+02   5.9825529799e+00     0.019612  0.008078082 -54.42  0.001645143    2.276    0.561
       151 -11.2349    128.2821     71.9327   2.9082401370e+02   6.1637177583e+00   0.02928025   0.01042788 -49.73  0.002267893    2.719    0.632
       152 -11.5458    166.6628    248.0852   2.9147253878e+02   3.9210948216e+00   0.01343375   0.01013698  14.28  0.001476151    1.431    0.301
       153 -10.5838    140.7712     73.2918   2.9068944720e+02   6.0730239124e+00   0.01463068  0.008540589 -49.79  0.001432862    1.683    0.406
       154 -11.3242     81.4467     71.2200   2.9135607384e+02   6.4534099455e+00   0.02289377   0.01092352 -72.91  0.001850851    2.718    0.632
       155 -11.3750     82.4853     65.9999   2.9131189909e+02   6.5067622909e+00   0.01720396  0.009458648 -39.54  0.001575347    2.051    0.513
       156 -10.4525    115.7617     70.7086   2.9095981206e+02   6.2530189136e+00   0.01701285  0.007054154 -54.64  0.001428544    2.261    0.558
       157  -9.8475    151.6487     71.6670   2.9055488788e+02   6.0260511476e+00  0.007170153  0.004886453 -25.95 0.0002134065    1.780    0.438
       158 -10.9392    105.7479     69.3450   2.9106606885e+02   6.3288005528e+00   0.02211655  0.007233785 -54.39  0.001679571    2.775    0.640
       159 -11.3109     94.6233     68.2695   2.9118685589e+02   6.4079407106e+00   0.03124828  0.008128946 -63.78  0.001940137    4.310    0.768
       160 -10.3134    156.6696    248.3438   2.9158822913e+02   3.9781973530e+00    0.0070686  0.004952029  64.42 0.0007050747    1.752    0.429
       161 -10.7561    138.7966     63.8891   2.9065384307e+02   6.1922103223e+00   0.01796221  0.007542575 -51.06  0.001507453    2.284    0.562
       162 -10.6184    121.7312     63.4154   2.9084631543e+02   6.3003405769e+00   0.02179443  0.007113225 -54.07  0.001652369    2.784    0.641
       163 -10.8232     17.8560     63.2758   2.9203600157e+02   6.9252911181e+00    0.0157259   0.00559357 -43.01  0.001097319    3.426    0.708
       164 -11.0290    110.2040     60.7726   2.9096198668e+02   6.3998406254e+00   0.02286744  0.009452643 -47.09  0.001867897    2.472    0.595
       165 -10.9148    154.6492    240.8168   2.9156496535e+02   4.0763172353e+00  0.009461575  0.006263748 -74.95 0.0007363365    1.712    0.416
       166 -11.3852    104.0000     82.0169   2.9116445752e+02   6.1946569407e+00   0.01701661   0.01138096 -71.08  0.001754488    1.617    0.382
       167 -10.4484    130.9853     55.4972   2.9069131955e+02   6.3349927739e+00   0.01436249  0.006547698 -33.37  0.001029506    3.476    0.712
       168 -10.5957    147.7504     64.5408   2.9055537992e+02   6.1308463583e+00   0.01703177  0.007416782 -44.48  0.001394633    2.480    0.597
       169 -11.2144     91.7344     47.6546   2.9109242494e+02   6.6605650598e+00   0.02624694  0.005341582 -60.78    0.0015583    4.600    0.783
       170 -11.7175     26.5589     72.6204   2.9199388064e+02   6.7665134809e+00   0.03592716   0.01694549 -21.83  0.001988688    6.415    0.844
       171  -9.7980    130.3189     46.3305   2.9064218170e+02   6.4435819664e+00  0.007024752  0.004895941 -27.63 0.0002898751    1.689    0.408
       172 -10.3726    113.1440     42.9756   2.9081813657e+02   6.5852195288e+00   0.01747488  0.006543745 -42.24  0.001251004    3.295    0.697
       173 -10.1739    122.8135     41.7957   2.9070005813e+02   6.5404926783e+00   0.01190947  0.006377385 -27.30 0.0009525231    2.857    0.650
       174 -10.6774     83.3303     41.0529   2.9114789458e+02   6.7863819553e+00   0.01630967  0.008516801 -29.62  0.001311698    2.846    0.649
       175 -11.1871     73.0793     56.1467   2.9135877143e+02   6.6756999117e+00   0.04149739  0.008041931 -58.51  0.002545448    4.307    0.768
       176 -10.0448    112.3406     31.3113   2.9075509805e+02   6.7231027534e+00  0.007004461  0.004929518 -25.06 0.0004947849    1.695    0.410
       177  -9.1901     44.2911     25.6915   2.9150052734e+02   7.1958980393e+00  0.006691473  0.005003776  65.26 0.0003348624    1.581    0.367
