#   1 NUMBER                 Running object number                                     
#   2 MAG_AUTO               Kron-like elliptical aperture magnitude                    [mag]
#   3 X_IMAGE                Object position along x                                    [pixel]
#   4 Y_IMAGE                Object position along y                                    [pixel]
#   5 X_WORLD                Barycenter position along world x axis                     [deg]
#   6 Y_WORLD                Barycenter position along world y axis                     [deg]
#   7 A_WORLD                Profile RMS along major axis (world units)                 [deg]
#   8 B_WORLD                Profile RMS along minor axis (world units)                 [deg]
#   9 THETA_WORLD            Position angle (CCW/world-x)                               [deg]
#  10 FWHM_WORLD             FWHM assuming a gaussian core                              [deg]
#  11 ELONGATION             A_IMAGE/B_IMAGE                                           
#  12 ELLIPTICITY            1 - B_IMAGE/A_IMAGE                                       
         1 -15.5623    240.8213    100.4591   3.0754163484e+01   1.6399957952e+01     0.964724    0.7259037 -32.33  0.006910877    1.532    0.347
         2 -12.1053     43.9503     98.5145   7.6595891291e+01   5.2405635060e+01    0.9295184    0.4367389 -68.52  0.003304478    3.096    0.677
         3 -11.7439     62.5913     69.6285   6.0734178418e+01   5.5708709751e+01    0.7239943    0.1237371 -44.58  0.001834857    6.345    0.842
         4 -11.1560     91.9403     47.3500   4.3680983603e+01   5.3477256924e+01    0.5749031    0.1679073 -38.10  0.002049309    3.895    0.743
         5 -11.0748     40.9464     13.9698   4.9013852385e+01   6.8045448624e+01     0.186689    0.1442587  33.79 0.0003064018    1.017    0.017
         6 -10.1578     98.5106    224.9992   8.1093241930e+01   1.2990268625e+01    0.2649302    0.1433166  16.10 0.0007631792    1.859    0.462
         7 -11.1918     13.1755    222.8934   1.0403263651e+02   2.2850008801e+01    0.2191628    0.1633295  55.47  0.001062604    1.255    0.203
         8 -10.6766     59.5254    222.5169   9.1375768262e+01   1.8319868693e+01    0.1435661    0.1295089  31.18 0.0001790746    1.029    0.028
         9 -10.3260    126.2360    220.4338   7.3297450150e+01   1.0402112372e+01    0.1938361    0.1213318  34.66 0.0005418435    1.576    0.365
        10 -10.4419    143.6083    216.8180   6.8511340194e+01   8.8926379034e+00    0.1830569    0.1337619 -59.36  0.000948966    1.688    0.408
        11 -10.1343    186.3216    214.6478   5.8867064062e+01   4.0219481891e+00    0.1133529    0.1041193  83.81 0.0007047658    1.751    0.429
        12 -10.2629    116.6837    210.3488   7.4177168583e+01   1.3892125704e+01    0.1452326    0.1120466  59.58 0.0007047688    1.728    0.421
        13 -10.2435     71.4665    207.9845   8.6283640479e+01   2.0445664685e+01    0.2045501    0.1248734  75.64 0.0007287323    2.509    0.601
        14 -11.4736    186.2515    204.1542   5.7148908666e+01   5.9577152253e+00     0.220873    0.1705263  55.63  0.001243784    2.046    0.511
        15 -12.2907    165.3254    202.0166   6.1124135486e+01   9.0371587589e+00    0.4630656     0.321634 -58.46   0.00241076    1.776    0.437
        16 -12.3584    163.3527    194.0709   6.0183165931e+01   1.0901645536e+01    0.4514642    0.3284776  59.33   0.00225564    2.151    0.535
        17 -11.0225    124.8552    197.5036   6.9972143139e+01   1.5647650478e+01    0.2309285    0.2181051  78.15  0.001295583    1.317    0.241
        18 -10.2411    149.3290    198.6624   6.4155244061e+01   1.1904436025e+01    0.1348815     0.113152  68.38 0.0003308904    1.732    0.423
        19 -10.7902     66.4178    193.1248   8.5782986145e+01   2.4836946686e+01    0.3463071    0.1574899 -77.29  0.001149071    3.272    0.694
        20 -10.1136    172.3344    190.6768   5.7663413541e+01   1.0346182662e+01    0.1254776    0.1094777  80.55 0.0004862276    1.709    0.415
        21 -10.5957    139.3821    189.2295   6.4883303631e+01   1.5368755339e+01    0.2025624    0.1383352 -60.26 0.0009549766    1.727    0.421
        22 -10.4742    165.5071    186.5023   5.8374809307e+01   1.2137218623e+01    0.1372503    0.1232851 -20.92 0.0008103239    1.040    0.038
        23 -10.5326     54.4894    185.9887   8.8474518918e+01   2.8161735632e+01    0.2188859    0.1258375  76.19 0.0008105997    2.610    0.617
        24 -10.4789    109.3135    185.6406   7.2094640200e+01   2.0712690950e+01    0.1544773    0.1184356  65.81 0.0007042895    1.748    0.428
        25 -11.2318     95.0192    183.2924   7.5752512843e+01   2.3416474513e+01    0.4227994     0.251646 -66.29  0.001750441    1.998    0.500
        26 -10.7121     74.3803    183.5808   8.1971187203e+01   2.6265248305e+01    0.2858303    0.1490707 -82.16 0.0009520196    3.222    0.690
        27 -10.7099    174.3876    183.2482   5.5917287490e+01   1.1533369354e+01     0.188858    0.1214051 -53.58 0.0008666642    1.662    0.398
        28 -12.4307      4.4520    176.1897   1.0321665015e+02   3.5476069386e+01    0.4395385     0.217868 -89.78  0.001843089    2.159    0.537
        29 -11.6636     78.0697    175.8456   7.9603644147e+01   2.7761456705e+01    0.3510798    0.2126642  60.39  0.001358818    2.311    0.567
        30 -10.5665    176.8961    170.5771   5.3099465812e+01   1.3681899942e+01    0.2675477    0.1762936 -61.76  0.001318264    1.919    0.479
        31 -10.1631    134.6787    171.3358   6.2757982169e+01   2.0092657667e+01    0.1465853    0.1188531  74.46 0.0007050148    1.708    0.414
        32 -11.6391    121.8294    168.2556   6.5501275053e+01   2.2887708054e+01    0.5493975    0.3521314 -66.29  0.002350006    1.989    0.497
        33 -10.0193     88.6663    168.3282   7.5043370296e+01   2.8144292244e+01    0.1627178    0.1192528  61.82 0.0007051814    1.720    0.418
        34 -11.7445    139.1718    163.7248   6.0171150594e+01   2.1067753493e+01    0.5504118    0.2875821 -62.20  0.002092675    2.611    0.617
        35 -11.1430     79.4810    162.8440   7.6923678388e+01   3.0936427345e+01    0.5260221    0.2967359  88.13  0.001622528    3.899    0.744
        36 -10.0893    146.3082    162.9650   5.8305100263e+01   2.0056948279e+01     0.202899     0.174809 -48.18 0.0007263633    1.160    0.138
        37 -11.2509    205.9990    161.9902   4.6213595787e+01   1.1153118121e+01    0.1903732    0.1491301 -71.63  0.001137028    1.716    0.417
        38 -10.7373    177.6954    159.7258   5.0910137902e+01   1.5703030514e+01    0.2704959    0.1589492 -64.11  0.001177014    2.481    0.597
        39 -11.0741     93.0438    159.4977   7.2064670813e+01   2.9704544592e+01    0.3719264    0.2660531  89.35  0.001569326    2.041    0.510
        40  -9.9616    143.9990    159.4833   5.8166921077e+01   2.1201050854e+01    0.2020187    0.1425723  35.32 0.0001230786    1.455    0.313
        41 -11.3551    188.7814    156.7209   4.8249620526e+01   1.4596295550e+01    0.3470591    0.1565196 -48.76  0.001552232    2.038    0.509
        42 -10.2135    128.2515    158.2499   6.1842547764e+01   2.4141035905e+01     0.237635     0.128429 -62.96 0.0008941148    2.443    0.591
        43 -10.5530    105.4833    157.5092   6.7963919086e+01   2.8167899194e+01    0.2694673    0.1561274 -67.44   0.00089935    2.286    0.563
        44 -11.5305    197.0192    157.0257   4.6841836769e+01   1.3323602075e+01     0.205901    0.1741632 -40.05 0.0009034271    1.031    0.030
        45 -10.9597    167.8360    156.7314   5.2321358147e+01   1.7855453689e+01    0.2711141    0.1626013 -56.58  0.001264957    1.830    0.453
        46 -11.0743     49.5180    153.2437   8.5313441612e+01   3.7558419531e+01    0.4881193    0.2720314 -70.38  0.001965663    1.971    0.493
        47 -11.7709    204.8779    154.0990   4.4984553855e+01   1.2728935566e+01    0.1933075    0.1587751 -56.80 0.0009684658    1.263    0.209
        48 -10.2905    119.3265    154.6431   6.3487728837e+01   2.6507019850e+01    0.1566531    0.1215501  75.16  0.000704483    1.777    0.437
        49 -10.7928     81.5566    154.0015   7.4619065989e+01   3.2911718146e+01    0.3139976    0.2132954 -84.71  0.001280287    2.099    0.524
        50 -11.2776     67.7697    152.9224   7.8968615471e+01   3.5240225433e+01    0.4560608    0.3156786  76.31  0.001785248    2.039    0.510
        51 -10.8548    133.1752    152.4572   5.9406660639e+01   2.4610638593e+01     0.342891    0.2278216  87.72  0.001284202    3.047    0.672
        52 -12.8177    189.0378    148.4672   4.6653185469e+01   1.6116546056e+01    0.5095342    0.2520596 -53.83  0.002317378    2.111    0.526
        53 -11.7367    200.0000    147.8293   4.4646102289e+01   1.4571076548e+01    0.2421149     0.164254 -44.92  0.001266546    1.266    0.210
        54 -10.9409     38.7895    146.4599   8.8062795370e+01   4.0626669081e+01    0.3727552    0.2128635  84.45  0.001390727    2.606    0.616
        55 -11.4589    106.8464    144.1277   6.4820649936e+01   3.1176827253e+01     0.563073    0.3668477 -86.94  0.002086837    2.816    0.645
        56 -11.1542     55.1867    143.7996   8.1684927387e+01   3.9382439382e+01    0.5526524     0.295539 -77.50  0.002006111    2.588    0.614
        57 -11.4403    124.5498    141.3791   5.9311527911e+01   2.8649227559e+01    0.6229777    0.3193206 -65.79  0.002121653    3.171    0.685
        58 -11.0948     87.8001    142.6948   7.0351595560e+01   3.4789249055e+01    0.4239109    0.2261327 -63.76  0.001593697    2.250    0.556
        59 -10.7951    165.6602    142.5390   4.9960849075e+01   2.1083645691e+01    0.2615359    0.1211782 -47.09   0.00110175    2.009    0.502
        60 -10.9868    182.0135    140.7697   4.6444476780e+01   1.8691991069e+01    0.2508264    0.1617126 -57.75  0.001282508    1.647    0.393
        61 -11.3367    172.2552    137.0333   4.7540530222e+01   2.1044653148e+01    0.3270924    0.1525891 -57.24   0.00128777    2.654    0.623
        62 -11.0965     22.2544    135.0414   9.2520768455e+01   4.5322201659e+01    0.6618711    0.2870563 -77.98  0.002366201    2.754    0.637
        63 -12.0756    188.6762    135.1848   4.4175806624e+01   1.8652764037e+01    0.3267145    0.1852154 -51.05  0.001247258    1.641    0.390
        64 -10.9564    162.4963    135.4863   4.9171359532e+01   2.3048244692e+01    0.2567352    0.1256152 -56.21  0.001035286    2.343    0.573
        65 -11.8382    148.7774    143.1327   5.3729425678e+01   2.3904168377e+01    0.6633066    0.3196203 -57.39  0.002554849    2.501    0.600
        66 -11.2709    179.5436    132.7642   4.5319112255e+01   2.0622613385e+01    0.3359866    0.1189527 -47.71  0.001297916    2.601    0.615
        67 -10.8091    112.8224    132.7272   6.0618920872e+01   3.2777366318e+01    0.2956198    0.2103979 -84.11  0.001247753    2.124    0.529
        68 -11.4865    131.6227    129.3156   5.4853634681e+01   3.0011486059e+01    0.5684978    0.2655568 -57.82  0.002068951    2.667    0.625
        69 -12.1163     83.2488    128.5666   6.8791254075e+01   3.9058782987e+01    0.9779757    0.3185775 -57.04  0.002942037    3.447    0.710
        70 -11.1445    142.9150    130.2043   5.2329537138e+01   2.7697764921e+01    0.4118574    0.1973611 -49.42   0.00167414    2.060    0.515
        71 -12.0065    192.7526    129.4467   4.2381011505e+01   1.9036640139e+01    0.2997086    0.1913789 -46.82   0.00165078    1.374    0.272
        72 -11.7119    168.7269    128.2742   4.6440157224e+01   2.3361312837e+01    0.3761439    0.1733071 -50.72  0.001595475    2.121    0.528
        73 -11.3879    152.8965    127.4669   4.9504671244e+01   2.6401352795e+01    0.4758584    0.1928094 -50.88   0.00179922    2.514    0.602
        74 -12.4347     98.9553    124.7060   6.2873718921e+01   3.7197513616e+01     0.937192    0.4480556 -53.14  0.003557044    2.194    0.544
        75 -10.8850     72.7988    128.1115   7.2268757585e+01   4.0893487544e+01    0.3901441    0.2214099 -68.70  0.001489678    2.300    0.565
        76 -11.4754     12.1057    125.7313   9.5173359169e+01   4.8602890981e+01    0.7142618    0.2030994 -70.62     0.002284    3.388    0.705
        77 -11.9898    180.1936    123.2091   4.3290196526e+01   2.2296529763e+01    0.3778758    0.1774222 -47.67  0.001713385    1.943    0.485
        78 -11.5286    117.3911    123.4707   5.7244208349e+01   3.4003459573e+01    0.5536856    0.3092501 -57.27  0.002262961    2.031    0.508
        79 -11.9464    188.8453    123.0275   4.1777612316e+01   2.0843595009e+01    0.3303626    0.1611467 -52.93  0.001528849    2.015    0.504
        80 -11.5561     58.1685    120.8764   7.6022804624e+01   4.4940634871e+01    0.8175843    0.3006682 -66.27  0.002366171    4.043    0.753
        81 -11.7043     42.4341    119.4345   8.1854261183e+01   4.7396390636e+01      0.88563    0.3710341 -76.75  0.002469115    4.763    0.790
        82 -11.3619     28.8198    120.6636   8.7597974956e+01   4.8560619072e+01    0.6687432     0.207545 -67.03    0.0021069    3.393    0.705
        83 -10.9799    203.4800    121.9647   3.9274576891e+01   1.8622320755e+01    0.1830072   0.09273996 -61.23  0.000810096    2.579    0.612
        84 -10.9341    172.5735    120.2720   4.4061470970e+01   2.4193946250e+01    0.2682415     0.119349 -49.26  0.001140665    2.131    0.531
        85 -11.6760    158.5310    119.9674   4.6712626326e+01   2.6836742595e+01    0.4067538     0.219692 -51.58  0.001837569    1.834    0.455
        86 -12.2886    141.4679    116.7569   4.9677843044e+01   3.0741963908e+01    0.7323856    0.2606251 -51.40  0.002507129    3.060    0.673
        87 -11.4101    130.4480    117.5096   5.2467690292e+01   3.2745731322e+01    0.3882239    0.2643192 -68.50  0.001753674    1.885    0.469
        88 -11.0623     70.7447    118.2764   7.0783110748e+01   4.3656856985e+01    0.3697748    0.1961129 -62.37  0.001418962    2.237    0.553
        89 -11.4809      2.5568    115.0742   9.7623993227e+01   5.1998029098e+01    0.7021751    0.2119709 -83.00  0.001901468    5.395    0.815
        90 -12.1659    186.0018    115.3214   4.0719812522e+01   2.2711163003e+01    0.3098909    0.1753413 -45.49  0.001282509    1.587    0.370
        91 -10.6289    203.3138    115.6487   3.8108347151e+01   1.9729500566e+01    0.1276757   0.08699339 -70.52 0.0007046188    1.728    0.421
        92 -12.0000    108.9218    111.6465   5.6798363708e+01   3.8233195153e+01    0.7892451    0.3384945 -52.86    0.0028582    2.579    0.612
        93 -10.4310     22.5794    114.2600   8.9052257846e+01   5.0809498148e+01    0.2759903    0.1444739 -71.11  0.001138247    2.072    0.517
        94 -12.0722    192.9508    113.6446   3.9279185363e+01   2.1804304071e+01     0.264989    0.1678862 -52.04  0.001467964    1.421    0.296
        95 -12.0308     92.4076    108.9026   6.1114708691e+01   4.2025349090e+01     0.933101    0.3005327 -50.68  0.002958588    3.274    0.695
        96 -11.6578     78.3693    110.2334   6.6144711609e+01   4.4285007477e+01    0.7125604     0.340628 -64.99  0.002371553    3.263    0.694
        97 -10.8618     16.6801    113.3515   9.1397624052e+01   5.1531985280e+01    0.2636605    0.1581168  38.55 0.0009318395    1.816    0.449
        98 -11.6229     13.8006    108.2074   9.1774916866e+01   5.3076376987e+01    0.5704787    0.2233539 -68.53  0.002150072    2.561    0.610
        99 -11.5831    174.7267    110.4163   4.1629356517e+01   2.5612451051e+01    0.3959666    0.1555397 -48.61  0.001623467    2.407    0.585
       100 -11.7098    159.2995    110.3385   4.4471153466e+01   2.8531225930e+01     0.387036    0.1789312 -46.04  0.001658343    2.067    0.516
       101 -11.6610    122.1106    110.6130   5.2953891517e+01   3.5833564438e+01    0.4449106    0.2203011 -47.10  0.001807678    2.055    0.513
       102 -10.6159    200.3264    111.6519   3.7783368195e+01   2.0899798263e+01     0.129204   0.08762415 -71.88 0.0007049494    1.753    0.429
       103 -11.2205     66.0741    108.3273   7.0130318886e+01   4.6807271888e+01    0.5575024    0.2176269 -54.35  0.001949548    2.668    0.625
       104 -11.9554    182.9767    108.0084   3.9740762023e+01   2.4537998281e+01    0.2794703     0.165606 -45.97  0.001462693    1.531    0.347
       105 -10.8740    133.1834    108.2907   4.9650176888e+01   3.4082994586e+01    0.3045095    0.2000148 -57.43  0.001429147    1.654    0.395
       106 -11.5468    154.8266    240.6048   6.9577758431e+01   2.8757583249e+00    0.1842693    0.1069686  31.63  0.000949288    1.719    0.418
       107 -12.6410    108.1821     95.8236   5.3020254310e+01   4.1674598558e+01    0.7791455    0.4123092 -52.03  0.003252479    2.086    0.521
       108 -11.8626     81.7767     97.1486   6.1600182551e+01   4.6601282900e+01    0.5776172    0.2033679 -47.29  0.001960206    2.967    0.663
       109 -10.7763     92.3360    230.6753   8.3468413886e+01   1.2493824190e+01    0.1472551    0.1010167  51.71  0.000705123    1.717    0.417
       110 -12.4502    189.1734    106.1477   3.8382739959e+01   2.3754179570e+01    0.2915135     0.173458 -44.78  0.001565725    1.516    0.340
       111 -11.9522     63.1464     92.3239   6.7130391527e+01   5.0952799976e+01    0.8610163     0.313143 -51.75  0.003010647    2.908    0.656
       112 -12.5997    150.0435    100.0335   4.4015614603e+01   3.2268912594e+01    0.6837012    0.2216164 -44.78  0.002442813    3.024    0.669
       113 -11.9698    166.9454    102.2745   4.1282976270e+01   2.8537082960e+01    0.3850462    0.1834845 -41.22  0.001715306    2.082    0.520
       114 -11.9426    165.0490     92.6385   3.9522179773e+01   3.0593722880e+01    0.2647955    0.1922325 -39.89  0.001472958    1.426    0.299
       115 -11.8642    138.8124     90.1515   4.4038873128e+01   3.6369916182e+01    0.4699201    0.2480138 -44.25  0.002119875    1.926    0.481
       116 -11.6064    188.5836     92.2345   3.5680786031e+01   2.6185608980e+01    0.1748865    0.1118756 -36.67 0.0009558843    1.667    0.400
       117 -11.2364    157.6862     90.4630   4.0358790303e+01   3.2436614935e+01    0.2447851    0.1176006 -43.27  0.001090094    2.050    0.512
       118 -12.3699    125.0633     87.4187   4.6474577728e+01   3.9756568007e+01    0.6904578    0.3675259 -35.19  0.002940038    2.264    0.558
       119 -12.2168      4.7348     88.9156   9.2545838221e+01   5.8492827122e+01    0.5422904    0.1640432 -55.26  0.002064639    2.572    0.611
       120 -11.6605    196.4985     90.4916   3.4223125002e+01   2.5038916597e+01    0.1215055    0.1049453 -62.68 -2.138443e-05    1.035    0.034
       121 -12.4617    177.0557     92.1236   3.7409380017e+01   2.8354392210e+01    0.3018511    0.1676333 -48.69  0.001539965    1.664    0.399
       122 -11.4206     34.6677     85.9395   7.7576534247e+01   5.6514267022e+01    0.8087509    0.2457079 -52.36  0.002819688    3.029    0.670
       123 -12.0730    139.6923    102.5053   4.6790535352e+01   3.3896955200e+01    0.4716406    0.2616572 -43.60  0.002129758    1.822    0.451
       124 -11.7946    179.5846     85.2578   3.5578729442e+01   2.8997565728e+01    0.2505208    0.1072006 -47.07  0.001141332    2.146    0.534
       125 -11.4481     95.1057     93.9692   5.6392350765e+01   4.4694772821e+01    0.6328171     0.298369 -38.49  0.002414731    2.495    0.599
       126 -12.0742     86.4140     83.5097   5.6284557107e+01   4.8517316975e+01    0.6341304    0.3087645 -43.45   0.00260081    2.228    0.551
       127 -12.1173    128.6278    100.1132   4.8779267750e+01   3.6619749096e+01     0.509745    0.2838104 -44.07  0.002264517    1.845    0.458
       128 -12.1028     47.9432     81.6237   7.0440333243e+01   5.5683654185e+01    0.6936031    0.3446915 -54.94  0.002902139    2.245    0.555
       129 -11.1833    212.3165     84.3323   3.1060877455e+01   2.3250658511e+01    0.1042035   0.09155289 -11.40 0.0007047076    1.687    0.407
       130 -11.9606    140.9616     81.3247   4.1450502134e+01   3.7462378309e+01    0.3823003    0.1971037 -38.92  0.001717795    2.108    0.526
       131 -12.0152    104.4495     80.3393   4.9923185981e+01   4.5416959482e+01    0.6400961    0.2866762 -42.79  0.002570388    2.419    0.587
       132 -11.0953    170.6158     82.1552   3.6304659930e+01   3.1240350391e+01    0.1791297    0.1182786 -34.60 0.0009540656    1.734    0.423
       133 -11.6789    158.3635     81.5634   3.8219444901e+01   3.3800206645e+01    0.2619862     0.160554 -41.48  0.001346614    1.666    0.400
       134 -10.6931     74.2729     78.6959   5.9071719367e+01   5.1811673138e+01     0.436868    0.1308711 -53.40  0.001212515    5.129    0.805
       135 -10.6642      6.3985    101.6119   9.3963974217e+01   5.5247023674e+01    0.2704662    0.1272392  89.19 0.0009606514    3.414    0.707
       136 -11.8406    174.7517     77.1451   3.4588328309e+01   3.1220168691e+01    0.2477217    0.1484286 -41.64  0.001330968    1.661    0.398
       137 -11.8878    189.3735     75.6065   3.2216421196e+01   2.8649580014e+01    0.2924988    0.1117158 -37.29  0.001251831    2.886    0.653
       138 -11.8181    175.8677    100.2527   3.9309935947e+01   2.7196797372e+01    0.3052347    0.1636966 -35.30  0.001426705    2.123    0.529
       139 -12.0866     25.4172     73.3534   7.8700957546e+01   6.0385049665e+01    0.6471572    0.2773603 -21.88  0.002036741    4.231    0.764
       140 -11.4665    140.6633     73.6103   3.9624486756e+01   3.8806607530e+01    0.3240847    0.1654142 -39.18  0.001479273    2.118    0.528
       141 -11.9417    128.1454     72.4466   4.1926646116e+01   4.1693853964e+01     0.518127    0.2955675 -34.63  0.002414344    2.082    0.520
       142 -11.9660    211.4356     75.2821   2.9486731304e+01   2.4737265201e+01    0.2161636    0.1006689 -39.58 0.0008973711    2.079    0.519
       143 -10.8979     10.0181     74.4751   8.6898178573e+01   6.1542173504e+01    0.1995786    0.1236567  10.55 0.0003479145    1.525    0.344
       144 -11.7349    159.7587     99.4207   4.1978893264e+01   3.0446164733e+01    0.3975634    0.1631714 -48.59  0.001620449    2.390    0.582
       145 -11.6584    206.6012     73.2200   2.9643862345e+01   2.5875838022e+01    0.1591797    0.1014078 -37.59 0.0009540794    1.672    0.402
       146 -11.1951     84.9866    226.9848   8.4954470355e+01   1.4235041602e+01    0.2380258    0.1604009  52.64  0.001141726    1.730    0.422
       147 -10.6821    115.6338     70.9727   4.4427278546e+01   4.4655504444e+01    0.3077932      0.13406 -40.93  0.001255075    2.502    0.600
       148 -11.5419     82.0000     66.9929   5.2863599993e+01   5.2465741420e+01    0.4045659    0.2564109 -20.56  0.001801555    2.304    0.566
       149 -11.1476    195.4814     71.4988   3.0622426416e+01   2.8126524819e+01    0.1192944   0.09984045 -69.65 7.430931e-05    1.015    0.014
       150 -11.1841    105.8088     69.2182   4.6443285312e+01   4.7077384623e+01    0.3952308    0.1893076 -35.33   0.00163171    2.540    0.606
       151 -11.4152     94.6957     67.9788   4.9194591934e+01   4.9662920882e+01    0.6424486    0.1783046 -42.00  0.002083359    3.992    0.749
       152 -11.0067    170.5878     70.1743   3.3704866454e+01   3.3118140918e+01    0.1711335    0.1186281 -32.49 0.0009548615    1.745    0.427
       153 -11.0602    163.1808     69.9910   3.4799359825e+01   3.4648999378e+01    0.1952877     0.155753  -3.29  0.001088582    2.053    0.513
       154 -11.4597     50.8846     66.8129   6.4711155664e+01   5.8249843559e+01    0.6351646    0.2023198 -53.43  0.002041589    4.271    0.766
       155 -10.6557    199.3212     68.3446   2.9548544598e+01   2.7881132865e+01    0.1043831    0.0944622   9.02 0.0007049891    1.730    0.422
       156 -10.4707    157.3061     68.3482   3.5373506296e+01   3.6114365200e+01    0.1213713    0.1029724  20.77 0.0004916413    1.701    0.412
       157 -11.3184    146.9990     65.7640   3.6528558375e+01   3.8684017170e+01    0.3729433    0.1874692 -26.94  0.001507562    3.311    0.698
       158 -12.1287    203.7206     65.5068   2.8505846027e+01   2.7489160863e+01    0.2288996     0.135753 -32.04  0.001284111    2.145    0.534
       159 -11.3930    138.5457     64.2355   3.7709093544e+01   4.0736492396e+01    0.3085581    0.1324533 -37.42  0.001305602    2.612    0.617
       160 -11.3395     17.6460     63.5564   8.0021466019e+01   6.3279326613e+01    0.3583229    0.1099795 -43.33  0.001317915    3.059    0.673
       161 -11.2812    110.2076     60.8748   4.2951227040e+01   4.7467021909e+01    0.4333845     0.253502 -20.37  0.001829545    2.913    0.657
       162 -11.1397    119.2093     78.7403   4.5638008315e+01   4.2556372459e+01    0.3695375    0.2112673 -39.82   0.00170121    1.916    0.478
       163 -11.1367    167.5988     76.2390   3.5490547220e+01   3.2783765105e+01    0.1732279    0.1198915 -34.36 0.0009517007    1.672    0.402
       164 -10.6364     99.8082     57.1127   4.4527092708e+01   5.0323487238e+01    0.3794874    0.1631293 -36.49  0.001558848    2.741    0.635
       165 -11.3365     73.1820     55.9818   5.2369944355e+01   5.6097979643e+01    0.6860864    0.2251685 -38.01  0.002427881    3.679    0.728
       166 -11.9834      7.1897     55.7969   8.3691620569e+01   6.5804929233e+01     0.327513    0.1708641 -69.32  0.001495482    2.641    0.621
       167 -11.3458    150.1962     78.5326   3.8990175428e+01   3.5987151708e+01    0.2585051    0.1839125 -46.07  0.001420016    1.417    0.294
       168 -11.0827    121.7317     63.4075   4.0956473466e+01   4.4539987457e+01    0.3974338    0.1910551 -32.11  0.001662926    2.731    0.634
       169 -11.9916     45.2629     49.5325   6.1400809492e+01   6.2295896014e+01    0.3755104    0.2399306 -25.74 0.0006464438    1.823    0.451
       170 -10.8236     53.5069     50.7688   5.8197187556e+01   6.0677054103e+01    0.5000196     0.136777 -46.48  0.001642793    4.503    0.778
       171 -10.4546    105.5408     50.7081   4.1156255807e+01   5.0012263568e+01    0.2385814    0.1379707 -31.39  0.001149526    2.143    0.533
       172 -11.7656     21.4925    100.2223   8.6881593920e+01   5.4475491940e+01    0.6983174    0.3622647  71.47    0.0022358    4.487    0.777
       173 -10.3563    161.8192    224.7859   6.5621703672e+01   5.0330667944e+00    0.2419698    0.1212748 -16.17 0.0009589297    2.883    0.653
       174 -10.6769     82.4423     43.3384   4.5139598870e+01   5.6085855847e+01     0.512323    0.1904677 -26.77  0.001637398    5.278    0.811
       175 -10.4156    113.0753     42.8829   3.7145728462e+01   4.9405104157e+01    0.3067579    0.1820072  -3.27  0.001152267    4.460    0.776
       176 -10.6234    122.8767     41.9835   3.4895526223e+01   4.7328771698e+01    0.2776451    0.1814614   0.79  0.001251923    3.221    0.689
       177 -12.5056      4.8585     39.3687   8.0061257063e+01   6.9215697917e+01    0.5115244    0.1712319 -61.51  0.001903627    4.331    0.769
       178 -11.0097     16.5797     42.1063   7.3776566424e+01   6.7579624484e+01    0.2983823   0.08852325 -42.90  0.001148823    3.310    0.698
       179 -10.8635    202.3340     78.3184   3.1113671679e+01   2.5878594713e+01    0.1053141    0.0948806   5.14 0.0007048615    1.696    0.410
       180 -11.1342     27.4963     29.5014   6.2576437415e+01   6.8256519841e+01    0.2216783    0.1083279 -29.09  0.001042234    2.491    0.599
       181 -10.5303     12.9794     21.2266   6.7674562210e+01   7.1446136022e+01     0.167005   0.08364831  27.03 0.0006355158    1.657    0.397
