#   1 NUMBER                 Running object number                                     
#   2 MAG_AUTO               Kron-like elliptical aperture magnitude                    [mag]
#   3 X_IMAGE                Object position along x                                    [pixel]
#   4 Y_IMAGE                Object position along y                                    [pixel]
#   5 X_WORLD                Barycenter position along world x axis                     [deg]
#   6 Y_WORLD                Barycenter position along world y axis                     [deg]
#   7 A_WORLD                Profile RMS along major axis (world units)                 [deg]
#   8 B_WORLD                Profile RMS along minor axis (world units)                 [deg]
#   9 THETA_WORLD            Position angle (CCW/world-x)                               [deg]
#  10 FWHM_WORLD             FWHM assuming a gaussian core                              [deg]
#  11 ELONGATION             A_IMAGE/B_IMAGE                                           
#  12 ELLIPTICITY            1 - B_IMAGE/A_IMAGE                                       
         1  -9.0093     11.6790      9.1679   8.4475012049e+01   7.2970648422e+01    0.2135122   0.09199281 -46.60  0.001098059    2.606    0.616
         2  -7.3383    193.7065      5.6678   3.5239110028e+01   3.6072435318e+01    0.1211469   0.09122013  43.78 0.0006877793    1.635    0.388
         3  -8.1342      3.3114      9.3295   8.9498099841e+01   7.3676444921e+01    0.1180543   0.06336714 -20.43  0.000286179    1.669    0.401
         4  -9.3549     10.8767    246.4253   1.2497933852e+02   2.1524854135e+01    0.2111099    0.1065273  23.75  0.001136472    3.170    0.685
         5 -12.5809    222.0543    245.6168   8.4691138739e+01  -7.7914400891e+00     1.944272     1.140146  -5.94   0.01090995    1.974    0.494
         6 -11.7730    236.3100    245.6581   8.2190667021e+01  -9.6910753823e+00     1.414248    0.6250561 -31.33  0.007651253    2.255    0.557
         7 -12.4599    139.8023    247.2988   1.0058875483e+02   4.1928673407e+00     2.325845      0.68817  35.80  0.008929212    3.059    0.673
         8 -10.2306    208.4396    240.9263   8.6416526297e+01  -5.2528282823e+00    0.2906772    0.2249364 -62.96  0.001731399    2.320    0.569
         9  -8.2814     16.3060    242.3130   1.2383198983e+02   2.1749938032e+01   0.09340522   0.08075762 -63.67  0.000516919    1.620    0.383
        10 -11.0302    191.7957    248.1992   9.0645424605e+01  -3.8498193025e+00    0.6083715    0.4230652  30.71  0.003845603    1.207    0.171
        11  -9.2968     28.9720    237.6450   1.2128244703e+02   2.1296078150e+01    0.1945682     0.116369  59.93  0.001244649    1.317    0.240
        12  -9.0841      8.6659    234.4881   1.2479032817e+02   2.4044450985e+01    0.1890846   0.08404903 -81.35  0.000795733    1.966    0.491
        13 -13.0158    174.5728    245.6295   9.3549314389e+01  -8.9574644242e-01      2.53518     1.287891  32.05   0.01313836    1.728    0.421
        14 -11.5409    247.6744    246.3966   8.0370611154e+01  -1.1218504554e+01      1.39048    0.5559145 -35.70  0.007372511    2.536    0.606
        15  -8.2982     20.1451    232.1859   1.2258411699e+02   2.3332688101e+01    0.1683477     0.100042  66.84 0.0007820006    1.333    0.250
        16 -10.5545    144.1249    229.3047   9.7270025451e+01   6.6114280443e+00    0.3644569    0.3350216  45.64  0.002374525    1.079    0.073
        17  -7.4516     39.6662    250.6621   1.2015220465e+02   1.7577712758e+01   0.09632676   0.08725265 -42.32 0.0007051849    1.745    0.427
        18  -7.6594     96.3687    245.1126   1.0894212502e+02   1.1126994973e+01    0.1635867    0.1380514  65.60  0.000531462    1.090    0.082
        19  -9.1768    206.9907    222.9148   8.3707740021e+01  -2.4174104539e+00    0.2673086    0.2452138  71.00  0.001370793    1.644    0.392
        20 -10.0756    226.9360    216.5486   7.8906564728e+01  -4.4679261553e+00      0.23401    0.2020441  -2.78 0.0004301268    1.112    0.101
        21  -9.9526    240.6868    218.1612   7.6765321534e+01  -6.6639009447e+00    0.2831929    0.2221851  50.43  0.001769456    1.935    0.483
        22  -8.9526    195.3775    217.4072   8.4990093904e+01   2.7154981623e-01    0.2671502    0.2058323  48.45   5.9646e-05    1.517    0.341
        23 -11.8671    235.6245    208.8960   7.5975275253e+01  -4.6206043612e+00    0.9659189    0.5706863 -19.31  0.005240121    1.697    0.411
        24  -8.0010    196.9275    207.9125   8.3006538677e+01   1.5823745142e+00    0.1925288    0.1709507   7.84 0.0003134262    1.023    0.022
        25 -10.3121      4.0863    207.3991   1.2421870830e+02   3.0041600794e+01    0.3428818    0.2368864 -54.32  0.001355555    1.867    0.464
        26 -10.0016    164.2330    202.6230   8.8763173723e+01   8.1342966538e+00    0.2458247    0.2306271 -50.22 0.0004041448    1.185    0.156
        27 -10.1010    231.5666    201.8712   7.5390718696e+01  -2.9650238596e+00    0.4537331    0.2565952 -30.28  0.002398537    1.651    0.394
        28  -8.4446    196.1952    212.6979   8.4005860647e+01   9.0793807575e-01    0.2185849    0.1729314 -22.14 0.0003215965    1.256    0.204
        29  -8.3212    116.1913    200.1512   9.9002328534e+01   1.7004245283e+01    0.1873857    0.1839923   5.70 0.0003183638    1.151    0.131
        30  -8.9886     48.7031    191.1132   1.1342368006e+02   2.8997001387e+01    0.1989057    0.1876931  68.98 0.0002113375    1.216    0.178
        31  -8.4981    186.0527    187.7983   8.1421153065e+01   7.0240284128e+00     0.212342    0.1892286 -26.07 0.0003772257    1.111    0.100
        32  -7.1640     95.2863    178.2793   1.0053697997e+02   2.5409471641e+01    0.1329562    0.1129497 -22.81 0.0003140035    1.517    0.341
        33  -7.6744    113.5774    176.9441   9.5810491858e+01   2.2630322205e+01    0.2122978    0.1407871 -56.59 0.0004047353    1.525    0.344
        34  -8.6456     49.7227    175.2227   1.1139667294e+02   3.2634090812e+01     0.288448    0.1872186  51.33 0.0007720574    1.502    0.334
        35  -7.4647    118.9896    173.0309   9.3779983599e+01   2.2570617170e+01    0.1747607     0.163757 -71.21 0.0003214133    1.067    0.063
        36  -8.9832    238.3320    165.8127   6.7091419260e+01   1.7246425738e+00    0.1782843    0.1662125 -14.99  0.001100978    1.148    0.129
        37  -7.9943    206.4405    164.9359   7.2662973509e+01   7.5229983553e+00     0.184535    0.1209414 -61.38 0.0004648504    2.253    0.556
        38  -8.8616    203.8460    160.7601   7.2268413294e+01   8.7874581297e+00    0.3534822    0.1976009  39.62  0.001579431    1.874    0.466
        39  -7.4169     44.5933    161.5556   1.1099583762e+02   3.6574064894e+01    0.1344261    0.1144449 -81.40 0.0001707745    1.034    0.033
        40  -7.9420    250.3188    158.6804   6.3661316428e+01   9.2082715759e-01    0.1244765   0.09907264 -59.24 0.0007042307    1.663    0.399
        41  -7.4631    144.8851    158.1715   8.4506148349e+01   2.1028201403e+01    0.2011222    0.1782572  -6.22  0.001025619    1.273    0.215
        42  -9.5187    191.2581    134.1738   6.8725441049e+01   1.6458876908e+01    0.2592372    0.2429692 -61.84 0.0002050636    1.129    0.114
        43  -8.5428    134.7903    133.9634   8.1507998927e+01   2.8587152339e+01    0.2444509    0.2224818  40.77 0.0003524189    1.127    0.113
        44  -8.2095    196.5178    130.9786   6.6931784243e+01   1.5973272738e+01    0.2736195    0.2077108  27.78 0.0007373016    1.527    0.345
        45  -7.6155     97.4618    126.5217   8.9881470910e+01   3.7626379983e+01    0.1524456    0.1444298 -58.08 6.263848e-05    1.011    0.011
        46  -7.0862    219.5523    120.4592   6.0289709725e+01   1.3148703941e+01    0.1445757    0.1294605 -25.09 4.083936e-05    1.097    0.088
        47  -7.3045     98.3025    117.3628   8.7427109818e+01   3.9679477371e+01    0.1596281    0.1180483 -21.21 0.0003507161    1.729    0.421
        48  -7.3421    138.9967    107.9930   7.3769431928e+01   3.3481634118e+01    0.1785683    0.1773855 -67.87  0.000939314    1.019    0.019
        49  -8.4861     81.8698    105.4054   8.9408809473e+01   4.5380317333e+01    0.2622795    0.1938348 -47.00 0.0002964485    1.261    0.207
        50 -10.2097    246.5423    103.1544   5.2273118715e+01   1.0773214243e+01    0.4863748    0.2947244  66.67  0.002428343    2.116    0.527
        51  -6.8431    115.2884     93.2964   7.5918590314e+01   4.1787954500e+01    0.1517155    0.1213257  -3.36 0.0002664349    1.552    0.356
        52  -8.7018    195.1440     87.1324   5.6232772345e+01   2.4490531828e+01     0.357482    0.2287778 -28.94  0.001609428    1.689    0.408
        53 -10.1985     98.8752     86.2085   7.8624704666e+01   4.6622800643e+01    0.2500027    0.2308968 -37.56 0.0002391637    1.045    0.043
        54  -7.0534    110.4810     85.4136   7.4920538133e+01   4.4442692917e+01    0.1487703    0.1458491 -11.21 7.367061e-05    1.016    0.016
        55  -8.0674    249.4911     82.0138   4.7224824498e+01   1.3582516523e+01    0.1743357    0.1128348 -13.29 0.0006474328    2.401    0.584
        56  -7.2742    170.3105     76.2783   5.7811579061e+01   3.2306082144e+01    0.1467507    0.1180949  22.09 0.0002040984    1.560    0.359
        57  -7.6792    146.2181     62.0203   5.8497013243e+01   4.0574975736e+01    0.2012863    0.1848416 -43.89 0.0003789561    1.103    0.094
        58  -7.4726    128.4851     40.5116   5.5361174782e+01   4.8053708302e+01    0.1403482    0.1327015  50.07 8.875158e-05    1.006    0.006
        59  -7.4681    167.3957     34.7294   4.6309097334e+01   3.9260235126e+01    0.1691488    0.1365776 -16.40 0.0003026661    1.463    0.316
        60  -8.3498    159.4357     33.1453   4.7092057522e+01   4.1427820798e+01    0.2490183     0.172445  49.73 0.0008706666    1.443    0.307
        61  -8.5773    127.0740     28.0155   5.1347558924e+01   4.9951825262e+01    0.1991953     0.181784  48.24 0.0003054515    1.022    0.022
        62  -8.2632    232.9529     19.5498   3.5095994907e+01   2.5673681964e+01    0.1920529    0.1690495 -21.34 0.0004408146    1.482    0.325
        63  -8.5777    244.9428     14.1843   3.3059954711e+01   2.3755795129e+01    0.1881668    0.1263625 -64.61 0.0004369207    1.217    0.179
        64  -7.1548    120.4570     13.5516   4.7558272208e+01   5.3031290853e+01    0.1330855    0.1151868  48.70 4.821443e-05    1.042    0.040
        65  -9.0894     33.9890    245.2190   1.2083477140e+02   1.9263206640e+01    0.3480991   0.08025935 -62.47  0.001431733    4.342    0.770
        66  -7.9064     24.3307    247.6728   1.2270398636e+02   1.9875187147e+01    0.1224562     0.058446  63.37 0.0004630887    1.710    0.415
