#   1 NUMBER                 Running object number                                     
#   2 MAG_AUTO               Kron-like elliptical aperture magnitude                    [mag]
#   3 X_IMAGE                Object position along x                                    [pixel]
#   4 Y_IMAGE                Object position along y                                    [pixel]
#   5 X_WORLD                Barycenter position along world x axis                     [deg]
#   6 Y_WORLD                Barycenter position along world y axis                     [deg]
#   7 A_WORLD                Profile RMS along major axis (world units)                 [deg]
#   8 B_WORLD                Profile RMS along minor axis (world units)                 [deg]
#   9 THETA_WORLD            Position angle (CCW/world-x)                               [deg]
#  10 FWHM_WORLD             FWHM assuming a gaussian core                              [deg]
#  11 ELONGATION             A_IMAGE/B_IMAGE                                           
#  12 ELLIPTICITY            1 - B_IMAGE/A_IMAGE                                       
         1 -13.6111    226.2672      7.6579   3.3579259104e+01   2.8169750233e+01     2.112338      1.17864  48.92   0.01104155    2.397    0.583
         2 -13.1809    195.1252     42.0468   4.5031147821e+01   3.1273697896e+01     1.086157    0.9249873 -71.40  0.003259981    1.097    0.088
         3 -13.2840    203.0076     33.8650   4.1946802569e+01   3.0454938618e+01    0.8783079    0.8166499  31.11  0.001413953    1.354    0.262
         4 -10.4616     40.9960     19.5002   7.7413633493e+01   6.7850095259e+01    0.2383762    0.1030405  46.66  0.001000954    3.578    0.721
         5  -9.2851    189.7858     14.8973   3.8706182655e+01   3.5857613884e+01    0.1943583     0.169967  60.11 0.0008188617    1.230    0.187
         6 -18.6999     16.9334    194.1346   1.2169915535e+02   3.1491635283e+01     15.82724     4.774465 -79.95   0.06480474    3.126    0.680
         7  -9.6529     91.8526    183.4094   1.0296074503e+02   2.4579588428e+01     0.334544    0.2797047  -3.13  0.001099184    1.606    0.377
         8  -9.4449     82.1100    195.1548   1.0694891908e+02   2.3371635878e+01    0.2889046    0.2423627  -8.08  0.001619012    1.675    0.403
         9 -10.8178     99.2892    180.8076   1.0071365479e+02   2.3988742699e+01    0.2958594    0.2645974  41.43 0.0006328553    1.122    0.109
        10 -11.3065     51.8706    164.3619   1.1049379320e+02   3.4751136120e+01    0.4490118    0.2431378 -49.69  0.001711039    1.999    0.500
        11 -11.8573     46.9474    171.8648   1.1267034208e+02   3.3516856957e+01     0.556179     0.512733 -43.31  0.002511686    1.320    0.242
        12  -8.8726    148.5195    175.5129   8.7706176303e+01   1.6328752236e+01    0.2549314    0.2017957  86.26 0.0006705744    1.692    0.409
        13  -9.7309    146.4962    171.9853   8.7498004655e+01   1.7477372696e+01    0.2907159    0.2522572 -88.73 0.0008699802    1.369    0.269
        14  -9.8119     84.2482    173.6915   1.0341565876e+02   2.8050719473e+01    0.2691765     0.213533 -39.40 0.0009475392    1.497    0.332
        15  -8.5964    193.5804    170.7770   7.6690821193e+01   8.6122340408e+00    0.1902534    0.1364316 -49.30  0.000667477    1.537    0.349
        16  -9.3636    185.2628    169.1091   7.8098214346e+01   1.0524691284e+01    0.2594559    0.2038137 -59.32 0.0009944611    1.550    0.355
        17 -10.2554    240.7711    169.1814   6.7405070778e+01   5.0675494582e-01    0.1871151    0.1417093  -3.21  0.001041562    1.327    0.247
        18  -9.4152    137.1283    167.4109   8.8869885872e+01   2.0288530143e+01    0.4262059    0.2230082  54.19  0.001616343    2.307    0.567
        19  -9.4855    230.4869    166.9749   6.8759080649e+01   2.5966418901e+00    0.1882023    0.1121103 -56.26 0.0008103415    2.571    0.611
        20 -15.2029     72.3091    148.4143   1.0255196479e+02   3.6005726565e+01     8.546898     4.053296  71.43   0.01016456    6.792    0.853
        21 -10.1160    187.4921    176.0302   7.9047287673e+01   8.7634593201e+00    0.3489794    0.3329313 -50.16  0.001226189    1.201    0.167
        22 -11.5895     92.3617    151.5089   9.7505042037e+01   3.2149806350e+01    0.7075772    0.5296476 -20.88   0.00332849    1.825    0.452
        23 -10.8947    133.8809    145.5837   8.5115309970e+01   2.5896283886e+01     1.219455    0.3348886 -55.01  0.002944359    5.318    0.812
        24  -8.9265    112.7556    150.7557   9.1794973878e+01   2.8765709530e+01    0.2118207    0.1758817  74.87   0.00053103    1.344    0.256
        25  -9.5333    174.8423    148.9416   7.6003636041e+01   1.6678034659e+01    0.2864553    0.2170607 -63.15 0.0006979815    1.609    0.379
        26 -10.2566    104.6628    138.0630   9.1359377075e+01   3.3305183282e+01     0.532144    0.3512982 -23.88  0.002168109    2.221    0.550
        27 -12.1840    111.8993    204.8845   1.0131074430e+02   1.6561840154e+01    0.5176826    0.4127306 -57.86 0.0003821175    1.367    0.268
        28 -11.7147     92.5803    137.5067   9.4689494679e+01   3.5555183363e+01    0.2854215    0.2685044 -30.18 0.0002572351    1.139    0.122
        29 -11.9494    107.7736    203.7733   1.0210414549e+02   1.7472890477e+01    0.5356261    0.3025253  54.53  0.001757032    1.831    0.454
        30  -9.9039     89.8191    212.3173   1.0731193596e+02   1.8461038907e+01    0.2522877    0.2004648  75.65 0.0005323355    1.233    0.189
        31 -10.3818    105.8803    130.7341   8.9389065890e+01   3.4852551135e+01     0.393264    0.3335619 -66.20  0.001098578    1.212    0.175
        32  -9.8642    135.6248    129.2500   8.0868888912e+01   2.9280752558e+01    0.3164961    0.1504477 -50.89  0.001141998    2.184    0.542
        33 -10.3124    113.3562    128.8427   8.6827692004e+01   3.3889481767e+01    0.3938521    0.3185782  -6.89  0.000988708    1.560    0.359
        34  -9.0535    160.7936    127.9535   7.4288937494e+01   2.4117965165e+01    0.2672307    0.1883252 -72.15  0.001100912    2.004    0.501
        35 -10.3229    100.4014    124.9140   8.9640001993e+01   3.7257340329e+01    0.2893431    0.2428786 -15.61 0.0005604172    1.401    0.286
        36 -10.8286    119.1930    123.1704   8.3826077986e+01   3.4071899063e+01    0.4055631    0.3185711  21.42  0.001898281    1.465    0.317
        37 -10.3439    135.0997    119.6970   7.8632844765e+01   3.1549655666e+01    0.6525433    0.1793789 -44.96  0.001821104    3.638    0.725
        38  -9.1898    108.9626    118.1146   8.5494016040e+01   3.7273050246e+01     0.223863     0.219603 -75.05 0.0003378983    1.032    0.031
        39  -9.8764    231.3038    113.7872   5.7071632557e+01   1.1660463807e+01    0.2585515    0.2433745  41.92 0.0007181469    1.182    0.154
        40  -8.8475    167.8536    112.7210   6.8826849069e+01   2.5713804058e+01    0.3148418    0.2041748 -67.05  0.001232384    2.212    0.548
        41 -11.8352    117.5789    109.0011   8.0658536319e+01   3.7653626758e+01     0.792074    0.6832253 -67.80  0.003955192    1.270    0.213
        42  -9.4153    205.4783    110.1907   6.0590691701e+01   1.7713192514e+01    0.3098411    0.2122391  42.32  0.001063358    1.592    0.372
        43  -7.9358    142.5193    109.4904   7.4045133835e+01   3.2158520903e+01    0.1561645    0.1548223 -82.76 0.0001654003    1.022    0.022
        44  -9.8386    134.8132    104.9795   7.4829083675e+01   3.4847090267e+01    0.6361913    0.1987497 -41.14  0.001866579    3.345    0.701
        45 -10.2413    163.8448    211.8260   9.0774202583e+01   6.3130183170e+00    0.2310705    0.1883925 -65.33   0.00129579    1.583    0.368
        46 -10.2924    142.7844    208.8842   9.4908739531e+01   1.0510217822e+01    0.2476495    0.2002827 -87.85 0.0008896103    1.602    0.376
        47  -9.1830    130.9743     98.3111   7.4005387291e+01   3.7120238245e+01     0.316844    0.1982755 -69.79 0.0008371738    2.635    0.620
        48 -11.2068    193.1994    195.5460   8.1670716684e+01   4.1344158671e+00     1.195543    0.7754004 -73.88  0.004432758    4.150    0.759
        49 -10.3674    148.9773    188.2583   8.9991744507e+01   1.3558664796e+01    0.5026873    0.3403471 -83.51  0.002118049    2.548    0.608
        50 -11.1372    103.4897    213.5079   1.0439905283e+02   1.6108106970e+01    0.3625255    0.2267359 -55.57  0.001879252    1.764    0.433
        51 -12.3175    110.3982    197.7777   1.0062138258e+02   1.8334472858e+01    0.8285614    0.5246943   4.61  0.003249842    3.198    0.687
        52  -8.6869    157.4315     82.5037   6.2964700422e+01   3.4083171806e+01    0.1505645    0.1497698  56.53 0.0001124254    1.025    0.025
        53 -10.4253    120.0830    186.1790   9.6473927326e+01   1.9230053877e+01    0.2104459     0.194675  12.84 0.0002817109    1.194    0.163
        54  -9.2609     62.1883     69.1202   8.7360246805e+01   5.6210052694e+01    0.2133446    0.1718922 -17.56 0.0004882334    1.213    0.175
        55  -9.1484     96.3669    201.8318   1.0448161394e+02   1.9714128147e+01    0.2507693    0.1670111 -58.36  0.001115387    1.596    0.373
        56 -12.9802    182.9122     51.8465   4.9443424294e+01   3.2882333792e+01    0.9392959    0.8223848  38.15  0.000909768    1.302    0.232
        57  -9.5976    168.0688    232.8911   9.3231285152e+01   1.9595278814e+00    0.2530961    0.1768745  39.30 0.0007950479    1.264    0.209
        58 -11.2149    157.6523    221.1970   9.3610580534e+01   5.6733820158e+00    0.5354575    0.2209256 -55.63  0.002097626    3.386    0.705
        59 -11.5635    121.1229    196.4565   9.7895869795e+01   1.6806948143e+01    0.5194868    0.2850277 -72.52  0.001396386    2.712    0.631
        60  -9.0179     72.0033     37.9841   7.2430824121e+01   6.0285896277e+01     0.165113    0.1427911  -4.68 0.0006011159    1.057    0.054
        61  -8.8022     93.7522    205.4092   1.0555773184e+02   1.9342158050e+01     0.250153    0.1697562  26.49  0.001280137    1.677    0.404
        62 -10.7940    184.3178    212.3514   8.6543525110e+01   2.7309849127e+00    0.2680082    0.2112766 -12.96  0.001539655    1.328    0.247
