#   1 NUMBER                 Running object number                                     
#   2 MAG_AUTO               Kron-like elliptical aperture magnitude                    [mag]
#   3 X_IMAGE                Object position along x                                    [pixel]
#   4 Y_IMAGE                Object position along y                                    [pixel]
#   5 X_WORLD                Barycenter position along world x axis                     [deg]
#   6 Y_WORLD                Barycenter position along world y axis                     [deg]
#   7 A_WORLD                Profile RMS along major axis (world units)                 [deg]
#   8 B_WORLD                Profile RMS along minor axis (world units)                 [deg]
#   9 THETA_WORLD            Position angle (CCW/world-x)                               [deg]
#  10 FWHM_WORLD             FWHM assuming a gaussian core                              [deg]
#  11 ELONGATION             A_IMAGE/B_IMAGE                                           
#  12 ELLIPTICITY            1 - B_IMAGE/A_IMAGE                                       
         1 -18.9116    121.9147    177.5958   1.0386194415e+02   2.1806661068e+01     5.229927      4.85536  65.29   0.02065709    1.048    0.045
         2 -12.1924    140.2533     36.7794   6.2083734358e+01   4.6039604968e+01    0.7973652    0.5685949 -10.02  0.002720171    1.579    0.367
         3 -11.3907    119.4679      9.7895   5.5649253113e+01   5.4579086761e+01    0.6447453    0.4408903  34.42  0.003029769    1.458    0.314
         4  -9.8968      2.4660      6.4534   1.0225164172e+02   7.4893301204e+01     0.353643     0.232669 -73.73   0.00209556    2.321    0.569
         5 -10.7699    137.2527      7.1224   5.1170895451e+01   5.0310097062e+01    0.3826517    0.2545387 -25.48 0.0004385696    1.540    0.351
         6  -8.0779    170.0332      8.0432   4.6702109098e+01   4.1558198759e+01    0.1640895    0.1554441 -31.68 0.0004001961    1.097    0.088
         7 -10.0482    234.1248    195.5796   8.5245926925e+01  -6.1140426953e-01    0.2912884    0.2481114 -71.55  0.001658189    2.272    0.560
         8  -8.6808    250.5272    250.5297   9.1484498562e+01  -8.6579354312e+00    0.1050154    0.0739179  18.39 -7.006352e-05    1.040    0.038
         9  -9.8230    195.9011    248.7599   9.9955394713e+01  -1.0053251730e+00    0.2088371     0.183181  16.24 0.0009015081    1.229    0.186
        10 -11.0090    201.9704    246.0578   9.8592921685e+01  -1.5862342594e+00    0.6354637     0.248414  30.78   0.00318567    2.398    0.583
        11 -10.8669    190.9789    245.0484   1.0029350433e+02   1.2800888528e-01    0.3726476    0.2547662  39.50   0.00260847    1.202    0.168
        12  -8.8801    159.4760    250.0038   1.0623688076e+02   4.1735286524e+00    0.2110794    0.1135478  25.05  0.001169763    2.227    0.551
        13  -9.7482    163.4333    246.8209   1.0519278915e+02   3.9894653058e+00    0.1791354    0.1296458  22.22 0.0006547819    1.417    0.294
        14 -10.0140    140.3106    249.2719   1.0943076082e+02   7.0726795448e+00    0.5032593    0.1803908  39.67  0.002553992    2.159    0.537
        15  -8.9353      9.3191    250.3069   1.3102844975e+02   2.3212506310e+01   0.07625837   0.06870636  86.83 0.0003245196    1.635    0.388
        16  -9.4816     90.9213    246.8818   1.1767448243e+02   1.4350957962e+01    0.2881684    0.1313954  57.79  0.001276673    1.980    0.495
        17 -16.0561    128.1817    200.6939   1.0589246013e+02   1.6454685759e+01    0.9021419    0.6644307 -54.02  0.005512075    1.566    0.361
        18 -10.5704     35.0849    192.8337   1.2383888466e+02   3.0845271345e+01     0.359782    0.1909488  49.05  0.001950045    1.583    0.368
        19 -11.0403      4.2931    230.8044   1.3117342883e+02   2.6887377472e+01    0.5576576    0.1468761  68.10  0.002703509    3.405    0.706
        20 -10.1513    211.3204    188.1460   8.7846361345e+01   4.1252143572e+00      0.31695     0.208119  -4.81  0.001706426    1.780    0.438
        21 -10.5435    222.9815    185.7195   8.5338564251e+01   2.4720862745e+00    0.3804732    0.2830246 -61.92  0.001121147    2.505    0.601
        22 -10.3473    175.0954    231.8556   1.0128268850e+02   4.1393800638e+00    0.2121508    0.1795358  31.89 0.0002902828    1.083    0.076
        23  -8.6492    242.1064    185.2064   8.2008382803e+01  -6.0497025139e-01    0.1877776    0.1368562  11.06 0.0004485216    1.193    0.162
        24  -8.8989     23.4799    182.8682   1.2548084483e+02   3.4057819280e+01    0.2231395    0.1251744  64.52 0.0006536008    1.461    0.316
        25  -9.8351    178.3834    226.5838   9.9980074850e+01   4.3189837868e+00    0.2897043    0.1946647 -12.82  0.001713646    2.055    0.513
        26 -10.3273    230.8729    174.8834   8.1901426302e+01   2.5883470072e+00    0.4062709    0.2677387 -50.19  0.002078171    2.285    0.562
        27  -9.2788     33.1953    172.8166   1.2274318824e+02   3.5180943802e+01    0.2325484     0.152294  76.48 0.0009314491    1.264    0.209
        28 -10.1443    203.4014    171.1600   8.6068622473e+01   8.0187461392e+00    0.3551509    0.2397465  -1.73  0.001797927    1.810    0.447
        29  -9.8865     20.6014    173.3822   1.2544782967e+02   3.6308796837e+01    0.2848591    0.1567752  85.65  0.001405891    1.511    0.338
        30 -10.3956     17.7074    163.8040   1.2540912526e+02   3.8621016337e+01    0.5193301    0.1888729 -74.50  0.002589953    2.252    0.556
        31 -15.7823    117.3752    199.0704   1.0785069928e+02   1.8488860211e+01    0.8757524    0.5759243  74.52  0.004722472    1.855    0.461
        32  -8.7786     87.8807    240.2300   1.1766561376e+02   1.5788232212e+01    0.1781268    0.1250185  36.48 0.0003013906    1.477    0.323
        33 -10.9916     24.8592    156.7227   1.2328031337e+02   3.9513229456e+01     0.581176    0.3610355 -88.32  0.003585262    1.317    0.240
        34  -9.7908    216.8117    237.8814   9.5001249246e+01  -2.8481334131e+00    0.2632347    0.1250815  31.70 0.0006720279    1.705    0.413
        35 -11.0520    240.7247    151.1636   7.5373173701e+01   4.1280585882e+00    0.6952146    0.3045874  41.11    0.0031105    2.290    0.563
        36  -8.6361      1.9165    152.3100   1.2813031690e+02   4.2414714962e+01    0.2040317    0.1163744  85.23 0.0007438663    1.355    0.262
        37  -9.3577     46.7043    226.2951   1.2386218549e+02   2.3272798479e+01    0.2129099    0.1391704  63.97 0.0006233495    1.139    0.122
        38 -10.3981    249.9131    145.9523   7.2782672677e+01   3.2147141127e+00     0.857425    0.1611101 -36.86  0.002574809    4.837    0.793
        39 -10.5208    238.0946    111.3755   6.6692940651e+01   1.0446750989e+01    0.8378035    0.2478844 -45.28   0.00235205    4.942    0.798
        40 -10.6707    246.0657    131.3561   7.0146739526e+01   5.9549995724e+00    0.7391981    0.2045156 -41.96  0.002297393    4.374    0.771
        41 -10.7418     10.2217    225.5150   1.3002458396e+02   2.7244070380e+01    0.3051115    0.1388307  70.65  0.002010634    1.685    0.407
        42  -8.1584    220.2292    145.4252   7.7600894579e+01   8.8005542372e+00    0.1704277    0.1334696  53.13 0.0004225233    1.493    0.330
        43  -9.0024    192.1934    144.1280   8.2540210224e+01   1.4625945808e+01    0.2327461    0.2090849  58.68 0.0003596352    1.267    0.211
        44 -10.4943      7.5359    219.7966   1.3025289992e+02   2.8503914579e+01    0.3138144    0.1404769  68.18  0.001563947    1.683    0.406
        45  -9.0498     12.0398    219.4797   1.2948295095e+02   2.8136564550e+01    0.2000804    0.1458568  64.20 0.0009150141    1.122    0.109
        46  -9.5878    200.1767    147.1541   8.1666206902e+01   1.2490608967e+01    0.2952304    0.2216628 -46.18  0.001034757    1.488    0.328
        47 -10.0907    185.8293    130.6064   8.0688214285e+01   1.8363192057e+01    0.3505644    0.3011357 -36.23  0.001267323    1.164    0.141
        48  -9.9785    186.7763    125.2468   7.9203880967e+01   1.9130269850e+01    0.3317921    0.2812173   0.89  0.001721305    1.260    0.206
        49 -10.3993    181.4606    122.4418   7.9593922622e+01   2.0814866849e+01    0.5982475    0.5182629  59.83   0.00222329    1.264    0.209
        50 -10.3890      9.5268    215.9606   1.2976658100e+02   2.9006474695e+01    0.2477398    0.1264935 -77.63  0.001683703    1.815    0.449
        51  -9.3006    195.5915    234.2923   9.8054569905e+01   6.9554451324e-01    0.1796054    0.1547139  13.80 0.0005733923    1.166    0.142
        52 -11.2394    168.4595    114.0640   8.0219205560e+01   2.5319134987e+01    0.6235695    0.4238389  50.16  0.001462288    1.504    0.335
        53  -9.5071     44.8057    219.9252   1.2380218597e+02   2.4620001994e+01    0.3239335    0.1219499  41.60  0.001668789    2.143    0.533
        54  -9.7505      1.6372    218.7705   1.3119840599e+02   2.9224154334e+01     0.236961   0.08950635  85.62  0.001248815    2.234    0.552
        55  -9.8797    209.8800    108.4565   7.0613963066e+01   1.6939571843e+01    0.5554043    0.3464103   5.13  0.001955395    2.533    0.605
        56 -11.1728     65.6116    109.2065   1.0611572164e+02   4.6107753503e+01    0.5598719     0.359199 -59.66  0.002855006    1.376    0.273
        57  -9.1328     76.6973    243.2311   1.1981965163e+02   1.6778648759e+01    0.2895535   0.08283474  49.84  0.001398212    2.613    0.617
        58  -9.4199    189.9682    215.7092   9.6320414535e+01   3.9193644994e+00    0.2105339    0.1514942   4.82 0.0007499726    1.578    0.366
        59 -10.6695     73.4779    107.1736   1.0334621253e+02   4.5489516650e+01    0.4168732    0.3680684 -34.98  0.001498331    1.282    0.220
        60  -8.6389    236.1624    213.8647   8.8075574405e+01  -3.0609991514e+00    0.1603739    0.1347035  19.51 0.0003437877    1.212    0.175
        61  -9.1915     35.3421    213.8676   1.2513185843e+02   2.6779561515e+01    0.1864948    0.1090973  53.53 0.0005765269    1.330    0.248
        62 -10.0125      2.3830    212.6896   1.3085751174e+02   3.0251806184e+01    0.2276918    0.1516743  86.78 0.0005252674    1.239    0.193
        63 -11.4317     10.4002    207.3843   1.2925535013e+02   3.0500848429e+01     0.597219    0.3270915  28.98  0.003866088    2.334    0.572
        64 -10.6461      3.1154     95.8301   1.2319353441e+02   5.5243696482e+01    0.4084321    0.1813451 -62.20  0.002179387    1.745    0.427
        65 -10.0848    152.7679    102.2015   8.0582549617e+01   3.1253958173e+01    0.2805275    0.2669424 -70.28 0.0002599192    1.097    0.088
        66  -8.9588     72.6617    239.8839   1.2026832842e+02   1.7828794433e+01    0.2724473    0.1300693  39.77  0.001640654    1.797    0.444
        67 -10.4869      8.9554     89.1665   1.2052261585e+02   5.6473293280e+01    0.3397729    0.1637211 -47.07  0.001459779    2.070    0.517
        68 -10.7204    204.7350    200.2738   9.1171274229e+01   3.5737154006e+00    0.4996772     0.321605  -5.67  0.001612005    1.926    0.481
        69  -9.8036     17.0831     80.3377   1.1642450631e+02   5.8036815115e+01    0.4675437    0.1423274 -40.49  0.001589369    4.799    0.792
        70  -8.5766     10.3242     82.2931   1.1908564785e+02   5.8013295759e+01    0.1245764   0.07333701 -48.03 0.0005480156    1.617    0.382
        71 -10.3326     25.9847    200.1778   1.2605196604e+02   3.0354194739e+01    0.4458346     0.153943  87.82  0.002032124    3.209    0.688
        72  -8.8527     26.6280    195.1967   1.2563409016e+02   3.1261837068e+01    0.1797431    0.1145964 -77.92 0.0003417276    1.453    0.312
        73 -10.5278    116.0308     67.7566   7.9444423017e+01   4.6553703894e+01    0.2820135    0.2605609 -26.78 0.0003312455    1.047    0.045
        74  -9.1498    215.3064     67.7020   5.8779200447e+01   2.2199204449e+01    0.2356067    0.2281914 -49.74 0.0005790381    1.056    0.053
        75  -9.7280    212.3577     65.7021   5.8654823844e+01   2.3213108278e+01    0.2535716    0.2151856  76.00 0.0004861108    1.296    0.228
        76 -10.9891    143.9596     59.5366   6.9440874593e+01   4.1505204349e+01    0.4489776    0.3301975 -75.83  0.001739021    1.846    0.458
        77  -9.9563    144.5262     53.4848   6.7209818793e+01   4.2385815860e+01     0.266322    0.2284188  65.76 0.0005658857    1.234    0.190
        78  -9.9280    141.4998     53.4392   6.7883025237e+01   4.3152379669e+01    0.2768879    0.1906967 -31.49 0.0005063226    1.428    0.300
        79  -8.8334    212.1779     58.6131   5.6677422088e+01   2.4303903351e+01    0.2940825    0.2030597 -22.03  0.001029473    1.470    0.320
        80  -9.4073     82.3812    247.0337   1.1913422851e+02   1.5451347142e+01    0.2585475    0.1681403  58.98   0.00187109    1.185    0.156
        81  -9.4985    221.6366     40.1458   5.0263518867e+01   2.4515137359e+01    0.3279571    0.2038014 -70.03  0.001396638    1.925    0.481
        82 -11.3529    226.4134     32.0405   4.7511096085e+01   2.4371632130e+01     1.419067    0.3337018  57.65  0.004598919    3.907    0.744
        83  -8.8183    223.8481     28.1456   4.6712946030e+01   2.5464979352e+01     0.247927    0.2086514 -11.94 0.0008592451    1.311    0.237
        84  -9.4850     40.2612    210.3657   1.2401986809e+02   2.6886913365e+01    0.2174333    0.1400145  65.16 0.0008285214    1.190    0.160
        85 -10.0422    139.8762     18.7877   5.5279195132e+01   4.8429235141e+01    0.2705427    0.2045804 -84.47  0.000914676    1.576    0.365
        86  -9.6685    143.8043     16.7725   5.3786617450e+01   4.7627546577e+01    0.2023862    0.1677776 -60.06 0.0005069631    1.326    0.246
        87  -9.3470    181.0622    243.5135   1.0177351504e+02   1.7747724716e+00    0.3521401      0.14319  39.68  0.001166843    1.888    0.470
        88 -14.6084     66.3376    142.8790   1.1167116482e+02   3.7987212179e+01     2.190724     1.569105  89.37   0.01226868    1.344    0.256
        89 -14.6704    150.3826    173.0727   9.7008839343e+01   1.7604675864e+01     0.637189    0.6220769 -83.42  0.001439182    1.109    0.098
        90 -15.1904    137.9347    157.7682   9.6921666793e+01   2.2890920144e+01     2.180436    0.6082877  51.21  0.005802738    5.119    0.805
