#   1 NUMBER                 Running object number                                     
#   2 MAG_AUTO               Kron-like elliptical aperture magnitude                    [mag]
#   3 X_IMAGE                Object position along x                                    [pixel]
#   4 Y_IMAGE                Object position along y                                    [pixel]
#   5 X_WORLD                Barycenter position along world x axis                     [deg]
#   6 Y_WORLD                Barycenter position along world y axis                     [deg]
#   7 A_WORLD                Profile RMS along major axis (world units)                 [deg]
#   8 B_WORLD                Profile RMS along minor axis (world units)                 [deg]
#   9 THETA_WORLD            Position angle (CCW/world-x)                               [deg]
#  10 FWHM_WORLD             FWHM assuming a gaussian core                              [deg]
#  11 ELONGATION             A_IMAGE/B_IMAGE                                           
#  12 ELLIPTICITY            1 - B_IMAGE/A_IMAGE                                       
         1 -15.1827    186.1890     87.1947   5.5332452507e+01   2.6457215724e+01     4.488363    0.9228071 -44.23  0.009665423    4.530    0.779
         2 -15.8901    247.9776    111.3696   5.1317899184e+01   9.4905036499e+00     5.364056     1.326471 -32.97   0.01083851   10.609    0.906
         3 -18.5008    237.3848     50.2762   3.9765913102e+01   2.1135076848e+01     8.333917     4.730347 -31.76   0.04332484    1.963    0.491
         4 -13.1268    157.7497     30.0725   4.4838777707e+01   4.1996442540e+01    0.8180133    0.5899876  63.99  0.002402657    1.257    0.205
         5 -15.7249    146.4934     43.3735   5.0674237595e+01   4.2982436945e+01     3.693069       2.2103  77.44    0.0167453    1.940    0.484
         6 -15.8345    131.1143     18.1047   4.5731755236e+01   4.9730939102e+01     2.105273     1.790344 -56.13   0.01304599    1.288    0.223
         7 -14.5459    144.3440     26.5766   4.6023509784e+01   4.5641936883e+01     1.142149    0.7248576 -24.93   0.00589253    1.852    0.460
         8 -13.2820    156.0286     11.5240   3.9837815291e+01   4.4458285266e+01    0.5909634    0.4001415   3.95  0.001897672    2.259    0.557
         9 -12.7751    223.6513     11.8771   3.2937452587e+01   2.8917432362e+01    0.3295879    0.2767357  29.36  0.002136038    1.895    0.472
        10 -12.9606    105.9919      2.4611   4.5226543456e+01   5.6975804724e+01    0.3298419    0.2991379  19.10  0.002260236    1.198    0.165
        11 -11.7682    224.2067    204.8027   7.3700970850e+01  -2.4935206491e+00    0.2758569    0.1618088  -3.32 0.0009761486    2.420    0.587
        12 -14.7051     62.0081    146.4862   1.0120810885e+02   3.7874180647e+01     1.307649    0.9562532 -64.80  0.003815223    1.261    0.207
        13 -10.6145    209.8926    170.1304   6.9729347775e+01   5.8150575460e+00    0.1939248    0.1823713 -52.74 0.0002838422    1.204    0.169
        14 -13.1653    192.0000    152.9635   6.9630644474e+01   1.2416072715e+01    0.5552176    0.2128287 -42.10  0.002019758    2.490    0.598
        15 -12.7667    189.9823    149.2162   6.9225458549e+01   1.3560437628e+01    0.4243003    0.2692568 -73.62  0.001621125    2.912    0.657
        16 -13.3511      2.7364    163.3622   1.1940093121e+02   3.9777177783e+01     1.084273    0.3324358 -76.76  0.004451603    2.684    0.627
        17 -10.4893    152.1534    151.2081   7.7942721507e+01   2.0747058795e+01    0.2123622    0.1829351  90.00 0.0004573718    1.345    0.256
        18 -12.1402    172.6593    149.7923   7.2979921708e+01   1.6901862313e+01    0.2575327    0.2283415  48.10 0.0007979008    1.168    0.144
        19 -11.7621    133.3510    143.8679   8.0931018717e+01   2.6219611858e+01     1.199476    0.2805417 -55.42  0.002343568    7.990    0.875
        20 -11.0809    143.4993    146.0029   7.8876274159e+01   2.3675842744e+01    0.2262851    0.1368971 -72.13 0.0008106779    2.634    0.620
        21 -14.6645    216.2234     69.4072   4.6425344899e+01   2.2736496483e+01    0.7115378    0.5937496 -46.67  0.003013445    1.156    0.135
        22 -11.5628    136.0000    130.4201   7.7163874992e+01   2.8784694969e+01    0.7778694   0.08797882 -47.75  0.001407659    8.715    0.885
        23 -11.6224    135.1590    121.7579   7.5276613368e+01   3.0928719347e+01    0.7451115    0.2056422 -49.42  0.001773313    3.758    0.734
        24 -12.6000    160.7524    128.5812   7.0771137991e+01   2.3926403735e+01    0.4495402    0.3470716 -59.23  0.001638046    1.357    0.263
        25 -12.1839    192.4163    125.8688   6.3503805935e+01   1.7730892745e+01    0.2500321    0.2063234  66.92 0.0007941144    1.357    0.263
        26 -14.8601     19.8575    167.3268   1.1546017921e+02   3.7385823821e+01    0.9041421     0.746527 -88.22  0.003728437    1.015    0.015
        27 -12.9827    162.3546    120.2411   6.8394204199e+01   2.5356698289e+01    0.5238205    0.3498214 -66.86  0.002209985    1.911    0.477
        28 -12.6226    167.6544    114.2535   6.5757791435e+01   2.5433435623e+01    0.5225059     0.430839  -7.62  0.001362263    1.543    0.352
        29 -12.5413    134.6934    107.3523   7.1716971777e+01   3.4212433502e+01     1.260048    0.2342939 -45.93  0.002953559    5.359    0.813
        30 -11.5139    133.1115     99.2672   6.9955970871e+01   3.6282551210e+01    0.3029914     0.241966 -71.08 0.0004951727    1.436    0.304
        31 -12.9996    127.4442    105.6798   7.3155647025e+01   3.6148660295e+01    0.6066532    0.3436278 -54.80  0.002428394    1.920    0.479
        32 -14.4138      3.9603    178.4449   1.2024558137e+02   3.6093985392e+01     1.148606    0.6071906 -80.62  0.006293588    1.560    0.359
        33 -10.2885    140.8161    106.2244   6.9885879214e+01   3.3104444709e+01       0.2092    0.1833616  -8.69 0.0004768092    1.350    0.259
        34 -12.0561    111.8830    104.1624   7.7026746803e+01   3.9744951266e+01    0.2968056    0.2617306  73.17  0.001191349    1.246    0.197
        35 -11.1753    146.1136    103.7243   6.7942825224e+01   3.2446188664e+01    0.2959774    0.2619078  29.51 0.0007079103    1.247    0.198
        36 -11.7967    139.1848     94.0279   6.7003115362e+01   3.6002204059e+01    0.3254966    0.2807493  75.70 0.0009860606    1.244    0.196
        37 -11.4499    113.3425     94.9839   7.4092805906e+01   4.1447495751e+01    0.2171629    0.1920124 -45.58 0.0004307311    1.123    0.109
        38 -12.5683    152.6963     90.3524   6.2838733474e+01   3.3630532367e+01    0.3573909    0.2697187 -44.04 0.0005982451    1.315    0.240
        39 -10.8209    162.4763    157.5068   7.6913565958e+01   1.7292615484e+01    0.1494143    0.1454727 -17.08 0.0002518588    1.026    0.025
        40 -12.3403    176.3698     88.4154   5.7444842163e+01   2.8494937016e+01     0.281645    0.2612874 -28.34 0.0003157255    1.189    0.159
        41 -13.4876     47.6372    154.0327   1.0646860628e+02   3.7784424749e+01    0.4889559    0.4486338 -21.69    0.0010062    1.329    0.248
        42 -12.3938    135.6761     69.0735   6.0685462862e+01   4.1528222459e+01    0.3498082    0.2683448 -49.10  0.000968639    1.346    0.257
        43 -13.0518    130.5990     66.1638   6.1018709032e+01   4.3210706749e+01    0.3732756    0.3149167 -46.10  0.001134894    1.220    0.180
        44 -13.4866    192.5294    194.4930   7.7863457180e+01   4.2984213177e+00     1.087316    0.5511068 -64.36  0.002964189    6.982    0.857
        45 -12.5381    202.9329    191.4720   7.5234567887e+01   3.1060351914e+00    0.4020436    0.1628462  34.87  0.001610816    2.619    0.618
        46 -12.5371    191.5894     45.3659   4.3977611008e+01   3.1909873205e+01    0.3802576    0.2124896 -45.82 0.0009839548    1.695    0.410
        47 -10.7885    202.0014    248.0164   8.5054762530e+01  -5.9367048272e+00    0.1804975    0.1473889  11.15 0.0003280926    1.011    0.010
        48 -14.9723     55.5408    149.7647   1.0359912398e+02   3.7892009834e+01     2.545356     1.470065   3.77  0.009942343    3.237    0.691
        49 -10.9468    176.4832     40.3744   4.4817809038e+01   3.6167786191e+01    0.2737743    0.2180918 -87.44  0.001374514    1.185    0.156
        50 -14.0890    166.8068     79.7457   5.7017498664e+01   3.2301151481e+01    0.8836666    0.5268002 -24.80  0.002931778    2.262    0.558
        51 -11.2779    189.9985     35.6288   4.1763988668e+01   3.3598098564e+01    0.2067426    0.1683605 -54.93 0.0006128188    1.178    0.151
        52 -10.7573    166.0373     33.9366   4.4638647784e+01   3.9517678944e+01    0.2041279    0.1814331 -89.95   0.00042772    1.015    0.015
        53 -12.0973    202.0623     30.8480   3.9178702672e+01   3.1424071761e+01    0.4597172    0.2544533  46.27  0.001661869    2.420    0.587
        54 -10.9204    205.3874     25.3101   3.7534504651e+01   3.1356762066e+01    0.1832619    0.1619407 -46.46 0.0002620196    1.268    0.211
        55 -12.4724    212.3059     29.3418   3.7747306748e+01   2.9309189547e+01    0.3251769    0.2418705 -41.57  0.001589946    1.370    0.270
        56 -12.6241    217.4863     25.8051   3.6454582408e+01   2.8608222577e+01    0.3634344    0.2509393 -73.97  0.001445187    1.275    0.215
        57 -10.6274    175.7296     25.2643   4.0952083084e+01   3.8257467579e+01    0.3238668    0.2382795 -85.94  0.001850655    1.282    0.220
        58 -10.3928    178.0000     21.1032   3.9585599389e+01   3.8200989564e+01     0.236953     0.105871 -24.43 0.0007548456    2.923    0.658
        59 -10.6986    199.1439     24.4880   3.7997364190e+01   3.2874859005e+01    0.3182271    0.1572567 -58.89  0.001510425    2.056    0.514
        60 -12.3594    153.1064     56.0688   5.3121319820e+01   3.9528909534e+01    0.3287638    0.2221437 -40.10 0.0006784286    1.519    0.342
        61 -10.2516    168.9556     20.4748   4.0570584371e+01   4.0423473681e+01    0.1938983   0.09947921 -83.19 0.0008096382    2.547    0.607
        62 -11.9438    203.9323     18.3260   3.6074912644e+01   3.2511921348e+01    0.3036311    0.1876052  85.20 0.0009808592    1.475    0.322
        63  -9.9634    199.0119     15.9562   3.6008806787e+01   3.3896288668e+01    0.1670594     0.135993 -71.70 0.0004206603    1.065    0.061
        64 -10.9068    160.0312     18.4732   4.1233816416e+01   4.2779946006e+01    0.2526986    0.1611283 -53.34 0.0008972392    1.638    0.390
        65 -14.9877    201.2279     75.9141   5.0083668397e+01   2.4993722571e+01     1.247234    0.8399609  50.49  0.006306109    1.645    0.392
        66 -11.2431    210.5327     16.2994   3.4997990693e+01   3.1268609947e+01    0.1823069    0.1347376  86.43  0.001141431    1.181    0.153
        67 -10.6021     78.9813     16.0542   5.7297855279e+01   6.1471763354e+01    0.1889585    0.1641246  24.98 0.0005593724    1.038    0.037
        68 -11.9748    181.6383    211.3201   8.3104172566e+01   3.0450668704e+00      0.41255    0.2588021  62.85   0.00166066    2.874    0.652
        69 -10.6009    218.9185     13.0372   3.3563023675e+01   2.9802911494e+01    0.1730535    0.1421026 -79.66  0.000949325    1.067    0.063
