#   1 NUMBER                 Running object number                                     
#   2 MAG_AUTO               Kron-like elliptical aperture magnitude                    [mag]
#   3 X_IMAGE                Object position along x                                    [pixel]
#   4 Y_IMAGE                Object position along y                                    [pixel]
#   5 X_WORLD                Barycenter position along world x axis                     [deg]
#   6 Y_WORLD                Barycenter position along world y axis                     [deg]
#   7 A_WORLD                Profile RMS along major axis (world units)                 [deg]
#   8 B_WORLD                Profile RMS along minor axis (world units)                 [deg]
#   9 THETA_WORLD            Position angle (CCW/world-x)                               [deg]
#  10 FWHM_WORLD             FWHM assuming a gaussian core                              [deg]
#  11 ELONGATION             A_IMAGE/B_IMAGE                                           
#  12 ELLIPTICITY            1 - B_IMAGE/A_IMAGE                                       
         1 -10.4628     75.0799     27.3638   6.2565504350e+01   6.0527050780e+01    0.3835826    0.3237097 -59.08  0.001846194    1.755    0.430
         2 -11.6455     14.1994     38.5484   9.3193137135e+01   6.7114138593e+01    0.7208068    0.6511829  65.27  0.003972778    1.795    0.443
         3 -12.4952    107.6112     29.0696   5.3804796099e+01   5.3644965119e+01     0.472872    0.4120193  29.60  0.002900827    1.057    0.054
         4 -11.9000    105.3774     21.0698   5.1444233517e+01   5.5015248686e+01    0.3677077    0.2744084  62.96    0.0003824    1.360    0.264
         5 -10.8851     24.8792     29.5623   8.4445087218e+01   6.7695534620e+01    0.4807785     0.244175 -31.04  0.001724482    1.743    0.426
         6 -11.4459     18.8983     28.4943   8.7015511702e+01   6.8465914641e+01    0.3701072    0.2534379 -41.21 0.0006566183    1.408    0.290
         7 -10.2829     16.1915     18.2827   8.4061169074e+01   7.0345237051e+01    0.5174996    0.3337219  -4.59  0.002953899    1.370    0.270
         8 -11.0877    218.3732     19.1017   3.4091225467e+01   2.9379099536e+01    0.4940395    0.2671165 -57.25  0.001933732    1.735    0.424
         9 -10.0633    211.6343     15.9206   3.3995241935e+01   3.1165937801e+01    0.4613936    0.2002889 -63.32  0.001576032    2.693    0.629
        10 -10.5642    206.0505     24.5899   3.6500342353e+01   3.1427847186e+01    0.4679283    0.3344637 -71.33  0.001641658    1.320    0.242
        11 -12.0655    232.5898     23.5264   3.3805418018e+01   2.5925676408e+01    0.7105003    0.4004714 -73.59  0.003965879    1.805    0.446
        12 -10.1870    232.1649      6.2896   3.0320967044e+01   2.7884979467e+01    0.2856536    0.2087901 -18.78  0.001311298    1.868    0.465
        13 -10.9616    236.6192      7.0680   3.0166405634e+01   2.6912269173e+01    0.2896664     0.197911 -84.96  0.001134816    1.278    0.217
        14 -10.7090    237.5450      2.9067   2.9288720657e+01   2.7153840145e+01    0.3620382    0.2180299 -87.40   0.00231567    1.488    0.328
        15  -9.0307    225.6467     15.8773   3.2782670545e+01   2.8206942950e+01    0.2997421    0.1198191 -37.53  0.001497836    2.239    0.553
        16 -11.4689    230.1237     14.6457   3.2169576918e+01   2.7419601063e+01    0.5072842    0.3196567 -87.04   0.00243468    1.478    0.323
        17 -10.9999    182.5613     18.2840   3.7539313076e+01   3.7406661748e+01    0.5013143     0.351905  36.06  0.001092004    1.822    0.451
        18  -9.3424     70.1318     20.0152   6.1159977491e+01   6.2326482759e+01    0.4169046    0.1505386 -36.27   0.00175433    3.065    0.674
        19 -11.4855     62.2154     16.6369   6.2469682252e+01   6.4141886992e+01    0.5694638    0.3307339  27.08  0.001806471    1.625    0.384
        20 -12.0086    117.0485     22.2227   4.9190811422e+01   5.2286327259e+01    0.2698051    0.2171021  25.11 0.0003889671    1.268    0.211
        21 -10.4028     25.8587     21.4901   8.0482068500e+01   6.8846181798e+01    0.4385906    0.2435692   4.61  0.002369852    1.984    0.496
        22 -10.5775    166.5064     17.5729   3.9341829794e+01   4.1206677600e+01    0.2968149    0.2490371  -0.70  0.001313099    1.493    0.330
        23 -10.9991     23.3474      1.8322   7.2100546297e+01   7.1742544489e+01    0.2285445    0.1366732  27.59 0.0006054596    1.487    0.327
        24 -11.6218     13.9990     11.1427   8.1921043412e+01   7.1607150636e+01     0.320339    0.1965542 -22.78 0.0003428547    1.339    0.253
        25 -10.5434     15.0740      4.3876   7.7917062160e+01   7.2406241198e+01    0.5124998    0.2563785  -6.29  0.002663735    2.418    0.586
        26 -11.5815     20.1472      6.6507   7.6316224377e+01   7.1547775665e+01    0.3834286    0.2083182  13.49  0.002166976    1.790    0.441
        27 -11.3104     24.8937      6.7678   7.3892059192e+01   7.0961609021e+01    0.4183815    0.1845513 -42.55  0.002063276    3.025    0.669
        28 -10.9596      5.7598     16.0268   8.8843154420e+01   7.1611211943e+01    0.3891413    0.2321397 -49.42  0.001983237    1.867    0.465
        29 -11.2180      9.0735     14.9321   8.6468547387e+01   7.1507705849e+01    0.3559147    0.1837657 -31.48  0.001033877    1.583    0.368
        30 -10.3989     42.9941     15.5548   6.9651595498e+01   6.7404543178e+01    0.3907149    0.1909136  33.62  0.002069741    1.866    0.464
        31 -11.6615    244.8410     12.6883   3.0699027484e+01   2.4699800724e+01    0.7483907    0.5675039  -4.57  0.004836489    2.195    0.544
        32 -10.2631    250.0036      1.4751   2.8245907858e+01   2.4886042940e+01    0.3126199    0.1870545  69.53 0.0005275852    1.716    0.417
        33 -10.3711    115.9576     15.2697   4.7006112239e+01   5.3221912132e+01    0.5347661    0.2078097  61.19  0.001905352    2.295    0.564
        34 -10.3323    175.5823     13.2414   3.7061988580e+01   3.9525497408e+01    0.5468937    0.2654489  67.25  0.002272979    1.809    0.447
        35 -10.1350     79.1162     12.1191   5.4944775738e+01   6.1424299560e+01    0.2288785    0.1988788  10.72 0.0004886146    1.117    0.105
        36 -10.9201     97.9329     12.8979   5.0191273525e+01   5.7438042465e+01    0.4822075    0.2381004  54.97  0.001139084    1.744    0.427
        37  -8.6127     97.3640      7.3017   4.8185781791e+01   5.8052621632e+01    0.2128989    0.1203066  -0.69  0.000827017    2.224    0.550
        38 -10.4384     90.5122      2.0557   4.7763152544e+01   5.9939742114e+01    0.3903811    0.1934388  63.83  0.001582292    1.993    0.498
        39  -7.6506     85.6066      8.9285   5.1786802670e+01   6.0401089731e+01     0.225059     0.148326  74.06  0.001129409    2.065    0.516
        40  -9.0498     89.1610     13.2109   5.2558340135e+01   5.9271146594e+01    0.2595631    0.2223344  12.64  0.001212243    1.136    0.120
        41  -9.4760     90.5445      9.0961   5.0556502755e+01   5.9355918434e+01    0.3375387    0.1679939  35.69  0.001074208    1.931    0.482
        42  -9.5182     87.8240      5.9537   4.9995151263e+01   6.0195349657e+01    0.2985327    0.2283334  55.17  0.001248592    1.231    0.188
        43  -9.9906     32.1539     12.6299   7.3221520852e+01   6.9295393258e+01    0.2410052    0.1952633  24.69  0.001201033    1.352    0.260
        44 -10.0561    248.2899      4.6987   2.8950198711e+01   2.4881571410e+01    0.2211625    0.1426398 -77.15 0.0007744848    1.321    0.243
        45 -10.2152    145.9632     12.3122   4.0740356827e+01   4.6536671848e+01    0.4874474    0.1880584  61.04  0.001897914    2.135    0.532
        46 -10.7776    133.1140     12.6795   4.2915139105e+01   4.9509665240e+01    0.2166039    0.2002574  73.55  0.000262583    1.081    0.075
        47  -9.4641    128.3680      8.8094   4.2484387105e+01   5.0952132065e+01    0.4391873    0.2913327 -19.44  0.002493742    1.742    0.426
        48  -8.8273     51.4567     12.6674   6.4751061409e+01   6.6420230243e+01     0.278676    0.1130358 -26.50  0.001312461    2.523    0.604
        49  -9.8589     55.9811     10.9590   6.2193966786e+01   6.5846277803e+01    0.2570395    0.1795569 -11.91 0.0007520237    1.383    0.277
        50  -8.8485     52.6435      8.8097   6.2460366223e+01   6.6638723851e+01    0.1906852    0.1026745 -24.07 0.0008071019    1.874    0.466
        51 -10.6597    196.1023      3.3089   3.2528592184e+01   3.5823896502e+01    0.6764894    0.2264754  61.32  0.003055768    2.617    0.618
        52 -10.1874    191.7816      8.5945   3.4172888389e+01   3.6285325323e+01     0.335919      0.24381 -21.74  0.001105345    1.681    0.405
        53  -9.4419    195.2907      8.6937   3.3858426647e+01   3.5491200237e+01    0.1930699    0.1281657 -59.00 0.0002610564    1.434    0.303
        54  -9.2951     69.5871     11.4564   5.7629120298e+01   6.3339173639e+01    0.2239006    0.1656048  20.79  2.25738e-05    1.187    0.158
        55  -9.6858     62.4139      6.4409   5.7779187864e+01   6.5154665596e+01    0.2971767    0.2228021  66.38  0.001124135    1.905    0.475
        56  -8.5958     65.5530      4.4434   5.5812288030e+01   6.4754746330e+01    0.1871307    0.1141567  29.04 7.427063e-05    1.445    0.308
        57  -9.3837     69.4072      7.0592   5.5744031614e+01   6.3791073867e+01    0.2000652    0.1506507  42.66 0.0002582954    1.193    0.162
        58  -9.5147     69.4809      2.0471   5.3485146266e+01   6.4211459643e+01    0.2240722    0.1416542  40.37 0.0005071154    1.291    0.226
        59  -9.8365     74.4293      8.0730   5.4626541528e+01   6.2728014189e+01    0.3020406    0.1866468  49.00  0.001730466    1.431    0.301
        60 -10.9562     73.9778      2.9385   5.2530051372e+01   6.3260569562e+01    0.3258213    0.2691081  24.51  0.001232607    1.057    0.054
        61  -9.5019    224.1270      9.5378   3.1576652467e+01   2.9194435380e+01    0.2326734    0.1543758 -44.67  0.001489192    1.396    0.284
        62  -9.7980    211.8488      9.8906   3.2644505016e+01   3.1748555988e+01    0.2716815     0.149391  81.81  0.001358625    1.696    0.410
        63  -9.3371    165.8387      9.0271   3.7113108058e+01   4.2185126000e+01    0.2653329    0.1761407 -30.01  0.001000796    1.671    0.401
        64  -9.7440    120.0552      8.7803   4.3967136039e+01   5.2867372338e+01    0.3221194    0.1982117 -25.16  0.001737766    1.828    0.453
        65  -9.5796     43.1943      9.4485   6.6631061017e+01   6.8093035132e+01    0.2947231    0.1369459  35.90  0.001261025    1.908    0.476
        66  -9.4149     48.1009      8.3472   6.4042719229e+01   6.7437971509e+01    0.2294691    0.1541099  23.37 0.0008557929    1.254    0.202
        67  -8.7621      1.1444      8.5596   8.8157989448e+01   7.3112608567e+01    0.1839945    0.0677285 -47.56  0.000817057    2.682    0.627
        68  -8.9171    201.9465      8.0013   3.3084382251e+01   3.4087105442e+01    0.2454648    0.1263884 -72.41  0.001233786    2.115    0.527
        69 -10.4696    209.0792      4.3532   3.1660089996e+01   3.2893179262e+01    0.3204392    0.2807661  -1.38   0.00141334    1.590    0.371
        70  -9.4691    206.5542      1.5726   3.1253402796e+01   3.3702042826e+01    0.2057856    0.1472146 -89.89 0.0001321661    1.203    0.168
        71  -9.7164    106.7176      6.6449   4.5863262668e+01   5.6054493290e+01    0.3555886    0.2813241  55.77  0.001492657    1.108    0.097
        72  -9.3247    152.9896      5.0855   3.7645820953e+01   4.5528031286e+01     0.230794    0.1814425 -11.22  0.001438362    1.555    0.357
        73 -10.7312    217.9781      2.9337   3.0660443286e+01   3.1140681465e+01    0.3822348    0.2422354  89.19  0.001667589    1.401    0.286
        74 -10.8746    159.7645      2.8378   3.6168129400e+01   4.4139451726e+01    0.3978094    0.2469655  67.35   0.00152913    1.375    0.273
        75  -9.4591      7.0724      8.8897   8.4782884871e+01   7.2578408624e+01    0.1808317    0.1654227   9.68  0.001401593    1.606    0.377
        76 -10.5866     40.2417      2.7469   6.4553626517e+01   6.9262302462e+01    0.3879928    0.2416551   5.71   0.00123843    1.524    0.344
        77 -10.5940     30.9436      3.2282   6.9049388793e+01   7.0576148983e+01    0.2165954    0.1663687 -26.64 0.0005933454    1.500    0.333
        78 -10.2352    179.8681      1.9943   3.3744031706e+01   3.9586173192e+01    0.2770526    0.1686838  76.39 0.0005402294    1.433    0.302
        79  -9.0463    167.0572      2.0254   3.5105194488e+01   4.2519173566e+01    0.2079039    0.1707557 -25.99 0.0007469794    1.426    0.299
        80  -8.8460    127.3988      1.9264   4.0414748466e+01   5.1731558969e+01    0.2979281   0.09639578  45.65  0.001182839    2.944    0.660
        81 -10.0087    115.8208      1.9168   4.2401399882e+01   5.4379686477e+01    0.1968729    0.1525934  58.39 0.0003379887    1.094    0.086
        82  -8.4885     82.2378      2.3695   4.9982382274e+01   6.1642818797e+01    0.1651835    0.1073922  64.05  0.000511802    1.631    0.387
        83  -9.9140     55.8972      1.8645   5.7918783140e+01   6.6744333534e+01     0.178588    0.1354961  19.05 0.0005008944    1.076    0.071
        84  -9.0544     50.0186      2.0341   6.0192652098e+01   6.7747537106e+01     0.180704    0.1384264  19.75 0.0004560887    1.019    0.019
        85  -8.2914    227.5212      1.5117   2.9682525323e+01   2.9305940326e+01    0.1147439   0.09085964 -73.65 0.0008101948    1.003    0.003
        86  -8.4521    136.4200      1.4918   3.8884086284e+01   4.9678320539e+01      0.12369    0.1070552  65.90 0.0001507407    1.014    0.014
        87  -8.1927    109.0142      1.0000   4.3360196908e+01   5.5980341378e+01    0.2057177   0.06136803  63.70 0.0005012181    2.866    0.651
        88  -9.5181     93.8240    119.2725   8.6192875105e+01   3.9757172097e+01    0.2803256    0.2372897 -34.66 0.0008863129    1.152    0.132
        89  -9.4397    201.5538    249.6378   8.5724074883e+01  -4.9874826935e+00    0.2180669    0.1538309  15.92 0.0005564022    1.178    0.151
        90 -10.1771     67.9536    118.5144   9.4099845289e+01   4.3949641573e+01    0.3380278    0.2387274  37.99  0.001679981    1.531    0.347
        91  -9.2492     70.0650    115.7712   9.2799811765e+01   4.4319746542e+01    0.2279021    0.2049574 -43.77 0.0003712601    1.020    0.020
        92  -9.8046     43.4741    119.1880   1.0215886413e+02   4.6760657000e+01    0.3138334    0.1913652  32.98  0.001055303    1.810    0.447
        93 -10.4039      3.8370    117.0591   1.1448881900e+02   5.0428718227e+01    0.3544264    0.2294817 -55.38  0.001321996    1.285    0.222
        94  -8.4949     54.4392    117.7782   9.8312048161e+01   4.5875352962e+01    0.2014897    0.1162104 -48.31 0.0005613135    1.555    0.357
        95  -9.3314    221.0301    121.5610   5.7030063555e+01   1.3632973888e+01    0.2193747    0.1661995 -37.57 0.0003470783    1.169    0.145
        96  -9.6071     81.9659    116.0226   8.9064948541e+01   4.2477890023e+01    0.4316145    0.1540592  44.39    0.0014079    3.337    0.700
        97  -9.6697     48.0567    115.6778   9.9972726967e+01   4.7128826101e+01     0.437633    0.2763509  31.53  0.002094071    1.741    0.426
        98  -9.4302     48.5342    111.9195   9.9039499127e+01   4.7993413384e+01    0.3456111     0.272144  47.37  0.001898258    1.478    0.323
        99  -9.4729     62.5009    115.4429   9.5180558941e+01   4.5432782539e+01    0.2851388    0.2009775 -80.43 0.0008656235    1.795    0.443
       100 -10.0730     31.9220    111.8651   1.0459435331e+02   4.9680004737e+01    0.3343765    0.2429121 -85.06   0.00168075    1.537    0.349
       101  -8.8379    121.1359    112.0470   7.6399058546e+01   3.6315155172e+01    0.2430453    0.2117729  -7.25  0.001222636    1.230    0.187
       102  -9.3522     20.4672    112.6684   1.0853277006e+02   5.0420102014e+01    0.1932839    0.1243386  16.97 0.0007665457    1.843    0.457
       103  -9.9866     62.9526    110.7735   9.3974011197e+01   4.6502077521e+01    0.2552291    0.1917161 -51.17 0.0002017361    1.208    0.172
       104 -11.2176      5.0240    108.2343   1.1292176823e+02   5.2486144940e+01    0.6508061      0.44155 -58.85  0.003916582    1.174    0.148
       105  -9.5595      2.0905     92.3464   1.1151311090e+02   5.6394371084e+01    0.2773545    0.2066514  77.58 0.0004173227    1.619    0.382
       106  -9.7576      2.1992     86.7267   1.1053315188e+02   5.7690553493e+01    0.4176627    0.1063685 -52.57  0.001732498    2.542    0.607
       107 -10.3520      2.3818     80.4972   1.0934680215e+02   5.9104474737e+01    0.3540467     0.212959 -61.88  0.001883342    1.334    0.251
       108  -8.8045      6.5567     89.5370   1.0942347815e+02   5.6818778587e+01    0.4706683    0.3823579 -66.29  0.002002582    1.134    0.118
       109  -9.2944      8.6252     98.8234   1.1026899667e+02   5.4526596722e+01    0.3239572    0.1648292 -71.83  0.001558717    1.765    0.433
       110  -9.8329      4.0805     97.9635   1.1170828851e+02   5.4978122796e+01     0.391096    0.2439773 -41.02  0.001470723    1.462    0.316
       111  -9.3781     44.0747    108.9892   9.9930000894e+01   4.9192396168e+01     0.335234    0.1934041 -70.78  0.001322921    1.887    0.470
       112 -10.2815    117.4024    106.3220   7.5901381262e+01   3.8316951617e+01    0.6567717    0.3118883 -31.24  0.002213836    2.853    0.649
       113 -10.1184     35.9310    108.2925   1.0256029949e+02   5.0179972702e+01    0.3989592    0.2079738 -40.61  0.001844988    1.868    0.465
       114  -9.5011     38.9392    103.1115   1.0046181215e+02   5.1136166837e+01    0.2847856    0.2074195 -16.63  0.001139132    1.539    0.350
       115 -10.0565     33.8392    103.1368   1.0224886133e+02   5.1618296814e+01    0.2132699    0.1772688 -42.56 0.0005474363    1.077    0.072
       116 -10.4651     21.4856    107.7549   1.0736760093e+02   5.1536172888e+01    0.5720829    0.2513567 -29.89  0.002316288    3.044    0.671
       117  -8.7906     20.3871    104.1163   1.0710404007e+02   5.2494512321e+01    0.2054789    0.1137496 -66.22  0.001029959    1.563    0.360
       118  -8.6547    103.0612    108.5208   8.0660059411e+01   4.0598758993e+01    0.2177925    0.1511224  35.27 0.0004285527    1.490    0.329
       119  -8.5092    183.8016    107.2009   6.0331513740e+01   2.3875303098e+01    0.1954989    0.1677641 -11.04 0.0003066309    1.284    0.221
       120  -9.1491     89.0074    102.4955   8.3376151757e+01   4.4468886981e+01    0.3375694    0.2352934  61.37  0.001367101    2.009    0.502
       121  -9.3048     91.6614    106.2776   8.3550771996e+01   4.3152894572e+01    0.2719732     0.228843  19.54 0.0008838132    1.247    0.198
       122  -9.1470     92.8778    103.1788   8.2340100151e+01   4.3643120347e+01    0.2184741    0.2028958 -14.34  0.000234419    1.044    0.042
       123 -10.5316     62.9542    104.7239   9.2539450029e+01   4.7944061788e+01    0.3434334    0.2563567  -5.64 0.0009981876    1.570    0.363
       124  -9.0257    139.2925    105.3139   6.9782958350e+01   3.3970286238e+01    0.1554767    0.1212913  -1.51 0.0002380023    1.594    0.373
       125  -8.0701     84.2274    105.3546   8.5663952702e+01   4.4617746669e+01    0.1521172      0.10581 -28.27 0.0001639925    1.564    0.361
       126 -10.7582     71.4156    104.3366   8.9597196366e+01   4.6845535531e+01      0.50942    0.4346014 -13.24  0.002776226    1.213    0.176
       127  -9.8847     77.7595    102.0153   8.6892875283e+01   4.6421981582e+01    0.4585074    0.2176779 -45.96  0.001096202    1.951    0.488
       128  -8.5790     80.7012    101.6923   8.5840621040e+01   4.6029788133e+01    0.1853762    0.1422377  42.89 0.0002677866    1.430    0.300
       129 -11.0210    101.8467    101.7611   7.9190298784e+01   4.2331306946e+01    0.5526703    0.3917418 -26.67 0.0006977459    1.547    0.354
       130  -9.1031    133.4505    103.6876   7.0834122572e+01   3.5556969409e+01    0.2712861    0.1409288  43.44  0.001060631    1.957    0.489
       131 -10.5429     50.0200    101.4867   9.6224070277e+01   5.0330187009e+01    0.4449457    0.3551758 -73.53  0.002440625    1.398    0.285
       132 -10.0870     41.5625     98.9966   9.8637375544e+01   5.1848808595e+01     0.529691     0.340508  26.57   0.00274863    1.724    0.420
       133  -8.6067    126.9983    102.1320   7.2108439433e+01   3.7244077844e+01    0.2680277    0.1806027  14.25   0.00108996    2.113    0.527
       134 -10.6179    109.2477     99.1612   7.6258911788e+01   4.1479266937e+01    0.5214618    0.3610287  56.50  0.001794734    1.757    0.431
       135  -8.9954     57.7533     99.9165   9.3149213109e+01   4.9756742206e+01    0.2212545    0.1687516 -36.42 0.0005604453    1.220    0.180
       136  -9.6037     16.5117     99.3030   1.0759325171e+02   5.3918281464e+01    0.3309976    0.1981564 -34.38   0.00123939    1.668    0.400
       137  -9.2161     20.5215     98.5235   1.0603426999e+02   5.3820270200e+01    0.2550208    0.1553331  50.61  0.001292942    2.180    0.541
       138 -11.2632    117.7575     97.9157   7.3463284580e+01   4.0039875461e+01    0.3307583    0.2883132 -10.62 0.0004066323    1.199    0.166
       139 -10.2619    125.2418     97.2628   7.1216011512e+01   3.8622804599e+01    0.5924454    0.3101942  22.31  0.001833059    3.772    0.735
       140 -10.3443    137.1550     97.1590   6.8074093166e+01   3.6091561436e+01    0.3349121    0.3011422  50.05  0.001205618    1.150    0.131
       141  -8.6684    171.1730     96.9057   6.0227920656e+01   2.8578950596e+01    0.1994668    0.1720769  -7.76            0    1.302    0.232
       142  -8.3267    150.0208     97.0457   6.4912257028e+01   3.3280490129e+01    0.1805521     0.173395 -28.51 0.0003278325    1.020    0.020
       143  -8.4071     64.0000     96.9382   9.0222430265e+01   4.9616453154e+01    0.2399068   0.07599016 -53.40 0.0007986731    2.916    0.657
       144  -9.8968     55.9976     83.4951   8.9453895594e+01   5.3709103487e+01    0.3841985    0.2558487 -28.74  0.001893041    1.508    0.337
       145  -9.7223     23.4224     94.5146   1.0421042611e+02   5.4548894737e+01    0.3850158     0.183055 -50.10   0.00185105    1.692    0.409
       146  -9.4181     37.2676     80.6663   9.5794542139e+01   5.6497386870e+01    0.5442746    0.2334475 -33.78  0.002185206    2.640    0.621
       147 -11.0567     32.1413     93.3396   1.0077782304e+02   5.4093253128e+01    0.4870851    0.2593684 -48.42  0.001607773    1.563    0.360
       148  -9.2982     27.2262     91.7943   1.0224911437e+02   5.4880419982e+01    0.2646829    0.1765881 -45.36 0.0003987151    1.264    0.209
       149 -10.3734     22.6706     87.8160   1.0309166919e+02   5.6167444480e+01    0.4474986    0.2811851  32.43  0.002446391    1.867    0.464
       150 -10.9464     30.3581     85.4074   9.9632542947e+01   5.6084184952e+01    0.5310091    0.3115803 -43.24  0.001330377    1.452    0.311
       151  -9.7652     50.3150     82.9118   9.1410173081e+01   5.4551627583e+01    0.3266807    0.2386654 -16.00 0.0008196437    1.437    0.304
       152 -10.3915     44.8817     81.5922   9.3108361685e+01   5.5478843275e+01     0.536158     0.270984  32.48  0.001855101    2.151    0.535
       153  -9.5537     13.2194     96.2813   1.0821769432e+02   5.4849870729e+01    0.2786225    0.1678084 -44.15  0.001008472    1.436    0.304
       154  -8.5911    155.5166     95.9587   6.3350553936e+01   3.2263927747e+01     0.223712    0.1469692 -38.90 0.0004638903    1.495    0.331
       155  -9.1756    130.1075     96.2034   6.9619999396e+01   3.7805698719e+01    0.2344311    0.2024262   2.84 0.0007419892    1.264    0.209
       156  -8.6907     86.8530     96.1923   8.2333652070e+01   4.6245903606e+01    0.2081174     0.168678 -12.83 0.0007152635    1.318    0.241
       157  -8.7280     80.1349     94.8373   8.4160538287e+01   4.7665610042e+01    0.2084627    0.1994834 -74.92 0.0004746885    1.213    0.176
       158  -8.5945    166.7635     94.4181   6.0485036427e+01   3.0028960910e+01    0.2005595    0.1399004  38.88 0.0003417723    1.549    0.355
       159  -9.6929     46.9924     92.9232   9.5251146731e+01   5.2679730516e+01    0.3876681    0.1785951 -53.77  0.001045938    1.889    0.471
       160 -10.5651     43.4781     88.4111   9.5418639002e+01   5.4104186944e+01    0.4079274     0.233697  23.98 0.0005520739    1.917    0.478
       161  -8.8054    134.8179     91.3907   6.7031461209e+01   3.7742089410e+01    0.2090381    0.1401507  35.10 0.0002526956    1.596    0.373
       162  -9.3677    132.9153     82.5057   6.4925245496e+01   3.9854946263e+01    0.2722503    0.2097425 -42.17 0.0004143392    1.310    0.236
       163 -10.9506    128.3576     85.7742   6.7061949298e+01   4.0238118866e+01    0.4827757    0.3580829  27.84 0.0006295953    1.482    0.325
       164 -10.2976    123.5578     86.7679   6.8629838443e+01   4.1080909242e+01    0.3458764    0.2168874 -30.69  0.001503031    1.710    0.415
       165  -8.8892    106.8297     90.9300   7.4602431961e+01   4.3687670207e+01    0.2244589    0.1928025 -13.83 0.0003380331    1.193    0.162
       166  -9.2623     52.6880     90.4790   9.2559624361e+01   5.2568041192e+01    0.2564916    0.2054827 -60.77 0.0008424607    1.306    0.234
       167 -10.5260     86.9807     87.9426   7.9917265756e+01   4.8009028097e+01    0.4368187    0.3591372 -45.19  0.001421092    1.209    0.173
       168 -10.3370     65.4870     85.7983   8.6657657794e+01   5.1903339239e+01    0.3916273    0.3189377 -35.11  0.001974623    1.113    0.102
       169  -9.7679     71.1188     88.6600   8.5488631822e+01   5.0444480411e+01    0.4747649    0.2321506 -59.93 0.0006464922    2.664    0.625
       170 -11.0856     79.8050     83.5749   8.1007826807e+01   5.0153184573e+01    0.7569314    0.3160393  34.65   0.00289353    2.521    0.603
       171  -9.4503     73.8388     79.5886   8.1857654600e+01   5.1956925066e+01    0.4192391     0.257976 -31.86  0.001757211    1.650    0.394
       172  -9.9697     16.3333     88.0155   1.0551366891e+02   5.6578287458e+01    0.3470199    0.2646917 -63.33  0.001173476    1.188    0.159
       173  -9.6179    103.8760     86.1652   7.4068384431e+01   4.5242325234e+01    0.4248072    0.2725658  -7.51  0.001537872    2.450    0.592
       174  -8.6178     58.1388     87.1773   8.9693063512e+01   5.2615486670e+01    0.1742188    0.1652726  64.23 0.0003378684    1.301    0.231
       175 -11.4901    152.5350     81.5458   6.0007950381e+01   3.5602107537e+01    0.8232625    0.4788145  69.11  0.003233377    2.437    0.590
       176 -10.0278    118.1659     84.1562   6.9324811958e+01   4.2732052846e+01    0.4325796     0.282611 -12.30  0.001779923    2.194    0.544
       177  -9.0249    145.9501     84.4644   6.2334532759e+01   3.6573172434e+01    0.2315145    0.1469162  50.53 0.0008542153    1.585    0.369
       178  -9.8431    181.9284     81.4348   5.4089068134e+01   2.8898819499e+01    0.2351475     0.184076 -48.86   0.00122259    1.249    0.199
       179  -9.1185    101.6330     81.2873   7.3260613139e+01   4.6655863136e+01    0.2868591    0.1369113 -46.39  0.001118653    2.163    0.538
       180 -10.0457     20.3470     79.2939   1.0208823126e+02   5.8283354245e+01    0.3848592    0.3236774 -50.62  0.001223358    1.088    0.081
       181  -8.7873     18.5344     72.4058   1.0117980530e+02   5.9944384817e+01    0.3377825    0.2241366 -44.52  0.001976652    1.213    0.175
       182  -8.7258    178.4553     81.4792   5.4736712647e+01   2.9679239191e+01    0.1429701    0.1380046 -55.40 5.832317e-05    1.006    0.006
       183  -8.9901     97.3969     87.2701   7.6387171946e+01   4.6260438572e+01    0.2554462    0.1840295 -50.15 0.0007945233    1.457    0.314
       184  -9.8466    136.8119     78.4950   6.2770446889e+01   3.9718626364e+01    0.2836646    0.2310669 -69.13  0.001248023    1.502    0.334
       185 -11.0475     97.1184     63.9738   6.9062583784e+01   5.0770610153e+01    0.3536617    0.2691686  15.59 0.0002962307    1.409    0.290
       186 -10.0480     94.8599     69.6396   7.1651082280e+01   5.0194204795e+01    0.5488605    0.3649394  28.54  0.001886554    1.579    0.367
       187  -9.8188     93.0000     74.0363   7.3670157573e+01   4.9723021274e+01    0.4492798    0.2062081 -48.26  0.001586661    2.407    0.585
       188 -10.5304     89.9894     74.0430   7.4642542014e+01   5.0283454263e+01    0.5637886    0.3599665 -32.00  0.001651344    1.578    0.366
       189  -8.4701     12.5637     78.2069   1.0491812275e+02   5.9059749726e+01     0.175768   0.09174322 -50.81  0.000353005    1.485    0.326
       190  -8.9758    172.0886     77.5533   5.4885463263e+01   3.1797554043e+01    0.2166383     0.142176  58.66  0.001013938    1.567    0.362
       191  -9.0316    175.1481     75.1735   5.3672660134e+01   3.1489841743e+01    0.1975107    0.1827481  68.78 0.0002622596    1.090    0.082
       192  -9.1187    110.9726     77.0147   6.9165357650e+01   4.5596690200e+01     0.233425    0.2138634   6.35 0.0007037926    1.063    0.060
       193  -9.3098    111.1403     71.9976   6.7533561960e+01   4.6485835702e+01    0.4054424    0.2252292 -24.83  0.001634698    2.234    0.552
       194 -13.0142     53.0420     74.8398   8.8056237296e+01   5.5951337084e+01    0.6009731    0.3351538 -53.29 0.0007457495    1.789    0.441
       195 -10.8825     45.3782     68.5537   8.9156265990e+01   5.8208062931e+01    0.5354282    0.2704504 -31.78 6.840704e-05    2.063    0.515
       196 -10.1223     28.1431     76.3680   9.8280828320e+01   5.8306186592e+01    0.3623017    0.1858695 -47.35 0.0004562616    1.589    0.371
       197  -9.5866    184.9544     75.9722   5.2133216553e+01   2.9118917642e+01    0.1979005    0.1864811 -53.44 0.0003890228    1.023    0.022
       198 -10.6234    180.9380     73.6720   5.2232111032e+01   3.0407173700e+01    0.3751321    0.2934214  17.46 0.0006901993    1.679    0.404
       199  -8.6095     80.8454     76.3099   7.8412380395e+01   5.1466098954e+01    0.2012798    0.1266761  27.27 0.0009291085    1.689    0.408
       200  -9.0904     68.8998     74.6317   8.2079075077e+01   5.3749369140e+01    0.2267288    0.1741023 -30.06 0.0004873316    1.209    0.173
       201 -10.2022     64.1021     74.2916   8.3724851457e+01   5.4540992811e+01    0.2871568     0.222271 -43.65  0.001230504    1.246    0.198
       202 -10.4510    170.1167     73.1808   5.4073585396e+01   3.2977143100e+01     0.283446    0.2300751 -29.51 0.0006886099    1.280    0.219
       203 -10.0967    145.5884     71.6061   5.8679943573e+01   3.8919011914e+01    0.3845691    0.2643731 -19.40   0.00144496    1.741    0.426
       204 -10.1685    137.4914     72.9467   6.0949695091e+01   4.0542279559e+01    0.3823726    0.2279859 -30.36 0.0008049035    1.800    0.444
       205  -7.6823     12.2884     74.6622   1.0424853640e+02   5.9868551624e+01    0.1157051   0.09420143  80.07 0.0002550757    1.637    0.389
       206  -8.5094    152.1757     73.1666   5.7689713692e+01   3.7135984217e+01    0.2012303    0.1726084 -76.00 0.0006108682    1.330    0.248
       207  -9.3264     75.0416     66.0054   7.7072118488e+01   5.4450949213e+01    0.2915405    0.1972876 -48.88  0.000344313    1.617    0.382
       208  -9.0773     77.1536     62.1488   7.5016075916e+01   5.4804830303e+01    0.2157781    0.1734999  -4.58  0.000461214    1.226    0.184
       209 -12.1519     79.6335     69.9656   7.6783514596e+01   5.2917340487e+01    0.3072151    0.2543262   8.59 0.0003230795    1.192    0.161
       210  -9.9261     83.0488     64.0144   7.3625927217e+01   5.3426217221e+01    0.4639859    0.2530805 -42.66  0.001321626    1.849    0.459
       211  -9.0980    199.9609     70.7434   4.8380257904e+01   2.6583470393e+01    0.2055236    0.1868911  21.75 0.0006888095    1.314    0.239
       212 -10.4316    101.7684     70.4304   6.9777729693e+01   4.8690893243e+01    0.3510979    0.2744748  16.67  0.001082574    1.362    0.266
       213  -9.7583    105.8753     66.0764   6.7133783613e+01   4.8631854187e+01    0.5309449    0.3463351  61.99  0.002377649    2.029    0.507
       214  -8.3967    215.4681     70.4785   4.6091999797e+01   2.3259626536e+01    0.1347049    0.1191943 -59.37 8.159039e-05    1.021    0.021
       215 -10.3806    119.7198     68.1718   6.3951067640e+01   4.5326824075e+01    0.4826681    0.3339463  35.13  0.002218378    1.477    0.323
       216  -9.4016     10.2762     69.2536   1.0383572665e+02   6.1181445067e+01    0.2625411    0.1596331 -19.60  0.001171107    1.694    0.410
       217  -8.7895     15.3021     64.6199   1.0057139871e+02   6.1853966571e+01    0.2889712    0.1831069 -17.25  0.001654873    1.602    0.376
       218  -9.9757     15.4285     59.8977   9.9255959329e+01   6.2837836511e+01    0.2971301    0.2289631 -30.09  0.001430586    1.087    0.080
       219 -11.6641      2.3128     66.3954   1.0651754610e+02   6.2235324808e+01    0.3629207    0.1967374 -53.40  0.001136654    1.397    0.284
       220  -8.9553     14.3883     56.1795   9.8680161168e+01   6.3677394765e+01    0.1799928      0.15651 -55.84 0.0004723502    1.290    0.225
       221 -11.4358      9.7417     51.3237   9.9412337643e+01   6.4973357838e+01    0.5222549    0.3293857   8.91  0.001158087    1.693    0.409
       222  -9.8485      8.7769     62.1322   1.0275188393e+02   6.2801228456e+01    0.3280523    0.2426375 -24.57 0.0007903953    1.233    0.189
       223 -10.6876      4.0543     59.8411   1.0424862221e+02   6.3548924012e+01    0.5821136    0.2828457 -24.87  0.002893733    2.080    0.519
       224  -9.4257    173.6196     69.0751   5.2310398382e+01   3.2828535086e+01     0.263216    0.2003083  52.56 0.0003841183    1.321    0.243
       225  -9.0647     63.0522     69.4952   8.2595067142e+01   5.5664708632e+01    0.3597203    0.1359619  28.85    0.0013197    3.066    0.674
       226 -10.5535    143.7980     66.5870   5.7589984307e+01   4.0162882489e+01    0.4123081    0.2668216  35.82  0.001793431    1.718    0.418
       227 -10.6513     18.9139     47.4061   9.3920406438e+01   6.5073359243e+01    0.5190033    0.3554856 -35.07   0.00269609    1.170    0.145
       228  -9.9403     45.1300     55.3434   8.4959964952e+01   6.0847971513e+01    0.3381035    0.3043726 -59.62  0.001607418    1.470    0.320
       229 -12.1266     30.9847     63.6887   9.3618255928e+01   6.0755647917e+01    0.7676135    0.5662759  -1.13  0.004591474    1.374    0.272
       230 -11.7000     39.6519     57.8282   8.8104132223e+01   6.1024276977e+01    0.4429258    0.2749428 -42.77 0.0009097475    1.423    0.297
       231 -10.5150     26.4344     45.6341   8.9811779765e+01   6.4735514929e+01    0.5449193    0.2059103 -33.85   0.00154654    2.666    0.625
       232  -9.7429     32.3960     48.0964   8.7954434643e+01   6.3673612140e+01    0.3243385     0.268868  69.80  0.001267388    2.135    0.532
       233 -10.5872     24.3320     55.6303   9.4062192534e+01   6.3002366073e+01     0.729899    0.3009354 -38.68  0.002503705    2.101    0.524
       234 -10.7526     30.5795     53.2091   9.0509036047e+01   6.2891594480e+01    0.6440457    0.2641336  34.58  0.002912532    2.782    0.640
       235 -11.1746     46.3788     47.9698   8.1802483664e+01   6.2036436083e+01    0.5578685    0.4084934   9.99  0.001927329    1.314    0.239
       236 -10.3887     38.5455     47.1944   8.4896380103e+01   6.3150150046e+01    0.6158284    0.3424839   2.51  0.002653472    2.301    0.565
       237 -11.2336    134.2951     64.2715   5.9065537734e+01   4.2721879479e+01    0.6459074    0.4800656  84.93  0.001853773    1.851    0.460
       238  -9.7219    129.4773     57.8359   5.8195692136e+01   4.4838499632e+01    0.4685992    0.2624947  65.64  0.001937167    2.256    0.557
       239 -11.2106     64.4130     54.7902   7.7068520096e+01   5.8226613344e+01     1.168078    0.6128383 -42.92  0.004772326    1.896    0.473
       240  -9.8802     80.2068     54.9308   7.1420940710e+01   5.5529910875e+01    0.5283877    0.3483014 -58.15  0.002442831    2.326    0.570
       241 -10.6892     70.7361     49.9744   7.2958447251e+01   5.8018053684e+01    0.7086701    0.4983999  60.85  0.003489073    2.264    0.558
       242 -12.9490     61.9585     44.2553   7.4085854075e+01   6.0397706995e+01    0.3909462     0.335045  -6.72   0.00064229    1.041    0.040
       243 -11.4420     51.8062     29.5154   7.2165470208e+01   6.4220792086e+01     0.364559    0.1966359 -25.95            0    1.834    0.455
       244  -8.3094    202.9874     63.0270   4.6043798931e+01   2.7082421693e+01    0.1594498    0.1467664 -76.28 0.0009694394    1.033    0.032
       245  -9.2284    193.9074     61.1141   4.6889327393e+01   2.9394754165e+01     0.306251    0.1865396 -32.84 0.0007629177    1.674    0.402
       246 -10.0894     53.8325     61.1193   8.3386868766e+01   5.8612179457e+01    0.2751588    0.2305635 -56.80 0.0004586133    1.479    0.324
       247  -9.5873     53.1852     53.8721   8.1133332741e+01   6.0057152299e+01    0.4124309    0.2556526 -26.20  0.002129182    1.578    0.366
       248  -8.6611     54.0097     49.5498   7.9230828720e+01   6.0711461338e+01    0.1793314     0.121633  26.97 4.054019e-05    1.455    0.313
       249 -10.5120    162.3744     58.4914   5.1444133266e+01   3.7082804010e+01    0.5264181    0.3023704 -11.21  0.002043341    2.964    0.663
       250  -9.6110    151.2061     60.8791   5.4314154279e+01   3.9341904248e+01    0.3225904    0.1957745  50.01 0.0009737965    1.594    0.373
       251 -11.1475    142.0667     59.7227   5.5903481062e+01   4.1651267497e+01    0.3259838    0.2673659  12.86 0.0002054183    1.413    0.292
       252  -9.3162    145.6098     52.4677   5.2953491646e+01   4.1905000678e+01    0.3363042    0.2855305  21.04   0.00119118    1.307    0.235
       253  -9.7522    150.3705     53.5651   5.2321934677e+01   4.0628888737e+01     0.382594    0.2829033 -48.13  0.001218524    1.434    0.303
       254 -10.6153    153.6147     48.9320   5.0326109930e+01   4.0519655703e+01    0.4468667    0.3963824 -79.85  0.001339562    1.194    0.162
       255  -8.7190    115.4020     61.1256   6.2832904136e+01   4.7448778719e+01    0.1980559    0.1319724 -47.14 0.0004672578    1.684    0.406
       256  -9.9871    167.1866     56.6350   5.0049577389e+01   3.6226578762e+01    0.3403051    0.2212802 -41.10 0.0009488564    1.541    0.351
       257  -8.7217    177.5551     57.4853   4.8510292611e+01   3.3679291681e+01     0.185302     0.126793  51.23 7.357255e-05    1.479    0.324
       258 -10.3525    171.1009     59.5219   5.0157513161e+01   3.4884108007e+01    0.3120202    0.2904789 -46.52 0.0006098972    1.083    0.076
       259  -8.5911    174.6619     57.7158   4.9054247946e+01   3.4319293472e+01    0.2495551    0.1799938  52.10 0.0003258073    1.389    0.280
       260  -9.9731     70.6187     59.9637   7.6593838893e+01   5.6302169348e+01    0.4496165    0.2601807  34.96 0.0004784212    1.730    0.422
       261  -8.7857    199.0394     58.1062   4.5394430139e+01   2.8678881647e+01    0.1839784    0.1769413  30.27  0.001144606    1.215    0.177
       262 -11.0228    118.8284     52.3934   5.9052718118e+01   4.8062068052e+01    0.5654248    0.3941792  33.26 0.0002081235    1.474    0.322
       263 -11.5315    125.4688     46.0115   5.5325646045e+01   4.7483753897e+01    0.6021385    0.5860352  53.35  0.001956286    1.073    0.068
       264  -9.4721    240.9386     54.6351   3.9542383930e+01   2.0324380858e+01    0.2560134    0.1839899 -79.47 0.0008770351    1.425    0.298
       265  -9.0165     98.5350     54.9331   6.5535221850e+01   5.2002311807e+01    0.2050006    0.1360432 -32.65 0.0004203067    1.530    0.346
       266  -9.5673     93.5980     54.1921   6.6783746739e+01   5.3112507583e+01    0.3449639    0.2607551 -12.19 0.0008861288    1.397    0.284
       267  -9.0564    191.0718     53.9839   4.5503652392e+01   3.1066384816e+01    0.2042288    0.1958614  73.02   0.00106759    1.101    0.091
       268  -9.2564    136.6310     55.4237   5.5783358806e+01   4.3563712094e+01    0.2579955     0.225744 -41.66  0.001442006    1.199    0.166
       269 -10.7125    174.5195     50.5014   4.7125558385e+01   3.5379946308e+01    0.3297488    0.2920935 -11.19 0.0005771141    1.310    0.236
       270  -8.8366    106.8539     52.8850   6.2413993042e+01   5.0593619403e+01    0.2100462    0.1746931  21.64 0.0002802472    1.180    0.153
       271  -9.4989    164.7268     52.0415   4.9198830067e+01   3.7464232721e+01    0.2688869    0.1962258  56.46 0.0008869522    1.319    0.242
       272 -10.0525     88.4046     49.6562   6.6799025037e+01   5.4850582609e+01    0.4440281    0.2584924 -37.66   0.00213401    1.768    0.435
       273  -8.6185    245.0695     50.6621   3.8299709138e+01   2.0054705359e+01    0.1598177    0.1353512 -74.67 0.0003802424    1.102    0.093
       274  -9.3119    181.8950     49.8742   4.5805132482e+01   3.3748562747e+01    0.3168696    0.2330705 -40.94  0.001730718    1.349    0.259
       275  -9.3621     83.1720     50.8261   6.8934813448e+01   5.5661217825e+01    0.1943522    0.1505964   5.44 0.0005213419    1.313    0.238
       276  -8.4772    137.4634     49.4997   5.3752759594e+01   4.4231321674e+01     0.138819    0.1327649  54.27 0.0008094189    1.025    0.024
       277 -10.2200    114.7955     46.5341   5.8111026434e+01   4.9809083739e+01    0.3820022    0.2846289  15.01  0.001409386    1.529    0.346
       278  -9.1790     96.2195     48.9114   6.4105680580e+01   5.3412632974e+01     0.231217    0.1790168  39.09 0.0005108563    1.218    0.179
       279  -8.4582    214.9331     48.5028   4.1049996343e+01   2.6521678806e+01    0.1827709    0.1213442  68.46 0.0005964752    1.521    0.342
       280  -8.6727    163.6332     46.9499   4.7953950501e+01   3.8424748673e+01    0.2677556    0.1838557   0.55  0.001261219    2.155    0.536
       281  -9.1774    234.9060     47.0418   3.8546647485e+01   2.2547899779e+01    0.1802525    0.1501252 -65.26 0.0003286527    1.029    0.028
       282  -9.0937    202.7423     46.8568   4.2150422003e+01   2.9412663957e+01    0.2100231    0.1655858  59.43 0.0003002922    1.317    0.241
       283 -10.4452     80.7616     44.1629   6.7270409977e+01   5.7148912052e+01    0.4443108    0.3026555  -8.99  0.002290077    1.638    0.390
       284 -10.0925    244.1007     44.1820   3.7055723021e+01   2.1096586975e+01    0.3256887    0.2569736  62.59 0.0009892146    1.451    0.311
       285  -9.3129    249.1819     41.1883   3.5988582848e+01   2.0498145357e+01    0.1691491    0.1507035 -59.07 0.0004171703    1.153    0.133
       286  -9.6652    158.3458     41.0434   4.7176776850e+01   4.0451421551e+01    0.5799275    0.2095967 -31.02  0.002217625    2.909    0.656
       287  -8.9537    139.7680     44.5876   5.1736093839e+01   4.4369041763e+01    0.2543138    0.1660116   5.82 0.0008968125    2.293    0.564
       288 -10.7984     78.6248     33.9872   6.4050554051e+01   5.9001591158e+01    0.7706185    0.3607686  31.37  0.001756523    2.373    0.579
       289 -10.7093     92.9873     43.7744   6.3220447218e+01   5.4828191990e+01    0.7209373    0.5079746 -78.02  0.001408281    2.999    0.667
       290 -11.5118     89.2246     33.5752   6.0531924604e+01   5.6982720559e+01    0.4157599    0.3541061 -82.80 3.844732e-05    1.740    0.425
       291  -9.8707     71.9492     30.3186   6.4845167165e+01   6.0728446298e+01    0.2904996    0.2125851  32.91 0.0006726335    1.230    0.187
       292 -10.1837    116.0400    248.3729   1.0275723717e+02   7.4316782196e+00     0.250062    0.2147769  11.13 0.0009104615    1.279    0.218
       293 -11.8772    103.6875     38.7316   5.8307823133e+01   5.3297574409e+01    0.3119218    0.2762305  57.12 0.0003059543    1.216    0.177
       294  -8.8754      4.7391     45.0152   9.9934601801e+01   6.6530249953e+01    0.1662275    0.1166189 -39.55 0.0003279478    1.092    0.085
       295  -8.9516      8.6017     43.9085   9.7723833101e+01   6.6507154274e+01    0.1859876    0.1568094 -50.50 0.0006434504    1.300    0.231
       296  -8.5356    192.4812    248.4891   8.7293859079e+01  -3.5843024771e+00    0.1244309   0.09937306  11.05 5.279604e-05    1.006    0.006
       297 -10.6625      4.4293     35.7231   9.7155322555e+01   6.8320661356e+01    0.5010854    0.2084661 -49.88  0.002641793    1.895    0.472
       298  -9.8728      7.5235     39.4615   9.6828624309e+01   6.7425192597e+01    0.2074612    0.1409491 -43.03 0.0005371808    1.205    0.170
       299  -9.9303      4.4770     39.4886   9.8361865088e+01   6.7611572474e+01    0.2160109    0.1613286   0.87 0.0008877838    1.356    0.262
       300  -8.5366    209.6249     43.7551   4.0571024308e+01   2.8303076956e+01    0.1686756    0.1078195 -46.28 0.0001929219    1.444    0.308
       301  -8.4394    185.3730     44.2652   4.3833430505e+01   3.3697321021e+01     0.134422   0.09735956  38.53 0.0006987569    1.666    0.400
       302  -8.9848     71.5110     41.5784   6.9491246692e+01   5.9215244126e+01    0.3589502    0.1210378 -28.67  0.001195182    3.959    0.747
       303  -8.1119    191.7128     42.3220   4.2466890791e+01   3.2495708572e+01    0.1372104   0.09170529 -65.62 0.0006800272    1.601    0.375
       304 -10.4437     35.9099     41.1787   8.3832398197e+01   6.4523212298e+01    0.3757892    0.2153151  14.22  0.001575781    1.847    0.459
       305 -11.2411     41.2376     38.4496   8.0385416595e+01   6.4331727711e+01    0.3769991    0.2190243  -7.43 0.0008433585    2.078    0.519
       306 -10.4002    228.4192     38.8819   3.7441819735e+01   2.4928425705e+01    0.4505404    0.1773521 -35.77   0.00163494    2.332    0.571
       307  -9.0620    222.6377     40.4974   3.8383881177e+01   2.5929367406e+01    0.2103151    0.1096482 -35.37  0.001070122    1.843    0.457
       308  -9.0918    112.9924     41.2740   5.6764074139e+01   5.0932510081e+01    0.2005139    0.1843339  31.39 0.0001889978    1.011    0.011
       309  -9.6459    114.0325     35.4649   5.4489159873e+01   5.1452531309e+01    0.3021265    0.1613519  58.48   0.00138202    1.850    0.459
       310  -9.4880    117.7282     32.8663   5.2712853438e+01   5.0940297934e+01    0.2448238    0.1725455  45.09 0.0005457907    1.288    0.224
       311 -11.1044     56.2977     34.8959   7.2589593498e+01   6.2743130363e+01     0.395014    0.3623499  -1.41  0.001622951    1.226    0.184
       312 -10.5223    178.3442     37.1148   4.2962623202e+01   3.6239887389e+01    0.3838363    0.3263691 -85.98  0.001655693    1.131    0.116
       313  -8.1774    203.4534     39.4896   4.0293162615e+01   3.0213085160e+01    0.1288561    0.1137543 -73.67 8.456242e-05    1.009    0.009
       314  -8.2358    165.7481     39.3747   4.5475397357e+01   3.8913956903e+01    0.1345921    0.1268613  87.21 0.0008192585    1.021    0.021
       315  -9.1805    164.9424     36.0364   4.4669935028e+01   3.9518045374e+01    0.3467363    0.1972297  63.92  0.001071476    1.642    0.391
       316 -10.0608    141.8618     32.7734   4.7659618377e+01   4.5364032290e+01    0.4855758    0.3144375   5.72   0.00229667    2.253    0.556
       317  -9.8343    146.7444     29.4465   4.5762726836e+01   4.4596958398e+01    0.3624106     0.243576  84.76 0.0009031534    1.719    0.418
       318 -10.0826    136.4097     37.5503   5.0213253429e+01   4.6064926622e+01    0.3212703    0.2502462 -74.24  0.001097902    1.575    0.365
       319 -10.8192    131.6980     35.3673   5.0481029767e+01   4.7432562707e+01    0.4410117    0.3318067 -32.51            0    1.426    0.299
       320  -8.7109    120.3655     37.9457   5.3830551309e+01   4.9715397661e+01    0.2539097     0.114552 -39.26  0.001064337    2.401    0.584
       321 -10.8051    103.0174     43.0287   6.0032723791e+01   5.2855863408e+01    0.6061223    0.2532296  48.18            0    2.198    0.545
       322  -9.6104    238.8736     37.2340   3.6101070776e+01   2.3013040435e+01    0.2089633    0.1556205  54.62  0.001325406    1.621    0.383
       323  -9.3382    208.2497     36.6965   3.9078253030e+01   2.9504293633e+01    0.3235856    0.2125286   5.75  0.001251248    2.959    0.662
       324  -9.3401    185.8662     36.1873   4.1688692715e+01   3.4610701702e+01    0.2506177    0.1797986 -64.36  0.001013622    1.428    0.300
       325  -9.5860    186.5199     32.5151   4.0667034866e+01   3.4905021935e+01    0.2651165    0.2260544  80.41  0.001592303    1.084    0.078
       326 -10.6372    248.5483     30.4525   3.3900979377e+01   2.1949863680e+01    0.3894668    0.2333433 -23.21  0.001922546    2.223    0.550
       327  -9.0823    223.4145     34.7114   3.7028955198e+01   2.6491662267e+01    0.2084175    0.1708163 -67.04 0.0006736058    1.049    0.046
       328  -8.7324     94.8622     35.1834   5.9476833938e+01   5.5622244272e+01    0.1922879    0.1729247  54.81 0.0003940653    1.239    0.193
       329  -8.3214     66.6572     35.3057   6.8773052355e+01   6.0981632067e+01    0.1171868    0.1077663  87.02 0.0007041852    1.687    0.407
       330  -9.0088    123.1319     33.8184   5.1810578441e+01   4.9596725484e+01    0.1890891    0.1753805  74.53 0.0002839617    1.154    0.134
       331  -9.8215    163.7786    246.2029   9.2658595705e+01   8.5240533523e-01    0.1825467    0.1354409   2.96  0.001089229    1.406    0.289
       332  -9.8912    202.7115    242.1471   8.4318436685e+01  -4.0626808186e+00    0.2034153    0.1419832  29.90 0.0004476033    1.326    0.246
       333  -9.2018    154.5002     32.0677   4.5221928689e+01   4.2461226388e+01    0.2568627    0.1637584  49.24  0.001320249    1.517    0.341
       334  -9.2111     42.8796     31.2441   7.6713363531e+01   6.5257262440e+01    0.3167554    0.1823867 -50.19  0.001217827    2.482    0.597
       335  -8.8217    129.3581    241.3003   9.9099992413e+01   6.7634631285e+00    0.1284357    0.0943504   1.75 0.0004828798    1.711    0.416
       336  -9.9789     31.1907     28.3140   8.0848861448e+01   6.7192746551e+01    0.3597709    0.2470581 -10.64  0.001543778    1.285    0.222
       337  -9.6693     34.4840     31.5055   8.0634755622e+01   6.6298030019e+01    0.2100898    0.1646259  -2.41  7.95267e-05    1.066    0.062
       338 -10.2883     37.2133     27.0633   7.7481004656e+01   6.6639270754e+01    0.4061933    0.2266715 -31.17  0.002259065    1.636    0.389
       339  -9.5748    234.0959     30.5740   3.5143075310e+01   2.4790719121e+01    0.2923325    0.1713796  47.26  0.001581516    2.327    0.570
       340  -9.0804     94.6116     30.1460   5.7649954070e+01   5.6305982792e+01    0.2965059    0.1520545  43.08  0.001400811    1.751    0.429
       341  -8.6702    206.5136    240.5161   8.3326142060e+01  -4.3446655621e+00       0.1248   0.09971745   6.26 0.0001027206    1.009    0.009
       342  -9.4444    221.0851    237.3297   8.0057976686e+01  -5.8428312277e+00    0.1727199    0.1318861  13.18 0.0008221504    1.113    0.102
       343 -10.3145    222.8188     26.4884   3.5293121683e+01   2.7602473864e+01    0.4154105    0.3258753 -51.80  0.002742423    1.162    0.139
       344  -8.5020    206.9668     17.2036   3.4715967642e+01   3.2041871367e+01    0.1517249    0.1260607 -85.61 0.0004664169    1.048    0.046
       345  -8.3908      1.3600    244.1611   1.2474595520e+02   2.1939604041e+01    0.1482679   0.07755925  82.35 0.0004413918    1.634    0.388
       346  -9.0544    139.8535    237.0845   9.6313625581e+01   5.9541740942e+00    0.1869689    0.1608104  46.78 0.0003416581    1.192    0.161
       347  -9.2232    125.5270     29.4184   4.9822310159e+01   4.9562608855e+01     0.471776    0.1031712  56.77  0.001506416    3.686    0.729
       348  -8.7685    189.5174     28.6688   3.9324893694e+01   3.4669679673e+01    0.2104332    0.1102581  68.85   0.00049548    1.793    0.442
       349  -8.9678    134.1839     27.8889   4.7578823793e+01   4.7724868301e+01     0.193996    0.1756661 -77.81 0.0008775103    1.212    0.175
       350  -8.7483     32.0648    232.5254   1.1837186261e+02   2.1233529473e+01    0.1768495    0.1327061  88.28 0.0005816097    1.196    0.164
       351  -8.1291     68.2943     27.0203   6.4767304230e+01   6.1815644581e+01    0.2006672   0.09487331  -9.27 0.0007009538    4.041    0.753
       352 -10.1243    241.5870     25.1282   3.3396404523e+01   2.3937649332e+01    0.2100012    0.1964662 -68.85  0.001018788    1.244    0.196
       353  -8.9751     50.0129     23.2905   7.0199571998e+01   6.5351857371e+01    0.2639339    0.1371684  -8.78   0.00117345    2.709    0.631
       354  -9.5180     45.8640     25.2959   7.2845253476e+01   6.5702027285e+01     0.227249    0.2200374  22.49  0.001116344    1.507    0.336
       355 -10.2526     41.2120     21.7803   7.3319386011e+01   6.6853012543e+01    0.2498629    0.2342781  10.23 0.0009621888    1.432    0.301
       356 -11.2861      2.0706     25.1210   9.4634049689e+01   7.0370063034e+01    0.2460979    0.1519621 -44.02 0.0004825111    1.363    0.267
       357  -9.9778    186.5085    231.0072   8.5698151716e+01  -3.1711376543e-02    0.1855451    0.1213365 -36.35  0.001032697    1.592    0.372
       358  -9.2582    177.3395    231.1773   8.7588235226e+01   1.3072249845e+00    0.2505459   0.08814572  33.25 0.0009966118    2.621    0.618
       359  -8.1385      3.3450    230.2800   1.2372950679e+02   2.4483679861e+01   0.09622688   0.08075766 -51.08 0.0002419187    1.635    0.388
       360  -8.8323    163.4737    226.5584   8.9730200557e+01   4.2139778985e+00     0.179271    0.1206425 -31.49 0.0006602593    1.609    0.378
       361  -8.4641    161.3331    224.2782   8.9818593970e+01   4.9518861523e+00    0.1766646    0.1313743 -23.80  0.000239375    1.451    0.311
       362  -9.0216    223.8191    225.0555   7.7457289315e+01  -4.4267452050e+00    0.2053513    0.1531969  17.47 0.0006175792    1.201    0.167
       363 -11.0216    173.9631     22.7896   3.9765224586e+01   3.8919754302e+01    0.4715171    0.2961197  64.61 0.0005255162    1.443    0.307
       364  -8.9423    222.2072    233.5837   7.9220801652e+01  -5.4560622991e+00    0.1704933   0.09910505  19.13  0.000928571    1.608    0.378
       365  -9.9951     62.0746     23.3734   6.5480938970e+01   6.3368764578e+01    0.4347655    0.2461869  18.41  0.002163369    2.003    0.501
       366  -8.8027     66.0000     23.0563   6.3907951095e+01   6.2719410633e+01    0.1827062     0.118746  -6.92 0.0004708385    1.624    0.384
       367  -8.5788    131.5975    225.4711   9.6431836812e+01   9.3638750277e+00    0.1303264      0.11894  31.70 2.702039e-05    1.022    0.021
       368  -8.0526      1.7158    224.2923   1.2372985464e+02   2.5840898707e+01    0.1154804   0.06299108  64.82  0.000195286    1.537    0.349
       369  -9.2209     55.0240     19.0385   6.6267100148e+01   6.5091227863e+01    0.2292729    0.1489257  23.70 0.0003249179    1.385    0.278
       370  -8.9319    196.5498    222.2340   8.2207603023e+01  -9.6151445057e-02    0.1794764    0.1117861 -25.07 0.0009436563    1.639    0.390
       371  -8.7670    188.5235     22.9124   3.8008743215e+01   3.5545538381e+01    0.1735426    0.1217415 -34.66 0.0003682958    1.499    0.333
       372  -9.6220    153.5629     23.0724   4.2748118352e+01   4.3684257059e+01    0.2414939    0.1654635  55.05 0.0005869166    1.338    0.253
       373  -9.2988    124.9908     23.3760   4.7919935896e+01   5.0348222153e+01    0.1860811    0.1425647  56.97 0.0002582765    1.169    0.145
       374  -9.5020     84.4360     20.8675   5.6966715773e+01   5.9461234075e+01    0.3560321    0.2030433 -43.68  0.001070898    2.312    0.568
       375  -8.9363     79.7755     22.2689   5.8955466266e+01   6.0231623065e+01    0.2135436    0.1627662 -31.76  0.001273184    1.472    0.321
       376  -8.3866    130.4736    221.4529   9.6090940809e+01   1.0315630582e+01    0.1337713    0.1208478  29.16 6.872284e-05    1.012    0.012
       377  -9.2153     88.7444    220.9929   1.0532511639e+02   1.6634283639e+01    0.2194237     0.176587  39.42 0.0005754099    1.162    0.139
       378  -9.7628    131.8958     21.3971   4.5927745131e+01   4.8952360802e+01    0.2594049    0.2132755  26.46  0.001043326    1.298    0.230
       379  -8.6325     10.2872     22.4080   8.9050163846e+01   7.0225749807e+01    0.1330616   0.09843633  20.41 0.0004590924    1.505    0.336
       380  -9.2486    139.4267     19.9460   4.4118816550e+01   4.7337702532e+01    0.3076504     0.203539  40.03  0.001130486    1.556    0.357
       381  -8.3576     94.2116     20.8287   5.4192798853e+01   5.7447794626e+01     0.444297    0.2156736  59.21  0.002036544    2.124    0.529
       382  -9.5656    199.7139     18.7705   3.5791346246e+01   3.3472940721e+01    0.2801693    0.2062101 -34.41  0.001727643    1.449    0.310
       383  -8.5138     35.6789     20.1982   7.5129474038e+01   6.7825335568e+01    0.1695397   0.09400835 -25.35 0.0006945378    1.678    0.404
       384  -9.2454    144.2324     18.3548   4.2828105638e+01   4.6367153121e+01    0.2819491     0.179825  21.37  0.001164127    2.123    0.529
       385  -8.3167    152.2077     17.9722   4.1469265127e+01   4.4527107768e+01    0.1559215    0.1043721 -27.82 0.0003455119    1.663    0.398
       386 -10.1150    165.3132     20.6998   4.0358081891e+01   4.1165389390e+01    0.2818103    0.2156647  79.34 0.0002549721    1.215    0.177
       387  -8.2979    203.3862    217.5540   8.0036258008e+01  -3.5114815594e-01    0.1304812     0.107747  -2.24 4.303019e-05    1.030    0.029
       388  -8.4098    110.3343    214.6624   9.9633978810e+01   1.4795726970e+01    0.1422364   0.09854531  65.42 0.0007051848    1.746    0.427
       389  -8.8203    242.3072    209.8167   7.1404190851e+01  -4.6536063997e+00    0.1798748    0.1434594 -36.92 0.0009974035    1.465    0.317
       390  -9.0021    231.0118    209.1842   7.3296883760e+01  -3.0167335194e+00    0.1959005    0.1408432  -1.01 0.0004612748    1.266    0.210
       391  -8.3985    123.8870    206.1210   9.5245086390e+01   1.4463998471e+01    0.1767608    0.1542787  -2.73  0.001001837    1.263    0.208
       392  -8.1295     95.3142    205.3136   1.0180093038e+02   1.9054007856e+01    0.1332943    0.1058986 -18.64 0.0004081095    1.639    0.390
       393  -9.2677     35.0957    200.8102   1.1521876177e+02   2.7739057693e+01    0.2450051     0.147771  74.83  0.001321467    1.665    0.399
       394  -8.4245    120.1893    199.4110   9.5041757205e+01   1.6488006352e+01     0.194211    0.1228455  46.21  0.000430104    1.573    0.364
       395  -8.9735      6.4216    194.7896   1.2104565188e+02   3.1778525846e+01    0.1675729   0.08935505 -66.88 0.0009393039    1.683    0.406
       396  -8.4366    241.9815    193.7606   6.8468474871e+01  -2.1608632267e+00    0.1520784    0.1008304  29.10 0.0004459654    1.573    0.364
       397  -8.9368     55.2367    181.2101   1.0834570874e+02   3.0059828802e+01    0.1917008    0.1708293 -65.42 0.0005390694    1.125    0.111
       398  -9.1581    161.2578     31.2257   4.3892050186e+01   4.0961219015e+01    0.4152796    0.1573408  50.12  0.001660854    2.569    0.611
       399 -10.6705    100.9988    176.0015   9.5869365799e+01   2.4887997278e+01    0.2016361    0.1977347  79.46  0.001162233    1.004    0.004
       400  -8.6968    154.6000     14.7151   4.0177130416e+01   4.4282244314e+01    0.1527992    0.1166912 -45.26 0.0002124108    1.405    0.288
       401  -8.6143     72.3634     15.1802   5.8343005280e+01   6.2434443563e+01    0.1699059    0.1455302  -2.41 0.0004309655    1.169    0.144
       402  -9.7319     18.4700    174.2406   1.1667108595e+02   3.5520770541e+01    0.2336986    0.1977127 -27.07  0.000982337    1.527    0.345
       403  -7.9519     75.0378     12.5225   5.6353416623e+01   6.2188459161e+01    0.2151146    0.1890577 -89.27  0.001369086    1.687    0.407
       404  -9.9783      7.0236    174.3752   1.1941338101e+02   3.6417686038e+01    0.2164834    0.1951367 -82.84  0.001212073    1.150    0.130
       405 -10.1849      7.2625    166.3621   1.1869533242e+02   3.8291696452e+01    0.2721848    0.1993624 -47.97 0.0009510524    1.510    0.338
       406 -11.2223     12.6016    164.7087   1.1723199986e+02   3.8280287881e+01    0.4632172    0.3066688  43.26   0.00235291    1.593    0.372
       407 -10.5473     23.8249    163.0014   1.1421617863e+02   3.7760730956e+01     0.436482    0.2201217   9.67  0.001841599    3.027    0.670
       408  -9.5493     20.9681    160.4871   1.1468638845e+02   3.8619795530e+01    0.2427418    0.1844106 -65.21 0.0004318559    1.178    0.151
       409 -11.5500     35.7998    158.6170   1.1055242403e+02   3.7716824118e+01    0.5600756    0.3228967  36.04  0.002821358    1.834    0.455
       410 -12.3415     30.6696    154.6885   1.1144780110e+02   3.9180934335e+01     1.256686    0.5688115  56.36  0.005226473    2.815    0.645
       411  -9.6083     10.0350    158.0052   1.1725086696e+02   4.0087880312e+01    0.2162023    0.1270761  67.13  0.001151371    1.792    0.442
       412 -10.5551      2.1045    155.0139   1.1899669690e+02   4.1359851018e+01    0.4797303    0.1690479 -74.30  0.002128931    2.271    0.560
       413  -9.4868    249.0313    153.7235   5.9395970391e+01   3.2535093353e+00    0.1815867    0.1543502 -16.00 0.0005260029    1.084    0.077
       414  -9.3271     45.8681    151.4743   1.0681343039e+02   3.8445565799e+01    0.2354695    0.1705372 -66.39 0.0001962369    1.231    0.188
       415  -9.9672     20.2155    150.8405   1.1382447696e+02   4.1042598778e+01    0.4398319    0.1537107 -52.72  0.001819716    2.583    0.613
       416 -10.7222      5.4133    146.9350   1.1738631369e+02   4.3086896597e+01    0.5330473    0.2878076  49.92  0.002828112    2.030    0.507
       417 -10.3738      9.1872    151.6258   1.1685149643e+02   4.1691880683e+01    0.2612124    0.2096236  28.03 0.0009469328    1.484    0.326
       418 -10.1531     14.0328    150.4993   1.1545085788e+02   4.1611229354e+01    0.2684575    0.2265295  45.36   0.00102552    1.324    0.245
       419  -8.8729     23.0236    138.7520   1.1155962963e+02   4.3797060223e+01    0.2105646    0.1544922 -49.13 0.0005185909    1.313    0.238
       420 -10.4200     13.5270    144.5961   1.1494492874e+02   4.3092118382e+01    0.4756628    0.2146864 -42.91  0.002158408    2.496    0.599
       421 -10.3222     18.0727    140.5009   1.1319767940e+02   4.3757424477e+01    0.4505779    0.1942579  35.01   0.00210108    2.485    0.598
       422  -8.6773     29.8259    142.2097   1.1006279125e+02   4.2354589103e+01     0.182103    0.1346436 -49.84 0.0003167274    1.300    0.231
       423 -10.7699      8.3948    122.9324   1.1384112179e+02   4.8737366451e+01    0.3672211    0.2509819 -35.93  0.001616446    1.562    0.360
       424  -9.9686      2.1486    139.7850   1.1755669889e+02   4.5023822081e+01    0.4973064    0.2655516  56.81  0.002236072    2.138    0.532
       425 -11.1663      3.0436    130.4501   1.1632035171e+02   4.7231922501e+01    0.8671748    0.1786306 -64.68  0.002404582    3.055    0.673
       426  -8.5348     68.4408    140.1996   9.8394551828e+01   3.8517575432e+01    0.2139147    0.1345398 -76.38 0.0009403926    1.861    0.463
       427  -9.6502     41.5185    139.0213   1.0618418745e+02   4.2023115668e+01     0.251088    0.1804346  50.49 0.0008755777    1.546    0.353
       428  -9.3750    230.6606    137.0217   5.8846540323e+01   9.1446036455e+00    0.1980845    0.1570082 -31.83  0.000484419    1.094    0.086
       429  -8.3705    236.3105    136.6815   5.7858270850e+01   8.2141916946e+00    0.1314517    0.1005923 -62.11 0.0003589213    1.642    0.391
       430  -9.4119     75.7593    135.8246   9.5360555532e+01   3.8581620768e+01    0.3405502    0.2410501  13.29  0.001615554    1.732    0.423
       431  -8.2152     83.2841    135.6894   9.3091744639e+01   3.7491962635e+01    0.1464985     0.115863  79.41 0.0003033576    1.571    0.364
       432  -8.3963     49.9600    135.0386   1.0299918369e+02   4.2108383975e+01    0.1641228    0.1479393 -62.73 -0.001877172    1.007    0.007
       433  -9.6628     14.8775    135.3265   1.1347742329e+02   4.5269085160e+01    0.2821352     0.166223  21.95  0.001514132    2.017    0.504
       434  -8.8064    248.7684    133.9772   5.5372631997e+01   6.5583084063e+00    0.1794666   0.09318394 -37.23 0.0005006594    1.608    0.378
       435 -11.2862     43.6218    130.6693   1.0418123575e+02   4.3893092024e+01    0.5877859    0.4074329 -35.49  0.002741826    1.551    0.355
       436 -10.7204     28.7426    132.1158   1.0894814223e+02   4.4961433556e+01    0.2207989    0.2116385  64.62  0.000348525    1.171    0.146
       437 -10.4306     10.1414    130.1371   1.1422015797e+02   4.6867879473e+01    0.5395991    0.2119272 -53.98  0.001749423    2.095    0.523
       438  -9.5580     13.1343    127.1665   1.1295673356e+02   4.7394706459e+01    0.2081764    0.1746464  45.73 0.0007123132    1.376    0.273
       439  -9.3808     61.8840    130.9819   9.8608837208e+01   4.1682771311e+01    0.2139357    0.1946459 -68.37 0.0004436379    1.070    0.065
       440  -8.7545     20.3853    131.1899   1.1132281900e+02   4.5877422547e+01    0.1788696    0.1104156 -79.29 0.0006805178    1.516    0.340
       441 -10.8262     88.5753    128.0393   8.9841821787e+01   3.8528334116e+01    0.2547047    0.2491369 -17.89 0.0002357235    1.045    0.043
       442 -10.3242     38.7373    123.0751   1.0439064318e+02   4.6280999196e+01    0.4058315    0.2456156  -0.90  0.001423857    2.305    0.566
       443 -10.5000     33.6107    124.4245   1.0624313960e+02   4.6435501632e+01    0.4499575    0.2404692 -89.95  0.001847039    2.698    0.629
       444  -9.1665     55.8316    125.6454   9.9451514870e+01   4.3764926552e+01    0.2548571    0.1722832 -50.35 0.0006491417    1.333    0.250
       445  -8.9999     59.6853    125.0079   9.8109683388e+01   4.3446591164e+01    0.2095834    0.1714199 -59.15 0.0008980929    1.124    0.111
       446  -8.6751     71.9688    123.6832   9.3967438618e+01   4.2122432121e+01    0.1911432     0.189276  -0.20 0.0003581246    1.082    0.076
       447  -9.5933    131.0263    122.9920   7.6560618947e+01   3.1894301495e+01    0.2253805    0.2179547 -16.72            0    1.008    0.008
       448  -9.8494    236.8123    121.3936   5.4493973733e+01   1.0733258824e+01    0.2554947    0.1987362   1.66  0.001419977    1.608    0.378
       449 -10.0326     28.7491    115.9410   1.0636770288e+02   4.8959620044e+01     0.304501    0.2496767 -78.98  0.001814584    1.214    0.176
       450 -10.0667     13.9161    109.7134   1.1021954894e+02   5.1595293877e+01    0.3737319    0.2069723 -41.30 0.0009453823    1.721    0.419
       451 -11.7657     21.2165    119.6776   1.0940021452e+02   4.8650014572e+01    0.8047697    0.4209127  47.19  0.003844699    2.345    0.574
       452 -10.7465     13.8265    113.5730   1.1083963550e+02   5.0666475619e+01    0.4253471    0.2142333  14.10  0.002098226    2.447    0.591
       453  -8.9714    124.1857    121.1736   7.7931728257e+01   3.3672959981e+01    0.3084981    0.2043553  49.49 0.0007353407    1.642    0.391
       454 -10.7016     61.8371    120.4276   9.6477335534e+01   4.4301129010e+01    0.2553162    0.2238086 -58.59 0.0002422537    1.076    0.071
