#   1 NUMBER                 Running object number                                     
#   2 MAG_AUTO               Kron-like elliptical aperture magnitude                    [mag]
#   3 X_IMAGE                Object position along x                                    [pixel]
#   4 Y_IMAGE                Object position along y                                    [pixel]
#   5 X_WORLD                Barycenter position along world x axis                     [deg]
#   6 Y_WORLD                Barycenter position along world y axis                     [deg]
#   7 A_WORLD                Profile RMS along major axis (world units)                 [deg]
#   8 B_WORLD                Profile RMS along minor axis (world units)                 [deg]
#   9 THETA_WORLD            Position angle (CCW/world-x)                               [deg]
#  10 FWHM_WORLD             FWHM assuming a gaussian core                              [deg]
#  11 ELONGATION             A_IMAGE/B_IMAGE                                           
#  12 ELLIPTICITY            1 - B_IMAGE/A_IMAGE                                       
         1 -12.7065    179.7725     57.3850   8.0459408557e+01   3.2766822072e+01     1.408567     1.259537  -4.28  0.003680397    1.234    0.190
         2 -11.2010    161.7179     62.1264   8.5360191097e+01   3.6593902098e+01    0.8376943    0.5384991 -64.20  0.001705064    2.129    0.530
         3 -11.9072    182.9354     33.3241   7.2741079087e+01   3.5302033625e+01     0.745792    0.5015373 -68.63  0.001807925    1.745    0.427
         4 -10.6985    204.7935     23.5463   6.7034895607e+01   3.0900152770e+01    0.5219055    0.3285048 -39.00  0.001063884    1.540    0.351
         5 -11.8353    200.7257     35.4606   7.0840671104e+01   3.0479538516e+01     0.961673    0.4850839 -59.96  0.002727118    2.537    0.606
         6 -12.2363    222.4268     12.2311   6.2227026974e+01   2.7809664314e+01     1.292018    0.6371108 -57.48  0.005126196    2.096    0.523
         7 -13.3829    236.7061      4.5639   5.9162403005e+01   2.5241431561e+01     2.100039     1.004634  72.68  0.009091202    1.984    0.496
         8  -7.6697    207.0022      1.5323   6.0908491340e+01   3.2665525937e+01    0.1925244    0.1187521  76.32 0.0004303465    1.486    0.327
         9  -8.6882    189.3355     15.4419   6.6614716645e+01   3.5723743027e+01    0.2559058     0.217518 -66.22 0.0006495613    1.157    0.135
        10  -8.8833     54.9093    250.6199   1.4363543952e+02   1.8160369847e+01    0.1445624   0.07900376  46.77 0.0002574366    1.474    0.321
        11 -10.4419    194.9577    170.1827   1.0604559523e+02   9.3199414777e+00    0.3912674    0.2697991 -16.97  0.001930059    1.741    0.426
        12  -8.3015    230.7420    168.6293   9.9074451922e+01   2.7408637492e+00    0.4244612      0.15316 -45.83  0.001466289    3.915    0.745
        13 -11.1909    207.3261    182.2978   1.0607094806e+02   4.9778824700e+00     1.102015    0.5717868 -55.52  0.004280563    3.548    0.718
        14  -8.6378    177.8027    186.2513   1.1254265457e+02   9.8827948669e+00    0.2391871     0.153234  44.74 0.0006360263    1.434    0.303
        15  -9.4234     10.9549    206.9913   1.4844138989e+02   3.0818620217e+01    0.2752345    0.1794283  51.53  0.001248107    1.386    0.279
        16 -11.6719     88.9070    152.4549   1.2627293596e+02   3.2868940147e+01    0.6118208    0.4174725  87.12  0.003076397    1.701    0.412
        17 -11.3703     96.7900    148.6417   1.2368675782e+02   3.2461651121e+01    0.5721804    0.4162955  87.15  0.002499579    1.563    0.360
        18  -9.7566    191.8750    150.8514   1.0257792891e+02   1.3331717577e+01    0.2972271    0.2910028 -71.73  0.001722871    1.149    0.130
        19 -10.7935    133.2555    144.6507   1.1407035284e+02   2.6706125097e+01     1.338036    0.5072718 -49.26  0.004786708    2.683    0.627
        20  -9.7819    145.0680     95.7988   9.9173421275e+01   3.4473703274e+01    0.6770535    0.4460701  -1.41   0.00250982    2.744    0.636
        21 -11.1420    134.7923    108.3720   1.0513123092e+02   3.4171139736e+01     1.401616    0.5669105 -38.87   0.00477474    2.682    0.627
        22 -10.2346    136.0000    130.5559   1.1030510912e+02   2.9179088995e+01     0.975206    0.2023093 -49.27  0.002412471    5.245    0.809
        23 -10.8197    135.1855    122.1511   1.0851452194e+02   3.1152516052e+01     1.199192    0.3309755 -51.66   0.00251595    4.512    0.778
        24  -8.8098    113.2527    152.2336   1.2035078888e+02   2.8826877277e+01    0.3617185    0.2225693 -79.36  0.001533494    2.297    0.565
        25 -11.5673     57.0110    147.4385   1.3331926791e+02   3.8491450106e+01    0.9281272    0.5245711  16.17  0.004152857    3.143    0.682
        26 -11.8524     66.4644    128.5543   1.2789759023e+02   4.1641695570e+01     1.235198    0.9261916  -7.50  0.006475964    2.068    0.516
        27 -11.4804     66.7228    147.3111   1.3090286087e+02   3.7267577396e+01    0.7480645    0.4045029  87.73  0.003193204    2.604    0.616
        28 -12.6851     68.2846    138.3005   1.2908480513e+02   3.9132212023e+01     1.090373     0.893603  85.91  0.006495875    1.167    0.143
        29  -9.1637    123.1853    146.5613   1.1686519094e+02   2.8239727840e+01    0.2442236    0.2292505 -70.72 0.0002610581    1.060    0.056
        30  -7.5228    162.6686    143.6782   1.0712505649e+02   2.0862252429e+01    0.1531085    0.1183261   5.83 0.0002795542    1.698    0.411
        31  -8.1887    229.9450    140.5742   9.3172680799e+01   7.2569696698e+00    0.1896486    0.1689398  33.35 0.0006144898    1.154    0.133
        32 -10.1787    188.0142    137.8652   1.0042162022e+02   1.6527142374e+01    0.3524863     0.331213  89.75 0.0004177298    1.213    0.175
        33  -9.7232    188.8460    130.8400   9.8598039933e+01   1.7648434334e+01    0.3649332    0.1693443 -48.23  0.001346746    2.432    0.589
        34  -8.0644    150.3195    132.6677   1.0740421309e+02   2.5730521162e+01     0.155413    0.1205493 -89.21  0.000704869    1.694    0.410
        35  -9.4587    120.9770    131.4414   1.1420709988e+02   3.1985170995e+01    0.2723044    0.2109069 -50.65 0.0001704055    1.279    0.218
        36 -10.2751    234.4477    130.2775   9.0068469505e+01   7.9982854862e+00    0.2483283     0.233485  36.72 0.0002315869    1.154    0.134
        37 -10.1469    160.8228    128.9467   1.0412636503e+02   2.4218769770e+01    0.4830823    0.3328004 -63.77   0.00211669    1.836    0.455
        38  -7.7096    150.6283    148.8319   1.1093721218e+02   2.2331080674e+01    0.2002735    0.1379326 -59.21 0.0003395814    1.643    0.392
        39 -11.0777    185.6944    121.2404   9.6900134403e+01   2.0146118267e+01    0.7109122    0.3876541 -21.54  0.002573409    2.688    0.628
        40  -8.7165    163.3152    121.4739   1.0173966385e+02   2.5167791763e+01    0.2541201    0.1850112 -63.41 0.0006551684    1.667    0.400
        41  -7.7329    250.4940    116.4822   8.4360403559e+01   6.9342009061e+00    0.1380591    0.1222939 -18.52 -5.087251e-05    1.027    0.027
        42  -8.1052     45.0155    116.0390   1.3164105139e+02   4.7155992182e+01    0.1529849    0.1345277 -74.68 0.0004272084    1.044    0.042
        43  -8.9599    180.8861    115.1708   9.6361913223e+01   2.2389664758e+01    0.2201363    0.2070803 -66.42  0.000481788    1.133    0.117
        44 -10.1648    124.5074     99.2879   1.0532844624e+02   3.8274223442e+01    0.5772531    0.3649605  10.89  0.001809479    3.177    0.685
        45 -10.6019    120.0768    111.7855   1.0978383875e+02   3.6495158051e+01    0.4564962    0.3691962 -80.46  0.002201959    1.458    0.314
        46 -11.1032    120.1981    104.5819   1.0789173680e+02   3.8034754851e+01    0.6624506    0.4363537 -57.78  0.002963576    1.641    0.391
        47  -9.1526    185.4531    110.4774   9.4223023250e+01   2.2210605228e+01    0.2143897    0.1505322  62.65 0.0001094228    1.611    0.379
        48 -11.4372    188.2643     99.2982   9.0728651629e+01   2.3595094289e+01    0.8665274     0.424155 -38.31  0.003367222    1.984    0.496
        49  -9.5775     61.8773    108.7451   1.2540669404e+02   4.6855164561e+01    0.3093249     0.174363 -66.48  0.001475085    1.713    0.416
        50  -8.7758     23.9660    111.6692   1.3691584761e+02   5.0171151657e+01     0.166048    0.1443466 -76.58 0.0005118795    1.085    0.079
        51  -9.1148     66.6417    104.9642   1.2319692882e+02   4.7097193633e+01    0.2956868     0.193953   5.05  0.001360914    2.491    0.599
        52  -7.1096    239.2947     96.7584   8.1369739792e+01   1.2301188963e+01    0.1322395    0.1053089 -66.45 0.0006837058    1.474    0.321
        53  -8.8276    237.9778    111.0340   8.4995921010e+01   1.0335281245e+01    0.2198488    0.1684884 -68.12  0.000811784    1.706    0.414
        54  -9.7637    151.0328     89.0030   9.5817645227e+01   3.4419830607e+01    0.6212733    0.3772165 -59.01  0.001166042    2.150    0.535
        55  -9.7415    153.6944     85.9818   9.4324182770e+01   3.4364096041e+01    0.4541664      0.36248 -61.74   0.00140598    1.414    0.293
        56 -10.5265    188.3021     88.7503   8.7867140432e+01   2.5461918419e+01    0.6753229    0.3601965 -64.79  0.002099752    3.777    0.735
        57  -7.5170    206.1193     89.6465   8.4872977375e+01   2.1009836561e+01    0.2053781    0.1339386  44.63 0.0003705642    1.625    0.384
        58  -8.6652    136.3978     88.6217   9.9244233114e+01   3.7869814466e+01    0.3594599    0.2726162  87.96  0.001267889    1.827    0.453
        59  -8.9258    189.1931     67.8289   8.1836548981e+01   2.8751549397e+01    0.2376993    0.2286632 -62.49 0.0003568138    1.025    0.024
        60  -8.1994    121.9217    238.8387   1.3103007558e+02   1.0741123492e+01    0.2081602    0.1336457  76.85 0.0007343119    1.969    0.492
        61 -10.3131    162.0443     76.9187   8.9793663558e+01   3.3999694641e+01    0.6663141    0.4495727 -62.83  0.001282287    1.910    0.476
        62 -11.7961    166.1631     72.4986   8.7605456048e+01   3.3752218802e+01    0.9320523    0.7643075 -87.54  0.002309234    1.440    0.306
        63  -7.6729    127.7902    233.9719   1.2940706537e+02   1.0601594705e+01    0.1376624   0.09687562 -59.18 0.0008660147    1.710    0.415
        64  -9.2560    184.6404     77.5861   8.5444649259e+01   2.8285350068e+01    0.2762562     0.240621 -25.31 0.0006867788    1.176    0.150
        65 -10.5350    146.0132     75.6027   9.2996513063e+01   3.8119064368e+01    0.5244611    0.3761837 -62.11  0.001144876    1.720    0.418
        66  -8.1806    236.8710     72.7801   7.5825170040e+01   1.6500845693e+01     0.236893    0.1835519 -79.27 0.0004076274    1.490    0.329
        67  -7.9794    152.0438     70.9049   9.0162798185e+01   3.7505936895e+01    0.2211044    0.1978513 -81.30  0.001130445    1.248    0.198
        68  -8.3064     85.6689     70.4895   1.0805496271e+02   5.1718655010e+01    0.2612631    0.1229465 -45.06  0.001085822    1.976    0.494
        69  -8.1114     38.1292     70.4779   1.2431771891e+02   5.8166271938e+01    0.1691747    0.1262037  22.32  0.001028498    1.580    0.367
        70  -9.7557    244.6511     55.1853   7.0534556501e+01   1.7266943428e+01    0.2546723    0.2259445  44.76 0.0004093936    1.303    0.233
        71  -9.4564    248.8158     51.1435   6.9096903010e+01   1.6888391162e+01    0.4139739     0.247249 -18.25  0.001257333    2.038    0.509
        72  -8.3628    130.0906     55.7770   9.0434741892e+01   4.5324859393e+01    0.2343574    0.2043169 -28.47 0.0003003612    1.145    0.127
        73 -10.6001    188.3244     50.2158   7.6892965817e+01   3.1643782218e+01    0.9114683    0.4763547 -64.92   0.00319705    3.080    0.675
        74 -10.7930    185.0746     41.2121   7.4761275500e+01   3.3726525937e+01    0.5681217     0.444865  53.73  0.002944033    1.266    0.210
        75 -10.4000    178.0168     34.6879   7.3907285227e+01   3.6397969929e+01    0.4983986    0.3214113 -45.66 0.0006737247    1.596    0.374
        76 -10.4551    179.6371     30.4914   7.2384563720e+01   3.6503751058e+01       0.3049    0.2743645 -41.54 0.0006308464    1.139    0.122
        77 -10.7513    181.4476     37.4951   7.4218687916e+01   3.5151680448e+01    0.3091238    0.2584494  42.00 0.0006925713    1.260    0.206
        78  -9.8468     32.9898    228.6988   1.4589613685e+02   2.4509141710e+01     0.230811     0.172707 -70.43 0.0008078208    1.571    0.364
        79 -10.3637    212.8650     31.2328   6.8157125274e+01   2.7964560657e+01    0.4814335    0.3483301  84.73  0.001481099    1.396    0.284
        80 -11.0444    208.8318     27.0590   6.7513674211e+01   2.9474875753e+01    0.4051259    0.3663449   8.06 0.0008503839    1.323    0.244
        81 -13.1702     35.6211    215.2998   1.4457736264e+02   2.6688959135e+01     1.206648    0.6653504  65.83  0.003802493    1.489    0.328
        82  -8.8332    109.5400    224.2675   1.3169351693e+02   1.5084709336e+01    0.2415951    0.1914791  56.31  0.001367088    1.024    0.023
        83 -10.8095    196.9242     32.2797   7.0453948116e+01   3.1845338593e+01    0.4929268     0.311847 -46.01 0.0009914528    1.567    0.362
        84 -10.1756    180.5046     80.7061   8.7122265990e+01   2.8777036728e+01    0.3260383    0.2441915 -84.85  0.001467527    1.737    0.424
        85  -7.5972    223.3853     39.8383   6.9171734035e+01   2.4295944606e+01    0.1852359    0.1323469 -15.45 0.0005387567    1.664    0.399
        86 -10.1566    104.4725     37.7887   9.0701533933e+01   5.3846573602e+01    0.4543699    0.1880585  42.81  0.001568078    2.418    0.586
        87  -9.1769    112.4696     35.8327   8.7772392191e+01   5.2391459366e+01    0.6220737    0.1138945  44.43  0.001512972    6.077    0.835
        88 -10.2560    140.3350     32.2055   7.9906515956e+01   4.6306730929e+01    0.2526896    0.2305182  31.57  0.000331798    1.071    0.066
        89  -7.8073    250.0079     26.7904   6.3242514702e+01   1.9728335808e+01    0.1987135    0.1338928  43.36 0.0009251397    1.932    0.483
        90  -7.5559    150.9359     27.4841   7.6203529223e+01   4.4235753316e+01    0.2095676    0.1361178  63.32 0.0004826218    1.475    0.322
        91 -13.0008     53.6228    195.3031   1.3956822883e+02   2.8503348382e+01     1.532719     1.184061 -83.44  0.006128108    1.187    0.157
        92 -10.0863    177.3089    201.0752   1.1524291977e+02   7.5049334861e+00    0.2216581     0.198084  35.51 0.0002237596    1.035    0.034
        93 -10.3501    192.7415    195.0155   1.1121030648e+02   5.6684595644e+00    0.8774058    0.4847736 -61.87  0.003361752    4.021    0.751
