#   1 NUMBER                 Running object number                                     
#   2 MAG_AUTO               Kron-like elliptical aperture magnitude                    [mag]
#   3 X_IMAGE                Object position along x                                    [pixel]
#   4 Y_IMAGE                Object position along y                                    [pixel]
#   5 X_WORLD                Barycenter position along world x axis                     [deg]
#   6 Y_WORLD                Barycenter position along world y axis                     [deg]
#   7 A_WORLD                Profile RMS along major axis (world units)                 [deg]
#   8 B_WORLD                Profile RMS along minor axis (world units)                 [deg]
#   9 THETA_WORLD            Position angle (CCW/world-x)                               [deg]
#  10 FWHM_WORLD             FWHM assuming a gaussian core                              [deg]
#  11 ELONGATION             A_IMAGE/B_IMAGE                                           
#  12 ELLIPTICITY            1 - B_IMAGE/A_IMAGE                                       
         1  -8.6047     55.7528      9.8625   5.3512742741e+01   6.7672951216e+01    0.2048084    0.1692583 -38.72 0.0006682055    1.528    0.346
         2  -8.0817     47.6192      9.8739   5.7039368408e+01   6.9194168882e+01    0.1661787    0.1107394 -36.83 0.0006239592    1.773    0.436
         3  -7.9731     28.2701      9.6401   6.7033981180e+01   7.2369300307e+01    0.1049089   0.09886792 -46.24 0.0004976559    1.647    0.393
         4  -9.3444      6.2753      8.3683   8.1099302820e+01   7.5134148820e+01    0.2258005    0.1655755  39.50  0.001209972    1.969    0.492
         5  -8.0079     65.0015      6.9889   4.8500541299e+01   6.6107145881e+01    0.1626272    0.1311822  36.75 0.0009975211    1.053    0.051
         6  -8.5402     33.3968      4.5392   6.1053928449e+01   7.2245294414e+01     0.229858    0.1770207 -59.41  0.001191594    2.547    0.607
         7  -8.4259     79.1551      3.5699   4.2398362179e+01   6.3342938784e+01    0.2430404    0.1502367 -39.68  0.001229208    1.973    0.493
         8  -8.4219     90.9834      8.9525   4.1730023282e+01   6.0181771148e+01    0.1975221    0.1549344 -68.70 0.0005771266    1.663    0.399
         9  -7.9494     15.9969      3.0078   7.0855885066e+01   7.4914188981e+01    0.1466084    0.1126257  -6.93 0.0004288226    1.051    0.048
        10  -7.9692     62.5242      1.4162   4.6452604028e+01   6.7129316202e+01    0.1250298    0.1077516  37.54  0.000263117    1.088    0.081
        11  -9.0911    218.6975    246.4404   7.4289777706e+01  -4.3757949172e+00    0.3190757    0.1159215 -32.81  0.001585458    2.730    0.634
        12  -8.8590    249.2089    248.9184   6.9463846177e+01  -8.0015578838e+00    0.3140136    0.1340035 -24.52  0.001813148    2.107    0.525
        13  -9.5056    248.4913    241.9213   6.8497617772e+01  -7.1264826770e+00     0.253756    0.1745329 -35.68  0.001065871    1.865    0.464
        14  -9.2673    232.9061    248.0088   7.2046705484e+01  -6.1695091661e+00     0.292898    0.1872409 -37.18  0.001450581    1.932    0.482
        15  -8.1967    185.2405    250.3740   8.1081510778e+01  -8.3550741181e-01    0.1668908   0.09059322  34.59 0.0009485002    1.675    0.403
        16  -9.1395    132.7379    248.2521   9.1379775371e+01   6.3585548704e+00    0.3683759    0.2123136  58.71  0.001763539    2.899    0.655
        17  -8.7583     26.2698    250.5232   1.1361981533e+02   1.8715005398e+01    0.2205221   0.07699408  35.74  0.001143912    2.140    0.533
        18  -9.1906     34.5635    247.6729   1.1183120306e+02   1.8410476423e+01    0.2052684   0.09244639  47.20 0.0008466127    1.725    0.420
        19  -9.0588     21.2174    247.9539   1.1448309901e+02   1.9675586461e+01    0.1881828    0.1307617  41.53 0.0005850167    1.206    0.171
        20  -9.0596    242.9089    246.0348   7.0056855507e+01  -7.0156810891e+00     0.313779    0.1230915 -27.12  0.001691686    2.366    0.577
        21  -9.9589    223.8171    243.8271   7.2982649514e+01  -4.6405875106e+00    0.4188445    0.1886512 -42.17  0.002099562    2.813    0.645
        22  -9.5184    210.8146    246.3600   7.5698107575e+01  -3.4392224224e+00    0.2220188    0.1560037 -36.93  0.001025165    1.739    0.425
        23 -10.1412    146.2326    246.2082   8.8315799141e+01   4.8761515701e+00    0.3552001    0.2393062  14.62    0.0012445    1.392    0.281
        24  -8.6325     76.7533    247.3675   1.0311305528e+02   1.3735109502e+01     0.163203   0.09953259  24.91 0.0004369822    1.584    0.369
        25  -9.2551     67.6115    244.9900   1.0484131633e+02   1.5263574420e+01    0.2375573    0.1369448  85.33  0.001294462    2.259    0.557
        26  -8.5477     50.0384    244.5005   1.0848119465e+02   1.7360183296e+01    0.2472226    0.1243117  77.35  0.001272051    2.477    0.596
        27  -8.9778     45.8867    244.1650   1.0931718123e+02   1.7875492995e+01    0.1875191    0.1233493  52.37 0.0006676847    1.255    0.203
        28  -8.3638     34.6293    243.8008   1.1159887196e+02   1.9127066511e+01    0.1503664   0.09326536  80.29 0.0005936608    1.623    0.384
        29 -10.3829    200.0655    241.5416   7.6958736814e+01  -1.4909983853e+00    0.2599641     0.203246  28.24 0.0005408554    1.388    0.280
        30  -8.9994    168.9034    242.7920   8.3218246736e+01   2.3636400977e+00    0.1954328     0.178671 -30.74 0.0007422326    1.404    0.288
        31  -9.5678    160.0657    240.3614   8.4671777988e+01   3.9208617361e+00    0.3315146    0.2591143 -63.38  0.001592822    1.980    0.495
        32  -9.2305     77.2146    242.5702   1.0259336599e+02   1.4553858796e+01    0.2524017    0.1541967  63.53  0.001019203    1.834    0.455
        33  -9.6589    194.0331    239.3123   7.7765250174e+01  -4.2038559509e-01    0.1872038    0.1639722 -30.50 0.0005377437    1.493    0.330
        34  -9.4158    182.9712    240.2876   8.0057152773e+01   8.7364142291e-01      0.37256    0.2700514  48.23  0.002045227    1.978    0.494
        35  -9.4719    120.2010    245.3737   9.3678213076e+01   8.5082165322e+00    0.2924112    0.2110744  80.37   0.00167988    2.177    0.541
        36  -8.2705     88.0381    242.0456   1.0021791990e+02   1.3299764049e+01     0.187372    0.1245737  59.11 0.0005840387    1.602    0.376
        37  -8.9687     29.6766    241.3688   1.1246797073e+02   2.0087368978e+01    0.2013713    0.1745355  50.06 0.0006484587    1.141    0.124
        38  -9.2106    240.5295    239.7604   6.9475617479e+01  -6.0177894741e+00    0.3052791    0.1325391 -23.66  0.001661236    2.188    0.543
        39  -8.9799    135.4277    239.7340   8.9745441285e+01   7.3914519975e+00    0.3213961    0.1656852 -42.38  0.001658931    2.256    0.557
        40  -8.5410     37.0521    240.5041   1.1090904709e+02   1.9503388389e+01    0.1776714   0.09541198  34.00   0.00103225    1.590    0.371
        41  -8.8714      3.1118    239.9761   1.1766835011e+02   2.2804017148e+01    0.1682814    0.1231508  60.11 0.0005657054    1.040    0.039
        42  -8.6827    146.2327    239.2371   8.7392840642e+01   5.9890642816e+00     0.161056    0.1341293  44.76  0.000491169    1.363    0.266
        43  -9.2374    126.9578    238.8033   9.1440311676e+01   8.7103035624e+00    0.3753293    0.1732479  20.01  0.001100439    2.620    0.618
        44  -8.5578     52.6862    238.7965   1.0752235031e+02   1.8146295520e+01    0.2391062    0.1049977  50.16 0.0009218635    1.992    0.498
        45  -9.5731    236.0313    230.4064   6.8739244022e+01  -4.3586379332e+00    0.4385117    0.1865887 -27.31  0.001820065    2.182    0.542
        46  -8.4810    209.1717    238.2019   7.4749323017e+01  -2.1706795390e+00    0.1462525    0.1298052   4.72 0.0006028841    1.390    0.281
        47  -8.3256     84.0016    238.4996   1.0074796906e+02   1.4463963960e+01    0.1868813    0.1034715  32.99 0.0004414531    1.517    0.341
        48  -9.4324     71.8217    238.0653   1.0335542915e+02   1.6053665664e+01    0.2243696    0.1476307  36.50 0.0006845305    1.269    0.212
        49  -8.5195     19.0159    237.7309   1.1443767174e+02   2.1814353356e+01    0.1602084    0.1234307  50.09 0.0007790877    1.080    0.074
        50  -9.3037    230.6763    236.6732   7.0665455612e+01  -4.5337799974e+00    0.3024907      0.19305 -34.14  0.001510829    1.693    0.409
        51  -9.4414    247.5824    234.3138   6.7440684762e+01  -6.1299517432e+00    0.2595903     0.182725 -30.34  0.001739553    1.569    0.362
        52  -9.6791    246.5464    228.8162   6.6721148307e+01  -5.3470994443e+00     0.434175    0.1559335 -31.27  0.002005956    2.471    0.595
        53 -10.1670    214.9266    232.9492   7.2867361426e+01  -2.1751398663e+00    0.4473848    0.3689848 -80.54  0.002463021    3.538    0.717
        54  -9.8618    175.6595    233.2278   8.0454716127e+01   2.8978965159e+00    0.4200841    0.2569456 -54.75  0.002221973    2.517    0.603
        55  -8.8500    169.1936    231.9543   8.1577753295e+01   3.9815498116e+00    0.1975447    0.1794814 -62.42 0.0007283958    1.636    0.389
        56  -9.8136    109.3966    234.4543   9.4739288921e+01   1.1876371294e+01    0.4985063    0.2202587  44.98  0.001586303    2.166    0.538
        57  -8.8654     78.7335    234.2633   1.0149479831e+02   1.5926080647e+01    0.2575412    0.1561481  83.99  0.001182584    2.247    0.555
        58  -8.0215    122.7961    233.9409   9.1732591995e+01   1.0129716823e+01    0.1862815    0.1392282  71.12  0.001018069    1.899    0.473
        59  -8.4265     99.5283    234.0194   9.6870010218e+01   1.3283042227e+01     0.264219    0.1154942  55.35   0.00103454    3.378    0.704
        60  -8.8603     94.2650    233.3989   9.7968844879e+01   1.4095330390e+01    0.3969056    0.2169123  65.53  0.001813978    2.782    0.641
        61 -10.1163     68.4757    232.2427   1.0357169978e+02   1.7578184367e+01    0.4958928    0.2061644  60.90  0.001964956    3.527    0.716
        62  -8.6201    132.4484    232.6481   8.9458960703e+01   9.0107194522e+00    0.2000597    0.1301644 -58.10 0.0007199718    1.964    0.491
        63  -8.2346    194.2447    232.2805   7.6639370561e+01   5.5115570430e-01    0.1482915    0.1329919  16.73 0.0006145491    1.357    0.263
        64  -9.4569    186.5758    230.4845   7.7854683483e+01   1.8336742106e+00    0.3046694     0.239751 -73.52  0.001610663    2.732    0.634
        65  -9.6045    151.3050    228.6413   8.4832862380e+01   7.0294572193e+00    0.8116638    0.2435513  44.16   0.00268129    4.382    0.772
        66  -9.4613    148.9140    224.4205   8.4728553141e+01   8.0894481929e+00     0.343809    0.2687417  63.65  0.001302722    1.876    0.467
        67  -9.0812    140.2208    230.0981   8.7425079310e+01   8.3559150881e+00    0.2328506    0.1410287  49.33 0.0007072969    1.949    0.487
        68  -9.4029     56.0064    229.7118   1.0610708490e+02   1.9545097612e+01    0.2825093     0.156946 -34.74   0.00131864    3.158    0.683
        69  -8.0526      1.4023    230.2249   1.1764766157e+02   2.4829666046e+01    0.1574962   0.08207714  76.48 0.0009437909    1.705    0.413
        70  -7.9471    229.6041    228.7373   6.9573878674e+01  -3.3934032450e+00     0.143876   0.09846485 -33.31 0.0004768711    1.581    0.368
        71  -8.2959     32.5200    229.5032   1.1118800524e+02   2.2119389658e+01    0.1169135   0.09681667  57.28 -1.425279e-05    1.024    0.024
        72  -8.8388    162.0436    227.6877   8.2418820670e+01   5.6634906776e+00    0.2254865    0.2079348  50.91  0.001019113    1.446    0.308
        73  -8.9530    127.8716    226.8594   8.9690224146e+01   1.0681852771e+01     0.280719    0.2080818  65.06  0.001534635    1.852    0.460
        74  -9.0883     48.7745    227.1933   1.0750337139e+02   2.0864408053e+01    0.2467576    0.2258991  68.12  0.001401912    1.122    0.108
        75  -8.3635    119.9830    227.2062   9.1493109796e+01   1.1736184316e+01    0.1732524    0.1398786  71.19 0.0006061913    1.600    0.375
        76  -8.4225    206.1221    226.0934   7.3388368434e+01  -1.1376718768e-01    0.1588521    0.1529836  41.72 0.0006646722    1.700    0.412
        77  -7.8014    200.1075    226.1499   7.4536288977e+01   6.6597721884e-01    0.1513897    0.1358703  10.18 0.0005653882    1.332    0.249
        78  -9.3165    179.6907    224.6710   7.8314825976e+01   3.6638083767e+00    0.3759489    0.2339847  -6.23  0.001070023    1.833    0.454
        79  -8.8817     94.0332    224.0007   9.6978056283e+01   1.5929367950e+01    0.3289288     0.177194  61.96  0.001469175    2.624    0.619
        80  -9.0550     73.7157    224.9952   1.0172152825e+02   1.8368382181e+01    0.2607753    0.1295689  19.51  0.001169052    2.474    0.596
        81  -7.9551      6.0290    225.7215   1.1653581436e+02   2.5337479139e+01     0.136677   0.08552183  36.03 0.0006057032    1.452    0.311
        82  -8.9971    216.5126    222.8353   7.0931633177e+01  -9.9050801403e-01    0.2777494    0.1818452 -38.56  0.001318292    1.728    0.421
        83  -8.7210    104.9299    223.5568   9.4434105138e+01   1.4528225099e+01     0.292529    0.1941369  79.55  0.001468615    2.302    0.566
        84  -9.3417     59.9087    223.7344   1.0473513880e+02   2.0296437510e+01    0.2409893    0.1334769  66.28  0.001144943    2.053    0.513
        85  -8.5393    173.1872    222.9408   7.9368653111e+01   4.8526352695e+00    0.2086243    0.1903227  74.16 0.0008417739    1.725    0.420
        86  -9.3972    161.0435    221.5122   8.1686373467e+01   6.8291350782e+00    0.5787682    0.2615039  50.17  0.002139193    3.927    0.745
        87  -9.5716    225.4917    221.5855   6.9113305012e+01  -1.9445253847e+00    0.2208271    0.2045733  12.02  0.001068299    1.565    0.361
        88  -7.8079    140.4776    222.4965   8.6289679003e+01   9.6488412975e+00    0.1313365    0.1124502  27.71 0.0008089693    1.081    0.075
        89  -9.1099    239.1798    220.4425   6.6560527880e+01  -3.4445262609e+00    0.3368506    0.1590687 -20.66   0.00157917    2.088    0.521
        90  -9.0314     82.6095    220.1952   9.9185358026e+01   1.8200982911e+01    0.2823972    0.1847182  67.43  0.001020802    1.807    0.447
        91  -8.8098     55.1459    221.1391   1.0559104412e+02   2.1382119291e+01    0.1707533    0.1594954  31.23 0.0004376622    1.185    0.156
        92  -7.7116     27.7486    220.9933   1.1169425664e+02   2.4325631644e+01    0.1457694   0.09319131 -82.66 0.0004288335    1.550    0.355
        93  -9.1060    203.2221    234.6822   7.5306438523e+01  -9.4740517797e-01    0.2599571    0.2033179 -58.54  0.001234532    2.413    0.586
        94  -8.2204    133.6717    220.3081   8.7486220056e+01   1.1035269544e+01    0.2437987    0.1466749  34.04  0.001049175    1.443    0.307
        95  -9.2778    132.5338    215.5792   8.7056907545e+01   1.2076843268e+01    0.4817907    0.3091467  70.30   0.00209231    3.072    0.674
        96  -9.2612    120.4963    219.0383   9.0289649358e+01   1.3187981419e+01    0.4443961    0.2168297  54.24   0.00177873    3.051    0.672
        97  -7.9357     18.5258    220.5253   1.1366560523e+02   2.5295035348e+01     0.119426   0.09253562  61.07 7.284391e-06    1.051    0.049
        98  -9.1867    192.3593    221.1633   7.5223222136e+01   2.4503313609e+00    0.2580387    0.2363424 -66.80  0.001184088    1.810    0.448
        99  -8.0999    210.0540    218.9913   7.1478139370e+01   3.8983722920e-01    0.1547886    0.1509769   2.46 0.0004476766    1.598    0.374
       100  -8.8741     62.3609    217.8186   1.0364078989e+02   2.1225103894e+01    0.3127098    0.1917615  77.05  0.001383758    1.916    0.478
       101  -8.5615    248.6874    217.9754   6.4573099618e+01  -4.2283339056e+00    0.1952477    0.1462438  50.99  0.001181592    2.814    0.645
       102  -8.9908     51.7888    217.3551   1.0603791191e+02   2.2552759261e+01    0.2874098    0.1706881  65.26  0.001016107    1.741    0.426
       103  -8.0678    179.4852    217.5177   7.7202851326e+01   4.8270164128e+00    0.1296336    0.1077608   9.03 0.0008100047    1.034    0.033
       104  -8.5836    169.1037    215.7353   7.9064446053e+01   6.6243101040e+00    0.2503319    0.1885387 -60.45   0.00105676    1.982    0.496
       105  -8.7043    142.9662    216.4652   8.4844320794e+01   1.0365278698e+01     0.225144    0.1926245 -83.63 0.0009902931    1.677    0.404
       106  -8.1373    107.9840    216.7860   9.2874436780e+01   1.5418659011e+01     0.179967    0.0957851  32.06 0.0006763693    1.654    0.395
       107 -10.6222     72.6952    212.0048   1.0063479059e+02   2.1173537320e+01    0.8043477    0.3877543  54.96  0.003479017    2.311    0.567
       108  -8.8727    232.3087    214.2964   6.6688834020e+01  -1.7964506315e+00    0.2371678    0.1764335 -39.76  0.001219716    1.720    0.419
       109  -7.9195    154.4733    214.9491   8.2073956114e+01   8.9234000007e+00    0.1580113    0.1215062 -85.36 0.0007587961    2.363    0.577
       110  -8.1537     87.1466    215.1500   9.7558969544e+01   1.8630614273e+01    0.1852671    0.1346782  51.12 0.0004712092    1.313    0.238
       111  -8.2444     12.8935    215.5042   1.1461741033e+02   2.6843386802e+01     0.163035    0.1027254  33.09 0.0004881594    1.510    0.338
       112  -8.5090    185.4307    213.8234   7.5382401192e+01   4.5676296016e+00    0.2184056    0.1219996 -45.01  0.001079615    2.056    0.514
       113  -9.0254     93.0063    213.6761   9.5999031583e+01   1.8138462458e+01      0.28171    0.1778803  66.67  0.001302236    2.063    0.515
       114  -9.4018    213.9446    211.9164   6.9552063887e+01   9.0187173584e-01     0.301302    0.2554545  40.84  0.001556517    1.674    0.403
       115  -8.4086     32.4967    210.0393   1.0990637586e+02   2.6172497008e+01    0.2929035    0.1229708  63.90   0.00128058    2.689    0.628
       116  -7.9282    224.9627    212.4531   6.7655152739e+01  -6.1644296466e-01    0.1378441    0.1032524  49.83 0.0004669874    2.284    0.562
       117  -9.4452    160.2222    211.5125   8.0273247592e+01   8.6668433808e+00    0.3848135    0.2084279  44.02  0.001217519    2.017    0.504
       118  -9.4198    175.4286    209.7986   7.6755299869e+01   6.6875791389e+00     0.371835    0.2699443  63.61  0.001650224    2.572    0.611
       119  -8.8477    147.7852    210.0598   8.2775121358e+01   1.0807802340e+01    0.2616259    0.2099789  76.76 0.0009406758    1.954    0.488
       120  -8.7326    116.4240    210.3858   9.0030180094e+01   1.5463115828e+01    0.2917517     0.182015  62.69 0.0009551808    2.337    0.572
       121  -8.8010      6.9986    209.3724   1.1559695313e+02   2.8638820809e+01    0.4170925    0.1237306  72.99  0.001465252    4.620    0.784
       122  -7.7556      3.5807    211.5128   1.1643751837e+02   2.8463188722e+01    0.1151334   0.09210896  68.56 0.0001740953    1.014    0.014
       123  -8.2817    192.2083    210.1979   7.3410514677e+01   4.1735494012e+00    0.1573246     0.149889  -0.77 0.0005536343    1.363    0.267
       124  -8.6048     85.5599    209.2498   9.7243140333e+01   2.0072255684e+01    0.3154048    0.1870468  78.33  0.001068529    2.553    0.608
       125  -9.3005    236.5476    208.2664   6.4921647857e+01  -1.4979761143e+00    0.2526464    0.2133442 -41.96  0.001236095    1.752    0.429
       126  -8.1152     98.3490    209.7053   9.4228968426e+01   1.8211949320e+01    0.1988253    0.1184471  45.24  0.000813111    1.583    0.368
       127  -9.1164     99.3584    205.9932   9.3498914187e+01   1.8839709867e+01    0.3482742     0.230368  75.25  0.001328331    2.170    0.539
       128  -9.5169    246.3871    207.0412   6.3074041578e+01  -2.5338668651e+00    0.2813518    0.1707147 -25.55 0.0007209738    1.363    0.266
       129  -9.4266    250.0721    202.2139   6.1634588997e+01  -2.3315804660e+00    0.3950211     0.152566 -31.87  0.001726566    2.206    0.547
       130  -8.9822    138.3099    208.0065   8.4592694027e+01   1.2634108097e+01    0.3608039    0.1676716  32.27  0.001424529    1.941    0.485
       131  -8.2532    126.6173    208.3597   8.7347621859e+01   1.4341622153e+01    0.2021202    0.1525438  59.92 0.0008972401    1.646    0.392
       132  -8.9447    204.2497    210.6037   7.1140700353e+01   2.4151856693e+00    0.2237263    0.1898536 -39.90 0.0008509613    1.529    0.346
       133  -9.6646     78.6871    205.8568   9.8507771706e+01   2.1712060159e+01    0.4791906    0.1565605  33.88  0.001467386    2.603    0.616
       134  -7.9812    109.1756    205.2078   9.1021730566e+01   1.7578202054e+01    0.1905236    0.1499175  57.33 0.0009919093    1.389    0.280
       135  -8.7901     56.2742    204.8130   1.0384798803e+02   2.4732912035e+01    0.2569868     0.168417  67.12  0.001231103    1.586    0.370
       136  -9.3936    194.8301    203.1960   7.1668589010e+01   4.9126788984e+00    0.3582127    0.2348171 -36.09  0.001431781    1.528    0.345
       137  -9.3581    192.4787    197.1348   7.1046940921e+01   6.2501426168e+00    0.3463953    0.2509374 -49.51  0.001066638    1.773    0.436
       138  -8.9080    183.9016    203.7220   7.3957577498e+01   6.4422029636e+00    0.2450317    0.2251372  58.69  0.001115257    1.585    0.369
       139  -9.6189    163.8841    202.6114   7.7989259562e+01   9.6853002925e+00    0.3967394     0.299097  54.83  0.001224412    1.806    0.446
       140  -8.6062    131.3933    203.8112   8.5535338712e+01   1.4504323216e+01    0.2670256    0.2021897  56.46  0.001074196    1.593    0.372
       141  -8.9291    140.7169    201.2100   8.2950893842e+01   1.3562652622e+01    0.3609147    0.2510909  73.86  0.001624281    2.669    0.625
       142  -8.1948     67.3041    203.6285   1.0103968175e+02   2.3658599691e+01     0.142298   0.08835135  62.69  0.000703227    1.755    0.430
       143  -9.1771     12.2423    202.8869   1.1409154553e+02   2.9601681647e+01    0.2827503    0.1246512  39.34  0.001027343    1.927    0.481
       144  -9.2245    243.1057    200.7044   6.2495942947e+01  -1.2756613342e+00    0.2893544    0.1462317 -35.68  0.001016554    1.802    0.445
       145  -8.2903    211.0729    202.0162   6.8342229558e+01   2.7737957444e+00     0.169962    0.1629134 -85.89 0.0007940064    1.760    0.432
       146  -7.9275     41.3276    202.6577   1.0726002632e+02   2.6879301088e+01    0.1398327   0.07906596  59.97 0.0007051199    1.741    0.425
       147  -7.9879    221.7966    201.0277   6.6207384322e+01   1.4465115340e+00    0.1625267     0.086752 -34.27  0.000634901    1.724    0.420
       148  -8.6305     79.7939    200.7309   9.7625680481e+01   2.2679340601e+01    0.2624801    0.1625269  74.69  0.001170504    2.160    0.537
       149  -9.3858    149.4842    198.2964   8.0453792717e+01   1.2739487209e+01    0.3857242    0.2874942 -88.83  0.001278725    2.463    0.594
       150  -8.7000    123.9956    199.2070   8.6565142841e+01   1.6566744254e+01    0.2372055    0.1926381  78.73 0.0008661174    1.648    0.393
       151  -9.3654    236.9149    198.1985   6.3076477337e+01  -1.4246352469e-01    0.2707529    0.1667383 -42.98  0.001098475    1.935    0.483
       152  -9.2842    112.7457    198.2909   8.9147713984e+01   1.8480626898e+01    0.4014151     0.256673  57.82  0.001812451    1.956    0.489
       153  -9.3226     88.6109    198.3205   9.5124770897e+01   2.2001332832e+01    0.3854244    0.2411891  78.90  0.001728208    2.335    0.572
       154  -8.4027    202.4654    197.9179   6.9232287561e+01   4.6431392330e+00    0.1871871    0.1169043 -35.57 0.0009772502    1.554    0.357
       155  -8.0938    104.9765    198.4600   9.1080004103e+01   1.9610484766e+01    0.2099866    0.1252845  33.05 0.0004246773    1.528    0.346
       156  -9.5586     61.4727    196.9330   1.0176263621e+02   2.5868357326e+01    0.4258839    0.2168837  65.69  0.001809678    2.577    0.612
       157  -8.3266     29.3197    197.6562   1.0975161050e+02   2.9217434489e+01    0.1379923   0.07665781  60.51  0.000704961    1.724    0.420
       158  -8.0269     12.4852    196.9918   1.1370050007e+02   3.0883418162e+01    0.1845157    0.0759614  70.91 0.0008104647    2.603    0.616
       159  -8.5363    215.9118    195.4156   6.6253260418e+01   3.1035230876e+00    0.2216226    0.1633002 -44.04 0.0008205606    1.668    0.401
       160  -8.0269    133.4003    195.9141   8.3791547897e+01   1.5758166121e+01    0.1747384    0.1253657 -86.66 0.0007023757    2.366    0.577
       161  -9.5555    245.6691    193.4904   6.0785459647e+01  -5.9974658542e-01    0.2463796    0.2183243 -62.97  0.001210414    2.101    0.524
       162  -8.8544    185.2085    194.6049   7.2056141379e+01   7.7836118367e+00    0.2313779    0.2172336  88.23 0.0007450926    1.613    0.380
       163  -9.1011    161.1717    194.2934   7.7129782635e+01   1.1628598898e+01    0.2926437    0.2315689  73.66  0.001112958    2.086    0.521
       164  -8.4514    177.0020    198.9644   7.4546256054e+01   8.2994951790e+00    0.1855247    0.1688595  70.74  0.000582988    1.634    0.388
       165  -8.8432    224.6339    193.6485   6.4363554752e+01   2.1550766841e+00    0.2678381    0.1509294 -43.42  0.001406472    2.011    0.503
       166  -9.0477     76.9917    193.5838   9.7446828207e+01   2.4643301046e+01    0.2410578    0.1809524  80.48 0.0005651591    1.505    0.336
       167  -8.8861     43.6135    192.8509   1.0583454334e+02   2.8850297060e+01    0.4055058     0.193056  71.12   0.00169715    2.736    0.634
       168  -8.4864      6.4164    193.1090   1.1490035083e+02   3.2242748171e+01    0.2367422    0.1225735 -61.63  0.001274164    1.976    0.494
       169  -8.3445    198.9723    191.5191   6.8732280117e+01   6.1976644142e+00      0.20059    0.1551283 -25.83 0.0004600484    1.206    0.171
       170  -8.2877    172.5142    191.5694   7.4162584456e+01   1.0311760309e+01    0.2148311    0.1319067 -53.60 0.0006630127    2.125    0.529
       171  -9.1035    139.5586    190.4323   8.1402818450e+01   1.5869746662e+01    0.3427014    0.2604205  77.59  0.001345064    2.086    0.521
       172  -7.9189    205.4425    191.4997   6.7481985236e+01   5.2326290450e+00     0.130608    0.1097464  -5.63 9.713165e-05    1.044    0.042
       173  -8.1218    179.1785    191.4405   7.2725039127e+01   9.2752639278e+00    0.1786721    0.1216888  43.20 0.0005337913    1.644    0.392
       174  -8.0678    117.5528    191.5096   8.6912682995e+01   1.9168295262e+01    0.1401075    0.1295221  22.88  4.34313e-05    1.008    0.008
       175 -10.4759     92.5395    188.9525   9.2838643884e+01   2.3516806092e+01    0.9407573    0.2968158  44.60  0.003157341    3.291    0.696
       176  -8.3384     17.1617    191.3570   1.1224073055e+02   3.1757042043e+01     0.175246   0.09380721  40.02 0.0008503471    1.685    0.407
       177  -8.8900    237.2239    188.3027   6.1220674233e+01   1.2344612250e+00    0.2011843    0.1447693 -26.55 0.0004872251    1.208    0.172
       178  -9.1780    156.1125    187.3796   7.7016299500e+01   1.3757462565e+01    0.3220742    0.2247152 -60.70 0.0008156025    1.946    0.486
       179  -8.0600    148.4325    189.1896   7.9105788641e+01   1.4667855586e+01    0.1805755    0.1380861 -60.70 0.0009326577    1.660    0.397
       180  -8.8449    129.2312    188.5127   8.3550931174e+01   1.7937053548e+01    0.2827315    0.2214634  69.41 0.0008774297    1.719    0.418
       181  -8.9252    216.6321    187.6414   6.4678907644e+01   4.2029852562e+00    0.2292755     0.203201 -24.27 0.0008431905    1.284    0.221
       182  -9.2498    191.4312    187.1234   6.9400632038e+01   8.0948330780e+00    0.3018196    0.2290815 -66.51  0.001378529    2.291    0.563
       183  -9.5254    120.7105    186.2037   8.5258285734e+01   1.9796740954e+01    0.4831191    0.3019454 -78.40   0.00199065    2.755    0.637
       184  -8.9736     54.7423    186.9075   1.0239215451e+02   2.8976133044e+01    0.3897071    0.1917596  59.55  0.001660267    2.403    0.584
       185  -8.9562     34.0836    187.6680   1.0777222388e+02   3.1038054395e+01    0.2995034    0.1578507  69.16  0.001337127    2.080    0.519
       186  -8.4811    230.6694    187.1197   6.2106645848e+01   2.2974701851e+00    0.1888167    0.1428741 -39.45  0.001007113    1.504    0.335
       187  -8.7650    164.9102    186.6949   7.4918177614e+01   1.2439792614e+01    0.2503906    0.2006446 -49.34 0.0006417224    1.448    0.309
       188  -9.1351    109.6912    186.0464   8.8005900308e+01   2.1575234364e+01    0.3918904    0.2547914  67.28  0.001322044    2.263    0.558
       189  -7.6312     49.6737    187.7241   1.0379100154e+02   2.9368606837e+01     0.125605    0.1001934 -27.82 0.0002189476    1.587    0.370
       190  -8.9295     28.3248    186.8782   1.0916003841e+02   3.1781055829e+01    0.2832445    0.1358428  42.46 0.0006071033    1.876    0.467
       191  -9.0561    249.3792    185.3631   5.8712658883e+01   6.3538403306e-02    0.2262964    0.1538092 -37.61 0.0007832063    1.514    0.340
       192  -9.1943    210.1445    184.1316   6.5207398451e+01   5.7171060950e+00    0.2561045    0.1659277 -36.41 0.0005405563    1.479    0.324
       193  -8.7953    182.9162    184.6505   7.0670810906e+01   9.8786245589e+00    0.2498877    0.1907959 -42.24 0.0006672312    1.419    0.295
       194  -9.0882     66.6121    184.3606   9.8985816510e+01   2.8120033891e+01    0.3430498    0.1970894  62.54 0.0009017873    2.079    0.519
       195  -8.4757    202.7944    184.2176   6.6614292834e+01   6.8196909418e+00    0.1852792    0.1714437 -21.17 0.0005711909    1.270    0.213
       196  -8.7995    174.3880    183.4846   7.2248819077e+01   1.1476938081e+01    0.2542676     0.232378 -79.13   0.00073053    1.561    0.360
       197  -8.3232    224.0658    183.2778   6.2527567712e+01   3.8070622168e+00    0.1766484    0.1445186 -11.48 0.0005549366    1.039    0.038
       198  -8.8329     44.4312    182.1683   1.0458551967e+02   3.1255901056e+01    0.3538844    0.1828981  62.32  0.001045631    2.198    0.545
       199  -7.8802      1.4837    183.4718   1.1555511516e+02   3.4797647365e+01    0.1215508   0.09933197  74.28 2.374562e-05    1.018    0.018
       200  -8.8997    147.5253    180.4506   7.7720223917e+01   1.6556658209e+01     0.276726    0.2322609 -86.94 0.0008438238    1.707    0.414
       201  -9.7809     25.6301    178.5924   1.0917158351e+02   3.3980915388e+01    0.6844259    0.2516088  76.52   0.00220375    4.646    0.785
       202  -8.2389    240.3553    180.1669   5.9187824398e+01   1.9984340226e+00    0.1721724   0.09819581 -39.83 0.0007666984    1.725    0.420
       203  -8.6371    137.7846    179.1405   7.9806291655e+01   1.8472227090e+01    0.2813235    0.2147453  72.86   0.00135135    1.945    0.486
       204  -9.5045    191.5230    178.1740   6.7658957383e+01   9.6265584670e+00    0.2641278    0.2434718  61.62 0.0008983146    1.520    0.342
       205  -8.6116    250.5256    172.8028   5.6193853374e+01   1.6966145403e+00    0.2299931    0.1233691 -35.84 0.0006995258    1.598    0.374
       206  -9.2860    248.9012    177.1656   5.7265447948e+01   1.2871586040e+00    0.2613053    0.2190355 -43.27  0.001117004    1.577    0.366
       207  -8.9493    247.2912    173.6710   5.6857363703e+01   2.0053110288e+00    0.1938771    0.1399772 -11.69 0.0006093888    1.186    0.157
       208  -8.6893    205.0352    177.5234   6.4891308249e+01   7.5836385232e+00    0.2389753    0.1742017 -46.23  0.000665723    1.602    0.376
       209  -8.0869    169.6998    178.5741   7.2319836065e+01   1.3168821275e+01    0.1888131    0.1282711  44.47 0.0008054939    1.617    0.382
       210  -8.3864    129.1929    177.2535   8.1574400806e+01   2.0318773257e+01    0.2571609    0.1924096 -88.69 0.0007892988    2.052    0.513
       211  -8.9502     35.7864    176.4018   1.0630035114e+02   3.3534788171e+01    0.4551829    0.1967404  74.43  0.001663004    3.460    0.711
       212  -8.8601    231.0612    176.8112   6.0089148611e+01   3.7946687656e+00    0.2259844    0.1546687 -31.62 0.0008229796    1.294    0.227
       213  -8.6150    217.6866    176.9153   6.2437404388e+01   5.7405941996e+00    0.2233462     0.163539 -43.44  0.000841351    1.545    0.353
       214  -8.1572     97.3581    177.3101   8.9805547567e+01   2.5444453105e+01    0.1486947     0.110386 -13.97 0.0007042419    1.736    0.424
       215  -8.8014     89.0540    176.7377   9.1934357502e+01   2.6822771297e+01    0.2987649    0.2006956  72.48 0.0008282124    1.985    0.496
       216  -9.8391     57.4886    173.1920   1.0005187819e+02   3.1916151173e+01    0.8611497    0.3939791  74.99  0.002656918    4.693    0.787
       217  -8.8751     13.3791    176.5440   1.1217539874e+02   3.5512209267e+01    0.3198116    0.1250079  58.46   0.00118343    2.690    0.628
       218  -7.6408    211.7023    176.3155   6.3408268893e+01   6.7478772474e+00    0.1163986    0.1060069 -61.47 0.0003115151    1.608    0.378
       219  -9.2440    183.2227    175.6605   6.8861029769e+01   1.1437989433e+01     0.296965    0.2158653 -54.87  0.000946524    1.792    0.442
       220  -9.2090    159.1619    174.9585   7.3969608583e+01   1.5661576884e+01    0.4086468    0.2845451  71.02  0.001319948    2.748    0.636
       221  -9.1740    104.2654    174.6169   8.7527970940e+01   2.4987437934e+01    0.5215628     0.292466  60.91  0.001590562    2.737    0.635
       222 -10.6121     76.0439    170.5886   9.4557107213e+01   3.0141002354e+01     1.158295    0.4838818 -77.48  0.003494044    4.533    0.779
       223  -9.5123     81.7400    154.5671   9.0346532980e+01   3.3229642798e+01    0.5002324     0.316178  76.06  0.001730662    2.389    0.581
       224  -8.4637    224.0872    174.0541   6.0750226235e+01   5.2367033585e+00    0.1813031    0.1559109 -56.17 0.0006681109    1.692    0.409
       225  -9.6631    175.7375    171.9439   6.9701281800e+01   1.3386798662e+01    0.3815058    0.2280712 -39.85  0.001130491    1.645    0.392
       226  -8.2843    143.1653    172.2467   7.7197811988e+01   1.8984277652e+01    0.1946025    0.1753974  73.44 0.0005920408    1.393    0.282
       227  -8.5368    134.8358    171.7218   7.9136465176e+01   2.0539474816e+01    0.2547604    0.1967144 -89.73 0.0009973801    1.959    0.490
       228  -9.0972     45.0686    170.7199   1.0318468182e+02   3.3943646905e+01    0.3501362    0.2048753  80.59   0.00142011    2.000    0.500
       229  -9.3818    121.3761    170.2963   8.2276302475e+01   2.3154729859e+01    0.3509939    0.2681914  87.66 0.0009295304    1.877    0.467
       230  -9.0144    230.4325    169.3045   5.8739102114e+01   5.0381401417e+00    0.3420602    0.1906355 -42.13  0.001774818    1.804    0.446
       231  -8.5962    205.7771    169.7540   6.3211092280e+01   8.7689703417e+00     0.261227    0.1704079 -44.97 0.0007540978    1.664    0.399
       232  -8.6747    198.6287    170.1328   6.4654969061e+01   9.8654824827e+00    0.2035238    0.1637118 -47.71 0.0008889451    1.473    0.321
       233  -8.5287    149.9336    169.4114   7.5020372740e+01   1.8384175432e+01    0.2580647    0.2081788 -66.89 0.0007476071    1.612    0.380
       234  -8.1945     39.6857    170.2871   1.0462193756e+02   3.4620348213e+01    0.1397843   0.09008028  60.68 0.0002099737    1.584    0.369
       235  -8.8412    244.6511    169.3404   5.6443542869e+01   2.9990862294e+00    0.1683811    0.1423825 -52.84 0.0006637165    1.700    0.412
       236  -8.4516    237.1902    169.2204   5.7608773637e+01   4.0689103680e+00    0.1636867    0.1351189 -36.79 0.0007072441    1.345    0.257
       237  -9.1415    166.9846    168.4160   7.0901020711e+01   1.5577742678e+01     0.305978    0.2394152  66.12 0.0009264191    1.881    0.468
       238  -9.0613    111.3799    167.7029   8.4419375129e+01   2.5414628257e+01    0.3626995     0.264327 -56.56  0.001785681    1.452    0.311
       239  -8.0824     88.8131    168.7484   9.0731981611e+01   2.8741077333e+01    0.2042436    0.1630695  65.93  0.001048711    1.392    0.282
       240  -8.3931    218.8782    168.1804   6.0505650275e+01   6.9610038573e+00    0.1878555    0.1639051 -27.48 0.0004525063    1.202    0.168
       241  -9.0215    192.0458    166.3316   6.5180668201e+01   1.1630242424e+01    0.2843381     0.184084 -42.76 0.0007462392    1.567    0.362
       242  -8.9457    185.0260    166.3054   6.6600813540e+01   1.2833517246e+01    0.2325988    0.1926746 -59.48 0.0006002843    1.595    0.373
       243  -9.6017     20.5316    165.8008   1.0944753213e+02   3.7510784059e+01    0.3874368    0.1842516  60.15  0.001750606    2.258    0.557
       244  -8.2499     13.3299    167.6561   1.1154161898e+02   3.7640546378e+01    0.1402394   0.07863112  61.50 0.0007050752    1.751    0.429
       245  -9.7509    136.8658    164.2385   7.7165432644e+01   2.1786642009e+01    0.6492867    0.3134429  54.13  0.002158587    3.258    0.693
       246  -8.4050    233.9884    164.9442   5.7293596557e+01   5.1867672329e+00    0.1784952    0.1455535 -49.37 0.0004885087    1.584    0.369
       247  -9.6359     33.9998    163.6038   1.0549627063e+02   3.6833938900e+01     0.600871     0.188326  48.14  0.002118173    3.464    0.711
       248  -8.8324    246.1339    163.0612   5.5001400626e+01   3.7191708466e+00    0.2189301    0.1399045 -34.53 0.0006123731    1.345    0.256
       249  -8.3147    240.2319    163.9912   5.6102137089e+01   4.4213986415e+00    0.1661392   0.08813651 -33.93 0.0004111615    1.589    0.371
       250  -8.5767    212.9882    163.4001   6.0596123015e+01   8.6729740068e+00    0.2369629    0.1678718 -44.33 0.0005398092    1.522    0.343
       251  -8.6204    159.5410    164.0202   7.1683360566e+01   1.7766297063e+01    0.2586564    0.2047682  54.84 0.0008855795    1.542    0.351
       252  -8.1747     63.0354    163.9846   9.7265390736e+01   3.3481303899e+01    0.1973378     0.182828  88.94 0.0004109765    1.050    0.047
       253  -8.6406     60.7508    160.1496   9.7377140408e+01   3.4719947877e+01    0.3853496    0.1877259  56.82  0.001483231    2.655    0.623
       254  -8.3813    205.1050    162.6534   6.1895074337e+01   1.0084979910e+01    0.2293836    0.1680572 -40.72 0.0005946857    1.380    0.275
       255  -9.3147      3.5960    162.3185   1.1376159784e+02   3.9631006122e+01    0.4074857    0.1465764  52.17  0.001418681    2.778    0.640
       256  -9.0642    177.4084    160.5051   6.6991515662e+01   1.5247556361e+01     0.273483    0.2368318 -62.90 0.0006989468    1.492    0.330
       257  -8.7382    151.7469    160.8590   7.2847663503e+01   1.9817970398e+01    0.2600835     0.203503 -66.39  0.000849103    1.678    0.404
       258  -8.6067    227.6516    159.1963   5.7194625233e+01   7.0418871926e+00    0.2306421    0.1759748 -49.74 0.0009949482    1.614    0.380
       259 -10.2525    249.2008    157.2084   5.3397880041e+01   4.1508746389e+00    0.3856455    0.3384689  39.21  0.001665283    1.489    0.328
       260  -8.7412    237.3129    158.8148   5.5544119523e+01   5.6363192915e+00    0.1950254    0.1380134 -40.83 0.0006831078    1.422    0.297
       261  -9.9631     95.1041    162.6812   8.7953787131e+01   2.9219962787e+01    0.8679956    0.4859389  74.48  0.002740177    4.216    0.763
       262  -9.5256    105.6784    157.6840   8.4091790241e+01   2.8686803771e+01    0.4442526    0.3094715  76.87   0.00117128    2.157    0.536
       263  -8.5622    196.6535    157.9849   6.2538702797e+01   1.2326486505e+01    0.2148551    0.1612958 -48.27   0.00104631    1.504    0.335
       264  -9.2957    167.5081    157.3087   6.8470271052e+01   1.7653706674e+01    0.3070997    0.2493537 -59.06  0.000915094    1.517    0.341
       265  -8.4184    217.9999    156.4423   5.8280936553e+01   9.0145011330e+00    0.2493074    0.1639222 -46.14 0.0007287241    1.655    0.396
       266  -8.4449    188.2273    156.9350   6.3988368875e+01   1.3988380646e+01    0.2634206    0.1672067 -33.05 0.0009333388    1.492    0.330
       267  -8.2145     41.9735    156.9866   1.0244618110e+02   3.7677951788e+01    0.1634524    0.1542889  65.13 0.0006421524    1.060    0.057
       268  -8.5805    157.6431    155.8026   7.0392547063e+01   1.9771813002e+01    0.2829165    0.2303144 -52.60  0.001439128    1.371    0.271
       269  -9.1063    119.4448    154.8075   7.9765716209e+01   2.6979420733e+01    0.4344749    0.2874387 -80.62  0.001404486    2.544    0.607
       270  -9.0652     99.0619    155.2962   8.5488673040e+01   3.0347308224e+01    0.4128012    0.2159235  41.40  0.001696827    1.887    0.470
       271  -9.4132     49.8420    155.1996   9.9892250868e+01   3.7265536401e+01    0.4442998    0.2241226  58.02  0.001805183    2.463    0.594
       272  -9.2508    242.5650    149.5445   5.2877071545e+01   6.2679942656e+00    0.2492295    0.2313988 -52.96  0.001699785    1.426    0.299
       273  -9.3121    237.0313    150.0231   5.3823724953e+01   7.0346051433e+00    0.2183192      0.16618   7.18 0.0005016247    1.385    0.278
       274  -8.6306    242.5756    154.5164   5.3868324989e+01   5.5118967759e+00    0.1945556    0.1747482 -10.18 0.0005124467    1.173    0.147
       275  -8.4690    239.7269    152.6757   5.3939515417e+01   6.2164814619e+00     0.173492    0.1519077   2.84 0.0002313058    1.170    0.145
       276  -8.1409    204.6619    154.9175   6.0368485913e+01   1.1489487782e+01    0.1954106    0.1150878 -45.52 0.0006500042    1.778    0.438
       277  -8.5528    144.7358    154.7544   7.3251564433e+01   2.2384237151e+01    0.1998276    0.1781831  68.19 0.0009038317    1.368    0.269
       278  -9.5605    132.9560    152.8509   7.5805426718e+01   2.4974703863e+01    0.4285834    0.3151162  67.00  0.001335921    1.901    0.474
       279  -8.9204    133.6643    147.4236   7.4450919810e+01   2.6039800125e+01    0.3427885    0.2039379 -44.38  0.001473979    1.683    0.406
       280  -9.5080     67.8662    153.4245   9.4256365042e+01   3.5474784769e+01    0.4148746    0.2444582  67.50  0.001460947    2.371    0.578
       281  -9.8756     29.2713    150.2984   1.0541914700e+02   4.0604740881e+01    0.5217161    0.2349811  66.07  0.001982566    3.074    0.675
       282  -8.9453     20.2199    152.2610   1.0829715055e+02   4.0884340264e+01      0.18841    0.1356793  68.07 0.0005365736    1.369    0.270
       283  -8.0276    182.4691    150.9891   6.3887936418e+01   1.6126151530e+01    0.1936221    0.1239969 -61.49 0.0008083574    2.450    0.592
       284  -8.6043     98.2920    150.7121   8.4825181907e+01   3.1572212729e+01    0.2781723    0.2243156  87.55 0.0009580413    1.524    0.344
       285  -8.8729      3.2849    150.2476   1.1300073124e+02   4.2594090200e+01    0.2735757    0.1189066  75.25 0.0006530472    2.535    0.606
       286  -9.5947    248.8740    149.1311   5.1856481704e+01   5.3959598035e+00    0.2949268    0.1595879 -33.86 0.0008033508    1.512    0.339
       287  -8.7644    189.3446    149.8699   6.2244492602e+01   1.5081537624e+01    0.2481578    0.2033746 -57.28 0.0007619048    1.511    0.338
       288  -8.1103    162.6163    150.3797   6.8069416338e+01   1.9939427680e+01    0.2105213    0.1816155  88.43  0.000655267    1.603    0.376
       289  -9.9264     39.8428    147.5822   1.0189038471e+02   4.0275851890e+01    0.6005131    0.2772008  60.88  0.002130301    3.016    0.668
       290  -8.0323    212.9555    149.5415   5.7727304967e+01   1.0998616099e+01    0.1795988    0.1309069  35.91 0.0004099929    1.477    0.323
       291  -8.3574    198.7119    148.5879   6.0138322033e+01   1.3632614163e+01    0.2126075    0.1608116 -54.00 0.0005335825    1.607    0.378
       292  -9.9644     89.3285    146.2225   8.6568093421e+01   3.4114718673e+01    0.7068319    0.4183912 -90.00  0.002458415    3.302    0.697
       293 -10.8705     55.1717    145.3289   9.6836510142e+01   3.9139498193e+01     0.921564    0.5420805 -89.71  0.003916957    2.208    0.547
       294 -10.2279     62.9188    135.2352   9.2682710488e+01   4.0730696902e+01    0.3591309    0.3055335 -26.12 0.0008759579    1.281    0.220
       295  -9.1229    233.4899    147.4848   5.3862357358e+01   7.9807807304e+00    0.2620191     0.109592 -36.19 0.0007755794    2.040    0.510
       296 -10.1523    148.9455    144.6466   7.0004247293e+01   2.3727174459e+01    0.5392478    0.3873241 -84.28  0.001663004    2.489    0.598
       297 -10.2768    106.6694    144.2062   8.1101392949e+01   3.1701375531e+01    0.6966494    0.4599585  82.68  0.002311399    2.744    0.636
       298  -8.8704     78.0085    146.6581   9.0045974042e+01   3.5739377392e+01    0.2916323    0.1957202 -87.54 0.0008243174    1.975    0.494
       299  -9.9677     13.3027    146.1647   1.0975463437e+02   4.2937696715e+01    0.3198583    0.2312623  73.08  0.001281018    1.342    0.255
       300  -8.1006    223.2631    146.5992   5.5337905938e+01   9.7670207699e+00    0.1596853    0.1207669  23.11 0.0003341792    1.423    0.297
       301  -7.7252    206.6852    146.3033   5.8161482132e+01   1.2628139380e+01    0.1278692    0.1089633 -67.82  0.000593397    1.618    0.382
       302  -8.1774    175.5738    145.8286   6.4199934397e+01   1.8388874209e+01    0.1964552    0.1345875 -50.35 0.0004346528    1.610    0.379
       303  -9.6023    139.0387    144.8773   7.2511961773e+01   2.5579329558e+01    0.3915606    0.2772408 -68.54  0.001211609    1.960    0.490
       304  -9.9958    242.2520    138.5976   5.0705392441e+01   7.9867704347e+00    0.5006598    0.2003892 -48.56  0.001960937    3.300    0.697
       305  -9.5986    240.3745    145.1416   5.2319619500e+01   7.2739274439e+00    0.2002747     0.156468 -43.57 0.0005604763    1.352    0.261
       306  -9.4304    242.7736    143.0185   5.1529068441e+01   7.2305679989e+00     0.234207    0.1454219 -36.60 0.0006068214    1.367    0.268
       307  -8.4629    250.3915    140.3069   4.9879239850e+01   6.4864298165e+00    0.2381495    0.1287414 -34.27 0.0007749021    1.504    0.335
       308  -8.4382    165.8534    143.8949   6.5891072382e+01   2.0620527472e+01    0.2171393    0.1846526 -86.92 0.0006805176    1.637    0.389
       309  -9.6765    125.0211    142.3870   7.5613832138e+01   2.8788575386e+01    0.4977372    0.3494144 -86.49  0.001295359    2.426    0.588
       310  -8.8043     31.8294    144.1479   1.0391873530e+02   4.1930866905e+01    0.3530662    0.1182776  41.53  0.001322005    2.976    0.664
       311  -7.4335    194.3073    143.6941   5.9914412992e+01   1.5301119767e+01    0.1324602    0.1130768 -71.93 0.0003024906    1.608    0.378
       312 -10.5884     69.6742    140.8777   9.1560242319e+01   3.8383100004e+01     0.564747    0.3763151 -85.90  0.001958556    1.899    0.473
       313  -9.9395     70.2870    133.6961   9.0020778893e+01   4.0111039220e+01    0.4926046    0.2273044  15.63  0.001615272    3.511    0.715
       314  -8.2499    182.1280    141.6312   6.1883814200e+01   1.7948579685e+01    0.2403407    0.1870635 -47.77 0.0005168695    1.363    0.266
       315  -9.4099      2.7194    141.4778   1.1249159789e+02   4.4799120558e+01    0.3329486    0.1473658  72.27   0.00118949    2.561    0.610
       316  -9.0791    247.0619    143.6647   5.1029770798e+01   6.4823775402e+00    0.2407435    0.1486833 -28.03 0.0006137952    1.361    0.265
       317  -8.9904     45.9490    139.7742   9.8886275944e+01   4.1622433895e+01    0.3725417    0.1835182  26.54  0.001219661    2.129    0.530
       318  -9.9503     23.4549    137.9400   1.0578879913e+02   4.4242349487e+01     0.563216    0.2686022  65.38    0.0022806    2.747    0.636
       319  -9.0530     18.2674    138.7152   1.0750242728e+02   4.4452173729e+01    0.4552669    0.1673624   6.90  0.001569259    4.432    0.774
       320  -8.1560    207.7056    137.9206   5.6154563370e+01   1.3892516744e+01    0.2114043    0.1483451 -58.36  0.001044572    1.901    0.474
       321  -8.9106    139.5048    137.3318   7.0670294718e+01   2.7126647474e+01    0.3899475    0.2133159 -19.62  0.001231838    3.591    0.722
       322  -8.5602    197.6280    137.1208   5.7819572514e+01   1.5868656361e+01    0.2197613    0.1610702 -47.95 0.0006064936    1.444    0.307
       323  -8.0417     93.6494    137.3083   8.3464708923e+01   3.5590674280e+01     0.158003    0.1179443  68.44 0.0007043668    1.712    0.416
       324 -10.4326     83.3433    133.1146   8.5753565770e+01   3.8297931776e+01    0.6473475    0.3989366 -60.94  0.001530661    1.673    0.402
       325  -9.2509    248.5539    135.0701   4.9082260391e+01   7.5471704374e+00    0.2836442    0.1791524 -37.33 0.0008673678    1.328    0.247
       326  -7.9517    162.7955    136.5351   6.4888297423e+01   2.2689368109e+01    0.1995841     0.144122  54.76 0.0007445706    1.628    0.386
       327  -9.3227     38.9777    135.6055   1.0051050013e+02   4.3426655729e+01    0.3180474    0.2119625  84.85  0.000838806    1.689    0.408
       328  -8.4440    179.5612    133.7611   6.0612076323e+01   1.9929013115e+01    0.2726108    0.2093915 -61.55 0.0007537208    1.648    0.393
       329  -8.9060    112.7637    133.0108   7.6883214164e+01   3.3235755362e+01    0.3163247    0.2391315 -88.55 0.0007950523    1.903    0.474
       330  -8.0954    237.4235    133.2180   5.0307114554e+01   9.5842708537e+00    0.1827011     0.103332 -43.05 0.0007159014    1.641    0.391
       331  -9.7837    132.2077    131.1087   7.1087154197e+01   2.9925501631e+01     0.408547    0.2892994 -71.00  0.001034166    2.006    0.502
       332 -10.1953     97.9909    129.9208   8.0529075805e+01   3.6638561699e+01    0.6386548    0.2981409 -52.30   0.00167566    2.121    0.529
       333  -8.9877    250.7265    128.9704   4.7544427558e+01   8.1243067148e+00    0.4966995   0.08764294 -37.01  0.001551061    4.484    0.777
       334 -10.2864     13.0361    128.5973   1.0807118880e+02   4.7396144228e+01    0.6107011     0.294681  72.55  0.002304579    2.612    0.617
       335  -8.3649    246.9126    130.1277   4.8304269996e+01   8.5446780064e+00    0.1877262    0.1430547 -41.61 0.0006031168    1.241    0.194
       336  -8.6231    172.1704    137.9319   6.3138915140e+01   2.0571212526e+01    0.2188699    0.1985767 -63.35 0.0006812426    1.302    0.232
       337  -7.9917    192.8351    129.8660   5.7077955857e+01   1.8074486770e+01    0.1883012    0.1630272 -55.62  0.000380367    1.309    0.236
       338  -9.0878    168.3876    129.3906   6.1955106266e+01   2.2990700007e+01    0.2904855    0.2396811 -82.08 0.0007805983    1.671    0.402
       339  -9.7895    153.0355    128.1608   6.5154845952e+01   2.6355553507e+01    0.6510583    0.2304344 -44.17  0.001402781    2.786    0.641
       340 -10.1697     73.4674    129.2348   8.8103974586e+01   4.0775229216e+01     0.415616    0.2994639  77.46  0.001217709    1.846    0.458
       341  -8.7371     25.7755    129.3799   1.0397647152e+02   4.6241527676e+01    0.1817786    0.1297164  -3.01 0.0009523336    1.718    0.418
       342  -9.0316    143.0862    131.5133   6.8390658119e+01   2.7667440733e+01    0.2989115    0.2323027 -71.52  0.000724675    1.711    0.415
       343 -10.7902     44.9646    123.3995   9.6561564732e+01   4.5936501284e+01     1.119175    0.5635318  70.53  0.003738709    3.860    0.741
       344 -10.3976     60.2874    125.0108   9.1626211995e+01   4.3680543208e+01    0.7230992    0.4280996  74.02  0.002643595    2.799    0.643
       345  -7.6175    211.3458    128.7027   5.3480343814e+01   1.4808948887e+01    0.1319881    0.1065942 -69.02 0.0007034454    1.674    0.403
       346  -9.7218    118.1745    125.3952   7.3532779843e+01   3.3963510389e+01    0.5702438    0.3974284  74.83  0.001740458    2.324    0.570
       347  -7.4921    228.4783    125.4841   5.0012255563e+01   1.2298736334e+01     0.132626    0.1127417 -29.30 0.0001217908    1.019    0.019
       348  -8.7891    179.1661    124.5647   5.8524294232e+01   2.1743545160e+01    0.2737873    0.2131306 -63.46 0.0007788098    1.610    0.379
       349 -10.4911     28.6450    122.1897   1.0200465580e+02   4.7845197445e+01    0.7639818    0.3668558  68.28  0.002803667    3.342    0.701
       350  -7.9635    244.0092    124.0277   4.7448064424e+01   9.9297994401e+00    0.1591072    0.1198603 -31.85 0.0004406259    1.092    0.084
       351  -7.8384    188.6029    123.7971   5.6472634933e+01   1.9999968023e+01    0.2023379    0.1267128 -47.23 0.0003945993    1.629    0.386
       352  -9.5099    130.6499    118.1011   6.8271058109e+01   3.3089681814e+01    0.3901836    0.2804192 -80.00  0.001088277    2.213    0.548
       353  -8.3606    171.9705    121.4838   5.9272565089e+01   2.3793944458e+01     0.222865    0.1897476 -37.37 0.0003990498    1.127    0.113
       354  -9.0154    158.6254    121.3245   6.2168466820e+01   2.6591364507e+01    0.3283505    0.2432326 -60.04 0.0007923826    1.626    0.385
       355  -7.9075    202.7079    121.6936   5.3386268787e+01   1.7623892524e+01    0.1389026    0.1047059  -2.10 0.0002249026    1.578    0.366
       356  -7.8877    195.2758    121.6773   5.4718796394e+01   1.9066626160e+01     0.138137    0.1086375 -63.32 0.0002304455    1.580    0.367
       357  -9.6878     71.3462    119.6077   8.6762234817e+01   4.3502533210e+01    0.4294648    0.2710346 -76.56  0.001367636    2.071    0.517
       358  -9.8712    141.5786    118.4162   6.5521461824e+01   3.0753409704e+01    0.4595858    0.3012109 -60.08  0.001211741    1.931    0.482
       359  -9.7995      2.8003    116.9552   1.1024032118e+02   5.0950343327e+01    0.5213221    0.2294489  67.61  0.002123176    2.979    0.664
       360  -9.5917     20.3196    117.8958   1.0428983600e+02   4.9615650539e+01    0.3087504    0.1572887  30.48  0.001451896    2.082    0.520
       361  -7.7063    231.5242    117.4530   4.7823143451e+01   1.3042303806e+01    0.1311617     0.111281 -35.90 0.0008075787    1.060    0.057
       362  -8.5171    103.9823    118.0000   7.5858616374e+01   3.8383863460e+01    0.2550108   0.08800523  38.10 0.0005734047    2.917    0.657
       363  -8.1375    185.6134    115.7628   5.5125136074e+01   2.2061026167e+01    0.2043511     0.127404 -46.46 0.0004796117    1.602    0.376
       364  -9.6120    109.5624    114.1235   7.3190651416e+01   3.8213323035e+01    0.5059838    0.3434936 -75.42  0.001550493    2.294    0.564
       365 -11.2088    248.6562    107.1018   4.3308220080e+01   1.1699334905e+01    0.7486323    0.2300389 -41.11  0.003057126    2.661    0.624
       366  -7.9955    167.4671    114.4578   5.8487209365e+01   2.6080864069e+01    0.1486806    0.1414549 -20.19 8.478142e-05    1.001    0.001
       367  -9.9917     92.8166    112.3399   7.7919752845e+01   4.1761994871e+01     0.471703    0.3384322 -76.82  0.001283886    1.916    0.478
       368 -10.6140     80.8740    101.8043   7.9160511025e+01   4.6337114680e+01    0.5207319    0.3413462 -28.88 0.0004194227    1.777    0.437
       369  -8.5855    174.8067    112.0223   5.6340707524e+01   2.4991779742e+01    0.3046883    0.1854879 -49.33 0.0009228073    1.733    0.423
       370 -10.4304    133.7526    109.1432   6.5097995502e+01   3.4355190857e+01    0.7241948     0.335527 -51.31  0.002357668    2.463    0.594
       371  -9.6845    121.9685    112.1602   6.9092504233e+01   3.6171017898e+01    0.3255578    0.2654289 -63.45 0.0004983497    1.409    0.290
       372  -8.4171    159.1982    111.8211   5.9629688875e+01   2.8352414869e+01    0.2250323    0.2028911 -67.64 0.0006589249    1.252    0.201
       373 -10.3892     66.3057    109.4421   8.6200486023e+01   4.6770699730e+01    0.6174236    0.3397477 -63.21  0.002147589    1.942    0.485
       374  -8.7009     50.9258    112.1507   9.2321719760e+01   4.8126523095e+01    0.2471866    0.2041778  27.90  0.000841982    1.283    0.220
       375  -9.9895     14.1117    110.6203   1.0550742323e+02   5.1903456612e+01    0.4273265    0.2303844  72.65  0.001895555    2.395    0.582
       376  -8.4753     43.2337    109.1719   9.4535426796e+01   4.9762575746e+01    0.2968116    0.1157749  15.61  0.001000073    3.570    0.720
       377  -7.9136    189.3531    107.2893   5.2355599931e+01   2.2805294123e+01    0.2057198    0.1228464 -44.82   0.00071615    1.619    0.382
       378 -10.5135     45.5733    102.0496   9.2174413284e+01   5.1298789017e+01    0.8095305    0.4691921  73.43  0.003045053    3.171    0.685
       379  -9.2071     46.9475     92.1266   8.9343605571e+01   5.3592824787e+01    0.5100889    0.2245511  10.47  0.001686728    3.827    0.739
       380  -8.3022    166.7066    104.2328   5.6027455670e+01   2.8181788296e+01    0.2736528    0.1666817 -47.94 0.0007559219    1.690    0.408
       381  -9.3076    140.0320    104.4825   6.2229577930e+01   3.3966700668e+01    0.3419578    0.2604427  80.74  0.000768097    1.859    0.462
       382  -9.8830     78.9371    112.1770   8.2468248445e+01   4.4164693533e+01    0.5720844    0.3855174 -84.84   0.00158305    2.291    0.563
       383 -10.6884     22.6826    102.3432   1.0104472062e+02   5.3401422065e+01    0.7316502    0.4301609  69.23  0.002618111    2.324    0.570
       384  -9.3755    150.5764    102.8379   5.9233157024e+01   3.1984825735e+01    0.4054165     0.262463 -60.03   0.00123624    1.998    0.500
       385  -9.1903      7.1183    102.6563   1.0702000226e+02   5.4331386691e+01    0.2691877    0.1782473  72.94  0.000891457    1.714    0.417
       386  -9.2215    128.5127    101.7517   6.4463199063e+01   3.7023178215e+01    0.2955062    0.2528535 -70.11  0.000842815    1.379    0.275
       387  -8.0046    159.9765    100.9813   5.6612274492e+01   3.0268220360e+01    0.2284749    0.1799087 -70.89 0.0005660659    1.598    0.374
       388 -10.1382    108.7554     98.6158   6.9208561079e+01   4.1838425424e+01     0.529339    0.3849296  76.28  0.001473144    2.108    0.526
       389 -10.2731     63.9470     95.8688   8.3697117772e+01   5.0427371961e+01     0.640479    0.4112916 -82.09  0.001808652    2.528    0.604
       390  -8.9734     94.9529     96.7201   7.3006457181e+01   4.4977122800e+01    0.2833688    0.2217466 -57.05 0.0006414442    1.384    0.277
       391  -8.0286    164.9804     94.3217   5.3763250610e+01   3.0388464022e+01    0.1993785    0.1953908  57.95  0.000393796    1.059    0.056
       392  -9.0667     36.0649    114.5095   9.8150494839e+01   4.9137557149e+01    0.2030693    0.1377384  25.72  0.001026944    1.590    0.371
       393  -8.5136     55.9865     94.4763   8.6373357058e+01   5.1878536135e+01    0.2097463    0.1118923  51.15 0.0008100756    2.580    0.612
       394  -7.8039    188.7180     93.0012   4.8909042168e+01   2.5402184245e+01    0.1888746    0.1195165 -36.79 0.0008915486    1.479    0.324
       395  -8.0665    176.4063     93.1646   5.1190458029e+01   2.8055699483e+01    0.2102908    0.1270976 -48.14 0.0005637084    1.688    0.407
       396  -9.1601    139.0846     92.0719   5.8993406604e+01   3.6640355129e+01    0.3666973    0.2668859 -65.78  0.000691568    1.780    0.438
       397  -9.9310    123.9236     91.1165   6.2655111667e+01   4.0199789141e+01    0.5788501    0.4123499  30.35  0.001504781    1.534    0.348
       398  -8.4449    107.6299     92.6247   6.7808626209e+01   4.3358412821e+01    0.3050541    0.2190295  -5.26 0.0008976024    1.902    0.474
       399  -9.0593    111.7996     90.6198   6.5959995254e+01   4.2911193290e+01      0.35883    0.1455983  43.62  0.001246558    2.459    0.593
       400  -9.7522      5.5088     91.7649   1.0612730711e+02   5.7138099309e+01    0.3565214    0.2046026  63.78  0.001363485    2.251    0.556
       401  -7.9796    193.1214    115.1273   5.3564324297e+01   2.0654097640e+01     0.194627    0.1594009 -55.42 0.0004111583    1.330    0.248
       402  -9.6042     34.8920     89.6868   9.3670582224e+01   5.5501963988e+01     0.481323    0.2820629 -86.28  0.001624337    2.531    0.605
       403  -9.1174     22.7396     90.1147   9.8793061538e+01   5.6462941000e+01    0.3734028    0.2322541 -32.23    0.0015233    1.647    0.393
       404  -7.9999    157.7636     91.5802   5.4540965281e+01   3.2510831442e+01    0.1980968    0.1461492  63.18 0.0006434019    1.517    0.341
       405  -8.1622     29.8138     90.8733   9.6024931945e+01   5.5686118374e+01    0.1808167    0.1591516  82.35 0.0004229381    1.301    0.232
       406  -9.9960     86.4423     85.9913   7.2701220908e+01   4.8953911573e+01    0.5856653    0.4022819 -60.86  0.001618754    1.766    0.434
       407  -9.8196     48.4943     83.4327   8.6471235610e+01   5.5492157305e+01    0.6506519    0.4235696 -74.03  0.002291314    2.011    0.503
       408  -9.0332     70.5045     85.7248   7.8395501105e+01   5.1790055444e+01    0.3785288    0.1357689  28.75   0.00119649    3.446    0.710
       409  -8.2254    157.9052     83.7947   5.2340270914e+01   3.3875930926e+01    0.1988186    0.1721951 -72.25  0.000404039    1.290    0.225
       410  -9.7838    104.7230     82.5468   6.5628700041e+01   4.6060368871e+01    0.5494406    0.3049201 -51.44  0.002028719    2.037    0.509
       411  -9.1130    141.0905     82.6294   5.5757100526e+01   3.7963042748e+01    0.3095828    0.2257141 -64.40 0.0007275135    1.726    0.420
       412  -8.3664     64.0090     82.3493   7.9893658612e+01   5.3582042088e+01    0.1986243    0.1875333  13.78 0.0005665143    1.091    0.083
       413  -9.6515     24.7852     80.4977   9.5892598844e+01   5.8655833407e+01    0.4486183    0.2884296  78.02  0.001410654    2.342    0.573
       414  -9.6702      9.9913     80.9518   1.0247349008e+02   5.9565980888e+01    0.3760597    0.1885476  58.67  0.001486859    3.126    0.680
       415  -8.6132    119.3555     80.0241   6.0545653997e+01   4.3392403032e+01    0.3153763     0.226392 -59.68 0.0008726931    1.713    0.416
       416  -8.7153     74.7830     80.3277   7.5146645636e+01   5.2280176421e+01    0.3308981    0.2018769 -63.66  0.001257764    2.251    0.556
       417  -8.7062     60.1360    114.7962   8.9586899009e+01   4.6289392946e+01     0.432833    0.2193896   3.91   0.00137986    3.976    0.749
       418  -8.2306    166.8123     79.5635   4.9366606638e+01   3.2552998978e+01    0.2330675    0.1621737 -42.28 0.0004752545    1.399    0.285
       419  -8.4054    150.0752     80.0818   5.2958628190e+01   3.6340716804e+01    0.2385718     0.179936 -70.49 0.0007612363    1.678    0.404
       420  -8.0545    184.4154     78.0342   4.5792588285e+01   2.8805411427e+01     0.215961    0.1315635 -35.60  0.001010275    1.568    0.362
       421  -8.0428    157.3663     76.2488   5.0306131189e+01   3.5302377618e+01    0.2078172    0.1306182 -45.93 0.0003212455    1.614    0.380
       422  -9.3564    128.1530     75.1133   5.6660562837e+01   4.2314640225e+01    0.3492556    0.2402613 -56.11 0.0006432659    1.726    0.420
       423  -8.8063    140.4837     75.0806   5.3640786626e+01   3.9456444574e+01    0.2246425    0.1463373 -38.34 0.0005930557    1.539    0.350
       424  -9.9111     63.2161     73.3772   7.7429261557e+01   5.5701595268e+01    0.4625035    0.2843059 -60.30  0.001033454    1.985    0.496
       425  -9.6203     82.4879     72.5133   6.9781444297e+01   5.2544958404e+01    0.4026522    0.2917073 -72.01  0.001050683    2.121    0.528
       426  -8.1877    163.4351     73.2120   4.8238327131e+01   3.4388887445e+01    0.2131041    0.1285375 -47.30 0.0009447814    1.697    0.411
       427  -7.6908    151.6713     73.3242   5.0638272599e+01   3.7130707807e+01    0.1533795    0.1148559 -73.42 0.0007049743    1.697    0.411
       428  -8.3427    115.7068     72.9204   5.9301445400e+01   4.5546185364e+01    0.2099002    0.1933351 -33.28 0.0005185773    1.103    0.093
       429  -7.6451    175.4619     72.4872   4.5839394616e+01   3.1717177084e+01    0.1403881    0.1356787 -52.42 0.0001379856    1.018    0.018
       430  -8.9756    105.9845     71.5181   6.1674833278e+01   4.7953748763e+01    0.2700743    0.2101884 -57.41 0.0005878453    1.514    0.340
       431  -9.0620     95.1329     70.9519   6.4905260161e+01   5.0358773920e+01     0.339593    0.2336431 -54.16 0.0009687783    1.711    0.416
       432  -8.1267     42.4452     72.2332   8.5896423049e+01   5.8830031712e+01    0.1950019    0.1329566 -68.63 0.0009449597    1.771    0.435
       433  -9.4364     51.2872     69.2092   8.1080742693e+01   5.8371614774e+01    0.4503933    0.2789471 -70.36  0.001739222    2.466    0.595
       434  -9.3096     29.4534     70.0501   9.1184341155e+01   6.0718811422e+01    0.5038243     0.237341 -10.86  0.001823658    3.574    0.720
       435  -8.9271     16.7772     69.9377   9.7100925431e+01   6.1784884888e+01    0.2316329    0.1748283 -87.35 0.0009171013    1.609    0.379
       436  -8.6103    147.1308     67.9283   4.9992940111e+01   3.9100683892e+01    0.2278957    0.1946427 -67.50 0.0005734193    1.288    0.223
       437  -8.4263    138.7670     66.1053   5.1274601189e+01   4.1388123850e+01    0.2247279    0.1950606 -65.87 0.0005589456    1.270    0.212
       438  -8.8451    121.7773     65.7216   5.5296903034e+01   4.5446606348e+01     0.286772    0.1988785 -49.88 0.0006656062    1.598    0.374
       439  -8.8011    110.0898     63.4573   5.7739958933e+01   4.8509757280e+01    0.2666007      0.20175 -53.31 0.0006091793    1.521    0.343
       440  -9.5170     97.3490     61.1717   6.0790192386e+01   5.1714313255e+01     0.463947    0.3216161 -26.61  0.001853354    1.544    0.353
       441  -8.7451     37.3475     63.8774   8.5683449267e+01   6.1297558737e+01    0.2454122    0.2089617  87.56  0.001362843    1.612    0.380
       442  -7.6402    157.2555     69.6462   4.8419915708e+01   3.6420848649e+01    0.1491778    0.1086466 -63.06 0.0002407334    1.606    0.377
       443  -8.6985     66.2483     61.8935   7.2284963119e+01   5.7602945530e+01    0.3634351    0.1797929  22.75  0.001359021    2.742    0.635
       444  -7.9437    158.2722     61.6514   4.5885607180e+01   3.7437654986e+01    0.1487108    0.1067513 -64.22 0.0003498348    1.627    0.385
       445  -9.5889     73.3732     59.2661   6.8510223045e+01   5.6856370671e+01    0.3784708    0.2514959 -50.20  0.001000048    1.698    0.411
       446  -9.4472    146.9678     56.9012   4.6655478518e+01   4.0873690573e+01    0.4271704    0.1709699 -37.91  0.001283845    2.457    0.593
       447  -9.9504     23.4032     56.1929   9.0131633629e+01   6.4399497927e+01    0.4322679    0.2934571  80.19  0.001909483    2.680    0.627
       448  -9.4110      7.5754     57.0966   9.8553888176e+01   6.5331076474e+01    0.2881587    0.2040752  77.02  0.001123739    2.007    0.502
       449  -8.0572    130.5434     57.4879   5.0412759401e+01   4.4735171377e+01    0.1445094    0.1407915  61.37 6.230646e-05    1.029    0.029
       450  -7.9596    140.1225     56.1707   4.7846139383e+01   4.2636685425e+01    0.1989196    0.1648542 -64.02 0.0003923716    1.338    0.252
       451  -8.8432    119.3174     55.7891   5.2596566415e+01   4.7664099636e+01    0.2661752      0.21031 -61.59 0.0007868097    1.520    0.342
       452  -8.5845     44.0494     55.4690   7.9690965396e+01   6.2270779616e+01    0.2395276    0.1935519 -61.83 0.0009732456    1.517    0.341
       453  -8.9279     62.8588     54.4481   7.0921454046e+01   5.9628566835e+01     0.292061    0.1983952 -50.65 0.0006032332    1.669    0.401
       454  -8.8842     53.9996     53.6691   7.4453291759e+01   6.1208930186e+01    0.3468915    0.1992188 -61.53   0.00142666    2.768    0.639
       455  -8.5473    105.8272     53.0605   5.5303909017e+01   5.1217008678e+01     0.220967    0.1970145 -71.01 0.0006670762    1.345    0.257
       456  -9.3869     92.5624     50.3985   5.8358115240e+01   5.4583516233e+01    0.3793125    0.2331013 -51.31  0.001094889    2.063    0.515
       457  -8.1028    129.9780     48.9996   4.7726246005e+01   4.6151288877e+01    0.2268359    0.1708782 -68.43  0.000667752    1.645    0.392
       458  -8.2283    163.6520     48.1624   4.0989597488e+01   3.8093995292e+01    0.1966137    0.1329478 -16.85 0.0009436027    1.808    0.447
       459  -8.0717    120.9650     47.2739   4.9237691690e+01   4.8568107534e+01     0.197427    0.1822494  56.20 0.0004570152    1.053    0.050
       460  -8.3680    112.1393     46.6370   5.1239194153e+01   5.0750601975e+01     0.239429    0.1928174 -47.51 0.0006092126    1.375    0.273
       461  -8.8136     82.0610     45.9446   6.0159658826e+01   5.7516694740e+01      0.23924    0.2015269 -32.64  0.000794798    1.240    0.194
       462  -8.3345     45.1157     44.6139   7.5026887214e+01   6.4261763875e+01    0.2182204    0.1763015 -47.16 0.0006367661    1.381    0.276
       463  -9.3773     16.8259     44.2758   8.9806588807e+01   6.7513021269e+01    0.2542339    0.1783951 -72.37 0.0009112292    1.867    0.464
       464  -8.2837    132.7585     43.0477   4.5127702391e+01   4.6309963769e+01    0.1789876    0.1205375 -32.17 0.0003985513    1.558    0.358
       465  -9.1947     69.5691     41.3106   6.2900945284e+01   6.0739642536e+01    0.3434052    0.2390235 -57.14  0.001178504    2.095    0.523
       466  -9.1589     58.1632     42.3138   6.8055737480e+01   6.2630087665e+01    0.3090819    0.2122997 -62.80  0.001434999    2.446    0.591
       467  -9.9235      5.2066     41.7055   9.5644837749e+01   6.8854105666e+01    0.3568711    0.2261953 -80.03  0.001659356    2.153    0.536
       468  -8.3224     89.1565     59.2313   6.2781149433e+01   5.3783705717e+01    0.1939193    0.1780955 -79.16 0.0007151413    1.361    0.265
       469  -8.8175    105.9121     40.9842   5.0815217480e+01   5.3018340125e+01    0.2432159    0.1971882 -38.75  0.000668784    1.331    0.249
       470  -8.1654     36.8592     40.4262   7.7445037231e+01   6.6172095489e+01    0.2095319    0.1720138 -45.27 0.0006423815    1.338    0.253
       471  -8.3719     95.6628     37.9461   5.2550255680e+01   5.5789775323e+01    0.1905533    0.1755639 -24.14 0.0004810189    1.157    0.136
       472  -8.0549     80.6166     36.7500   5.6891413472e+01   5.9232595267e+01    0.1831977    0.1287245 -40.43 0.0005169816    1.580    0.367
       473  -9.3075     26.2266     35.2853   8.1067472618e+01   6.8411632562e+01    0.2688929    0.2146795 -62.62 0.0009242653    1.690    0.408
       474  -7.9988    125.9250     35.3125   4.3929412930e+01   4.8986788706e+01    0.1943762    0.1703835  55.67 0.0003649014    1.058    0.055
       475  -8.7915    111.8316     34.5217   4.6860221678e+01   5.2491062438e+01    0.2697454     0.169348 -47.44 0.0007548048    1.865    0.464
       476  -8.4852    119.4183     33.2451   4.4614889497e+01   5.0826884954e+01    0.1880874    0.1279032 -42.44 0.0006510076    1.605    0.377
       477  -8.5110     60.7904     32.3322   6.2537564736e+01   6.3787781274e+01    0.2122422    0.1766972 -36.68 0.0005584007    1.350    0.259
       478  -8.6747     48.6229     33.1407   6.8373605466e+01   6.5751389124e+01    0.2057142      0.17825  34.28 0.0006292736    1.291    0.225
       479  -9.0234     72.0665     30.6123   5.7292735102e+01   6.1866335549e+01    0.2944117    0.1647743 -38.54 0.0007279884    1.951    0.487
       480  -9.1778     12.8856     29.9665   8.6821599077e+01   7.0712531075e+01    0.3004913    0.1772859 -64.40  0.001331347    2.252    0.556
       481  -8.2929    101.4957     29.0284   4.7370908950e+01   5.5616704182e+01    0.1989562    0.1362495 -29.70  0.001017557    1.566    0.362
       482  -8.7970     81.6384     27.3085   5.2489512715e+01   6.0306454871e+01    0.2605306    0.2155281 -72.46 0.0008017636    1.716    0.417
       483  -9.3705      3.7145     27.3436   9.1686463056e+01   7.1888175510e+01    0.2509542    0.1855399 -71.00 0.0009636633    1.763    0.433
       484  -8.8940     91.9537     26.4395   4.8946460269e+01   5.8128299582e+01    0.2491079    0.1832431 -46.08 0.0007035853    1.624    0.384
       485  -8.4307     34.6638     23.1039   7.0691932131e+01   6.9472671412e+01    0.1834929    0.1603074 -43.62  0.001163164    1.492    0.330
       486  -8.9253     63.5333     20.6804   5.5914213236e+01   6.4885517681e+01    0.3019073    0.1970429 -46.54  0.001047677    2.050    0.512
       487  -8.7204     48.3132     21.4098   6.2851681805e+01   6.7590922849e+01    0.2190901    0.1970219 -31.38 0.0007877062    1.355    0.262
       488  -7.7078    117.3046     21.6860   4.0848007005e+01   5.2665360135e+01    0.1359822    0.1022065 -69.60 0.0004218333    1.619    0.382
       489  -8.1416     19.5471     21.0619   7.8603697278e+01   7.1700307051e+01    0.1482457    0.1122866 -70.93 0.0005987057    2.454    0.593
       490  -8.8990     74.2008     19.3042   5.1353111820e+01   6.2870769007e+01    0.2839631    0.1986215 -46.33 0.0009567283    1.838    0.456
       491  -8.3496    161.1971     17.8976   3.2486036953e+01   4.2268482376e+01    0.1723525    0.1442484  45.28 0.0003383604    1.306    0.234
       492  -8.3021     38.8474     18.1603   6.5882150566e+01   6.9596964164e+01    0.1800171    0.1621227   2.52 0.0004900561    1.205    0.170
       493  -8.0787     87.7077     17.3306   4.6261415373e+01   6.0121356499e+01    0.1934672    0.1531525 -70.07 0.0006739405    1.730    0.422
       494  -7.9535    112.5639     16.5042   3.9889293960e+01   5.4345191679e+01    0.1335057    0.1220447  63.50 9.987437e-05    1.055    0.052
       495  -8.2853     30.3702     16.1693   6.9484750271e+01   7.1139646186e+01    0.1613764    0.1107755 -42.20 0.0005607715    1.698    0.411
       496  -7.8977     97.3626     15.1268   4.2774149129e+01   5.8114557544e+01    0.1837438    0.1174666 -36.91 0.0005445415    1.763    0.433
       497  -8.8884      7.6457     15.3236   8.3743112534e+01   7.3839025885e+01    0.1564208    0.1461274  57.43 0.0008811976    1.712    0.416
       498  -8.5993    190.1647     14.1837   2.8356044816e+01   3.5804650130e+01    0.1854527    0.1272294 -62.82  0.001078944    1.359    0.264
       499  -8.2214     17.1793     14.1626   7.6579812610e+01   7.3104078770e+01    0.1507442    0.1367061  -0.58 0.0005330682    1.319    0.242
       500  -8.0216    191.4870    249.5063   7.9762451214e+01  -1.4988861287e+00     0.118485   0.09145763  12.05 0.0008097563    1.062    0.058
       501  -7.7360    153.2885    249.6345   8.7314419919e+01   3.4075571810e+00    0.1129281   0.08847016  53.11 0.0007023823    1.701    0.412
       502  -8.4491    113.3544    248.8065   9.5516099097e+01   8.8364721280e+00    0.2298893    0.1611483  76.00  0.001321125    2.144    0.534
       503  -9.2394    103.9074    246.6600   9.7286551121e+01   1.0438032209e+01    0.3857143     0.225851 -85.42  0.001904724    3.024    0.669
       504  -8.3446     93.9728    249.0704   9.9636395422e+01   1.1294467785e+01    0.1976878    0.1191875  56.10 0.0007709727    1.796    0.443
       505  -9.8662     64.6452    248.5161   1.0574125231e+02   1.4965847548e+01    0.3080073    0.1470362  38.91 0.0009831669    1.634    0.388
       506 -10.3504     52.4063    249.2228   1.0831588139e+02   1.6225760555e+01    0.4613405    0.1419409  28.23  0.001963562    3.058    0.673
       507  -8.9917    175.6067    247.3140   8.2523750587e+01   8.2270640429e-01    0.2552315    0.2079146  64.20  0.001157302    2.214    0.548
       508  -8.8011    156.5638    247.9065   8.6419946232e+01   3.2352054163e+00    0.1884866    0.1594198 -68.61 0.0007404455    1.840    0.457
