#   1 NUMBER                 Running object number                                     
#   2 MAG_AUTO               Kron-like elliptical aperture magnitude                    [mag]
#   3 X_IMAGE                Object position along x                                    [pixel]
#   4 Y_IMAGE                Object position along y                                    [pixel]
#   5 X_WORLD                Barycenter position along world x axis                     [deg]
#   6 Y_WORLD                Barycenter position along world y axis                     [deg]
#   7 A_WORLD                Profile RMS along major axis (world units)                 [deg]
#   8 B_WORLD                Profile RMS along minor axis (world units)                 [deg]
#   9 THETA_WORLD            Position angle (CCW/world-x)                               [deg]
#  10 FWHM_WORLD             FWHM assuming a gaussian core                              [deg]
#  11 ELONGATION             A_IMAGE/B_IMAGE                                           
#  12 ELLIPTICITY            1 - B_IMAGE/A_IMAGE                                       
         1 -10.1644     16.2507     18.1853   8.3134320167e+01   7.0794499545e+01     0.952127     0.412177  15.54  0.004716512    2.523    0.604
         2 -11.5342     18.8305     28.0312   8.5976132156e+01   6.8986221197e+01    0.4562587    0.2545808 -47.07 0.0007654129    1.823    0.451
         3 -11.4381     14.4639     38.5106   9.2259799396e+01   6.7534843273e+01    0.8403823    0.4884709 -63.07  0.004449144    2.354    0.575
         4 -11.0751      6.5426     35.8885   9.5499333621e+01   6.8588231695e+01    0.9333006    0.4524994 -44.30  0.005244837    1.617    0.382
         5 -10.2038      6.1887      9.2757   8.4854703145e+01   7.3042685916e+01     0.506216     0.237474 -22.64  0.002082805    2.043    0.511
         6 -11.5768     22.1125      6.4891   7.4180102797e+01   7.1769395319e+01    0.5153788    0.3365877  31.80  0.002774452    1.571    0.363
         7 -11.0949      7.6168     15.4077   8.6851474208e+01   7.2000290212e+01    0.5167118    0.2338086   9.35 0.0009665143    2.367    0.578
         8 -12.1950     14.0823     10.8544   8.0912215559e+01   7.2081390906e+01    0.3056607    0.1986332  -5.93  0.000311859    1.297    0.229
         9 -11.4173     15.5692      3.9195   7.6513350595e+01   7.2852198344e+01    0.5033722    0.2599092   2.59  0.001601239    2.216    0.549
        10 -11.8683     27.1602     54.1241   9.1322084357e+01   6.3461818148e+01     1.316077    0.7163001 -14.35  0.006402947    2.162    0.537
        11 -11.6342    103.9425     39.2414   5.6743429168e+01   5.3345189681e+01    0.5197693    0.3120401 -40.13 0.0005902954    1.856    0.461
        12 -12.3915    107.6518     29.1128   5.2159482676e+01   5.3792142487e+01    0.4654152    0.3727737  22.07  0.002711943    1.289    0.224
        13 -12.7933    105.1391     20.8042   4.9783531988e+01   5.5270124931e+01    0.3517809    0.3053105  21.23  0.000491849    1.161    0.139
        14 -10.1803     71.4914     30.3360   6.3459445465e+01   6.1111886587e+01    0.4853698    0.2911184  15.43   0.00236404    2.020    0.505
        15 -10.1586     26.5131     21.6448   7.9177077589e+01   6.9178338698e+01    0.5792128    0.3408161 -16.46  0.002905421    1.644    0.392
        16 -11.2337     40.3338     20.9153   7.2051965536e+01   6.7495035135e+01    0.6013682     0.431372  57.87  0.001427417    2.639    0.621
        17 -11.2558     42.4463     15.4873   6.8551603995e+01   6.7887503530e+01    0.2620467    0.1887757  26.49 0.0001313307    1.217    0.178
        18 -10.5483     69.7534     11.3818   5.6012245143e+01   6.3618588202e+01    0.2480264    0.1774682  33.04 0.0002062747    1.168    0.144
        19 -10.2814     78.9879     11.5548   5.3184319674e+01   6.1774550414e+01    0.2555195    0.1930524   5.25 3.844775e-05    1.360    0.265
        20  -9.0826     75.4596     12.4433   5.4636214886e+01   6.2397542794e+01    0.2024612    0.1617302  17.90  0.001051653    1.151    0.131
        21 -11.5869     61.8839     17.0678   6.1292648461e+01   6.4485083112e+01    0.7102126     0.277381  36.67 0.0003983839    2.396    0.583
        22  -9.8637     69.5584     18.4827   5.9162002716e+01   6.2912046897e+01    0.3537474    0.2259942 -40.01  0.001952253    1.950    0.487
        23 -10.7695    175.7835     13.1164   3.5528237295e+01   3.9510548568e+01    0.8103843    0.3236841  69.37  0.003681179    2.176    0.540
        24 -10.9266    166.0698     18.9433   3.8245077338e+01   4.1188024764e+01    0.3855096    0.3016866 -11.17  0.001533497    1.654    0.395
        25  -9.9438    185.0320     13.6084   3.4628050281e+01   3.7328909890e+01    0.3591256    0.2228906 -44.50  0.002056735    1.599    0.375
        26 -10.7234    182.2366     18.3748   3.6108556747e+01   3.7472593163e+01    0.3702151     0.231989  51.20 0.0005049152    1.718    0.418
        27 -10.4221    230.9176     14.4538   3.0696149489e+01   2.7284793655e+01    0.3093827    0.2163614 -48.47  0.001206954    1.296    0.229
        28 -12.0723    117.0597     22.2436   4.7572555057e+01   5.2414549020e+01     0.260085    0.2244715  14.51 0.0004200549    1.258    0.205
        29  -9.9221     84.3082     20.2330   5.5155344720e+01   5.9807886490e+01    0.4731781    0.2969654 -60.17  0.001957576    3.054    0.673
        30 -10.0029    212.7723      9.8281   3.1167883080e+01   3.1568837635e+01    0.3047319    0.1617942 -85.45  0.001255774    1.842    0.457
        31 -10.7648    218.5376     18.7521   3.2583036559e+01   2.9372842396e+01    0.4299526    0.2574153 -76.77  0.001630801    1.589    0.370
        32 -10.3169    211.3301     14.9425   3.2392036984e+01   3.1334091853e+01    0.5087014    0.1803351 -49.16  0.002242071    2.553    0.608
        33  -9.7735    116.9184     15.1007   4.5157307157e+01   5.3159480953e+01    0.2701566    0.2134043  29.50 0.0009763078    1.315    0.240
        34 -10.7160    244.0539     13.6014   2.9587072288e+01   2.4771201243e+01    0.3031935    0.2401133  31.73  0.001510902    2.175    0.540
        35 -11.1759     97.9551     12.5993   4.8482116945e+01   5.7664525427e+01    0.4907847    0.2635566  48.63   0.00111422    1.547    0.354
        36  -8.5288     97.6623      6.6807   4.6310168281e+01   5.8246766680e+01    0.1801406    0.1268837  -1.78  0.001053765    1.643    0.391
        37  -9.0246     51.4255     12.9350   6.3479695739e+01   6.6761185397e+01    0.2389385    0.1332833 -36.43 0.0007206874    2.099    0.524
        38 -10.0818     31.2688     12.6118   7.2484512326e+01   6.9833186991e+01      0.37696    0.1968655  27.98  0.002128634    1.727    0.421
        39 -10.4802    146.3193     12.4054   3.9180024242e+01   4.6511351480e+01    0.4762996    0.2255061  63.03  0.001450135    1.766    0.434
        40 -11.0952    133.1807     12.5063   4.1290032749e+01   4.9606866224e+01    0.3081528    0.2302049  33.35 0.0002444636    1.469    0.319
        41  -9.9744    127.4484      8.5172   4.0999780302e+01   5.1306866832e+01    0.3613141    0.2541982 -76.51  0.001226916    1.708    0.414
        42 -10.0893    201.3702      7.8478   3.1703134566e+01   3.4245883818e+01    0.4242397    0.2268261  84.52  0.002312783    1.721    0.419
        43 -10.9565    191.8950      8.6244   3.2747900492e+01   3.6275203825e+01    0.4465529    0.3668705 -80.52 0.0009261409    1.034    0.033
        44 -10.6210    196.0008      3.5159   3.1198434742e+01   3.5856557917e+01    0.4832699    0.2344351  75.03  0.001681706    1.792    0.442
        45  -9.9426    224.3037      9.5154   3.0197139011e+01   2.9175849573e+01     0.364002    0.1559239 -36.93  0.001921029    2.193    0.544
        46  -9.1953     55.9738     10.7775   6.0662894607e+01   6.6216852808e+01    0.2007357    0.1510145  -2.20  0.000632714    1.259    0.206
        47  -9.9072    166.4289      9.2404   3.5621249925e+01   4.2067374851e+01    0.3139024    0.2500354  60.37  0.001674642    1.216    0.178
        48 -10.7022    236.2873      7.2693   2.8900464098e+01   2.6985210629e+01    0.2790918    0.2017993  83.33  0.001072962    1.277    0.217
        49 -10.5161    232.2032      5.7624   2.8883766357e+01   2.7960208916e+01    0.3566861    0.2079494 -31.87  0.002158642    1.915    0.478
        50 -10.8612    237.4336      3.4473   2.8092346940e+01   2.7159349503e+01    0.3889695    0.2242053 -89.92  0.002460804    1.533    0.347
        51  -8.9849     88.2345      6.1988   4.8425708956e+01   6.0327637259e+01    0.2230774    0.1311212  46.90 0.0007313968    1.391    0.281
        52  -8.6334     43.4641      9.3694   6.5143175142e+01   6.8447858461e+01    0.1771344    0.0977454  37.84 0.0004837805    1.605    0.377
        53  -8.3032    119.9993      8.0210   4.2163051196e+01   5.3082037661e+01    0.1494833    0.1309691  56.29 0.0003490109    1.036    0.035
        54  -9.3859     69.1020      7.0238   5.4303734029e+01   6.4156791778e+01    0.1984388     0.146884  37.27  0.000351363    1.107    0.097
        55 -11.1700     74.0022      3.7650   5.1350644844e+01   6.3474098583e+01    0.4972663    0.3105116 -11.96  0.002904655    1.767    0.434
        56  -9.0304     69.6964      2.3213   5.2023980076e+01   6.4448130028e+01    0.1827353    0.1413084 -28.36 0.0005882003    1.541    0.351
        57  -9.9307    106.8895      6.0924   4.4064071913e+01   5.6239440464e+01    0.3537985    0.2807088 -64.21 0.0009712701    1.587    0.370
        58 -10.1760     61.2590      5.9171   5.6451816860e+01   6.5744355722e+01     0.381066    0.2758242  72.94  0.002166237    2.237    0.553
        59 -10.2982    247.9958      4.9662   2.7720935130e+01   2.4952110142e+01    0.2447327    0.1510806  88.57 0.0003251993    1.436    0.304
        60 -10.6771    250.0015      1.4388   2.6960507810e+01   2.4942420131e+01    0.3351114    0.1932523  64.13 0.0003257771    1.944    0.486
        61  -9.5439    152.8280      6.0422   3.6450755202e+01   4.5550716299e+01    0.2016114    0.1512977  65.08  0.000307569    1.155    0.134
        62  -9.9342     39.7234      4.8888   6.4570745490e+01   6.9515022952e+01    0.3033105    0.2527754  42.12  0.001152845    1.520    0.342
        63 -10.7857     30.9312      3.3020   6.7912290869e+01   7.0985415098e+01    0.2820466    0.1988592 -40.48  0.001134024    2.032    0.508
        64 -10.6578    208.8709      3.8509   3.0203475039e+01   3.3013309045e+01    0.3584561    0.2504959 -67.82  0.001371242    1.227    0.185
        65 -10.9261    160.2832      2.8716   3.4657971653e+01   4.4077403398e+01    0.5042176    0.2807621  65.33  0.002759835    1.510    0.338
        66 -10.3229    217.7186      2.9700   2.9345145141e+01   3.1221989301e+01    0.2632777    0.2294348 -86.26  0.001131283    1.178    0.151
        67 -11.3416    179.4436      2.1463   3.2410528595e+01   3.9711247513e+01    0.3184172    0.1694568  66.63 0.0004850609    1.619    0.382
        68  -9.7808    127.6598      1.6382   3.8765078303e+01   5.1819339629e+01     0.339908    0.1393465  50.91  0.001070467    2.081    0.520
        69 -10.5292     90.0004      1.9638   4.6299707277e+01   6.0288873519e+01    0.4244146    0.1867317  63.07  0.001640424    2.123    0.529
        70  -8.8431     81.5603      2.6166   4.8721094708e+01   6.2023458631e+01    0.2427276    0.0994508  38.95    0.0010357    2.226    0.551
        71  -9.7166     50.1386      2.2241   5.8829967366e+01   6.8073492581e+01     0.213558    0.1688045  16.25 0.0008408349    1.054    0.051
        72  -8.8464    135.8347      1.6197   3.7510439730e+01   4.9911598928e+01    0.1761731     0.139392  75.87  0.001111297    1.110    0.099
        73 -10.0783    115.6953      1.9013   4.0884841735e+01   5.4565697492e+01    0.2057895    0.1537148  66.44 0.0002842247    1.165    0.142
        74  -8.2773      3.2999      2.3616   8.3199789929e+01   7.4270194176e+01    0.1191873   0.06336886 -15.01  0.000572925    1.719    0.418
        75  -8.7899     90.7340      8.8436   4.8834451755e+01   5.9567681927e+01    0.2269852    0.1340383  37.78  0.001228607    1.528    0.346
        76  -9.0524     47.6799      6.9626   6.2158304436e+01   6.8025524939e+01    0.2911349    0.2387316 -89.15  0.001707381    2.647    0.622
        77  -8.0828    108.9457      1.0000   4.1835312647e+01   5.6171825537e+01    0.2008015   0.06065038  64.29 0.0003682631    2.775    0.640
        78 -10.6470     13.9095    113.3330   1.0993416062e+02   5.0998597604e+01    0.4116812    0.2682798 -39.92  0.001514097    1.497    0.332
        79  -9.5546    201.4360    249.6433   8.3668115446e+01  -5.7195923077e+00    0.2325983    0.1677466   9.39 0.0005898695    1.170    0.145
        80 -10.4154      3.3515    109.2766   1.1289697182e+02   5.2613672473e+01    0.3278922    0.3085563  31.01  0.002133893    1.290    0.225
        81  -9.9269      7.5344    108.5315   1.1138089380e+02   5.2567230230e+01    0.3179651     0.168042 -62.28 0.0009195484    1.491    0.329
        82  -9.6749     61.9610    120.4878   9.5065835832e+01   4.4455054614e+01    0.2674148    0.1996361 -58.22 0.0003120637    1.250    0.200
        83  -9.4238    221.2774    119.3999   5.4604460149e+01   1.3692107945e+01    0.2486273    0.2262408 -62.83 0.0007329728    1.153    0.133
        84 -10.0194     44.3285    119.3812   1.0072303830e+02   4.6855151130e+01    0.4148795     0.203822  34.51  0.001819461    2.179    0.541
        85  -8.1969    103.7089    119.3342   8.1521925021e+01   3.8021309723e+01     0.155077    0.1247187  86.17 0.0002987405    1.634    0.388
        86  -9.3372     93.8324    118.7814   8.4399511363e+01   3.9941072067e+01     0.291048    0.2280738 -11.70  0.000744936    1.525    0.344
        87 -10.3707      4.0041    117.0100   1.1369437842e+02   5.0690342135e+01    0.3635588    0.2645628 -50.08  0.001441969    1.241    0.194
        88  -8.6601     67.9422    118.4593   9.2644067606e+01   4.4138946474e+01     0.214076    0.1141718  53.17 0.0008090172    2.603    0.616
        89 -10.2987     12.4922    106.9605   1.0944250055e+02   5.2653036204e+01    0.4024598    0.2410913  52.05  0.001271592    2.118    0.528
        90  -8.9814     70.4923    116.1041   9.1263680686e+01   4.4353604371e+01    0.2269362    0.1996023  71.36 0.0004505063    1.326    0.246
        91 -10.7296     62.8818    110.8959   9.2620332116e+01   4.6702627534e+01    0.5117333    0.2182027 -56.00  0.000267162    2.164    0.538
        92  -8.9936     58.1050    107.8969   9.3573610899e+01   4.8067605026e+01    0.2148983    0.1933382 -37.10 0.0003799348    1.033    0.032
        93 -10.3974     62.4851    105.0908   9.1378903423e+01   4.8162510534e+01    0.3647369     0.286763  -1.78   0.00084469    1.430    0.301
        94  -9.8944     48.2296    115.4982   9.8637438450e+01   4.7394505759e+01     0.433024    0.2585443  53.33 0.0009754964    2.179    0.541
        95  -9.3217     48.7834    111.9397   9.7709272770e+01   4.8214373174e+01    0.3065261    0.2099587 -61.77 0.0007246824    1.365    0.267
        96  -9.7824    129.8547    113.8636   7.2653833773e+01   3.4064474974e+01    0.2598182    0.2446736  49.17  0.001350003    1.095    0.086
        97 -10.7097     31.9745    112.1199   1.0356857636e+02   4.9892179488e+01    0.3508811    0.2773625  80.59  0.001564154    1.480    0.325
        98 -10.0080     37.3533    106.3116   1.0055580570e+02   5.0817425152e+01    0.2962086    0.1330053 -47.09  0.001265148    1.964    0.491
        99  -7.8740    155.2747    113.2921   6.6104135033e+01   2.8701609559e+01    0.1504595     0.122017  -1.61 0.0002631855    1.520    0.342
       100  -9.8528     20.7035    112.5945   1.0752155506e+02   5.0703473719e+01    0.2265988    0.2044627  29.34 0.0007857878    1.291    0.225
       101 -10.2476     20.8378    108.5241   1.0679784609e+02   5.1696818284e+01    0.4290806    0.2183228 -46.15  0.002069476    1.743    0.426
       102  -9.3828     20.4567    104.4542   1.0622722331e+02   5.2720978398e+01    0.2735731    0.1680945 -46.89  0.001449596    1.414    0.293
       103  -8.5431    121.4398    111.5330   7.4347528183e+01   3.6333606753e+01    0.1540767    0.1515666 -45.33  0.000325884    1.041    0.040
       104  -9.8885    102.7429    108.6133   7.9041611824e+01   4.0701276002e+01    0.3840578    0.2637269  -3.81  0.001565542    2.170    0.539
       105  -8.9829     53.1252    113.1777   9.6476498643e+01   4.7395909871e+01    0.3348641    0.2036961  13.22   0.00101588    2.022    0.505
       106  -9.9196     84.3828    103.9685   8.3635789595e+01   4.5073670748e+01    0.5095411    0.2997582 -28.73 0.0007219852    2.134    0.531
       107  -9.6729    132.0181    104.0363   6.9442704114e+01   3.5730390573e+01    0.2248438     0.220088 -11.68  0.001198652    1.008    0.008
       108 -11.6263    101.5662    102.7875   7.7824255354e+01   4.2245206746e+01    0.4450836    0.3484026   8.79  0.001197139    1.500    0.333
       109  -9.7408    101.4118     98.5178   7.6682405334e+01   4.3222538070e+01    0.2909792    0.2240861  25.60 7.139685e-05    1.375    0.272
       110  -9.3601     72.3961    104.2088   8.7729864182e+01   4.6941780759e+01    0.3236721     0.167396  45.82  0.001297179    2.281    0.562
       111  -9.2296     33.8342    103.1338   1.0117129708e+02   5.1929445048e+01    0.1991788    0.1396906 -38.59 0.0008482322    1.339    0.253
       112  -9.6385    126.5661    101.9225   7.0323082783e+01   3.7350748166e+01    0.4512801    0.2009268  33.53  0.001477811    2.945    0.660
       113 -11.0663    110.7943     99.7141   7.4180392725e+01   4.1109375909e+01    0.5983146    0.3712499  57.20  0.002082933    2.026    0.506
       114 -10.2597     50.8275    100.4826   9.4420864344e+01   5.0762821824e+01    0.4015502     0.335537 -58.30  0.001715937    1.164    0.141
       115 -10.2914     42.5293     99.3268   9.7180654675e+01   5.1979984810e+01    0.6719368    0.1920041  34.94  0.002338773    3.604    0.723
       116  -9.5916     79.0498     98.5470   8.3965149570e+01   4.7210443934e+01     0.271808     0.249294  37.58  0.001116675    1.168    0.144
       117 -10.2290     57.9248     99.7777   9.1689199385e+01   5.0040341796e+01    0.4747598    0.2516659 -39.38  0.002044047    1.885    0.469
       118  -8.8484     71.6547     99.9685   8.6886463658e+01   4.8049770207e+01    0.2359277    0.1271253 -75.16  0.000216819    4.372    0.771
       119  -9.7297     20.6007     98.8681   1.0516009614e+02   5.4063762364e+01    0.3011675    0.1899909  47.17  0.001164313    1.993    0.498
       120  -9.4492     16.7214     99.1873   1.0663717487e+02   5.4261267684e+01     0.313095     0.201075 -37.59    0.0011377    1.473    0.321
       121 -11.4611    117.6426     97.9930   7.1707120936e+01   4.0071578065e+01    0.2789938     0.265832  22.66 0.0002936832    1.042    0.041
       122 -10.1665      2.6916     80.4643   1.0857681863e+02   5.9465656731e+01    0.3427341    0.2355033 -62.64  0.001918693    1.222    0.181
       123  -8.9553     13.4219     95.7891   1.0724196499e+02   5.5292054061e+01    0.2279898    0.1397116 -43.71 0.0007904985    1.422    0.297
       124  -9.9710      2.0981     92.3309   1.1084416136e+02   5.6736241941e+01    0.3089877    0.2194312  46.52 0.0003280145    1.767    0.434
       125  -9.8265      2.2327     86.9566   1.0990711380e+02   5.7988844834e+01    0.4354855    0.1238562 -55.71   0.00185222    2.343    0.573
       126  -9.7599      9.1035     98.1886   1.0923361629e+02   5.4978086524e+01    0.2749093    0.1752551 -50.65 0.0007849594    1.290    0.225
       127  -9.9678      4.1971     97.4152   1.1088081509e+02   5.5427904820e+01    0.4574842    0.2748928 -31.46  0.001051722    1.699    0.411
       128  -9.5765    171.0473     97.0178   5.8407159024e+01   2.8415172886e+01    0.2183643    0.2106195 -34.24  0.001206972    1.052    0.049
       129  -8.7998    150.0081     97.2592   6.3096987811e+01   3.3131402816e+01    0.2100149    0.1949799  49.67  0.001106476    1.086    0.079
       130 -10.1822    125.7105     97.0660   6.9198035959e+01   3.8553891981e+01    0.3001154    0.2327487  36.46  0.001170176    1.312    0.238
       131  -8.7388    184.4434     96.5480   5.5655691509e+01   2.5501315179e+01    0.1454202    0.1379274 -54.54  0.000120041    1.004    0.004
       132  -8.5706    155.2039     95.8453   6.1514756338e+01   3.2231555226e+01     0.208009    0.1811445  14.09 0.0009454431    1.315    0.240
       133  -9.4021     86.4953     96.2244   8.0821157432e+01   4.6475821865e+01    0.2651309    0.2035332  33.70  0.000607403    1.331    0.249
       134  -9.2025     46.9117     92.3401   9.3889184626e+01   5.3145422135e+01    0.3624625    0.2404887 -53.41  0.001851122    1.368    0.269
       135 -10.7527     32.2947     93.1762   9.9623863509e+01   5.4459997430e+01    0.5778561    0.2634721 -43.92  0.002156296    1.948    0.487
       136 -11.2124     29.0190     86.4019   9.9355358110e+01   5.6337509962e+01    0.7870519    0.4111784 -35.98  0.002426873    1.861    0.463
       137  -9.8132     43.7675     88.1890   9.4042740293e+01   5.4462319058e+01    0.2378259    0.2131831   7.15 0.0005262577    1.176    0.150
       138  -9.4103     39.0223     88.4754   9.5945469620e+01   5.4904947557e+01    0.3029625    0.2253778   3.37 0.0009907014    1.464    0.317
       139  -9.4919    165.6141     94.2025   5.8799786442e+01   3.0177494527e+01    0.2574635    0.2288955  37.99 0.0003425024    1.188    0.158
       140  -8.9449     80.0068     94.9597   8.2650167360e+01   4.7866512417e+01     0.223837    0.1853901  86.21 0.0005981034    1.649    0.393
       141  -9.3986     23.0691     94.7271   1.0344078137e+02   5.4869641552e+01    0.2410732    0.2038873 -69.22 0.0008264729    1.186    0.157
       142  -8.7632     38.9685     94.0376   9.7292803517e+01   5.3610319442e+01    0.2060405    0.1366443 -33.54  0.001052843    1.469    0.319
       143  -9.6457    134.9897     91.3352   6.5124712317e+01   3.7678478447e+01     0.264307    0.2210648 -39.63  0.000152893    1.199    0.166
       144 -10.6535     86.4973     88.5241   7.8603832792e+01   4.8163974762e+01    0.4000182     0.335679 -27.97 0.0005937406    1.162    0.139
       145  -9.3685     86.9562     83.5282   7.6952898506e+01   4.9138770962e+01    0.2482732    0.2044225 -58.09 0.0004251514    1.388    0.279
       146  -9.7654     66.3718     85.6542   8.4827767644e+01   5.2088642035e+01    0.4554478    0.2741074  14.25  0.001994563    2.086    0.521
       147 -10.3487     71.3439     89.0049   8.3991370611e+01   5.0591209091e+01    0.4019748    0.2449277 -54.67 0.0002992206    1.707    0.414
       148 -11.2764     79.6231     83.5864   7.9478349167e+01   5.0415200152e+01    0.6934794    0.3172514  34.18  0.002738516    2.270    0.559
       149  -9.8147     73.2530     79.6562   8.0539242120e+01   5.2303464707e+01     0.454754    0.2682595 -28.90  0.001247357    1.909    0.476
       150  -9.0585     52.5169     90.1347   9.1215708283e+01   5.2981788219e+01    0.2105619     0.129058 -53.20 0.0006581452    1.514    0.339
       151  -9.7113      7.0341     89.2572   1.0847686246e+02   5.7210225220e+01    0.2910107    0.1976141  38.78 0.0009413133    1.817    0.450
       152  -8.9055     58.8078     88.6593   8.8466832571e+01   5.2496984621e+01     0.316931    0.1820667 -76.64  0.001120031    3.611    0.723
       153  -8.4154     17.3001     88.3294   1.0435581131e+02   5.6800882025e+01     0.134367    0.1122009 -49.95 0.0008312456    1.021    0.021
       154  -9.3113     14.1541     87.8151   1.0547327131e+02   5.7129716525e+01    0.2650277    0.1820811 -46.30 0.0009025067    1.207    0.171
       155 -10.5720    140.0612     83.0814   6.1496879011e+01   3.8116276342e+01    0.7915213    0.3741134  30.47  0.002376749    4.021    0.751
       156 -11.3333    122.9921     85.8475   6.6695455769e+01   4.1408906478e+01    0.7212306    0.4582126  55.77  0.003146039    1.732    0.423
       157 -10.4802    128.3416     85.4633   6.5149531544e+01   4.0306345852e+01    0.4527486    0.3427422   9.74  0.001134622    1.708    0.414
       158  -9.5986    132.9163     82.6817   6.3150766175e+01   3.9813503566e+01    0.2991939    0.2389757 -55.55 0.0003838523    1.368    0.269
       159  -8.9261     96.9870     87.9834   7.5016754198e+01   4.6336552342e+01    0.1856012    0.1748922 -15.91 0.0009196711    1.020    0.020
       160  -9.4082    155.0852     85.1191   5.8608754724e+01   3.4282855528e+01     0.229335    0.2021831  18.48 0.0005320045    1.284    0.221
       161  -8.3190    104.3433     85.3366   7.1928661587e+01   4.5434950459e+01    0.1596358    0.1171135   0.10 0.0007049782    1.767    0.434
       162  -9.6725     36.9279     81.6958   9.5064110907e+01   5.6667665948e+01    0.4456723    0.2724502 -41.90  0.001538784    1.430    0.301
       163 -10.6606     51.4927     82.8222   8.9630325516e+01   5.4761336404e+01    0.4110191    0.3220189  14.30 0.0007134069    1.328    0.247
       164 -10.3319     44.8515     80.7975   9.1670616278e+01   5.6010942923e+01    0.5267637    0.4279612  14.35  0.003055408    1.284    0.221
       165 -13.2845     52.9300     74.4106   8.6629620678e+01   5.6401189562e+01    0.6754923    0.3590303 -55.31  0.001281209    1.990    0.498
       166 -11.2372     45.2913     68.6859   8.7978098742e+01   5.8563778263e+01    0.4463897    0.2458004 -36.51 0.0001706797    1.698    0.411
       167  -8.8149     18.1545     72.0567   1.0038986062e+02   6.0445283928e+01     0.285266    0.1577044 -40.47  0.001503722    1.525    0.344
       168 -10.8699    151.9418     80.7535   5.8083996436e+01   3.5802669505e+01    0.5844795    0.2792533  60.47  0.002176949    2.439    0.590
       169 -10.3344    120.7350     79.5528   6.5425543946e+01   4.3113648669e+01    0.4435239    0.2498573  40.43 0.0009595165    1.796    0.443
       170  -8.6901     94.0424     78.5201   7.3066805743e+01   4.8834570002e+01    0.2301174    0.1872877 -35.59 0.0005888476    1.215    0.177
       171 -11.5085    178.2003     75.0570   5.1302716852e+01   3.0680676062e+01    0.6706609    0.3937944  52.76  0.003082525    1.715    0.417
       172  -9.4160    110.9823     76.9268   6.7366869682e+01   4.5711995289e+01    0.2859908    0.2130389 -37.59 0.0005247258    1.360    0.265
       173  -8.9470    111.3037     71.6801   6.5623670453e+01   4.6616329925e+01    0.3551653    0.1833361 -24.49   0.00129986    2.750    0.636
       174 -10.2976     94.4072     70.1423   7.0263743046e+01   5.0376588800e+01    0.4207276    0.3515944 -13.44  0.001598437    1.225    0.184
       175  -8.8560     89.6146     78.3105   7.4451528529e+01   4.9716071917e+01    0.2668337    0.1965543  68.56 0.0006626548    2.032    0.508
       176 -10.1935     89.5848     74.2629   7.3175585873e+01   5.0520656491e+01    0.3845299    0.2959008 -13.39  0.001099016    1.424    0.298
       177  -9.3926     68.4004     76.0373   8.1194317530e+01   5.3830848752e+01    0.4588702    0.1453411 -44.41  0.001207862    2.978    0.664
       178  -9.2087     12.4013     78.1197   1.0418360147e+02   5.9472625125e+01    0.2136542    0.1470048 -26.01 0.0002921705    1.403    0.287
       179  -8.2108    231.4603     77.5903   4.3919632042e+01   1.8726749840e+01    0.1294667    0.1120839 -58.23 7.460186e-05    1.015    0.015
       180 -10.2851     27.9855     76.4567   9.7359838730e+01   5.8686065955e+01    0.3327975    0.2313436 -38.78 0.0003520022    1.231    0.187
       181  -9.7956    184.9304     75.9500   5.0356095597e+01   2.8987615133e+01    0.2085016    0.1964993 -66.60 0.0003403341    1.017    0.017
       182 -10.4730    145.6641     71.9978   5.6976207080e+01   3.8799811610e+01    0.5724789     0.254947 -30.57  0.002057899    2.693    0.629
       183  -9.8424    141.9180     75.2717   5.8786953833e+01   3.9103537455e+01    0.2563547    0.2093773  -0.29 0.0007137901    1.499    0.333
       184  -9.9217    140.7169     68.3027   5.7009395774e+01   4.0580084754e+01    0.2219333    0.1977289  69.37 0.0001970647    1.146    0.128
       185  -9.9873    143.8628     66.1840   5.5672821984e+01   4.0195142210e+01    0.3004874    0.2786677 -57.79  0.000790638    1.118    0.106
       186  -9.4291    136.9310     78.9523   6.1055862977e+01   3.9592402664e+01    0.2260217     0.219042  59.95 0.0005306301    1.035    0.034
       187  -9.9281     63.5539     74.6695   8.2586641174e+01   5.4855125547e+01    0.2673877    0.2436521 -70.53  0.001541212    1.382    0.276
       188 -10.3881     19.9825     79.4408   1.0137452748e+02   5.8659836341e+01    0.4574527    0.3391676 -63.19  0.001250995    1.300    0.231
       189 -10.0063    173.2882     68.9500   5.0573458522e+01   3.2821085817e+01    0.3221201    0.2278023  56.52  0.001011037    1.399    0.285
       190  -9.9691     15.8547     59.9431   9.8263555936e+01   6.3213363424e+01    0.6006035    0.2196608 -58.97  0.002509236    2.487    0.598
       191 -10.5089     44.6388     47.4801   8.1084871759e+01   6.2740521584e+01    0.9159711    0.7687236 -14.22  0.003746188    1.033    0.032
       192 -10.2961    115.8778    248.2778   1.0112107845e+02   6.7647330713e+00    0.2505556    0.2287493  21.00 0.0008556049    1.136    0.120
       193  -9.1565    163.3101    246.3578   9.0843717450e+01   1.3594634665e-01    0.1321899   0.08997228  -2.89 0.0007042548    1.735    0.424
       194  -9.5383     31.9732     47.9456   8.7002172113e+01   6.4162811937e+01    0.2044359    0.2039148  -6.79   0.00123794    1.421    0.296
       195  -8.1400    219.6841    245.6540   7.9556430616e+01  -7.5222920578e+00    0.1283126   0.07700626  -3.47 0.0005562004    1.720    0.419
       196  -8.5322      1.4489    244.4370   1.2385992721e+02   2.1462691552e+01    0.1117029   0.08102151  67.79 0.0001018884    1.027    0.026
       197 -11.5683      8.1151     51.6335   9.9578584369e+01   6.5434265606e+01     0.920599    0.3696617  -1.15  0.003993533    3.267    0.694
       198  -8.9347    192.5224    248.4528   8.5229303305e+01  -4.3396245273e+00    0.1252011    0.1004236  10.80 0.0001250736    1.009    0.009
       199 -12.3630      2.4671     66.2510   1.0581203754e+02   6.2654525551e+01    0.5228628    0.4131929  39.55 0.0001535878    1.648    0.393
       200 -10.9885      4.7714     59.3624   1.0318400244e+02   6.4020339029e+01    0.6563226    0.2793419 -25.78  0.003090199    2.467    0.595
       201 -11.3898     32.3414     63.7089   9.1973196631e+01   6.1021493732e+01    0.7518431    0.2807639 -49.51  0.001622977    2.251    0.556
       202 -11.2972     27.9947     63.5089   9.3823102885e+01   6.1478805218e+01    0.5226002    0.2795714 -46.07 0.0003360317    1.569    0.363
       203 -10.1716     23.8065     47.9789   9.0878037522e+01   6.4966409971e+01    0.3814299    0.2827056  13.99  0.001170584    1.368    0.269
       204 -10.2907     27.1167     44.3145   8.8014561411e+01   6.5336856097e+01    0.2942009     0.184952 -44.97 0.0003189142    1.474    0.321
       205  -8.7011    128.5229    240.7614   9.7456008981e+01   6.2864585308e+00    0.2989596   0.06491932  42.95 0.0008959097    4.444    0.775
       206  -8.8998    247.4967    239.4843   7.3528432856e+01  -1.0048606307e+01    0.1176742   0.08807405  -4.96 -2.220955e-05    1.022    0.021
       207  -8.7286    188.6918    239.6743   8.4616487041e+01  -2.4498534762e+00    0.1318829   0.08676611  -1.97 0.0007037437    1.653    0.395
       208  -9.1583    221.4370    237.4753   7.7886115850e+01  -6.5791495656e+00    0.1240804   0.09617142  -0.87 0.0001231479    1.018    0.018
       209  -9.6241    101.9948     70.1649   6.7894088120e+01   4.8846659501e+01    0.3132334    0.2693973  15.70  0.001151805    1.169    0.145
       210  -8.1654    226.4807     70.3905   4.2967137539e+01   2.0837991391e+01    0.1305806    0.1109064 -64.92 -5.58612e-05    1.048    0.045
       211  -8.3847    215.4908     70.5236   4.4411377778e+01   2.3105268801e+01    0.1338333     0.118513 -62.63 0.0001298018    1.010    0.010
       212 -10.5572     79.7428     69.9023   7.5120042878e+01   5.3164791925e+01    0.2590897    0.2301824  10.62 0.0003294245    1.064    0.060
       213  -9.4586     86.9743     68.2338   7.2078635446e+01   5.2162144668e+01    0.4646928    0.2884461   2.32  0.001855108    2.621    0.618
       214  -9.8012     83.3037     64.5441   7.2088684129e+01   5.3528173441e+01    0.4537679    0.2671988 -46.54  0.001479566    1.836    0.455
       215  -9.4556     37.0951     69.2925   9.1586381826e+01   5.9364246210e+01     0.385037    0.2238221 -36.00  0.001953342    1.564    0.361
       216  -8.6913    139.8625    236.8396   9.4455718454e+01   5.2980773783e+00    0.1751239    0.1432169  50.22   0.00041142    1.293    0.227
       217 -10.7413    170.0166     72.8846   5.2226679183e+01   3.2942097122e+01    0.3322569    0.2156544 -34.13 0.0007745683    1.602    0.376
       218  -9.5536    119.5745     67.6107   6.2038205072e+01   4.5530796343e+01    0.3374417    0.2508268  26.88  0.001649352    1.483    0.326
       219 -10.7801    141.7535     60.0320   5.4305509021e+01   4.1676342424e+01    0.3631242    0.2827234  19.07   0.00043372    1.582    0.368
       220 -11.0709    134.4797     64.3489   5.7268747824e+01   4.2686490099e+01    0.5622557    0.4143471 -89.54  0.002637362    1.863    0.463
       221  -9.7181    133.0417     58.9054   5.5932094325e+01   4.3892941821e+01    0.4029513    0.2812015  29.03  0.001662882    1.689    0.408
       222  -9.1471    129.2596     57.8308   5.6491377020e+01   4.4938301856e+01     0.305915    0.2103369  77.86 0.0009933932    1.936    0.483
       223  -8.4661     67.9554     66.9328   7.8428704649e+01   5.5727651580e+01    0.1659914     0.142745 -23.79            0    1.082    0.076
       224  -8.7818    202.1620     64.8241   4.4912008580e+01   2.6871031136e+01    0.3483669    0.2186707 -15.24 0.0008608996    2.546    0.607
       225  -9.2287     75.0872     65.6677   7.5370402837e+01   5.4784948424e+01    0.2746542    0.1967399 -43.81 0.0009153359    1.436    0.304
       226  -9.1404     77.3042     62.0220   7.3328941001e+01   5.5073829875e+01    0.2544136    0.2012673  39.16 0.0005685057    1.297    0.229
       227  -9.8765     97.2603     63.7866   6.7251826645e+01   5.0957157169e+01    0.2741696    0.2252802 -12.64 0.0002207705    1.269    0.212
       228  -9.0647    110.2517     62.8750   6.3080507541e+01   4.8387450629e+01    0.1983415    0.1942556 -73.61 0.0004691351    1.148    0.129
       229  -9.9778     54.0659     61.1798   8.1942334091e+01   5.8926345481e+01     0.270956    0.2341459 -69.98 0.0003222124    1.611    0.379
       230 -10.1854     53.1710     54.1009   7.9848628095e+01   6.0382683269e+01    0.4242522    0.2621891 -27.20  0.002167762    1.607    0.378
       231  -9.3625    193.8896     61.1451   4.5212198591e+01   2.9281651188e+01    0.3479332    0.1797083 -40.06 0.0009549296    1.843    0.457
       232  -9.5454    151.4583     60.7411   5.2466018923e+01   3.9271772502e+01    0.3449542    0.1817622  47.58 0.0009350652    1.884    0.469
       233  -8.8924    114.7846     61.0164   6.1213524446e+01   4.7706070134e+01     0.215304    0.1954547 -77.99  0.001187901    1.307    0.235
       234 -10.2418     71.1902     60.0542   7.4873328593e+01   5.6490117412e+01    0.3824978    0.2185493  36.65  0.001422452    1.725    0.420
       235  -9.8437     40.4597     59.0876   8.6976479263e+01   6.1079392001e+01    0.2318337    0.1892209  -5.03   0.00042176    1.129    0.114
       236  -9.4298    171.4586     58.4797   4.8091890386e+01   3.4878587197e+01    0.2767701    0.2190952 -69.13 0.0007463375    1.327    0.246
       237 -10.5626    167.4988     57.4696   4.8506424497e+01   3.5964808424e+01    0.3964621    0.2866201 -33.58  0.001162617    1.463    0.317
       238  -9.2046    198.9380     58.0930   4.3743958413e+01   2.8595340063e+01    0.1972966    0.1753323 -72.65 0.0003321483    1.014    0.014
       239  -8.4552    214.1725     56.8259   4.1451289141e+01   2.5430324966e+01    0.1578979    0.1520436  51.11 0.0002841339    1.274    0.215
       240  -9.1991    136.7381     55.6970   5.4097919886e+01   4.3522827755e+01    0.3029361     0.188543 -34.92  0.001425629    1.692    0.409
       241  -9.4367     65.1529     56.6439   7.5957100998e+01   5.8103534099e+01    0.2293376    0.1757778 -35.08 0.0003231614    1.277    0.217
       242  -8.7945     68.0000     54.9801   7.4271414665e+01   5.7933036220e+01    0.2519163    0.1551937 -30.69 0.0008440263    1.621    0.383
       243  -8.2243     48.4868     57.4988   8.3001888658e+01   6.0390237950e+01    0.1351083    0.1151513 -14.11 0.0008105495    1.000    0.000
       244 -11.0952    126.0356     46.6462   5.3685581826e+01   4.7342763334e+01    0.5916647    0.4566918 -85.18  0.002258225    1.673    0.402
       245 -10.1242    118.0667     52.6178   5.7588971550e+01   4.8298599980e+01    0.4435037    0.2195888 -36.42  0.001351407    2.118    0.528
       246  -9.8281    121.9681     51.3166   5.6179597280e+01   4.7606363278e+01     0.331692    0.3183241   4.08  0.001401816    1.079    0.073
       247  -9.1373     59.8990     54.4668   7.7240312965e+01   5.9321327782e+01    0.6420871    0.3447425  -1.65  0.002249141    3.912    0.744
       248  -9.0527     98.7956     54.9453   6.3762197827e+01   5.2129791954e+01    0.2117314    0.1787879   1.93 0.0003944289    1.220    0.180
       249 -10.3564     88.1591     48.7748   6.4906135897e+01   5.5268099848e+01    0.5988455    0.2761348 -41.48  0.002532977    2.359    0.576
       250  -8.9910     96.5071     48.9226   6.2340911527e+01   5.3548793980e+01    0.2226385    0.1713815  32.32 0.0003306112    1.224    0.183
       251  -9.5584     93.1825     54.8281   6.5458946264e+01   5.3299305280e+01    0.5000092    0.2288819  40.64  0.001663389    2.107    0.525
       252 -10.4565     92.9648     50.9877   6.4169195584e+01   5.3957887113e+01    0.2665931    0.2413432 -24.23 0.0003128398    1.156    0.135
       253  -9.5691     79.8970     54.3505   6.9709269469e+01   5.5949408824e+01     0.247636    0.2297178 -52.87 0.0009655409    1.332    0.249
       254  -9.7139    191.5685     53.4245   4.3636196953e+01   3.0940255839e+01    0.3024986    0.2133596  59.68  0.001637479    1.415    0.293
       255  -9.5663    146.0054     52.5207   5.1161507805e+01   4.1803909122e+01    0.2960008    0.2082007 -65.79  0.001359239    1.754    0.430
       256  -9.0468    107.0979     52.6618   6.0552282895e+01   5.0723625145e+01    0.2500528    0.1610741  41.42 0.0006429864    1.466    0.318
       257 -10.1541    174.6357     50.8496   4.5525982912e+01   3.5239749763e+01    0.3065727    0.2482001 -28.17  0.000770557    1.384    0.277
       258  -9.2081    165.7048     51.9802   4.7313607907e+01   3.7191984768e+01    0.1994325    0.1767161 -52.18 0.0009475494    1.143    0.125
       259  -8.9028     83.4071     51.2285   6.7373589919e+01   5.5804844233e+01    0.2450708    0.1736101 -41.70  0.001277302    1.539    0.350
       260  -9.6913     72.7336     51.3775   7.1192746303e+01   5.7740317000e+01    0.3858887    0.3444324   9.76  0.002333999    1.040    0.038
       261 -10.5504    153.9567     48.1238   4.8327098413e+01   4.0534949838e+01    0.4057546    0.3097303 -83.12 0.0007293904    1.490    0.329
       262  -9.3557     68.1045     48.5101   7.1852811032e+01   5.9017962922e+01    0.2233804    0.2139353 -84.02 0.0005881519    1.452    0.311
       263 -12.4255     61.9568     44.2975   7.2626860277e+01   6.0730257196e+01    0.4293117    0.2557655  32.80 0.0004576983    1.599    0.375
       264  -8.1356    224.6891     48.6897   3.8426697121e+01   2.4343213620e+01    0.1137754   0.09949443  27.21 0.0007026906    1.625    0.385
       265  -9.0335    182.0449     48.4893   4.3770512835e+01   3.3833082514e+01    0.2057707      0.12598  64.10 0.0007812324    1.562    0.360
       266  -9.7046    164.0467     46.7710   4.6158101372e+01   3.8315097194e+01     0.334133    0.2395719  28.47  0.001592363    1.845    0.458
       267 -10.1068    114.7429     46.3402   5.6347417173e+01   4.9968916658e+01    0.2923954    0.2439927  -2.04 0.0007844919    1.322    0.243
       268  -9.3921    112.9610     41.2095   5.5055993335e+01   5.1080387915e+01    0.2049794     0.190396  -1.66  0.000246867    1.127    0.113
       269 -10.6761     79.2876     43.8352   6.6040541613e+01   5.7744106112e+01    0.5306606    0.4427063  10.16  0.002897772    1.117    0.104
       270  -9.3680    234.9091     47.0113   3.7014236592e+01   2.2478398664e+01    0.1805667    0.1496863 -64.14 0.0003478493    1.019    0.018
       271  -9.7133    202.3282     46.5789   4.0540809366e+01   2.9461320036e+01    0.2569538    0.1968752  63.05  0.001093381    1.328    0.247
       272  -8.0782     84.2591     47.5987   6.5759309533e+01   5.6215576279e+01     0.130677    0.1089164 -66.77 0.0006962356    1.718    0.418
       273  -8.6352    145.8981     46.1001   4.9267899779e+01   4.2736826734e+01    0.2105555    0.1776139 -87.96 0.0004496244    1.265    0.210
       274 -10.8365     93.5977     44.0889   6.1485504559e+01   5.4870502717e+01    0.5359846     0.435834  86.87 0.0006291161    1.806    0.446
       275 -10.2534     87.7931     32.7637   5.9026130712e+01   5.7613008994e+01    0.3642064    0.3110719  17.56  0.002204253    1.085    0.078
       276  -9.5259     93.4777     30.2324   5.6367896265e+01   5.6746935427e+01    0.3541316    0.1775195  38.19 0.0006879124    1.932    0.482
       277  -9.8013    131.8188     44.1656   5.1585485080e+01   4.6335124327e+01    0.3412673    0.2327895  51.67  0.001550926    1.344    0.256
       278  -9.3631    244.7233     44.2363   3.5518438742e+01   2.0910904669e+01    0.2316871    0.1566685  64.68  0.001442425    1.625    0.385
       279  -9.2802    186.1723     44.0474   4.2047353771e+01   3.3477660323e+01    0.3813692    0.1792148  71.74   0.00164665    2.249    0.555
       280  -9.3546    177.7891     43.9736   4.3229800314e+01   3.5441808388e+01    0.2747594    0.2047243  87.84  0.001506637    1.355    0.262
       281  -9.1999    222.0293    233.3100   7.7076335767e+01  -6.0471961364e+00    0.1748711    0.1352407   8.58 0.0005991198    1.089    0.082
       282  -8.7767     32.0635    232.6738   1.1730554594e+02   2.0794369271e+01    0.1650715    0.1315298  60.14  0.000454361    1.063    0.059
       283 -10.0726    187.0851    230.7092   8.3488746344e+01  -7.6446580893e-01    0.2521471    0.1622057  14.48 0.0009956396    1.553    0.356
       284 -10.7575      9.2629     62.7537   1.0198524191e+02   6.3048616581e+01    0.4050325    0.2881725  42.70 0.0009680978    1.893    0.472
       285  -9.1996    142.9150     42.5018   4.8770330938e+01   4.3932241959e+01      0.36026    0.1980306  37.53  0.001560065    2.199    0.545
       286  -8.6537     90.7604     36.9787   5.9719522918e+01   5.6450113730e+01    0.1848057    0.1250355 -12.39 0.0003520563    1.692    0.409
       287  -9.3163     71.9153     42.4766   6.8136938568e+01   5.9309588566e+01    0.2573668    0.1719149 -13.57 0.0007070096    1.651    0.394
       288  -9.3658    227.6642     41.6668   3.6608213255e+01   2.4665330765e+01    0.1832111     0.160312 -25.95  0.001208395    1.439    0.305
       289 -10.2870    228.1557     37.8559   3.5752165711e+01   2.5057736614e+01    0.3031574    0.1918891 -48.38 0.0007148929    1.377    0.274
       290  -8.3756    200.6395     42.7000   3.9830596308e+01   3.0358708554e+01    0.1271385    0.0979053  37.63 9.576388e-05    1.716    0.417
       291  -8.7146    191.3316     41.8634   4.0807733788e+01   3.2578755485e+01    0.2120271    0.1400544 -57.72 0.0008764994    1.495    0.331
       292  -9.5307     35.2246     41.1930   8.2997281816e+01   6.5014339649e+01    0.3783898    0.2031673   7.62  0.001381678    2.275    0.560
       293 -10.7249     40.7346     38.9037   7.9550503170e+01   6.4723607963e+01    0.3670455    0.2084119  -5.48  0.001005363    2.277    0.561
       294  -9.5020    248.7157     41.4197   3.4607636592e+01   2.0511846183e+01    0.2020134    0.1075396  78.00 0.0008719606    1.998    0.500
       295  -9.6110    221.3693     40.7478   3.7049816277e+01   2.6100000025e+01    0.3352643    0.1865922  55.60  0.001770026    1.997    0.499
       296  -8.5759    196.8247     40.8557   3.9861225657e+01   3.1460040213e+01     0.183231    0.1364895 -72.08 0.0007700092    1.292    0.226
       297  -9.5950    158.3178     39.7014   4.5144570219e+01   4.0619146839e+01     0.330248    0.2448665 -59.96 0.0008450681    1.449    0.310
       298  -9.5333    127.5825     39.6149   5.1058033090e+01   4.7931967044e+01    0.2677278    0.2492669  -4.31  0.001110715    1.169    0.144
       299  -9.3609    134.0037     29.1176   4.6369942727e+01   4.7700878386e+01    0.4221965    0.2596067  -6.15  0.001794694    2.346    0.574
       300 -10.3235    141.9389     33.2570   4.6149229483e+01   4.5331551346e+01    0.4684593    0.3227944  13.15  0.001643749    2.061    0.515
       301  -9.6347    146.0542     29.0461   4.4143244076e+01   4.4843990589e+01    0.2931083    0.1682031  55.41 0.0004666225    1.556    0.357
       302 -10.3408    136.2529     37.1408   4.8444766924e+01   4.6206228646e+01    0.3187531    0.2711479 -71.26  0.001840735    1.308    0.235
       303 -10.2048    131.1889     35.1649   4.8854467004e+01   4.7647946086e+01    0.4632896    0.2750325 -51.53  0.001121548    2.054    0.513
       304  -9.0554    164.8644     36.9658   4.3318085781e+01   3.9405059947e+01    0.4146979    0.2554345 -58.14  0.002043763    1.818    0.450
       305 -10.7336    178.3129     36.8992   4.1313430566e+01   3.6235521941e+01     0.370991    0.2948192  89.75 0.0009804644    1.194    0.162
       306 -10.0852     73.2295     37.1305   6.5572602039e+01   5.9859629709e+01    0.3386717    0.2599373  41.35 0.0008173281    1.284    0.221
       307  -8.9705    238.3290     37.1466   3.4663740388e+01   2.3087057580e+01    0.1954923    0.1479268  67.99 0.0007155738    1.435    0.303
       308  -9.8623    208.7083     33.9426   3.6870671247e+01   2.9693033804e+01    0.4640322     0.235378 -28.56  0.002247163    2.312    0.567
       309  -9.4061    186.1301     36.6104   4.0183376314e+01   3.4451642282e+01     0.308967    0.1733364 -52.86  0.001527359    1.804    0.446
       310 -10.3040    183.8437     31.9153   3.9300576987e+01   3.5560211302e+01    0.2628276    0.1865526  79.67 0.0008368563    1.315    0.240
       311  -9.6765     96.3273     35.5934   5.7553442233e+01   5.5467422478e+01    0.3795812    0.2366754  60.17  0.001534561    1.765    0.433
       312  -9.7878    249.5255     35.4548   3.3375604001e+01   2.1120888380e+01    0.2369756    0.1549764  63.33  0.001498415    1.723    0.420
       313  -9.6670    115.3011     35.6554   5.2572209624e+01   5.1272933010e+01    0.3149756    0.2113426  57.10  0.001030691    1.386    0.278
       314  -9.3157    117.3462     32.7377   5.1092219735e+01   5.1164703368e+01    0.2067718     0.180458  63.43 0.0002735944    1.131    0.116
       315  -8.1209     55.6898     29.7094   6.9238742246e+01   6.3947613139e+01    0.1929116    0.1196975 -25.03 0.0005917424    1.598    0.374
       316 -10.8579     56.1724     34.8948   7.1209309460e+01   6.3121511037e+01    0.4570775    0.3136619  38.46  0.002610935    1.472    0.321
       317 -10.4250     49.2959     33.5360   7.3546788726e+01   6.4384856013e+01    0.5104354    0.2295919  27.11 0.0009421532    2.369    0.578
       318  -9.0225     52.0041     29.0094   7.0473375802e+01   6.4633075418e+01    0.1849953    0.1508565   2.26  0.001178127    1.034    0.033
       319  -9.5543    223.6350     34.6913   3.5515493014e+01   2.6399130752e+01     0.223022    0.1901197 -83.09  0.000710621    1.088    0.081
       320  -9.4178     66.8779     31.9031   6.5782258096e+01   6.1740270769e+01    0.2832064    0.2693068 -10.71 0.0008484271    1.269    0.212
       321 -10.7502     79.6050     32.5511   6.1561923055e+01   5.9277122713e+01    0.5168905    0.3806604  31.09  0.002373074    1.217    0.178
       322  -8.5882    177.3223    231.3056   8.5603629339e+01   5.8656216801e-01    0.1354222   0.09224225  -0.58  0.000362379    1.639    0.390
       323  -9.8843    248.2132     30.9306   3.2604354906e+01   2.1935479150e+01    0.2360016    0.1921773 -35.27   0.00142194    1.439    0.305
       324  -8.8593    109.4780     38.4888   5.5006791052e+01   5.2222504474e+01    0.2523483    0.1072774  44.75 0.0008637137    2.180    0.541
       325  -9.2051    120.5747     38.4286   5.2258820827e+01   4.9711951466e+01    0.3063804    0.1911268 -46.61   0.00132231    1.868    0.465
       326  -9.5323    154.2379     31.9664   4.3616951758e+01   4.2549319670e+01    0.3287122    0.1860222  66.92  0.001044339    1.638    0.389
       327  -9.4506     42.7645     30.9627   7.5365222120e+01   6.5713296570e+01    0.3532624    0.1940372 -47.60  0.001773183    2.344    0.573
       328  -9.0430    163.5007    226.5407   8.7766132763e+01   3.5337338668e+00    0.1843793    0.1230967 -31.79 0.0007646344    1.620    0.383
       329  -9.6998     24.9670     31.4785   8.4187427602e+01   6.7802977081e+01    0.3680781    0.3027297 -22.93   0.00251906    1.157    0.135
       330  -9.0770    223.8518    225.0263   7.5315730249e+01  -5.0493084655e+00    0.2076098    0.1552451  17.10 0.0005924974    1.213    0.175
       331  -9.0099    131.8568    224.9137   9.4503068592e+01   8.8030960396e+00     0.182245      0.15562  62.37  0.000558737    1.322    0.244
       332 -10.0468     37.0686     26.5619   7.6120620884e+01   6.7143086635e+01    0.2970396    0.1935448  -7.46  0.001066172    1.500    0.333
       333  -9.6493     34.6008     31.4041   7.9377584174e+01   6.6716211676e+01    0.2697777    0.2024556  33.65  0.001689746    1.534    0.348
       334 -10.3601     31.5851     27.6054   7.9237508966e+01   6.7677776878e+01    0.4774503    0.2893567 -23.84  0.002301982    1.513    0.339
       335 -10.5513    234.4698     30.0937   3.3568242203e+01   2.4741789956e+01    0.3207907    0.2051929  55.88 0.0008402523    1.869    0.465
       336  -9.5152    189.4179     29.1743   3.7930692126e+01   3.4602934358e+01    0.2165154    0.1821246  51.72 0.0005318598    1.348    0.258
       337  -8.6968    125.4995     29.4689   4.8197441058e+01   4.9661012755e+01     0.135143    0.1207419  55.19 1.803317e-05    1.007    0.007
       338  -8.0018     61.2764     29.6272   6.6970670338e+01   6.3028353515e+01    0.1147378    0.1037728 -64.20 0.0007006276    1.690    0.408
       339  -9.9483    222.1417     26.7086   3.3953629605e+01   2.7690112390e+01    0.2798977    0.2379377  52.87  0.001439794    1.491    0.329
       340  -8.9067    160.8205     27.4518   4.1307297234e+01   4.1503935112e+01    0.2397377    0.1520312  31.08   0.00116325    2.185    0.542
       341  -8.9552    182.8624     27.0953   3.8212483648e+01   3.6357858367e+01     0.212809    0.1573137 -70.22  0.001237588    1.316    0.240
       342 -10.3085    205.2840     24.3804   3.5057092589e+01   3.1594895856e+01    0.3586171    0.2559465 -77.27 0.0008695658    1.277    0.217
       343  -9.4129     72.2681     15.0698   5.6781908096e+01   6.2759757790e+01    0.2130625    0.1972838  26.10  0.000407381    1.189    0.159
       344  -9.0643    196.4887    222.0301   8.0108767828e+01  -7.0937644136e-01    0.1934706    0.1204302 -35.13  0.001028657    1.593    0.372
       345  -9.3760     88.8182    220.6686   1.0376545844e+02   1.6202011269e+01    0.2332964    0.2034052 -25.82 0.0007565586    1.420    0.296
       346  -8.8573    207.0000    217.9697   7.7303493756e+01  -1.5806483840e+00    0.1948685    0.0690944 -41.32 0.0003681878    2.794    0.642
       347 -10.7518     62.1831     22.6805   6.3649287627e+01   6.3770380568e+01    0.6150874    0.2657021  38.01   0.00286189    2.089    0.521
       348  -8.1099    117.6889    212.3302   9.5899788345e+01   1.3620867036e+01    0.1431447    0.1039426  65.88 0.0006552088    1.670    0.401
       349  -8.9373    242.3438    209.8259   6.9271284800e+01  -5.1875162081e+00    0.1807943    0.1399928 -37.33 0.0007933286    1.431    0.301
       350 -11.1768      2.0900     25.2540   9.4150344670e+01   7.0780967710e+01    0.2140407    0.1463023 -35.54 0.0003533147    1.158    0.136
       351  -8.8729    241.5246     25.6745   3.2105379970e+01   2.3871658005e+01    0.1869873   0.09736758  75.92 0.0008361096    1.889    0.471
       352  -8.7809    230.9070    209.4761   7.1245726852e+01  -3.6013749365e+00    0.1751793    0.1144125  25.74 0.0004694341    1.511    0.338
       353  -8.3590    194.2958    209.3684   7.8311983135e+01   1.7973847251e+00    0.1435156   0.09497588  -8.25 0.0005701097    1.726    0.421
       354  -8.6385    123.8002    206.0104   9.3480583682e+01   1.3991786660e+01    0.1805851     0.176921   5.20            0    1.061    0.057
       355  -9.3467     35.2050    200.9357   1.1411056390e+02   2.7476822290e+01     0.274243    0.1292288  81.17  0.001169419    2.588    0.614
       356 -11.0508    173.1794     23.0186   3.8393437270e+01   3.9077557243e+01    0.5469157    0.2831984  77.85  0.001044538    1.927    0.481
       357  -9.7173    177.0194     21.6502   3.7554824803e+01   3.8329377427e+01    0.2207316    0.1582256 -54.34 0.0005687677    1.388    0.279
       358  -8.3883     69.2782     25.6789   6.2318906272e+01   6.2117217542e+01    0.1121944    0.1040246 -71.28 0.0002818405    1.581    0.368
       359  -9.6814    232.5301     23.5703   3.2406148975e+01   2.5916973280e+01    0.3360761    0.1954901 -79.92  0.001665049    1.670    0.401
       360  -9.8221    233.4948     18.5012   3.1309130101e+01   2.6308535257e+01    0.2293885    0.1716173 -54.63  0.000737393    1.168    0.144
       361  -8.2052    120.2797    199.6583   9.3306810003e+01   1.5956095899e+01    0.1440009    0.1102722  72.34 0.0004234229    1.627    0.385
       362  -9.6984    131.8310     21.5226   4.4376059176e+01   4.9042796259e+01    0.3250031    0.2164812  -1.59  0.001636882    2.034    0.508
       363  -9.3089      9.4899    196.4353   1.1960659853e+02   3.0997868967e+01    0.2212118    0.1020835  61.81 0.0001020515    2.112    0.527
       364  -9.0566     50.5307     22.8662   6.8408609771e+01   6.5700943963e+01    0.3732341    0.1809774 -18.51  0.001706967    2.566    0.610
       365 -10.7220    246.3111     21.9346   3.1017167946e+01   2.3382196041e+01    0.3027599    0.2463291 -69.61  0.001317977    1.077    0.071
       366 -10.2880    153.6811     22.9526   4.1120522991e+01   4.3701290588e+01    0.2320979     0.180078  67.38 0.0003124507    1.140    0.123
       367  -8.7164    124.8438     23.4799   4.6362605155e+01   5.0477801145e+01    0.1913075    0.1172563  59.93 0.0002803763    1.435    0.303
       368  -9.4067     75.1273     27.1538   6.0893508798e+01   6.0832152695e+01    0.2980206    0.2644259  79.90  0.001263956    1.612    0.380
       369  -8.7226     74.8074     22.9749   5.9278137506e+01   6.1396536572e+01    0.1680109    0.1452003  10.39   0.00030242    1.084    0.078
       370  -8.3384    188.5336     22.5112   3.6408236431e+01   3.5573104212e+01    0.1270107    0.1090566 -86.19 5.948288e-05    1.007    0.007
       371  -8.2601     96.4748    195.4917   9.8525171941e+01   2.0711646223e+01    0.1423191     0.132935  61.05 0.0002250082    1.024    0.023
       372  -8.8331    242.0114    193.9481   6.6398987251e+01  -2.6713745207e+00    0.1513094    0.1246745  -5.51 0.0004036177    1.081    0.075
       373  -8.5081     55.3717    181.2289   1.0704513740e+02   2.9897621382e+01    0.1917848    0.1223592 -82.50 0.0005232592    1.607    0.378
       374 -10.6461    101.0029    176.0060   9.4216451929e+01   2.4627365252e+01    0.2064602    0.2021091  70.90  0.001160377    1.001    0.001
       375  -9.0152    139.7429     20.2713   4.2579437866e+01   4.7299458100e+01    0.2397543    0.1819088  -4.13  0.001364928    1.667    0.400
       376  -9.4515    199.7945     18.5302   3.4271536523e+01   3.3471257750e+01     0.244055     0.185781 -21.61  0.001113823    1.682    0.405
       377  -8.5479    193.2965     19.9944   3.5281498527e+01   3.4768812058e+01    0.1619581    0.1410551 -76.98  0.000285804    1.056    0.053
       378  -9.0123    151.7891     18.0347   3.9997740544e+01   4.4664861486e+01    0.1920963    0.1619479 -77.91 0.0004286644    1.193    0.162
       379 -10.0577    148.5523     17.4524   4.0317605710e+01   4.5492545747e+01    0.2459316    0.1861643 -82.39 0.0008367329    1.380    0.275
       380  -8.8922    225.7834     16.2534   3.1459588087e+01   2.8136847670e+01    0.2040805    0.1273159 -51.42  0.001257694    1.388    0.280
       381 -10.0525     18.4588    174.3219   1.1573592856e+02   3.5470137712e+01     0.249749    0.1997637 -41.24 0.0007229381    1.493    0.330
       382 -10.5776      7.1444    166.3807   1.1788471356e+02   3.8316579844e+01    0.3243816    0.2390693  23.23  0.001360563    1.631    0.387
       383  -8.8538    111.8347     15.1551   4.6239294862e+01   5.4319400417e+01    0.1866139    0.1645724  70.01 0.0006428295    1.152    0.132
       384 -10.2353     15.0119    165.4899   1.1579578631e+02   3.7923701398e+01    0.2819946    0.1915352 -36.33  0.001566279    1.835    0.455
       385 -10.5884     11.8603    163.8488   1.1645847002e+02   3.8577436458e+01    0.3046241    0.1696549 -76.87 0.0003439926    1.518    0.341
       386  -8.7201     85.1638     14.3740   5.2545274739e+01   6.0233703185e+01    0.3061637    0.1285471  61.54  0.001274259    2.703    0.630
       387  -9.0525     88.7781     13.4698   5.1179640154e+01   5.9562161228e+01    0.2413645      0.10032  50.14 0.0005557777    1.960    0.490
       388 -12.0937     36.9379    159.0790   1.0919744988e+02   3.7525606547e+01    0.9154235     0.422589  52.89  0.003826295    2.526    0.604
       389 -11.8685     29.8589    154.1036   1.1055687649e+02   3.9475833159e+01    0.5736437    0.4329777 -78.82  0.001949548    1.178    0.151
       390 -10.6956     23.2908    162.7538   1.1334671794e+02   3.7899723167e+01    0.4129953    0.2404379  35.37  0.002161558    1.812    0.448
       391 -10.3077     34.2442    150.3842   1.0883268199e+02   4.0000708822e+01    0.3893499    0.2535728 -35.38   0.00174369    1.825    0.452
       392 -10.8172      2.0813    155.9342   1.1829980685e+02   4.1218874423e+01    0.5635746    0.1816669 -74.90  0.002341173    2.506    0.601
       393  -9.4401    249.0074    154.0008   5.7473283942e+01   2.8745421998e+00    0.2074139    0.1670859 -25.61 0.0006208479    1.059    0.056
       394 -10.2846     19.8612    151.4743   1.1305106428e+02   4.1014404451e+01    0.2968574    0.1906565 -52.82  0.001196709    1.489    0.329
       395 -11.4202     13.5606    150.5151   1.1469838774e+02   4.1749136047e+01    0.4128562    0.2658985   7.61  0.001069605    2.041    0.510
       396  -9.0445     45.9015    151.5085   1.0561287839e+02   3.8498332958e+01    0.1855522    0.1405669  26.65 0.0003389202    1.470    0.320
       397 -10.5263      4.2548    146.3485   1.1684935628e+02   4.3432011418e+01    0.3887539    0.2072186  63.63   0.00164681    2.095    0.523
       398 -10.6264     15.7981    142.6219   1.1319657113e+02   4.3555321736e+01    0.3966642     0.228533 -41.56  0.001294691    1.891    0.471
       399  -8.1685     80.2890    144.7112   9.4263002401e+01   3.5715454943e+01    0.1481932    0.1148284  73.09 0.0002236185    1.539    0.350
       400  -8.3313     29.6930    142.2883   1.0907765760e+02   4.2487810950e+01    0.1354657   0.09526821  68.24 0.0002310973    1.572    0.364
       401  -9.6834     22.3711    139.8474   1.1093179880e+02   4.3738206403e+01    0.3915951    0.1433442 -48.96  0.001564891    2.612    0.617
       402 -10.3046      8.6766    132.5133   1.1412047353e+02   4.6578819522e+01    0.3922553    0.2535551 -35.30  0.002169253    1.730    0.422
       403  -9.8422      1.6655    139.0362   1.1686201429e+02   4.5395994931e+01    0.3829213    0.1724016  86.03  0.001678145    2.460    0.594
       404 -10.8292      2.1585    132.5899   1.1606160421e+02   4.6957087596e+01    0.5581741    0.2172948 -77.74  0.002094538    2.242    0.554
       405 -10.2204     41.5371    138.5680   1.0495090090e+02   4.2279483190e+01    0.2845326    0.2325843  75.02 0.0009978701    1.311    0.237
       406  -9.6900     41.4101    133.7959   1.0422345906e+02   4.3511263766e+01    0.3370976    0.1488067 -58.73  0.001029833    1.917    0.478
       407 -10.1539     43.5354    130.6548   1.0302446713e+02   4.4087492946e+01    0.3565465    0.2320095  26.36  0.001433178    1.704    0.413
       408  -9.3590    230.8998    137.0080   5.6854340388e+01   8.7872581062e+00    0.2121643    0.1836192 -29.63 0.0006621696    1.037    0.036
       409  -9.7328     33.8518    136.7751   1.0703605515e+02   4.3504224264e+01     0.345918    0.2406906 -27.35  0.001793325    1.721    0.419
       410  -9.3328     15.4773    135.9705   1.1249944893e+02   4.5247790630e+01    0.2111962    0.1098926 -69.49  0.001030948    1.594    0.373
       411  -8.8576    248.8160    134.1438   5.3491738236e+01   6.2422336186e+00    0.1778722    0.1327216 -24.23 0.0003977432    1.301    0.231
       412 -10.1025     28.7756    132.1311   1.0791877780e+02   4.5148300993e+01    0.2097765    0.1986151 -64.43 0.0003409238    1.093    0.085
       413  -9.6198     21.4023    131.6035   1.1013348148e+02   4.5896444085e+01    0.3812236    0.2236938  68.50  0.001067152    2.129    0.530
       414  -9.8354     61.8784    131.0925   9.7260172954e+01   4.1792013364e+01    0.2536347    0.1952873 -63.15 0.0005073366    1.226    0.184
       415 -12.4359     88.5308    128.0656   8.8242102937e+01   3.8582309374e+01    0.2976136    0.2820855  35.07 0.0003117268    1.097    0.089
       416  -8.8164     17.2799    129.3384   1.1110400578e+02   4.6779762790e+01    0.2170667    0.1619026 -51.28  0.001150624    1.237    0.191
       417  -8.9716     18.8160    126.1928   1.1019396823e+02   4.7454895678e+01    0.2151528    0.1555502 -76.86  0.000239668    1.248    0.198
       418 -10.5961     33.6921    125.0853   1.0525246135e+02   4.6486372230e+01    0.5171506    0.2296264 -77.28    0.0012334    2.680    0.627
       419  -9.0217     12.7396    126.9531   1.1220174864e+02   4.7696243925e+01     0.187453    0.1456231 -72.74 0.0005147209    1.093    0.085
       420 -10.2304     58.1547    125.1718   9.7285223102e+01   4.3772401879e+01    0.4966815    0.2085604  22.21  0.001810163    2.987    0.665
       421 -11.0141      7.8736    123.1259   1.1323544892e+02   4.8959511832e+01    0.3637559     0.245178 -44.33  0.001255879    1.437    0.304
       422  -8.8529    241.4814    123.9814   5.2468268906e+01   9.2022868507e+00    0.2127742    0.1127018 -39.93  0.001031981    1.590    0.371
       423  -9.3722     38.6791    123.7872   1.0340367876e+02   4.6332057107e+01    0.2997513    0.1670416  -4.61  0.001244812    2.760    0.638
       424  -8.0532    130.7307    123.2552   7.4834955302e+01   3.1778491989e+01    0.1464582    0.1242846  84.96 0.0006818265    1.451    0.311
       425  -9.9274    236.9735    121.3467   5.2581055357e+01   1.0448310305e+01    0.2459722    0.1813501 -18.11  0.001343109    1.555    0.357
       426  -9.6565     27.9925    115.9523   1.0560788242e+02   4.9287845558e+01    0.2482076    0.1710393 -53.03 0.0003095166    1.249    0.200
       427 -11.5096     21.2119    119.4744   1.0843831931e+02   4.8955337536e+01    0.6038617    0.4107253  51.71  0.003270614    1.730    0.422
