#   1 NUMBER                 Running object number                                     
#   2 MAG_AUTO               Kron-like elliptical aperture magnitude                    [mag]
#   3 X_IMAGE                Object position along x                                    [pixel]
#   4 Y_IMAGE                Object position along y                                    [pixel]
#   5 X_WORLD                Barycenter position along world x axis                     [deg]
#   6 Y_WORLD                Barycenter position along world y axis                     [deg]
#   7 A_WORLD                Profile RMS along major axis (world units)                 [deg]
#   8 B_WORLD                Profile RMS along minor axis (world units)                 [deg]
#   9 THETA_WORLD            Position angle (CCW/world-x)                               [deg]
#  10 FWHM_WORLD             FWHM assuming a gaussian core                              [deg]
#  11 ELONGATION             A_IMAGE/B_IMAGE                                           
#  12 ELLIPTICITY            1 - B_IMAGE/A_IMAGE                                       
         1 -13.5107    207.2413     30.7530   9.7628465195e+00   3.1624280966e+01    0.7599484    0.5677721 -50.23  0.004068299    1.053    0.050
         2 -11.2733    227.1948      9.7065   4.2340317190e+00   3.0290169615e+01    0.1914768    0.1572421 -64.49 0.0007913128    1.191    0.160
         3 -11.7323     61.8761    245.6914   7.9880722855e+01   1.4998468931e+01    0.2431722    0.1329968 -23.67  0.001186697    2.593    0.614
         4 -13.8093    247.8390    242.4806   4.3328400501e+01  -1.5409717332e+00     1.083395    0.2810877 -35.55  0.005941961    2.932    0.659
         5 -11.3828    162.3158    182.0918   4.8444182634e+01   1.5374222638e+01    0.2639584    0.1645543  14.92 0.0009679661    1.715    0.417
         6 -15.8377     67.9475    144.2485   6.6584690636e+01   3.7439853283e+01     2.567771      1.81408  56.46    0.0118564    1.570    0.363
         7 -11.6191    180.3588    167.8886   4.2457459669e+01   1.5449534508e+01    0.5602904    0.2899201 -55.59  0.002517461    2.874    0.652
         8 -10.5743    174.9965    179.4973   4.5512107603e+01   1.4185168822e+01    0.1775638    0.1504837   0.14  0.001153359    1.100    0.091
         9 -12.8098    172.8161    173.5970   4.4892255375e+01   1.5477387490e+01    0.6142228    0.3939675  -8.68  0.001956705    1.818    0.450
        10 -11.0435    160.7550    201.2410   5.1898115536e+01   1.2250613329e+01    0.3573563    0.1639419 -51.18  0.001683669    2.562    0.610
        11 -15.6737    119.0284    233.3894   6.5339975599e+01   1.1425516084e+01     5.342761     4.124207 -58.78   0.03439678    1.681    0.405
        12 -18.9184     32.1554    136.1279   7.8273307323e+01   4.4003074408e+01     19.14438     4.365059 -74.78   0.04811139    5.241    0.809
        13 -10.3917      9.0711    166.6195   8.9218401987e+01   3.7630968816e+01    0.1773674    0.1641007  20.42 0.0004615876    1.118    0.105
        14 -10.6198    115.4076    155.0307   5.4362635345e+01   2.7585137032e+01    0.2495432    0.1941564  14.61 0.0004998865    1.345    0.257
        15 -12.0255    133.6564    146.3718   4.8065101961e+01   2.6498239170e+01    0.9814897    0.2934144 -54.46  0.002811516    4.662    0.786
        16 -11.5778    111.5121    150.0542   5.4441000103e+01   2.9319752968e+01    0.3300318    0.2665985  62.46 0.0005757834    1.507    0.336
        17 -11.9486    108.7832    145.4104   5.4267077849e+01   3.0819840490e+01    0.3349255    0.3011332 -40.77 0.0006647095    1.107    0.096
        18 -12.3474     94.0731    147.5908   5.8912932152e+01   3.2679326030e+01    0.4296898    0.3440078   9.73  0.000736722    1.349    0.259
        19 -13.1158     98.4667    143.2455   5.6770049470e+01   3.3014221622e+01    0.6925581    0.4610309 -25.05  0.001623072    1.906    0.475
        20 -11.0494    107.2944    139.9682   5.3571078291e+01   3.2317806744e+01    0.2725775    0.2082056  60.87 0.0009081336    1.584    0.369
        21  -9.5980    162.8680    135.8360   3.9526770253e+01   2.3740147332e+01    0.1745584    0.1522412 -60.77 0.0004019745    1.305    0.234
        22 -10.3217    224.1691    133.8116   2.9299911992e+01   1.4987697203e+01    0.3702435    0.1160675 -49.11   0.00131008    4.768    0.790
        23 -12.5901    106.7956    130.9447   5.1782204195e+01   3.4485082613e+01    0.6273345     0.426971  43.02   0.00293697    1.491    0.329
        24 -12.1183     98.3282    130.2551   5.4101063067e+01   3.6127170832e+01    0.3721318     0.293221 -20.06 0.0004961402    1.484    0.326
        25 -11.4702    133.2344    128.1472   4.4259407742e+01   3.0366178101e+01    0.4334806    0.3207655  68.81  0.001615694    1.852    0.460
        26 -10.6332    116.1020    125.1346   4.7903037438e+01   3.4127147833e+01    0.2293285    0.1991789  -9.37 0.0006738313    1.274    0.215
        27 -11.1021     82.5355    124.0430   5.7723912390e+01   4.0349256102e+01    0.2405139    0.2059607  34.07   0.00043181    1.153    0.133
        28 -10.5524    104.0055    120.0133   5.0089713434e+01   3.7510093373e+01    0.2324658    0.2140584  -9.66 0.0006214895    1.158    0.136
        29  -9.6042    156.3506    117.6950   3.6842861854e+01   2.8240467638e+01    0.1364886    0.1071254 -80.28 0.0007041512    1.704    0.413
        30  -9.9231    111.0285    115.0977   4.6905653242e+01   3.7305337745e+01    0.2318203    0.1825875  83.68 0.0004788084    1.650    0.394
        31 -12.3488    117.1996    109.1053   4.3741027189e+01   3.7418636300e+01    0.6228982    0.4240024 -76.31  0.002656457    2.163    0.538
        32 -11.3496    119.0058    104.7618   4.2157414587e+01   3.7982481916e+01    0.2390597    0.2259141 -46.76 0.0006545958    1.037    0.035
        33 -10.1405    106.1604    110.8227   4.7221271489e+01   3.9196240598e+01     0.231619     0.201874  83.44 0.0008249604    1.306    0.234
        34 -10.5414     83.0531    110.9714   5.4509589897e+01   4.3493778258e+01    0.2321545    0.2244073  63.32  0.000412087    1.042    0.040
        35 -11.1049     40.4545    238.6917   8.4596948925e+01   1.8299756704e+01    0.1337969   0.07540133 -21.16 0.0006311315    2.549    0.608
        36 -10.5640     84.0066    106.4756   5.3059740135e+01   4.4412974038e+01    0.2354279    0.2081596 -56.00 0.0003218611    1.141    0.124
        37  -9.5620    165.6760    106.3306   3.2467988155e+01   2.8596394411e+01    0.1367675    0.1006295 -70.29  0.000705023    1.702    0.412
        38 -11.7606    113.5626    100.6615   4.2519656812e+01   3.9948583292e+01    0.4284787    0.2618456  67.67  0.001442621    2.431    0.589
        39 -11.4456    107.3737     96.1728   4.3011056787e+01   4.2172825247e+01    0.4961577     0.301623  70.93  0.001461948    2.683    0.627
        40 -12.1966     55.6839    226.8817   7.9975212381e+01   1.9264330168e+01    0.3298396     0.205024 -69.85  0.001819733    1.902    0.474
        41 -10.1822    118.0784     91.5878   3.8861770530e+01   4.0890079288e+01    0.3366409    0.1839215 -62.04  0.001272718    2.526    0.604
        42 -10.2870     94.9419     86.5533   4.3949607429e+01   4.6824816010e+01    0.4273176    0.2390967  67.26  0.001482836    2.997    0.666
        43 -11.1504    112.4891     83.8978   3.8115978790e+01   4.3625998898e+01    0.4490286    0.2902107  77.40  0.001842608    2.304    0.566
        44 -13.0549    168.6380     68.9757   2.2879265543e+01   3.4169972974e+01      0.42834    0.4024924 -77.92 0.0008383198    1.113    0.101
        45  -9.6442    107.9886     70.4858   3.5206704133e+01   4.7212766924e+01     0.214866    0.1286304  77.65 0.0008105175    2.609    0.617
        46  -9.9976    210.8515    198.8167   4.2478320416e+01   7.0821165519e+00    0.1665888    0.1164855 -14.54  0.000450328    1.146    0.127
        47 -11.6449     71.6622    227.9701   7.6032606078e+01   1.7444910695e+01    0.1730448    0.1510293  -5.02 0.0004542185    1.179    0.152
        48 -13.6401    184.3196     56.1411   1.7702359096e+01   3.2863812937e+01     0.901086    0.7871794   9.21  0.003915303    1.593    0.372
        49 -11.9845    190.5787     50.0457   1.5581044340e+01   3.2448505693e+01    0.3045437    0.2923459 -58.94 0.0008575139    1.234    0.190
        50  -9.9593    234.3769    191.1569   3.7747848448e+01   5.8038872501e+00    0.1436677   0.08003126 -40.43 0.0005011903    1.664    0.399
        51 -10.5309     71.0748    186.9961   7.1835777907e+01   2.6399486511e+01    0.2047982     0.183798  27.25 0.0003358507    1.019    0.018
        52  -9.7514     77.1458    218.9411   7.3773472673e+01   1.8688917651e+01    0.2068818    0.1399953 -15.79  0.001093105    1.727    0.421
