#   1 NUMBER                 Running object number                                     
#   2 MAG_AUTO               Kron-like elliptical aperture magnitude                    [mag]
#   3 X_IMAGE                Object position along x                                    [pixel]
#   4 Y_IMAGE                Object position along y                                    [pixel]
#   5 X_WORLD                Barycenter position along world x axis                     [deg]
#   6 Y_WORLD                Barycenter position along world y axis                     [deg]
#   7 A_WORLD                Profile RMS along major axis (world units)                 [deg]
#   8 B_WORLD                Profile RMS along minor axis (world units)                 [deg]
#   9 THETA_WORLD            Position angle (CCW/world-x)                               [deg]
#  10 FWHM_WORLD             FWHM assuming a gaussian core                              [deg]
#  11 ELONGATION             A_IMAGE/B_IMAGE                                           
#  12 ELLIPTICITY            1 - B_IMAGE/A_IMAGE                                       
         1 -14.6536      6.4489    139.9702   2.9254192106e+02   6.0426766241e+00    0.2402312   0.06308702 -65.70   0.01494734    4.585    0.782
         2 -13.7951      2.6245     89.2579   2.9229163785e+02   6.6343480036e+00    0.1761414   0.01533132 -63.04  0.006544718   12.588    0.921
         3 -13.7758    196.9571     25.0433   2.8967290433e+02   6.3094761590e+00   0.08028615   0.06136463 -35.69  0.007224501    1.333    0.250
         4 -13.5138    211.4775      6.9410   2.8939950057e+02   6.4340796992e+00   0.04740826   0.04063827  -5.05  0.005756709    1.199    0.166
         5 -11.6426      3.5853      3.8390   2.9178330062e+02   7.5903102813e+00   0.02094853   0.01893683  24.14  0.002619376    1.104    0.094
         6 -10.9985    190.2360    246.8524   2.9104409410e+02   3.8503571488e+00   0.01581972  0.009884517  72.16  0.001455519    2.416    0.586
         7 -11.7856    173.9494    248.9207   2.9124352301e+02   3.9148769986e+00   0.01886174   0.01590413  59.92  0.002246779    1.332    0.249
         8 -13.0643    140.5773    247.7557   2.9162089697e+02   4.1077763438e+00   0.04660808   0.02466238  50.20  0.004198084    2.329    0.571
         9 -12.9562    127.3736    248.1090   2.9177497273e+02   4.1748749373e+00   0.05038998   0.02646663  -4.13  0.004029123    3.079    0.675
        10  -9.8798     29.7226    249.3278   2.9290682197e+02   4.6856713108e+00   0.01512639  0.009318247 -67.71  0.001530023    1.729    0.422
        11 -10.4081     20.2747    247.2527   2.9300367773e+02   4.7596824467e+00   0.02221448   0.01380365  16.61  0.002266419    1.695    0.410
        12 -10.8401    198.3371    247.7821   2.9095629289e+02   3.7962035707e+00   0.01715892  0.006979702 -52.60   0.00145988    2.287    0.563
        13 -11.4972    152.3387    248.7162   2.9149107260e+02   4.0336206711e+00    0.0152485   0.01151259  37.62  0.001155139    1.345    0.257
        14 -11.3655     38.0916    213.6653   2.9260401602e+02   5.0426675362e+00   0.04079537   0.02488726 -21.90  0.003905412    2.079    0.519
        15 -12.8128     48.8302    217.1834   2.9250060146e+02   4.9454135510e+00   0.05490668    0.0453383  76.97  0.005766738    1.426    0.299
        16 -13.9640     38.9253    229.1416   2.9268400862e+02   4.8637992092e+00   0.04640217     0.038391  26.30  0.002320439    1.201    0.167
        17 -13.1480    110.5243    231.1994   2.9187092475e+02   4.4560005327e+00   0.09946157          nan  29.48  0.004253963    9.290    0.892
        18 -10.6391    154.1442    229.3229   2.9135765671e+02   4.2422731536e+00   0.01302592  0.006177956  14.49  0.001086646    2.538    0.606
        19  -9.9980    172.8236    222.1636   2.9110098315e+02   4.2221959578e+00  0.009634908  0.007457435 -26.60  0.001086519    1.364    0.267
        20 -11.0716    184.5773    237.6294   2.9105560282e+02   3.9846957031e+00   0.01172354   0.01044995   1.40 0.0006629749    1.125    0.111
        21 -11.3829     56.8255    211.9184   2.9237792946e+02   4.9618250699e+00   0.03391225   0.01134077  46.51   0.00222497    4.270    0.766
        22 -12.9973     34.2765    235.7774   2.9277598290e+02   4.8139517541e+00   0.01973013   0.01442559 -41.93 0.0007736624    1.363    0.267
        23  -9.7798     20.9221    211.9436   2.9279199353e+02   5.1541175219e+00   0.01671355  0.009347848  17.94  0.001604289    1.899    0.473
        24 -12.1200     10.7119    206.8784   2.9288040362e+02   5.2658996194e+00   0.03671404   0.02033664  14.06  0.002816431    2.029    0.507
        25 -11.6855     60.7058    201.0808   2.9227036747e+02   5.0631042495e+00   0.01375413   0.01152337 -33.25 0.0004789644    1.196    0.164
        26 -12.0523     67.1571    192.4141   2.9214571205e+02   5.1261031871e+00   0.01422385   0.01172692 -37.49 0.0004799733    1.206    0.171
        27 -13.3045     64.1587    177.3126   2.9209265383e+02   5.3123545687e+00   0.02746283   0.01316059 -40.96  0.001880235    2.273    0.560
        28 -10.8855     77.5359    179.1186   2.9194885595e+02   5.2201193270e+00   0.01148991   0.01065547 -18.41 0.0003771191    1.060    0.057
        29  -9.7941    100.5713    177.1236   2.9167163656e+02   5.1186944914e+00   0.01686749   0.01015663  62.89  0.001547254    2.374    0.579
        30 -11.4488    247.1523    248.8368   2.9040107323e+02   3.5209052068e+00   0.02477482  0.009921007  42.23  0.002001123    2.716    0.632
        31  -9.2370    100.5588    149.2307   2.9150960591e+02   5.4329307207e+00  0.009573792  0.008682008  10.27 0.0003648496    1.094    0.086
        32 -12.0543     86.1394    152.6977   2.9169610564e+02   5.4714797621e+00   0.01418184   0.01130592 -34.55 0.0004778518    1.269    0.212
        33  -9.8795    134.0000    146.5385   2.9110826552e+02   5.2830793840e+00   0.02228297  0.005457554 -66.74  0.001217906    5.846    0.829
        34 -12.2012     67.4126    143.6301   2.9185946755e+02   5.6743133938e+00   0.03225195   0.02064244  51.24  0.002801776    1.818    0.450
        35 -10.0925    109.2181    138.1865   2.9134545310e+02   5.5106766104e+00   0.02061793   0.01056375 -32.80  0.001663591    2.459    0.593
        36 -10.5655     96.5110    135.4247   2.9147597898e+02   5.6102038603e+00   0.01196034  0.009971933 -27.14 0.0002658097    1.223    0.182
        37 -11.2379     22.0679    126.5197   2.9228350618e+02   6.1104916281e+00   0.02254198   0.00801292  44.18  0.001642866    3.375    0.704
        38  -9.0920    106.5470    124.4344   2.9129620699e+02   5.6799164508e+00  0.006425351  0.006162759 -16.04 0.0001025588    1.008    0.008
        39  -8.6958    167.5490    112.5252   2.9052320143e+02   5.4848869956e+00  0.006373986  0.006252357  45.34 0.0002087271    1.073    0.068
        40 -11.7071     14.5788    122.2707   2.9234531521e+02   6.1985009277e+00   0.02287752   0.01359558  53.32  0.002192735    2.082    0.520
        41  -9.8259    157.4928     76.0273   2.9042614041e+02   5.9498533246e+00  0.009833525  0.006311928 -60.58  0.000605434    1.551    0.355
        42 -11.1747    162.0302    249.4639   2.9138385772e+02   3.9729927320e+00   0.01437682  0.008440077  24.34  0.001437527    1.695    0.410
        43 -11.3781     12.3720     54.2376   2.9197526950e+02   6.9763276024e+00   0.01542479  0.009365401  37.97  0.001097314    1.664    0.399
        44 -11.9032     84.9628    169.9547   2.9180997477e+02   5.2834206372e+00   0.03112479    0.0238841 -22.33  0.003533563    1.403    0.287
        45 -10.3229     99.0109    249.5116   2.9210972839e+02   4.3116416867e+00   0.01016322  0.006306257  24.37  0.001036579    1.602    0.376
        46  -9.1188      2.0602    248.9872   2.9322355377e+02   4.8376722698e+00   0.01085248   0.00721504 -29.94 0.0007319125    1.675    0.403
        47 -10.3392     97.5083    153.4166   2.9156914001e+02   5.4022065715e+00    0.0176168   0.01195109 -48.87  0.001133644    1.436    0.303
