#   1 NUMBER                 Running object number                                     
#   2 MAG_AUTO               Kron-like elliptical aperture magnitude                    [mag]
#   3 X_IMAGE                Object position along x                                    [pixel]
#   4 Y_IMAGE                Object position along y                                    [pixel]
#   5 X_WORLD                Barycenter position along world x axis                     [deg]
#   6 Y_WORLD                Barycenter position along world y axis                     [deg]
#   7 A_WORLD                Profile RMS along major axis (world units)                 [deg]
#   8 B_WORLD                Profile RMS along minor axis (world units)                 [deg]
#   9 THETA_WORLD            Position angle (CCW/world-x)                               [deg]
#  10 FWHM_WORLD             FWHM assuming a gaussian core                              [deg]
#  11 ELONGATION             A_IMAGE/B_IMAGE                                           
#  12 ELLIPTICITY            1 - B_IMAGE/A_IMAGE                                       
         1 -12.1350    101.6268     25.5797   4.6810124463e+01   5.5056712024e+01    0.2437937    0.2157195  70.25 0.0008424215    1.191    0.160
         2 -11.7681     85.0336     10.7488   4.5587624789e+01   6.0070712335e+01    0.2381117    0.1386256 -52.69  0.001184981    2.688    0.628
         3 -11.6742    210.3152      7.6986   2.6841484417e+01   3.2820558828e+01    0.2325145    0.1475094 -55.33  0.001539971    1.367    0.268
         4 -10.5153    223.3312      6.3006   2.5642576103e+01   3.0394891301e+01   0.09726679   0.07905203  57.37 0.0005945027    1.648    0.393
         5 -11.4245    144.5147      5.5085   3.2859460446e+01   4.7267877309e+01    0.2793023    0.1753138 -61.90  0.001610592    1.754    0.430
         6 -10.6770     67.0726      1.5356   4.6875525540e+01   6.4493669354e+01    0.1835265   0.09797299  53.81 0.0006938611    1.558    0.358
         7 -10.3053     36.1424      1.6446   5.8301703778e+01   7.0062216665e+01    0.1713296   0.08093094  34.78 0.0005833977    1.729    0.422
         8 -12.1403    179.9573    244.3542   8.0963901932e+01  -2.5160324056e+00    0.2499841    0.2098329 -22.80 0.0005775611    1.193    0.162
         9 -11.2714    177.3431    249.4986   8.2313166062e+01  -3.0377149951e+00    0.2105156    0.1686505  -8.05 0.0002566662    1.110    0.099
        10  99.0000    102.2468    242.3378   9.7943684930e+01   8.7383030006e+00    0.4733374    0.3118328 -40.20  0.002064571    1.785    0.440
        11 -11.2569     97.6917    249.6187   9.9844972001e+01   7.8930921592e+00    0.1917161    0.1560699 -89.26 0.0002184738    1.457    0.313
        12 -11.1188     96.5090    244.9216   9.9565972640e+01   9.0022704429e+00    0.2707334     0.258351  49.74  0.001765443    1.083    0.076
        13 -12.3430     92.8571    248.0819   1.0075665076e+02   8.8566003981e+00    0.3275561    0.1876089 -69.60  0.001386738    2.117    0.528
        14 -12.3406     87.9342    250.4835   1.0212480525e+02   9.0314201244e+00    0.3810773    0.1402327  29.47  0.001211604    2.556    0.609
        15 -15.6647     27.2167    147.3216   1.0549376796e+02   4.1404510622e+01     3.200888     1.760693 -54.47   0.01504293    1.604    0.377
        16 -10.3180    215.4865    226.5444   7.0859797579e+01  -4.1323922228e+00    0.1273447    0.1033815 -10.32 0.0001789552    1.044    0.042
        17 -11.8621    171.1537    225.0298   7.9685875230e+01   2.1680485847e+00    0.2244818    0.2111228  44.20 0.0003481862    1.353    0.261
        18 -13.1369    173.4648    219.5392   7.8242284820e+01   2.8720126177e+00    0.4324202    0.3026308   2.49 0.0005927244    1.508    0.337
        19 -12.8385    124.5685    221.8201   8.9864189241e+01   9.8012050771e+00    0.7657247    0.4748136  63.52  0.003246729    2.557    0.609
        20 -12.4954    115.5128    218.4425   9.1538006117e+01   1.1906353202e+01    0.4961018    0.3197003  48.58  0.002288848    1.651    0.394
        21 -10.2980    118.8416    224.8886   9.1693815980e+01   1.0004792898e+01    0.1745469    0.1569076  67.96   0.00100258    1.269    0.212
        22 -11.5009    159.6435    222.2631   8.1770623022e+01   4.3975710147e+00    0.2290341    0.2070037  36.58 0.0007977039    1.245    0.197
        23 -11.2006    106.5065    220.5084   9.4036418125e+01   1.2795419129e+01    0.2957688    0.2376916 -33.07 0.0009430568    1.377    0.274
        24 -10.9125      2.9515    221.8639   1.1852702913e+02   2.4884770462e+01    0.1776564     0.145838 -61.87  0.001191322    1.385    0.278
        25  99.0000      6.7137    222.3878   1.1775139059e+02   2.4438336916e+01    0.2570149    0.1071911  44.45  0.001251158    2.066    0.516
        26 -10.6614     11.7471    220.2864   1.1652601776e+02   2.4464346025e+01    0.3099248    0.1870546  25.54  0.001741411    1.840    0.456
        27 -10.0412    223.6339    220.2876   6.8235470695e+01  -4.1184485404e+00    0.1068459     0.102974  62.83 0.0007022595    1.700    0.412
        28 -12.3232    193.5742    218.5331   7.3803407302e+01   1.6449209520e-01     0.338672    0.2104606 -56.88  0.001618504    2.326    0.570
        29 -17.3720     53.6847    127.9418   9.3553043362e+01   4.3711763854e+01     5.716691     3.720605  47.34   0.02633081    1.781    0.439
        30 -13.8305    156.9947    211.3084   8.0494397361e+01   7.0051596817e+00    0.5571377    0.5417294  46.36  0.001339577    1.234    0.190
        31 -13.2617    146.6133    203.3429   8.1514100516e+01   1.0335423752e+01    0.5125996    0.4618168   4.63   0.00141643    1.043    0.041
        32 -10.2958    197.9916    242.7710   7.7016891981e+01  -4.5894734486e+00    0.1579253   0.09263464  25.09 0.0003761885    1.571    0.363
        33 -11.6394    116.2610    240.1974   9.4446390939e+01   7.1966942686e+00    0.2266742    0.1870525  31.40 0.0003580783    1.083    0.077
        34 -13.1579    124.8691    212.0663   8.8259601137e+01   1.1880574908e+01    0.6280769    0.3856104 -28.22  0.002752811    2.069    0.517
        35 -11.7549    124.1596    206.0449   8.7448416440e+01   1.3340366161e+01    0.3059539    0.1958293  35.71 0.0007460943    1.494    0.331
        36  -6.9366      2.4377    215.5316   1.1827191359e+02   2.6372407274e+01    0.1237582   0.09878603  76.28   0.00080638    1.024    0.023
        37 -13.2361    183.9168    212.7847   7.4798620594e+01   2.6178251445e+00    0.3967639    0.2865645 -32.54  0.002172403    1.292    0.226
        38 -11.1266    174.4994    212.5169   7.6781673512e+01   4.0737539608e+00    0.1399423    0.1235384  -4.70 0.0002147473    1.019    0.019
        39 -11.4387     14.1049    211.5997   1.1540859890e+02   2.6268789066e+01    0.2718034    0.1648861  77.15  0.001481419    1.543    0.352
        40  -9.2744     13.2981    207.3308   1.1528877710e+02   2.7354056551e+01    0.1262438    0.1090906 -88.76 0.0008107577    1.082    0.075
        41 -10.9074      1.5167    212.2639   1.1828068066e+02   2.7204074550e+01    0.1471893    0.1000588 -68.84 0.0006644693    1.412    0.292
        42 -11.0560    186.2247    243.5149   7.9529168125e+01  -3.1999303707e+00     0.284026    0.2343891  76.96  0.001593092    2.382    0.580
        43 -11.8905    194.0161    208.7018   7.1946045057e+01   1.9079143261e+00    0.1890937    0.1602216   0.94 0.0004112163    1.074    0.069
        44 -12.1520    229.6301    206.9902   6.4769609056e+01  -2.6566337424e+00    0.3011891    0.2019714 -37.47  0.001227899    1.334    0.251
        45 -11.9047    144.5141    216.5354   8.4287242410e+01   7.8618163451e+00    0.2501814    0.2016618  16.26 0.0008821325    1.182    0.154
        46 -11.5077    220.2778    206.3701   6.6368099127e+01  -1.3326644469e+00    0.2214386    0.1906348 -19.51 0.0003017768    1.134    0.118
        47 -13.0680    168.6963    205.6248   7.6822719626e+01   6.3361539200e+00     0.372112    0.3077762  31.13  0.001266617    1.239    0.193
        48 -10.4437      6.8574    207.0038   1.1675021677e+02   2.7992394445e+01    0.1880747    0.1271498 -44.22  0.001063722    1.845    0.458
        49 -11.1202     18.8004    205.7910   1.1388214839e+02   2.7220035288e+01    0.1856833    0.1265575  71.59 0.0004438972    1.360    0.265
        50 -11.2457    165.8948    240.0790   8.3281723283e+01   1.4297811824e-01    0.1871085    0.1751106  18.06  0.001202272    1.229    0.186
        51 -10.7734    215.4825    201.6172   6.6395137947e+01   1.5369816957e-01    0.2009065    0.1508167 -36.21  0.000167171    1.231    0.187
        52 -11.0698    212.3737    200.1631   6.6717085036e+01   8.4818480630e-01    0.2414383     0.223501  84.31 0.0007105009    1.677    0.404
        53 -12.1634    142.9624    212.3394   8.3947049218e+01   8.9868588028e+00    0.4589114    0.2530484 -48.84 0.0009679293    1.864    0.463
        54 -11.2588     14.2354    202.2562   1.1469227036e+02   2.8489526880e+01     0.176622    0.1249696  58.57  0.000796857    1.311    0.237
        55 -10.6831     26.8154    201.2586   1.1156968006e+02   2.7551892970e+01    0.1591455    0.1449031 -51.13 0.0005198061    1.258    0.205
        56 -12.3374    225.1778    198.7509   6.4066165728e+01  -6.6168637747e-01    0.3421035    0.2170332 -48.33  0.001597489    1.726    0.421
        57 -13.7298    189.5332    195.5311   7.0417946596e+01   5.0985069751e+00    0.6940236    0.3649428  45.15  0.002881608    2.343    0.573
        58  -9.8589    238.5182    196.5079   6.1302982443e+01  -2.0229750991e+00    0.1284158    0.1009767 -23.02 4.366433e-05    1.009    0.009
        59 -13.8488    164.4929    192.8547   7.5389781095e+01   9.6596877306e+00    0.6345627    0.3883969  42.85  0.002907424    1.779    0.438
        60 -11.1624    212.9940    194.5870   6.5551939441e+01   1.7731328027e+00    0.2485872    0.1746577 -50.50 0.0006926903    1.621    0.383
        61 -10.5343     26.7153    194.9956   1.1102496736e+02   2.9110448722e+01    0.1748329    0.1481155 -77.69   0.00105298    1.097    0.088
        62 -10.0369     18.5675    194.4394   1.1301216670e+02   3.0014950842e+01    0.1296255    0.1134402 -84.49 0.0008028048    1.064    0.060
        63 -10.8996    234.0059    192.4682   6.1334762384e+01  -7.4903818948e-01    0.1747657    0.1005981   4.66 0.0008088139    2.514    0.602
        64 -10.6482    174.7679    243.7665   8.1962292541e+01  -1.7216695064e+00    0.1631377    0.1451732  29.24 0.0006305687    1.304    0.233
        65 -12.7256    173.1457    188.7687   7.2648241901e+01   9.0894054732e+00    0.3400978     0.277416  58.04   0.00162864    1.614    0.380
        66 -11.1453      5.3979    190.5950   1.1594533685e+02   3.2077111064e+01     0.130166    0.1254306  33.84 0.0003133362    1.255    0.203
        67 -12.6678    180.9596    188.7287   7.0927855807e+01   7.8174911522e+00    0.4016896    0.2476116  45.50  0.001864836    1.912    0.477
        68 -17.2303     91.2603    196.7998   9.4392732906e+01   2.0619855458e+01     4.560534     2.102754 -61.22   0.01797299    2.242    0.554
        69 -11.3066     16.5631    198.1524   1.1381161071e+02   2.9280826043e+01    0.2502827    0.1762119  61.31 0.0008358999    1.334    0.250
        70 -11.2162    248.4205    186.0242   5.7738495278e+01  -1.5220895500e+00    0.2224132     0.157228   1.05 0.0008499738    1.563    0.360
        71 -11.3810    208.7480    186.0442   6.4729220144e+01   3.9822817602e+00    0.1972575    0.1564496 -31.47 0.0004814718    1.100    0.091
        72 -12.2124    186.6343    185.8153   6.9144917171e+01   7.4874447238e+00    0.3573623    0.1759725  39.29   0.00101854    2.169    0.539
        73 -11.5955    148.9669    184.0617   7.7343996278e+01   1.4204053060e+01    0.2236743     0.211665  -8.43 0.0003360303    1.020    0.020
        74 -12.5609    177.6223    182.6191   7.0448316719e+01   9.6258382285e+00    0.4055449    0.2447361  17.33   0.00174886    2.099    0.523
        75 -11.0137      8.8878    182.0661   1.1440959312e+02   3.3923595922e+01    0.2085074    0.1762581 -35.48  0.001079779    1.421    0.296
        76 -10.4682     23.1867    181.5296   1.1064347203e+02   3.2843510086e+01    0.1662114    0.1344429  25.84 0.0003858045    1.394    0.283
        77 -12.3788    191.4010    178.2539   6.6646533695e+01   8.2314819624e+00    0.3542226    0.2314115 -48.89 0.0009843936    1.550    0.355
        78 -10.0323    136.9854    238.6782   8.9490352075e+01   4.5178559663e+00     0.225045    0.1056061  11.70 0.0007050389    4.324    0.769
        79 -12.7965    153.6347    178.5358   7.5124157619e+01   1.4632366219e+01    0.4129812    0.2820441  24.92  0.001908153    1.558    0.358
        80 -11.2909     28.4269    177.3158   1.0879996156e+02   3.3435216768e+01    0.3526913    0.1935674  84.30  0.001093559    2.064    0.515
        81 -11.3809     27.8328    171.4357   1.0831282710e+02   3.5015904981e+01    0.2878525    0.2305848  67.25  0.001585557    1.252    0.201
        82 -11.9964    174.8724    173.1138   6.9127471290e+01   1.2093831068e+01    0.2244149    0.2067465 -66.85 0.0008220999    1.291    0.226
        83 -10.7154    197.3307    170.3282   6.3839626622e+01   8.8371014927e+00    0.1490554    0.1038224 -11.52 0.0007051451    1.712    0.416
        84 -11.9711    160.0611    169.4895   7.1745844769e+01   1.5508203270e+01    0.2795932    0.2163598 -62.73  0.001026766    1.526    0.345
        85 -13.9057    153.7476    167.4171   7.2810680703e+01   1.7116643531e+01    0.6566773    0.4678982 -12.18  0.001750065    1.774    0.436
        86 -14.0129    158.5373    158.2361   6.9704520582e+01   1.8298705445e+01    0.5421131    0.4696474  -9.61  0.002283183    1.205    0.170
        87 -12.7106    171.5153    168.9872   6.9017537965e+01   1.3566563236e+01    0.2644571    0.2187198 -26.83 0.0009472485    1.154    0.134
        88 -11.5429     33.1835    168.0730   1.0640667799e+02   3.5378451683e+01    0.2729013     0.194835 -34.48 0.0009272841    1.624    0.384
        89  99.0000     24.4236    221.1099   1.1375700135e+02   2.3059304372e+01     2.109052    0.8144844 -66.28  0.009539994    2.379    0.580
        90 -10.0841    222.6664    164.6493   5.7963071831e+01   5.8600477323e+00    0.1420195   0.09540857 -13.91 0.0007047019    1.780    0.438
        91 -17.4355    107.8792    145.4767   8.0171156797e+01   3.0816748071e+01     8.718378     5.030178 -78.62    0.0275143    3.588    0.721
        92 -10.9428     14.5092    237.2915   1.1699346445e+02   2.0412252957e+01    0.1702084    0.1049592 -79.25  0.001004707    1.520    0.342
        93 -10.6584      3.0469    161.4326   1.1417887837e+02   3.9586149199e+01     0.195924    0.1445414 -76.89 0.0001455527    1.137    0.120
        94 -13.3943    170.7837    159.9839   6.7272323333e+01   1.5641507520e+01    0.4043142    0.3615149 -49.31  0.001873566    1.146    0.127
        95 -11.3778    102.8223    228.2578   9.5998909726e+01   1.1628613616e+01     0.389417    0.2604073   2.77  0.001836754    2.023    0.506
        96 -10.9874    184.4755    156.4817   6.3563443453e+01   1.3887923739e+01    0.1467451    0.1350925 -40.38 -2.319891e-05    1.079    0.073
        97 -11.2148      3.4466    154.2356   1.1339629730e+02   4.1406090346e+01    0.2950089    0.1916837  70.54  0.001207302    1.609    0.379
        98 -11.9449    212.2706    154.0879   5.7666701257e+01   9.5208365861e+00    0.2373109    0.2092235  53.46 0.0006778802    1.384    0.278
        99 -13.7520    170.8669    150.8562   6.5262652093e+01   1.7598357079e+01    0.5863587    0.3546741  38.40  0.002593277    1.764    0.433
       100 -13.3242    150.2819    142.8357   6.8232274054e+01   2.3355406487e+01    0.5940131    0.3701375  20.79  0.001852466    2.210    0.548
       101 -13.1551    149.4725    152.4895   7.0618386870e+01   2.1315697148e+01    0.4546297    0.3044027 -10.45  0.001634171    2.230    0.552
       102 -13.6195    145.7135    149.2706   7.0825895588e+01   2.2776916766e+01    0.5646039    0.3532216  37.33 0.0003357042    1.659    0.397
       103 -13.9892    133.5946    147.8395   7.3602361481e+01   2.5444079860e+01    0.7621245    0.4913073 -10.86  0.002827791    2.568    0.611
       104 -13.0148    187.2849    226.1791   7.6437344841e+01  -3.3559180734e-01    0.3968713     0.250793 -24.09  0.001558289    1.571    0.363
       105 -10.8846    224.7954    148.7963   5.4419438259e+01   8.4563541192e+00    0.1793485    0.1492189 -60.30 0.0005366039    1.353    0.261
       106 -12.0793    170.6870    145.5455   6.4118960744e+01   1.8776069488e+01    0.3235087    0.2224665 -21.34  0.001436875    1.768    0.434
       107 -12.5632    156.5039    145.1344   6.7266127705e+01   2.1618535934e+01    0.3597791    0.2242308  46.33 0.0009357233    1.723    0.420
       108 -14.6753    127.9696    147.2607   7.4964910774e+01   2.6655535355e+01    0.7665314    0.6234594 -89.77  0.002277912    1.601    0.375
       109 -12.5891     17.2342    143.4671   1.0808740041e+02   4.3239156662e+01    0.3564877    0.2677492  20.72  0.001835002    1.530    0.346
       110 -11.2788    202.8141    143.3893   5.7144567615e+01   1.3229971072e+01    0.1868895    0.1339015  28.46 0.0006165512    1.669    0.401
       111 -11.1285    231.9268    227.1288   6.7907472878e+01  -6.2171482481e+00    0.1761221    0.1509186 -17.67 0.0005690762    1.255    0.203
       112 -10.9344    138.2558    226.2715   8.7322437916e+01   6.8047441456e+00    0.2672171    0.2022432 -63.57  0.001416138    1.632    0.387
       113 -11.7719    179.9423    150.2959   6.3174332405e+01   1.6013247869e+01    0.2052903    0.1933597 -10.01 0.0005524946    1.068    0.064
       114 -12.1867    159.8168    135.8922   6.4357260648e+01   2.3003271861e+01    0.3938646    0.2284265 -27.91  0.001271394    2.210    0.548
       115 -12.7354      4.5377    136.3308   1.1118572724e+02   4.5951241867e+01    0.3539586    0.2120469 -76.53 0.0009700354    1.454    0.312
       116 -11.7245      3.1021    131.1306   1.1103415594e+02   4.7369899563e+01    0.2742165    0.1742165 -76.55  0.001140858    1.375    0.273
       117 -12.3860    140.4190    134.5363   6.8738856536e+01   2.7204331784e+01     0.430918    0.2538023  36.13  0.001770529    1.807    0.447
       118 -11.6226    144.0040    132.2411   6.7285348149e+01   2.7002394251e+01    0.3161378     0.221521  29.51 0.0009067377    1.597    0.374
       119 -11.2899    108.4041    237.1233   9.5857825667e+01   8.9461253020e+00    0.3466378    0.1836364 -48.05  0.001624814    2.066    0.516
       120 -10.8797    203.0802    133.5538   5.4977000962e+01   1.5097443006e+01    0.1885026    0.1251552  76.89 0.0008075862    2.586    0.613
       121 -12.7693    132.0783    132.3249   7.0372685902e+01   2.9382754557e+01    0.3154971     0.274877   5.11 0.0007802798    1.265    0.209
       122 -12.7562    151.2940    130.3429   6.5045581213e+01   2.5943444361e+01     0.475344    0.4167917 -21.56  0.001922729    1.191    0.160
       123 -13.2133    157.9971    128.5058   6.3028797463e+01   2.4974248825e+01    0.6061766    0.4296799  13.98  0.002624133    1.981    0.495
       124 -13.8546    157.0064    125.7313   6.2589940204e+01   2.5774606268e+01    0.9222588    0.4112117  52.36  0.003274223    2.668    0.625
       125 -10.6951    134.0232    127.4872   6.8680505147e+01   3.0103227775e+01    0.2263085    0.2040641 -40.98 -5.30944e-05    1.078    0.072
       126 -12.9158    120.5113    123.5060   7.1349452269e+01   3.3734963124e+01    0.4514632    0.3100937  60.78  0.001909836    1.860    0.462
       127 -11.2414    119.7136    120.3375   7.0772191254e+01   3.4625705391e+01    0.2823348     0.219662  31.10 0.0008147601    1.342    0.255
       128 -11.3216    137.8586    130.9999   6.8542971205e+01   2.8526529811e+01    0.2840976    0.2282093  29.51 0.0007368555    1.323    0.244
       129 -16.7962     69.0860    207.3174   1.0160457658e+02   2.1163934154e+01     3.232295     1.107361  38.83   0.01207801    2.613    0.617
       130 -11.0147    189.1423    121.8903   5.4952146778e+01   2.0034823898e+01    0.2156618    0.1900663 -70.77 0.0005772123    1.212    0.175
       131 -11.8142    114.2481    120.1595   7.2283278661e+01   3.5749282400e+01    0.2390114    0.2092764 -14.46  0.001186265    1.217    0.178
       132 -11.7054    155.5000    117.0165   6.0803369941e+01   2.7938149786e+01    0.2325967    0.1459014 -43.86 0.0004310255    1.534    0.348
       133 -12.7126     11.8168    115.5641   1.0598592205e+02   5.0821208610e+01    0.4620971    0.2080397 -60.68  0.002097763    1.762    0.433
       134 -12.4911    105.9958    114.1005   7.3151236423e+01   3.8758808391e+01    0.5194673     0.347719 -10.52  0.001438046    2.267    0.559
       135 -10.2953    244.3621    128.7188   4.7433067540e+01   8.9081655406e+00    0.1241845   0.09063035 -68.61 0.0007015313    1.676    0.403
       136 -10.5578    157.5206    234.4885   8.4236315192e+01   2.3562828725e+00    0.2045001    0.1298679 -44.75 0.0001429821    1.659    0.397
       137 -11.9080    115.2322    111.4929   6.9748549286e+01   3.7533776020e+01    0.5266939    0.2602507 -57.48  0.001851983    2.574    0.612
       138 -13.2752     88.3088    110.6774   7.7805299520e+01   4.2820811207e+01    0.4564356    0.2768545 -34.23  0.001273794    1.804    0.446
       139 -12.9218     53.6260    110.7608   8.9855802021e+01   4.8078730339e+01    0.6616299    0.3217055 -37.54  0.002596715    2.217    0.549
       140 -11.7750     51.2573    106.9583   8.9833077176e+01   4.9312308622e+01    0.2626145    0.2335064  23.21 0.0004248667    1.200    0.167
       141 -17.3728     53.5559    228.1637   1.0767448125e+02   1.8219882669e+01     3.880177     2.368716  44.99   0.02061318    1.477    0.323
       142 -17.6963     68.5291    188.0989   9.9195985900e+01   2.6023397745e+01     3.301727     2.653231  42.82   0.01755007    1.236    0.191
       143 -11.5808    165.1714    110.1715   5.6974360536e+01   2.7291794986e+01    0.2118912    0.1766215 -74.30 0.0008354899    1.350    0.259
       144 -11.1689    160.2986    231.9548   8.3216386787e+01   2.4336474026e+00    0.2143854    0.1675458  -3.76  0.000519135    1.243    0.196
       145 -12.3486    142.6449    107.5151   6.1426373801e+01   3.2660578218e+01    0.4734304    0.3163736  18.56  0.001933071    2.230    0.552
       146 -10.6947    154.6450    107.3240   5.8564883687e+01   3.0117526257e+01    0.1572727    0.1191206 -84.16 0.0007046308    1.765    0.433
       147 -13.1053     58.5221    109.6256   8.7816471027e+01   4.7718469540e+01    0.6735166    0.3257724 -32.80  0.001877052    2.614    0.617
       148 -11.1894    174.9703    106.2664   5.4015842020e+01   2.5980922950e+01    0.1918691    0.1866751  89.44 0.0002884896    1.062    0.058
       149  99.0000     17.5788    242.6602   1.1668113867e+02   1.8959391984e+01    0.3829945     0.184463  59.57  0.002016997    1.877    0.467
       150 -12.7781     14.7913    105.4148   1.0322295226e+02   5.3171788096e+01    0.3317724    0.2141791 -43.17  0.001471843    1.356    0.263
       151 -12.5860     18.3754     99.7859   1.0080774427e+02   5.4307101271e+01    0.3962496    0.2251188  -2.52  0.001898698    2.086    0.521
       152  99.0000     21.0052    239.3175   1.1576355417e+02   1.9333877092e+01    0.3384364     0.116048 -63.12  0.001515623    2.842    0.648
       153 -11.5906    105.0855    103.8711   7.0683791305e+01   4.1249284991e+01    0.3556398    0.2022366  46.48  0.001100391    1.845    0.458
       154 -11.6134      1.7133    102.6486   1.0766781297e+02   5.4608693217e+01    0.3275113    0.1465734 -80.89  0.001119488    2.517    0.603
       155 -10.5092    117.4409    103.4872   6.6964859136e+01   3.8842890084e+01    0.1531582    0.1476402 -10.75 0.0001090045    1.026    0.025
       156 -10.1191    117.8244    232.9786   9.3095671533e+01   8.4489217623e+00    0.3812087    0.2344122  -8.38  0.001617954    2.624    0.619
       157 -13.9684     76.2818     98.3892   7.8567122382e+01   4.7717367790e+01    0.7344915     0.451684  54.12  0.003065876    2.213    0.548
       158 -12.8498     57.9985     99.8389   8.5570027630e+01   5.0146190497e+01    0.3666182    0.3354514 -63.33  0.001180796    1.211    0.174
       159 -12.9840     60.2526     93.8318   8.3129687520e+01   5.1226711287e+01     0.515915    0.3012104 -53.96  0.001780466    1.710    0.415
       160 -11.7341    178.8653     99.9520   5.1741740607e+01   2.6352154923e+01    0.2516387    0.2120308  85.69   0.00101278    1.305    0.234
       161 -12.3902     71.4626     97.4675   8.0017287778e+01   4.8706881174e+01    0.2903143    0.2418482  73.26 0.0004940298    1.623    0.384
       162 -11.4583    237.8504     98.8395   4.2385010185e+01   1.5039859101e+01    0.2069647    0.1656062 -59.68 0.0003478565    1.116    0.104
       163 -10.2730    208.6529     99.7153   4.6631516526e+01   2.0302282006e+01     0.127503    0.1071174   5.67 0.0003251172    1.649    0.394
       164 -11.2884    156.5246    243.0212   8.5776863063e+01   9.1850645041e-01    0.1622995    0.1218715 -85.51 0.0007712175    2.481    0.597
       165 -12.2412     39.0448     95.5434   9.1759817365e+01   5.3478740917e+01    0.3102544    0.2493123   0.60  0.001399561    1.281    0.220
       166 -13.1942     35.0021     93.8550   9.2955089361e+01   5.4298980587e+01     0.483957    0.2575935   3.18 0.0009870505    2.411    0.585
       167 -11.1414    154.8644    230.5975   8.4210387209e+01   3.4823998905e+00    0.3329469    0.1984019 -21.46  0.001527723    2.105    0.525
       168 -11.2901    196.3698     93.2157   4.7105594399e+01   2.3905333512e+01    0.3138569    0.1533924 -46.29  0.001381384    1.870    0.465
       169 -12.3481     21.4844     91.4509   9.7850999237e+01   5.6079747423e+01    0.2353492    0.2050678 -29.15 0.0006554724    1.072    0.067
       170 -12.1945      2.6387     91.0249   1.0538840885e+02   5.7375279654e+01    0.2794995    0.1984041 -43.40 0.0006143861    1.174    0.148
       171 -11.1151    214.2039     92.7628   4.4295601759e+01   2.0416072049e+01    0.1724036    0.1524118 -24.01 0.0005417316    1.333    0.250
       172 -12.7823     12.4083     88.8667   1.0101287854e+02   5.7337779753e+01    0.4766367    0.3009894  84.02  0.002283088    2.389    0.581
       173 -11.0442    171.1325     88.1662   5.0303163289e+01   3.0171300843e+01    0.1968134    0.1621464 -76.08 0.0003716312    1.295    0.228
       174 -10.7495    131.8192    232.1731   8.9716921737e+01   6.5618535700e+00    0.1929218    0.1513641   1.49 0.0005784596    1.346    0.257
       175 -14.0345     53.7236     85.0261   8.3179191410e+01   5.4112401536e+01    0.6400278    0.4745128  48.52  0.003276997    1.688    0.408
       176 -11.5996    177.9561     87.0170   4.8766381135e+01   2.8886484852e+01    0.2100176    0.1966217 -73.59 0.0004462898    1.016    0.016
       177 -10.6987    162.6486     87.7003   5.1833454680e+01   3.2124976173e+01    0.1446363    0.1148783  16.64 0.0005851231    1.693    0.409
       178 -11.9549     45.9179     86.5143   8.6699023392e+01   5.4784749094e+01    0.2177377    0.1764988 -42.77 0.0004371213    1.143    0.125
       179 -10.4876     85.2433     85.0146   7.1599916984e+01   4.9059700817e+01    0.1993894    0.1809075 -27.95            0    1.083    0.077
       180 -11.3453    164.2372     83.9763   5.0563693534e+01   3.2436337419e+01    0.1930233    0.1168816 -41.43 0.0006402185    1.622    0.383
       181 -10.9017    194.2340    231.2328   7.5863311963e+01  -2.1695287045e+00    0.1652076    0.1565405  25.60  0.001077778    1.406    0.289
       182 -11.9284    152.0483     80.6791   5.2164953295e+01   3.5745053695e+01    0.3726379     0.257928  34.74  0.001310016    1.724    0.420
       183 -11.6795    106.8677     80.6403   6.3439730901e+01   4.5683463844e+01    0.4621263    0.3223649 -66.72  0.002053313    2.055    0.513
       184 -12.3816    112.9704    228.2497   9.3577531013e+01   1.0154556058e+01    0.3814885    0.3215689  47.12  0.001710332    1.187    0.158
       185 -10.3129    222.5011     82.0510   4.0898651190e+01   2.0575303236e+01    0.1875254    0.1104239 -43.85 0.0003571304    1.474    0.322
       186 -11.5101    206.7144     81.2052   4.2833358975e+01   2.3820081266e+01    0.2501969     0.213282 -11.41  0.001474313    1.574    0.365
       187 -12.1612    182.9736     78.1945   4.5761803271e+01   2.9301769608e+01    0.5084606    0.2269664 -35.61  0.002086724    2.356    0.576
       188 -11.5556     87.4306     79.3060   6.9114921992e+01   4.9804434344e+01    0.2852223    0.2647133  -1.57  0.001112863    1.019    0.018
       189 -12.9849     28.0528     79.9064   9.2349108547e+01   5.8185919987e+01     0.299979    0.2164852  29.40  0.001349653    1.543    0.352
       190 -10.8181    214.3154     78.9508   4.1302657597e+01   2.2661806957e+01    0.1856854    0.1469606 -53.25 0.0004409285    1.099    0.090
       191 -10.3898    120.4796     78.5353   5.9017584138e+01   4.3172518429e+01    0.1457754    0.1404831  32.25 2.497265e-05    1.010    0.010
       192 -10.9654    189.9575     77.3496   4.4440863233e+01   2.7937510872e+01    0.1866762    0.1705872  86.91 0.0005074657    1.084    0.078
       193 -12.6432     50.9885     78.9757   8.2506539093e+01   5.5794177482e+01    0.2497418    0.2480637  46.86  0.001285149    1.255    0.203
       194 -11.4023    158.1734     75.9414   4.9659523305e+01   3.5181381560e+01    0.2371649    0.2010863  45.07 0.0002324504    1.245    0.197
       195 -11.5131    115.3632     74.8586   5.9290467865e+01   4.4949517628e+01    0.4303397    0.2683589  20.33  0.001736234    2.421    0.587
       196 -12.2606     75.1729     75.6160   7.2199777780e+01   5.2753715488e+01    0.3398868    0.2526904  32.96 0.0008200079    1.314    0.239
       197 -12.8143     31.8586     74.7932   8.9325268020e+01   5.8944610306e+01    0.3967956    0.2316297   2.03  0.001552951    1.956    0.489
       198 -12.4764     23.2011     76.0264   9.3441802994e+01   5.9481219305e+01    0.2289613    0.1856803   1.14 0.0008658085    1.236    0.191
       199 -11.5207     15.4934     76.0221   9.6832622349e+01   6.0085350833e+01    0.1993292    0.1631416  -6.74 0.0006651681    1.214    0.177
       200 -10.5108    177.8040     75.1191   4.5874991118e+01   3.0937782913e+01    0.1768795    0.1662999  14.46 0.0004695629    1.301    0.231
       201 -13.0670     31.3782     87.4104   9.2856035068e+01   5.6163646100e+01     0.394825    0.2283292   5.64  0.001869522    1.983    0.496
       202 -10.6294    232.2849     73.4207   3.7955442527e+01   2.0072381591e+01    0.1518775    0.1106358  87.65 0.0004770077    1.458    0.314
       203 -10.5542    125.0683     73.4956   5.6345678202e+01   4.3062029146e+01     0.219547    0.1381139  48.70 0.0005115542    1.528    0.346
       204 -10.9858    219.9291     72.4896   3.9215486513e+01   2.2569027051e+01    0.1755664    0.1211173  68.45 0.0006958735    1.544    0.353
       205 -11.8096    197.3239     67.9930   4.1185255137e+01   2.7856599181e+01    0.3977068    0.2064771 -27.00  0.001707793    2.691    0.628
       206 -12.7276    100.0331     66.4623   6.1041101419e+01   4.9678028816e+01    0.6160086    0.3230338 -37.31  0.002676189    2.001    0.500
       207 -11.0942    249.9952     66.1895   3.4712056214e+01   1.7953129256e+01    0.1690887    0.1321042 -61.88 0.0003595581    1.026    0.026
       208 -11.3935    177.9649    229.2391   7.8924036443e+01   4.1485808036e-01    0.1881726    0.1532792  11.73            0    1.095    0.087
       209 -11.5017    114.5586     64.1340   5.6216023214e+01   4.6966016107e+01    0.3678631     0.217291 -60.88 0.0006618515    2.633    0.620
       210 -10.3285     78.5602     65.4984   6.7689837608e+01   5.4058230201e+01    0.1398344     0.129866   9.50 0.0001127353    1.053    0.050
       211 -13.7685     24.7247     63.3941   8.9219072865e+01   6.2044239972e+01    0.5502279    0.2398994  21.29  0.002514626    2.344    0.573
       212 -11.9698    188.4677     65.8294   4.1954174733e+01   3.0081219143e+01    0.4367841    0.1922136 -46.38  0.001660967    2.139    0.532
       213 -12.1051     45.3793     61.4148   7.9296205335e+01   6.0102541695e+01    0.2768318    0.2050828  -8.22  0.001348617    1.306    0.234
       214 -11.6447     13.1386     62.1820   9.4319873403e+01   6.3249956484e+01    0.2069178    0.1420931 -29.48 0.0006956441    1.225    0.184
       215 -11.5313    109.5210     60.1391   5.6306035543e+01   4.8710984740e+01    0.2680497    0.2307112  65.99  0.001494322    1.257    0.204
       216 -11.9998    193.7702     57.6276   3.9298613638e+01   3.0159952987e+01    0.2319442    0.1588414  80.85  0.001038929    1.489    0.329
       217 -11.4269    153.4745     57.6135   4.5652194296e+01   3.9157311231e+01      0.22653    0.2133014  81.35  0.000193084    1.025    0.024
       218 -10.4363    119.5060     58.4994   5.3200799074e+01   4.6767594679e+01    0.1402149    0.1310975  46.87 -4.936909e-05    1.001    0.001
       219 -13.3099     28.8068     56.2373   8.5050929358e+01   6.3069190385e+01    0.5401996    0.2774122  40.27  0.002535914    2.527    0.604
       220 -10.6783    225.4867     56.9853   3.5381974805e+01   2.3773368744e+01    0.1851964    0.0753149 -56.24  0.000810142    2.519    0.603
       221 -11.0239    139.6725     57.1035   4.8211528049e+01   4.2400935037e+01    0.2734511    0.1636811  74.00 0.0008776278    2.059    0.514
       222 -12.1735    150.5519    228.0622   8.4778233618e+01   4.6108305453e+00    0.4819781    0.3383329 -14.10  0.001778679    1.610    0.379
       223 -10.9020    126.3131     54.7023   5.0414801572e+01   4.5807603638e+01    0.1377118    0.1071668 -81.91            0    1.603    0.376
       224 -11.6435      2.9865     59.3919   9.8459647720e+01   6.4471880758e+01    0.3065831    0.1876179 -13.89  0.001764979    1.566    0.361
       225 -11.3712    181.2605     51.5286   3.9586943652e+01   3.3751680870e+01    0.2382167     0.122621  69.32 0.0008361348    1.962    0.490
       226 -11.8585    174.5533     50.4550   4.0296636978e+01   3.5393646117e+01    0.3599988    0.2075156  71.30  0.001789915    1.739    0.425
       227 -10.3033     94.3074     51.3628   5.7739630486e+01   5.3303786917e+01    0.1451569    0.1018669  13.76 0.0007039111    1.741    0.426
       228 -11.6465     17.6873     50.5125   8.8566881111e+01   6.5234531773e+01    0.2649381    0.1623727 -33.79  0.001504051    1.377    0.274
       229 -11.1858    144.9677    226.0662   8.5736341855e+01   5.8399487277e+00    0.3892213    0.2051418 -62.83   0.00159483    2.820    0.645
       230 -11.3438     29.3064     49.9369   8.2661356675e+01   6.4204558108e+01     0.205093    0.1650266  20.42 0.0005504906    1.297    0.229
       231 -10.4385    133.1845     48.3767   4.7016609576e+01   4.5141006540e+01    0.1900115    0.1229444  68.27 0.0003545114    1.586    0.369
       232 -10.5794      1.4695     47.4866   9.5946624145e+01   6.6975754021e+01    0.1215014   0.09661558 -29.73 -3.41874e-05    1.048    0.046
       233 -10.8572    157.1542     46.1368   4.1919721267e+01   3.9929667936e+01    0.1848721    0.1705901  50.51 0.0003358366    1.180    0.153
       234 -10.8017    153.0365     44.7733   4.2246922516e+01   4.1056375271e+01    0.1804108    0.1620914  70.44 0.0002515265    1.046    0.044
       235 -10.9166     90.0349     44.9373   5.6791343444e+01   5.5123689006e+01    0.1990511    0.1799481  29.36 0.0003311731    1.025    0.024
       236 -11.2906    195.7844     44.1187   3.5970310887e+01   3.1598127519e+01     0.197665    0.1489615 -72.56  0.000622931    1.211    0.174
       237 -10.8035    189.1434     43.1278   3.6555015383e+01   3.3159023207e+01    0.1815397    0.1314495 -76.44 0.0005824091    1.326    0.246
       238 -11.0441     51.0018     42.9998   7.0191457813e+01   6.2520075245e+01    0.1619788    0.1359741   2.79 0.0006131009    1.015    0.015
       239 -11.5616    146.0087     39.5124   4.2012722702e+01   4.3353298749e+01    0.1853678    0.1746677 -63.82  0.001181148    1.125    0.111
       240 -11.2501    104.2974     39.9558   5.1060828515e+01   5.2766777290e+01    0.2374602    0.1728836  48.15 0.0005473114    1.221    0.181
       241 -11.8738     35.6025     39.6518   7.5800295695e+01   6.5239576613e+01    0.3693353      0.20038   8.84  0.001694814    2.218    0.549
       242 -11.5465     60.0331     38.0530   6.4566976476e+01   6.1793261713e+01    0.2616231    0.2130161 -39.25  0.001003466    1.467    0.318
       243 -10.6792    110.2241     37.4367   4.8739156032e+01   5.1779257225e+01    0.1787566    0.1213156  65.80 0.0003590912    1.515    0.340
       244 -12.0202     10.5382     35.5708   8.7106163297e+01   6.8577836878e+01     0.383148    0.2815577 -51.08  0.002462782    1.570    0.363
       245 -12.8334     30.1892     33.4378   7.5928487679e+01   6.6914611473e+01    0.5236088     0.277227  -6.76  0.002413319    2.572    0.611
       246 -12.3561    169.9354     31.3703   3.6211126828e+01   3.8877448900e+01    0.4644976    0.2583419 -24.59  0.002324655    2.334    0.572
       247 -11.1283    223.3923     33.2674   3.0833896446e+01   2.7324677484e+01    0.2157652    0.1076781 -33.05 0.0006607155    2.246    0.555
       248 -11.6955     43.7406     33.9035   6.9712342117e+01   6.5003479032e+01    0.2300156    0.1653089  30.40 0.0005389196    1.306    0.235
       249 -10.7402    124.0521     33.0354   4.4258220612e+01   4.9188763443e+01    0.1957015      0.17227  61.31 0.0003370636    1.014    0.014
       250 -11.7290    106.8963     32.3573   4.7849271409e+01   5.3132482302e+01    0.2633074    0.1936767 -26.68 0.0006629014    1.534    0.348
       251 -10.8178    214.9612     31.4808   3.1238537920e+01   2.9218360432e+01    0.1730981   0.08314636 -80.18 0.0008098855    2.553    0.608
       252 -12.5591     74.5548     30.2327   5.6240117815e+01   6.0164397714e+01    0.3532467    0.1838443  48.04 0.0009711502    1.725    0.420
       253 -10.1402    242.2791     30.3087   2.8729164883e+01   2.4112020584e+01   0.08940852   0.08847712  61.37 0.0002219749    1.558    0.358
       254 -11.5206    140.2121     29.8287   4.0279613917e+01   4.5846356814e+01    0.3229087    0.1686664  44.41  0.001531441    2.066    0.516
       255 -12.2937     38.9146     29.1943   6.9935022860e+01   6.6386460680e+01    0.3084034    0.2135693  13.43 0.0008949538    1.281    0.219
       256 -10.7142    207.7988     29.0241   3.1405287124e+01   3.0972418312e+01    0.1506712   0.08516004 -40.21 0.0003595214    1.717    0.418
       257 -11.1683    156.1332     29.1379   3.7566099208e+01   4.2267856325e+01     0.187354    0.1612829  54.28 0.0004343765    1.217    0.178
       258 -10.8478    178.9661     28.0095   3.4259482482e+01   3.7255196527e+01    0.1797151    0.1576395 -89.18  0.001207005    1.062    0.058
       259 -11.0278    238.0316    248.8719   7.0441575939e+01  -1.0142301070e+01     0.203979    0.1374771 -25.95 0.0007143446    1.250    0.200
       260 -11.2757    172.3045     22.0176   3.3619362869e+01   3.9404191816e+01    0.2840667    0.1579054 -20.39   0.00143079    2.567    0.610
       261 -10.1476    185.3086     22.3164   3.2217675463e+01   3.6508351467e+01    0.1136014   0.08865722  44.85 0.0003144244    1.633    0.388
       262 -12.9662     84.0382     23.6603   5.0772530413e+01   5.9016045406e+01     0.472377     0.341478 -75.44  0.002469429    2.378    0.580
       263 -11.3548    234.5410     13.1256   2.6148374949e+01   2.7533924166e+01      0.15796    0.1328911  82.30 0.0005779035    1.336    0.251
       264 -11.2183    127.3671    247.5298   9.2906348615e+01   4.1826457137e+00    0.3327326    0.1743022 -49.36  0.001617208    2.097    0.523
       265  -9.9899    200.2670    247.2903   7.7293054638e+01  -5.5986621657e+00    0.1244147   0.07999962  -8.58 0.0001582594    1.504    0.335
       266 -10.3666    139.6253    247.2316   9.0126447032e+01   2.5151704113e+00    0.1633409    0.1179625 -33.93 0.0002114999    1.495    0.331
       267 -10.0266    169.6897    246.3082   8.3435337127e+01  -1.4760513098e+00     0.118733   0.09981881  51.29 0.0003118174    1.619    0.382
       268 -10.7614    107.6721    243.5383   9.6850465446e+01   7.7365741786e+00    0.3642845    0.2626738  78.98  0.001866408    1.902    0.474
