#   1 NUMBER                 Running object number                                     
#   2 MAG_AUTO               Kron-like elliptical aperture magnitude                    [mag]
#   3 X_IMAGE                Object position along x                                    [pixel]
#   4 Y_IMAGE                Object position along y                                    [pixel]
#   5 X_WORLD                Barycenter position along world x axis                     [deg]
#   6 Y_WORLD                Barycenter position along world y axis                     [deg]
#   7 A_WORLD                Profile RMS along major axis (world units)                 [deg]
#   8 B_WORLD                Profile RMS along minor axis (world units)                 [deg]
#   9 THETA_WORLD            Position angle (CCW/world-x)                               [deg]
#  10 FWHM_WORLD             FWHM assuming a gaussian core                              [deg]
#  11 ELONGATION             A_IMAGE/B_IMAGE                                           
#  12 ELLIPTICITY            1 - B_IMAGE/A_IMAGE                                       
         1 -17.5498    238.8660     57.7860   6.1881098865e+01   1.8170864542e+01     4.946985     3.438678 -18.61   0.01566496    1.395    0.283
         2  -9.9890    192.1129     35.5849   6.2017047670e+01   3.2705055159e+01    0.6147251     0.364437  31.53 0.0009533901    2.043    0.510
         3  -8.3151    189.6140     15.4663   5.5923490134e+01   3.5682107427e+01    0.2459279    0.1412626 -20.08   0.00106673    1.789    0.441
         4  -8.2717     80.4576     12.9168   7.8567401065e+01   6.2401211120e+01    0.2919928    0.1616419 -43.67   0.00132734    2.033    0.508
         5  -7.6079    182.3078      4.2995   5.3195870240e+01   3.8736077548e+01    0.1522901    0.1014728  36.43 0.0007009128    1.596    0.373
         6  -8.5110    106.1844      2.0177   6.5867068005e+01   5.8374814045e+01    0.2468646    0.1918209  51.85  0.001366781    1.285    0.222
         7  -8.1028    218.1187      1.3609   4.8415909004e+01   2.9546697227e+01    0.2043136    0.1278122  74.11 0.0006883355    1.582    0.368
         8 -10.1050    247.5661    202.1633   9.2327292104e+01  -1.0005731702e+00     0.563931    0.2788262  14.25   0.00283379    2.607    0.616
         9 -11.9514    239.5192    244.5249   9.9872865887e+01  -3.5607095657e+00    0.2694665    0.1760914  35.10  0.002056089    1.162    0.139
        10  -8.8433    205.9438    248.8255   1.0545999551e+02   8.7753973992e-01    0.2133683    0.1605211 -84.56  0.001366027    3.320    0.699
        11 -10.6749      4.0618    239.1023   1.3569268034e+02   2.7876552219e+01    0.4757242    0.2073008  76.48  0.002709128    1.773    0.436
        12 -11.7982     13.3594    247.5356   1.3464586822e+02   2.5816838859e+01    0.7672212    0.4698231  76.62  0.007006078    1.247    0.198
        13  -8.8865    193.4871    197.2112   1.0038879222e+02   8.4640576928e+00    0.4083692     0.197605 -56.96  0.001567863    5.371    0.814
        14 -10.8742    227.2740    173.3406   9.0544734803e+01   5.4868906400e+00    0.4944787    0.3106124  16.82  0.002726922    1.683    0.406
        15  -9.7939    230.0141    167.8859   8.9064995768e+01   5.6512070413e+00    0.3207543    0.1813997 -34.75  0.001528283    1.967    0.492
        16  -9.8375    245.2898    166.9869   8.6409411073e+01   3.0478098179e+00    0.3934342      0.16759  47.42 0.0009524034    2.280    0.561
        17 -10.9339     27.2512    160.7233   1.2807453877e+02   3.9050111658e+01    0.6125163    0.3108823  66.08  0.003550228    1.752    0.429
        18 -10.1761     33.7014    158.4669   1.2659130563e+02   3.8867685026e+01    0.4923431    0.2375806  89.42  0.002816312    1.968    0.492
        19  -9.2989     29.1742    155.8292   1.2731288933e+02   3.9824264170e+01    0.2678324    0.1798177 -87.59  0.001112811    1.217    0.178
        20 -10.3860    246.5433    153.5226   8.3551963708e+01   4.3718761829e+00     0.536001     0.238496  53.38  0.002359567    2.716    0.632
        21 -10.1630    245.4823    162.0130   8.5413646686e+01   3.5784963887e+00    0.3768782    0.2194416  45.67 0.0003451531    1.670    0.401
        22 -10.3666    245.9207    157.2808   8.4407283795e+01   4.0458164594e+00    0.3621562    0.2860291  53.80  0.001160776    1.586    0.370
        23  -8.1011    167.0548    159.5378   9.8917924550e+01   1.8659299589e+01    0.1748203    0.1694971   8.63  3.67078e-05    1.117    0.105
        24 -10.2511    233.4545    156.4375   8.6258626035e+01   6.4187058181e+00    0.2722713    0.2228848  63.23  0.001627057    1.681    0.405
        25 -10.2208    213.6925    155.2591   8.9392950385e+01   1.0305273057e+01    0.2401638    0.2008182  39.33 0.0005011288    1.151    0.131
        26  -8.2972    195.3403    247.6767   1.0694381901e+02   2.5349653423e+00   0.09969112    0.0699722  57.57  0.000705088    1.724    0.420
        27 -10.4449    248.4176    138.6579   8.0156216993e+01   5.7978954520e+00    0.4219052    0.3451144 -16.74  0.002074837    1.191    0.161
        28  -9.2539    167.7614    114.3491   8.9271968426e+01   2.6235775675e+01    0.3997607    0.3353551   9.15  0.001502365    1.342    0.255
        29  -8.9173    188.6010    139.3112   9.0716661409e+01   1.7638545518e+01    0.3622537    0.2260074  48.19  0.001263695    1.515    0.340
        30 -10.8487     54.6590    148.5578   1.2119400099e+02   3.8606350530e+01    0.3785036    0.3149076  67.53 0.0009112656    1.110    0.099
        31  -9.4514    125.7952    106.4740   9.6930771641e+01   3.6460029682e+01    0.3610395    0.2208091  59.10  0.001623621    1.894    0.472
        32  -7.9079    144.7524    105.4366   9.2172190678e+01   3.2816466193e+01    0.2042515    0.1354201  36.49 0.0009399948    1.612    0.380
        33  -8.7806    153.1488    101.6666   8.9307923654e+01   3.1724641507e+01    0.4729459    0.2476829  38.14  0.001903863    2.108    0.526
        34 -10.1245    187.0413     98.4423   8.1344384520e+01   2.4612428254e+01    0.5749704    0.3561203  34.95  0.002529778    1.749    0.428
        35  -8.3118    130.9959     98.5083   9.3701538785e+01   3.7015029314e+01    0.2311942      0.18694 -44.93 0.0006846131    1.233    0.189
        36  -7.9001    109.1866     99.1733   9.9380374124e+01   4.1076161193e+01    0.1906791    0.1603094  83.30 0.0005015284    1.325    0.245
        37  -8.2059    160.5714     96.2025   8.6232650577e+01   3.1075935511e+01    0.2690364    0.1838273  16.11 0.0006579958    2.070    0.517
        38  -9.9258    166.3109     95.1267   8.4703397602e+01   2.9962629008e+01    0.5589125    0.4829566  15.08   0.00176052    1.243    0.196
        39  -9.6029    172.5470     91.8796   8.2513283362e+01   2.9086853106e+01    0.4754721    0.2810756  29.32  0.001905806    2.185    0.542
        40  -7.5312    197.3243     94.2864   7.8296390881e+01   2.2884480231e+01    0.1536431    0.1105454  20.41 0.0002723776    1.604    0.376
        41  -8.0241    149.2026     93.1701   8.7974311505e+01   3.4173263030e+01    0.1927391    0.1713333 -77.79 0.0002585432    1.279    0.218
        42  -8.0029    137.2441     90.5511   9.0088733478e+01   3.7268055377e+01    0.2884385      0.14412  52.62  0.001135256    2.118    0.528
        43  -9.7671    190.2724    131.3766   8.8670928167e+01   1.8546580874e+01    0.3657603    0.2593177  53.04  0.001056171    1.433    0.302
        44  -9.3456    141.7995     81.5811   8.6481214737e+01   3.7978120257e+01     0.421254    0.2563494  58.92  0.001809828    1.861    0.463
        45  -7.4261     51.2718     80.6957   1.1173675860e+02   5.3614236945e+01    0.1218321   0.08975872  85.74 0.0002332745    1.537    0.349
        46  -8.1883    135.6969    130.2072   9.9835473590e+01   2.9871914072e+01    0.2737074    0.1223382 -55.13  0.001075307    2.637    0.621
        47  -8.8334    160.5550    128.8771   9.4125848905e+01   2.5177080139e+01    0.4917936    0.3237488 -57.66  0.002336804    1.869    0.465
        48  -7.7575    138.9576     66.7326   8.2681796195e+01   4.1335168757e+01    0.2061056    0.1944559  43.27 0.0005253555    1.076    0.070
        49  -9.6232    172.8183     64.4202   7.4497827543e+01   3.3581385832e+01    0.3087989    0.2397797  -2.33 0.0005602039    1.467    0.318
        50  -8.0201    144.2398    148.4404   1.0151816298e+02   2.4862698738e+01    0.1901318    0.1177172  55.16 0.0009365809    1.622    0.384
        51  -9.3211    226.6525    121.9767   7.9965921888e+01   1.2275149077e+01     0.292527    0.1967188  -1.02 0.0008385084    1.692    0.409
        52  -7.4389     49.5626     61.4285   1.0777874862e+02   5.7999879551e+01    0.1255533    0.1072687 -59.55  0.000286461    1.048    0.046
        53  -8.7730    185.8761     59.8508   7.0618219771e+01   3.0993562469e+01    0.2465324    0.2300544  -7.29  0.000373929    1.058    0.055
        54 -10.2605    192.2617     55.6178   6.8207329010e+01   2.9982389139e+01    0.3988865    0.3546813  42.96 0.0005813449    1.121    0.108
        55  -8.2164    187.7115     55.7147   6.9026710811e+01   3.1131125923e+01    0.2346273    0.1828842  -7.65 0.0004631207    1.384    0.277
        56  -8.8615    162.3590     51.7082   7.2565289339e+01   3.8184573686e+01    0.2664095    0.2244014  75.09 0.0009665742    1.330    0.248
        57  -8.9467    157.1964     56.6881   7.5277743417e+01   3.8694348850e+01    0.4024833    0.2098333 -31.59 0.0008227377    1.905    0.475
        58  -9.7053    158.2757     50.4733   7.3000339964e+01   3.9399681821e+01    0.4135661      0.26211 -32.41   0.00106495    1.554    0.356
        59 -10.0178    181.1825     54.3185   6.9765329459e+01   3.3004082203e+01     0.359983     0.249599 -22.05 0.0007355356    1.479    0.324
        60  -9.2036    147.0885     53.7633   7.6539808989e+01   4.1637582056e+01    0.3099961    0.2022729   4.54  0.001244413    2.244    0.554
        61  -8.3067     95.0220     53.0084   9.0135115542e+01   5.3003156577e+01    0.2152009    0.1869604 -42.50 0.0005010762    1.096    0.087
        62  -9.6229    129.0767     50.9626   7.9894593546e+01   4.6335655000e+01    0.2252896    0.2150333 -11.56  0.001249948    1.006    0.006
        63  -8.0358     70.7557    123.1810   1.1405525128e+02   4.1931741143e+01    0.1555296    0.1390901 -50.68 0.0003647134    1.288    0.223
        64  -9.0137    163.3171    122.1103   9.2030311154e+01   2.5809339506e+01    0.1956915    0.1825927 -38.87 0.0004506905    1.123    0.110
        65  -8.0469    132.0909     44.9884   7.7030363607e+01   4.6624481145e+01    0.2745619     0.191554 -26.08 0.0009924724    1.435    0.303
        66 -10.7287    182.2784     39.5912   6.4882292139e+01   3.4771776790e+01    0.4476507    0.2660351 -19.28 0.0007341889    1.787    0.441
        67  -8.8673    134.5421    120.9622   9.8147165005e+01   3.1883919347e+01    0.2960988    0.2369125 -60.30 0.0009300499    1.323    0.244
        68 -10.1025      4.1221    247.9581   1.3593476994e+02   2.6599293734e+01    0.4200913    0.2199546  51.31   0.00365225    1.349    0.259
        69  -8.9955    195.4640     29.4623   5.9587786411e+01   3.2567639825e+01    0.4463572    0.2648071  29.27  0.001847394    2.094    0.522
        70  -8.7005    195.0185     26.0283   5.8567506725e+01   3.3085638980e+01    0.4586907    0.1970003  54.95  0.001314749    2.182    0.542
        71  -8.6955    154.5093     40.2272   7.0285636856e+01   4.1871436818e+01    0.3542233    0.1528629 -25.44  0.001097492    2.446    0.591
        72  -9.2098    133.9927    114.6488   9.6868769257e+01   3.3227419047e+01    0.4913002    0.1955401 -43.97  0.001856254    2.597    0.615
        73  -7.6822    158.6423     40.2405   6.9449977451e+01   4.0818166748e+01    0.2051482    0.1431823 -15.48 0.0006337863    1.537    0.349
        74  -9.1324    132.9763     38.1844   7.4334782455e+01   4.7474806188e+01    0.2952543     0.207597 -29.05 0.0004575486    1.394    0.282
        75  -8.7246    169.9979     32.3301   6.4590148705e+01   3.8940834589e+01    0.2708409    0.2152294  -7.32 0.0004175301    1.330    0.248
        76  -7.4813     56.5126     33.4959   9.6332841519e+01   6.2827728647e+01    0.1293786    0.1094146 -34.30 0.0008105404    1.007    0.007
        77  -7.6894     45.4890     33.4312   1.0068526862e+02   6.4212266138e+01    0.1261588    0.1028612 -36.01 0.0001528973    1.045    0.043
        78  -7.7775     93.6428     32.2038   8.2777190755e+01   5.6960127209e+01    0.1911025    0.1222296 -25.99 0.0005128343    1.538    0.350
        79  -8.4215     84.8327     21.6269   8.1115158505e+01   6.0310947974e+01    0.2426812    0.1752276 -36.25 0.0005640434    1.330    0.248
        80  -8.7055    170.2748     17.9952   5.9592794988e+01   4.0578126477e+01    0.2579143    0.2013098 -72.66 0.0005451599    1.492    0.330
        81  -8.9315     74.9073     17.2596   8.2526183349e+01   6.2770446135e+01    0.2311845    0.1886463 -36.96 0.0003479554    1.249    0.200
        82  -9.1794    151.7041    221.7055   1.1091751253e+02   1.2128212334e+01    0.2030097    0.1601719  42.43 0.0004275578    1.075    0.069
        83  -9.7857    133.8826    108.1511   9.5380277277e+01   3.4527310646e+01    0.6770797    0.2198692 -44.26  0.001597397    3.130    0.680
        84 -12.3570     66.3705    143.2509   1.1794711299e+02   3.8277582088e+01    0.9133992    0.8636544  23.79   0.00406119    1.407    0.289
        85  -9.9676    239.8215    213.3293   9.5315628839e+01  -8.6635395817e-01    0.3967665    0.1215814  37.58  0.001842397    2.607    0.616
        86 -10.5042    245.2967    210.9799   9.4102610074e+01  -1.4848997438e+00    0.3216195    0.2557585 -12.67  0.002424191    1.397    0.284
        87  -7.6880    162.2918    118.3532   9.1381541276e+01   2.6698952160e+01    0.1468185    0.1127031   5.88 0.0007029092    1.679    0.404
        88  -9.9019    123.9949    206.0015   1.1392317888e+02   1.8630707083e+01    0.1636552    0.1286022  54.50   0.00116071    1.017    0.016
