#   1 NUMBER                 Running object number                                     
#   2 MAG_AUTO               Kron-like elliptical aperture magnitude                    [mag]
#   3 X_IMAGE                Object position along x                                    [pixel]
#   4 Y_IMAGE                Object position along y                                    [pixel]
#   5 X_WORLD                Barycenter position along world x axis                     [deg]
#   6 Y_WORLD                Barycenter position along world y axis                     [deg]
#   7 A_WORLD                Profile RMS along major axis (world units)                 [deg]
#   8 B_WORLD                Profile RMS along minor axis (world units)                 [deg]
#   9 THETA_WORLD            Position angle (CCW/world-x)                               [deg]
#  10 FWHM_WORLD             FWHM assuming a gaussian core                              [deg]
#  11 ELONGATION             A_IMAGE/B_IMAGE                                           
#  12 ELLIPTICITY            1 - B_IMAGE/A_IMAGE                                       
         1 -14.4685    153.6125     51.7571   8.8404639586e+01   3.9908314327e+01     1.483929     1.216174  38.61  0.003818451    1.240    0.194
         2 -14.6308    164.8348     35.7744   8.0874432171e+01   3.9296970422e+01     1.283689     1.021282  -3.43  0.004254549    1.383    0.277
         3 -14.0040    178.2619      4.7910   6.8528045295e+01   3.9167147948e+01     1.016074     0.680597  72.81  0.004133679    1.454    0.312
         4  -9.4971      6.9098    248.4965   1.5264013271e+02   2.5195909092e+01     0.106636   0.06743764  43.40 0.0004513272    1.283    0.221
         5 -19.8455     71.4274    168.4233   1.3558106369e+02   3.2218597253e+01     16.15299     6.592614 -69.78   0.07539999    2.683    0.627
         6 -11.1115    220.2427    227.6085   1.1431720066e+02   1.4717287597e+00    0.1607427    0.1238442 -29.67 0.0008921584    1.724    0.420
         7 -10.7045     40.0179    194.5385   1.4456519226e+02   3.0874992227e+01    0.3661694    0.1667171  33.50  0.001465701    2.017    0.504
         8 -10.5668    101.0775    224.3678   1.3493666150e+02   1.8565163801e+01    0.1593996    0.1002485  43.68  0.001073853    1.199    0.166
         9 -13.6742    207.5101    183.5224   1.0962055579e+02   8.1947402792e+00    0.6825874    0.4764986 -48.59  0.001148595    2.151    0.535
        10 -13.0685    210.4942    181.5360   1.0875973099e+02   7.9598761183e+00    0.4177295    0.2963734  -8.49  0.001899819    1.425    0.298
        11 -10.4101     32.4286    188.2714   1.4574314804e+02   3.2799683741e+01    0.2014025    0.1592167 -70.29 0.0006532745    1.471    0.320
        12 -12.7682     28.1628    183.8021   1.4637410220e+02   3.4054370282e+01    0.2800294    0.2063372  61.93 0.0008297486    1.046    0.044
        13  -9.9482      3.4655    189.2191   1.5161742660e+02   3.5207120042e+01    0.1368868   0.07085934  72.56 0.0004159792    1.541    0.351
        14 -10.5590    125.8202    186.7093   1.2587895747e+02   2.1003428578e+01     0.368162    0.1933171  64.76 0.0009896583    3.392    0.705
        15 -11.1044    157.6640    184.5865   1.1910206532e+02   1.6230693295e+01     0.203322    0.1599878 -48.17    0.0005918    1.551    0.355
        16 -10.6686    110.1234    222.9029   1.3311239523e+02   1.7577356985e+01    0.1609211    0.1152635  52.65 0.0004195952    1.198    0.165
        17 -12.0678    197.6786    176.2360   1.1010658128e+02   1.0740249093e+01     0.377609    0.3073144 -50.17  0.001449042    1.728    0.421
        18 -12.5251    178.9293    174.6255   1.1332324892e+02   1.4138095348e+01     0.454943    0.3104092 -20.33  0.002264377    1.708    0.414
        19 -10.8014    177.4764    169.4889   1.1270694364e+02   1.5141908482e+01    0.1696756    0.1247051 -48.42  0.000974526    1.709    0.415
        20 -10.7470     20.6813    219.1443   1.4944977756e+02   2.8507418422e+01    0.1566412   0.08990309  48.93 0.0006603535    1.261    0.207
        21  -9.6789     22.8674    239.7957   1.4980659590e+02   2.5045238243e+01    0.1197281   0.06870651  55.70 0.0002588411    1.194    0.162
        22 -12.5195    146.4529    170.4899   1.1915096295e+02   2.0352812102e+01    0.5362643      0.39073  87.19  0.002815292    2.238    0.553
        23 -11.4257    137.7051    171.5952   1.2117667910e+02   2.1643244512e+01    0.3317984    0.2370069  73.02  0.001784825    1.954    0.488
        24 -11.0430    205.8650    170.4094   1.0759503236e+02   1.0132171041e+01    0.4796644    0.2299354  22.48  0.002053353    2.797    0.643
        25 -11.6423    226.6411    168.3120   1.0364613058e+02   6.9500126928e+00    0.4624708    0.2864711 -55.28  0.002093623    3.838    0.739
        26 -12.1119    229.9811    166.0203   1.0266946500e+02   6.6803583973e+00    0.2740182    0.1706068 -32.48  0.001601231    1.719    0.418
        27 -10.2571    139.4157    216.6430   1.2695804659e+02   1.4363115370e+01    0.2487558    0.1587872  77.62  0.001316233    3.047    0.672
        28 -11.6643    112.9398    169.0486   1.2620100541e+02   2.6126664230e+01    0.2716131    0.2089061  61.44 0.0004458536    1.302    0.232
        29 -11.0288     35.0636    168.3519   1.4389680857e+02   3.6392769593e+01    0.2276749    0.1397354  62.96 0.0008789925    1.390    0.280
        30 -10.2511    123.9223    166.8949   1.2343831630e+02   2.4755900850e+01    0.2008631    0.1428097  66.17 0.0006075114    1.655    0.396
        31 -11.0707    200.0244    164.0437   1.0746861346e+02   1.1984153504e+01    0.2905117     0.268962  51.59  0.001437101    1.390    0.280
        32 -10.2109    164.2990    250.3376   1.2633286405e+02   6.7020392793e+00    0.1023081   0.06646814  16.46 0.0007034055    1.659    0.397
        33 -10.6570     15.3531    156.9257   1.4767743822e+02   4.0516842738e+01     0.182454     0.154398  34.49 0.0006101777    1.378    0.274
        34 -13.3891    133.9645    145.5421   1.1754581080e+02   2.6973243067e+01      1.11088     0.320521 -54.53  0.003294276    5.199    0.808
        35 -10.8095    174.3295    148.2515   1.0934260660e+02   1.8992990103e+01     0.310364    0.2392019 -57.96  0.001457498    1.727    0.421
        36 -13.7864    143.9425    143.8113   1.1494782549e+02   2.5464567244e+01    0.9263279    0.5843348 -72.21  0.003963271    2.811    0.644
        37 -13.5739    135.7312    126.5563   1.1333051502e+02   3.0272243032e+01      1.58407    0.2952607 -49.65  0.003721578    7.096    0.859
        38 -10.1021    113.4055    212.5349   1.3144740569e+02   1.8688455163e+01    0.1116113   0.09223535  33.77 -9.120441e-05    1.180    0.153
        39 -12.5328     28.8874    139.6669   1.4316145920e+02   4.2999644879e+01    0.2464776    0.2092489  20.84  0.001458183    1.469    0.319
        40 -10.3757     13.1883    211.8607   1.5054127976e+02   3.0401122334e+01    0.1102112   0.09615575  71.89 0.0009660138    1.307    0.235
        41 -10.0031    177.4805    143.9803   1.0784606700e+02   1.9079483880e+01    0.1706211    0.1202819 -65.11  0.000532589    2.309    0.567
        42 -12.2429      7.9427    139.4246   1.4846610861e+02   4.4768138299e+01    0.3534491    0.2263484  18.42  0.002262873    1.970    0.492
        43 -11.5582     21.5675    234.6154   1.4984914252e+02   2.5957928118e+01    0.1286588    0.1050499  57.83 0.0004296507    1.243    0.195
        44 -11.7430    160.4250    128.5770   1.0813538325e+02   2.5014758019e+01    0.4041933     0.313436 -23.35  0.002141996    1.411    0.291
        45 -11.1481     18.4435    128.9255   1.4503190967e+02   4.6261191034e+01    0.2193584    0.1685295 -50.83  0.001328668    1.537    0.350
        46 -11.0580    239.1900    126.8269   9.3269689549e+01   9.8946183854e+00    0.1835827     0.133626   8.25 0.0005015695    1.314    0.239
        47 -12.0415      4.6805    120.0978   1.4814857848e+02   4.9214750365e+01    0.3735272    0.2170986  16.51   0.00224048    2.181    0.541
        48 -12.5891    153.5108    145.8327   1.1322797737e+02   2.3316443509e+01    0.4092993    0.3015514  54.32  0.002194345    1.433    0.302
        49 -10.0839     30.9801    204.8285   1.4691803819e+02   2.9952911762e+01    0.1342794    0.1132425  43.44 0.0004947406    1.313    0.238
        50 -12.0782    134.5361    104.5928   1.0852588322e+02   3.4819040324e+01    0.6331131    0.2026108 -45.35  0.002061085    3.223    0.690
        51 -11.8455    110.1615    231.6082   1.3391711446e+02   1.6313800837e+01    0.3375932    0.2220455 -82.25  0.002294208    2.143    0.533
        52 -11.7647      4.5795    112.1318   1.4763844041e+02   5.1007025911e+01    0.3399208    0.2216295  -6.66  0.002057206    2.274    0.560
        53 -10.2823    167.3077    112.6187   1.0295470484e+02   2.6390231512e+01    0.1468647    0.1163467 -76.64 0.0007023975    1.792    0.442
        54 -10.8858    124.7600    228.4089   1.3095072899e+02   1.4794073614e+01    0.2830471    0.1826924  67.74 0.0009739074    2.040    0.510
        55 -10.8557    205.4663    110.1683   9.4970240843e+01   1.8694806640e+01    0.3021804    0.1900634  38.70 0.0009607124    1.577    0.366
        56 -10.2095     13.7527    110.0593   1.4477891378e+02   5.0873484321e+01    0.1611385    0.1327443 -86.21 0.0003687653    1.044    0.042
        57 -10.4733     18.7455    108.8192   1.4316267314e+02   5.0793281417e+01    0.1762068    0.1651037 -13.60  0.000748908    1.367    0.269
        58 -11.0420    140.4391    249.6426   1.3028127402e+02   9.9495353126e+00     0.187263    0.1450521  60.59  0.000513404    1.509    0.337
        59 -10.3036    155.9616    105.2361   1.0360776779e+02   3.0142412039e+01    0.2194959    0.1950471  74.14 0.0007408976    1.299    0.230
        60 -11.1059    124.4592     94.7882   1.0858548497e+02   3.8868300588e+01    0.2610939    0.2038734  45.27 0.0003991821    1.268    0.211
        61 -12.0634    135.3298    195.7838   1.2515244552e+02   1.8065654649e+01    0.2626639    0.1931494  74.87 0.0008366238    1.851    0.460
        62 -10.3657     12.4735    248.9857   1.5177160286e+02   2.4635246050e+01     0.152553   0.08353947 -68.79 0.0006792907    2.347    0.574
        63 -12.2509     13.6874    243.7067   1.5143520145e+02   2.5302227402e+01    0.2096749    0.0965225 -77.93  0.001518924    2.360    0.576
        64 -12.9050    168.2845     28.6529   7.7889444609e+01   3.9288717366e+01    0.4534097    0.3716131  -9.69   0.00105567    1.292    0.226
        65 -10.5888     13.6492     60.0269   1.3856107559e+02   6.2584373045e+01    0.1810457    0.1593805  69.06 0.0004117458    1.240    0.194
        66 -10.6554    144.5462     33.9792   8.4057442245e+01   4.4822055124e+01    0.2732548     0.209443  83.72 0.0006528556    1.525    0.344
        67 -10.7845    189.5240     14.9605   7.0526955581e+01   3.5236307144e+01    0.2138193    0.1377347 -22.42 0.0006348545    1.554    0.357
