#   1 NUMBER                 Running object number                                     
#   2 MAG_AUTO               Kron-like elliptical aperture magnitude                    [mag]
#   3 X_IMAGE                Object position along x                                    [pixel]
#   4 Y_IMAGE                Object position along y                                    [pixel]
#   5 X_WORLD                Barycenter position along world x axis                     [deg]
#   6 Y_WORLD                Barycenter position along world y axis                     [deg]
#   7 A_WORLD                Profile RMS along major axis (world units)                 [deg]
#   8 B_WORLD                Profile RMS along minor axis (world units)                 [deg]
#   9 THETA_WORLD            Position angle (CCW/world-x)                               [deg]
#  10 FWHM_WORLD             FWHM assuming a gaussian core                              [deg]
#  11 ELONGATION             A_IMAGE/B_IMAGE                                           
#  12 ELLIPTICITY            1 - B_IMAGE/A_IMAGE                                       
         1 -14.4688    141.5977     62.5821   5.8961286457e+01   4.1351261807e+01     1.462571     1.151564 -18.13  0.005819798    1.456    0.313
         2 -17.2290    122.0054     43.0973   5.7195251132e+01   4.8995837302e+01     5.021826      2.45173 -37.80   0.01755023    2.146    0.534
         3 -13.2746     62.2955     40.3978   7.4886056480e+01   6.1532772505e+01     1.107795    0.7428638 -11.71  0.004698243    1.608    0.378
         4 -14.9751      7.8028      6.5413   8.6076340288e+01   7.3482119421e+01     3.010006     1.591533 -29.88   0.01879155    1.547    0.354
         5 -15.5969     97.8459     12.2610   5.1771042694e+01   5.8121079613e+01     1.681078     1.461369 -56.85  0.007721024    1.445    0.308
         6 -14.0499    218.2754     34.6100   3.9167586215e+01   2.6971954153e+01    0.8381304    0.6212284  73.40  0.004994517    1.319    0.242
         7 -15.2019     21.1475     18.3181   8.4198297001e+01   7.0465394593e+01     2.619152     1.269893 -17.88  0.009146512    2.453    0.592
         8 -13.6009    242.8586     11.6334   3.2099410082e+01   2.4454031005e+01    0.6573687    0.4391553 -62.29  0.002645427    1.206    0.171
         9 -16.7796     10.3851    195.4325   1.2217719201e+02   3.1493904897e+01     1.265329    0.9724644 -86.16  0.004337124    1.124    0.110
        10 -13.3179    229.1036    244.7620   8.2092876137e+01  -9.1930634357e+00    0.6770734    0.5364446 -29.84  0.003791315    1.466    0.318
        11 -12.2432     85.3784    249.7877   1.1115139156e+02   1.1112000107e+01    0.2769452    0.2485833  54.57  0.001958254    1.151    0.131
        12 -13.8924     62.5501    249.4029   1.1558697753e+02   1.4260900034e+01    0.8115628     0.231898  40.13  0.001893245    2.655    0.623
        13 -14.0348     10.4108    116.3545   1.1467611632e+02   5.0498083813e+01     1.615372    0.7400351 -44.25   0.00770444    2.175    0.540
        14 -16.2315     32.6694    190.0048   1.1681128534e+02   3.0549060254e+01      3.31207     1.142246 -81.45   0.01254636    3.240    0.691
        15 -17.2901     80.7694    153.4832   9.9631559820e+01   3.3344764076e+01     9.765738     4.390045  59.93   0.02999648    4.054    0.753
        16 -14.7511     30.0709    231.4895   1.2056697610e+02   2.1718806551e+01     2.006587    0.6756882  47.79  0.009717636    2.327    0.570
        17 -17.5807     62.1709    193.0129   1.1021350177e+02   2.6305291210e+01     4.474358     2.350149 -74.13   0.02106087    1.907    0.476
        18 -17.1466     90.4808    191.8400   1.0324261547e+02   2.2497947809e+01     3.331142      2.00042  65.65   0.01291398    2.004    0.501
        19 -14.1032     17.1776    249.4461   1.2398297932e+02   1.9572987121e+01    0.6040896    0.4203855  53.62  0.002645639    1.191    0.160
        20 -12.8955     13.0000    247.9471   1.2464368168e+02   2.0289760176e+01    0.3550779    0.1277465 -84.78  0.001816585    2.664    0.625
        21 -11.1059      1.8686    250.7570   1.2668282804e+02   2.0865811749e+01    0.1750152   0.06311884  41.07 0.0009664549    2.180    0.541
        22 -16.8284     49.6572    103.7437   9.9361259178e+01   5.0081269061e+01     4.911617     3.277358 -44.86   0.01551721    1.375    0.273
        23 -15.3861     53.6236    234.0624   1.1610580988e+02   1.8408235251e+01     1.169482    0.7551088  73.62  0.004217383    1.428    0.300
        24 -11.2081      9.7758    153.0588   1.1896798249e+02   4.1533756675e+01    0.6283091    0.3152025 -82.09  0.002890853    1.709    0.415
        25 -14.3107      5.3849    167.1572   1.2126303635e+02   3.8475925070e+01    0.9120088    0.5858411  81.22   0.00435488    1.343    0.256
        26 -14.4094     19.8346    165.5094   1.1759725717e+02   3.7670313270e+01    0.9730158    0.5403191 -78.44  0.003193142    1.529    0.346
        27 -12.6046    143.9172    142.3715   8.0311523424e+01   2.4418841071e+01    0.8101514    0.4131658 -42.99  0.002974593    1.973    0.493
        28 -12.0818    131.1701    141.9539   8.3471037991e+01   2.7125901167e+01     1.956252    0.7616991  50.78  0.006076649    3.177    0.685
        29 -13.4052    138.7593    136.7395   8.0291598908e+01   2.6782604868e+01    0.9168732    0.8364124  70.44  0.003345226    1.181    0.153
        30 -11.5551     43.4993    144.3001   1.0870222291e+02   4.0604604829e+01    0.3675292    0.2289019 -64.35  0.001016419    1.401    0.286
        31 -11.9713    106.1637    126.8155   8.6789138521e+01   3.5649702920e+01    0.6444015    0.6032396 -18.05  0.002258194    1.134    0.118
        32  -9.9770    105.0962    120.2094   8.5490124404e+01   3.7443170798e+01    0.2046666    0.1795963  82.79 0.0003839737    1.295    0.228
        33 -11.6213    164.7141    124.4160   7.0970182521e+01   2.3917901311e+01    0.2773371    0.2656092 -53.07  0.001457024    1.041    0.039
        34 -11.0954    168.3349    113.0854   6.7275903693e+01   2.5477571302e+01    0.3106098    0.2387055  59.20  0.001162304    1.404    0.288
        35 -12.0292    136.8984    110.5681   7.4145571950e+01   3.3096978581e+01    0.9358656    0.5016605  44.18  0.003658143    1.898    0.473
        36 -11.9256    136.0146    105.2210   7.2921509137e+01   3.4456175628e+01    0.4107051    0.3619281  70.40  0.002044758    1.246    0.197
        37 -10.6532     97.6018    112.3894   8.5754263036e+01   4.0709209894e+01    0.3069705    0.1946303  35.74  0.001335108    1.661    0.398
        38 -12.4331    204.4587    110.5502   5.9452417204e+01   1.7916990245e+01    0.4158812    0.2930402  46.70  0.001892194    1.540    0.351
        39 -13.6781    186.7444    103.5376   6.1005079687e+01   2.3177158737e+01    0.9930096    0.5545792 -31.40  0.004012793    1.956    0.489
        40 -14.4608    184.3806     80.6643   5.5493600225e+01   2.7924599490e+01     1.337876    0.7526869 -41.79  0.005426155    1.700    0.412
        41 -11.8432    217.2054    106.3746   5.6281515934e+01   1.5964766558e+01    0.4147079     0.306827 -82.30   0.00182501    1.772    0.436
        42 -12.3718    174.0663    103.8502   6.3640281702e+01   2.6025011178e+01    0.7149195    0.3504719  56.52  0.002688236    2.268    0.559
        43 -11.2232    121.9828    103.5084   7.6223562832e+01   3.7890641058e+01    0.4554598    0.3095082 -37.30  0.002004009    1.506    0.336
        44 -11.1340    120.7111     98.8446   7.5266108379e+01   3.9181962449e+01    0.8524661    0.3163085  40.36  0.002749672    2.894    0.654
        45 -14.1210    200.3387     82.9015   5.3325361040e+01   2.3813015641e+01     1.030381    0.6646302 -58.89  0.004624979    1.673    0.402
        46 -13.2158    208.8385     97.9272   5.5638515251e+01   1.9269977082e+01    0.6997357    0.3958103 -52.76  0.003047507    1.837    0.456
        47 -12.6239    207.1093     90.3201   5.4065366010e+01   2.0996234279e+01    0.4047264    0.3244127 -32.60  0.001805921    1.258    0.205
        48 -12.4607     10.6081     95.1153   1.1142521347e+02   5.5618763350e+01    0.5101163    0.3298191 -86.34  0.001400623    1.657    0.396
        49 -13.4908     20.5930     93.8602   1.0762180887e+02   5.5244515729e+01    0.8671556     0.409606 -69.02  0.003948972    1.944    0.486
        50 -14.4997     13.6891     86.2419   1.0870358452e+02   5.7516460141e+01    0.9573193    0.8438547  68.34  0.003325339    1.375    0.273
        51 -12.0802    103.3530     77.9751   7.4076481959e+01   4.7178892404e+01    0.9311795    0.3004301 -37.50  0.002842345    3.495    0.714
        52 -14.3725    114.8824    246.3252   1.0483209713e+02   7.4503542277e+00    0.7609825    0.4227788  26.97   0.00382533    1.978    0.494
        53 -13.4532     95.3731    245.2359   1.0869119542e+02   1.0535233599e+01    0.5874103    0.1944163  32.47  0.002267457    3.201    0.688
        54 -13.8944     56.6114     59.2148   8.4203028299e+01   5.9064807621e+01    0.9153243     0.669446 -26.78  0.002545911    1.277    0.217
        55 -14.2627     84.4195    234.9646   1.0987736335e+02   1.4088154461e+01    0.7962959    0.6372069  76.73  0.003442638    1.207    0.171
        56 -14.4546      4.7691    237.1328   1.2559098736e+02   2.3198553597e+01    0.5152066    0.2751326  60.88  0.002165894    1.438    0.305
        57 -16.2199      6.0163    215.8095   1.2429315490e+02   2.7436443432e+01     1.692728    0.6565858  76.96  0.008048228    2.566    0.610
        58 -16.2991     18.8772    212.3016   1.2152764370e+02   2.6948485934e+01     1.516949    0.7331147  57.32  0.008288915    1.793    0.442
        59 -13.7300    224.5222     28.1004   3.7074273720e+01   2.6407369562e+01    0.6982982    0.4236036  54.72  0.001958017    1.909    0.476
        60 -11.4159     87.2806    224.9791   1.0819224589e+02   1.5696059709e+01    0.2985272    0.2089739  85.89  0.001163634    1.568    0.362
