#   1 NUMBER                 Running object number                                     
#   2 MAG_AUTO               Kron-like elliptical aperture magnitude                    [mag]
#   3 X_IMAGE                Object position along x                                    [pixel]
#   4 Y_IMAGE                Object position along y                                    [pixel]
#   5 X_WORLD                Barycenter position along world x axis                     [deg]
#   6 Y_WORLD                Barycenter position along world y axis                     [deg]
#   7 A_WORLD                Profile RMS along major axis (world units)                 [deg]
#   8 B_WORLD                Profile RMS along minor axis (world units)                 [deg]
#   9 THETA_WORLD            Position angle (CCW/world-x)                               [deg]
#  10 FWHM_WORLD             FWHM assuming a gaussian core                              [deg]
#  11 ELONGATION             A_IMAGE/B_IMAGE                                           
#  12 ELLIPTICITY            1 - B_IMAGE/A_IMAGE                                       
         1 -15.1301    233.5760    101.1670   4.1205183160e+01   1.5046957870e+01     2.606714    0.7223905 -52.95  0.006578488    6.655    0.850
         2 -17.7971    245.8697     84.5708   3.6356363570e+01   1.5511307474e+01     8.287275     7.593611  71.19   0.03842925    1.291    0.225
         3 -16.4605    248.4376     59.8554   3.1371370067e+01   1.8711250998e+01     4.327138     1.464027 -55.93   0.01773458    3.285    0.696
         4 -12.5586    249.5454     15.7735   2.3343151152e+01   2.4093999926e+01    0.2294958    0.1829123  85.85 0.0007609549    1.275    0.216
         5  -9.6050    221.0317     14.7239   2.5246648526e+01   2.9644172054e+01    0.1838333     0.140219  58.31 0.0009015051    1.589    0.371
         6 -11.0546    118.8765      2.8790   3.4486982454e+01   5.3141942363e+01    0.6499554    0.1863305  65.61  0.002569734    2.921    0.658
         7 -10.1339    115.9624     12.5229   3.8040255556e+01   5.2993280008e+01    0.2868496    0.2134721  53.78   0.00151046    1.115    0.103
         8 -11.5522    120.3077      8.9614   3.6104468150e+01   5.2328622015e+01    0.4332703    0.3623427  71.76 0.0009739221    1.117    0.105
         9  -7.6909    231.1169      9.0000   2.3411821541e+01   2.8282502885e+01    0.2150036    0.1137107  63.94 0.0009634251    1.939    0.484
        10 -10.0931    232.9579      3.3205   2.2261521514e+01   2.8522968143e+01    0.9150686    0.2228547  60.34  0.003927011    4.244    0.764
        11 -10.2458    235.3660      7.2603   2.2803880958e+01   2.7654743685e+01    0.1620138    0.1367671 -84.79 0.0005334086    1.222    0.182
        12 -10.9193    238.8049      5.4283   2.2252264325e+01   2.7199466486e+01     0.458578    0.1416205  58.31   0.00212253    3.876    0.742
        13 -10.5553    211.8848      6.2638   2.4336959819e+01   3.2378849095e+01    0.1768375    0.1462033 -87.81 0.0003910289    1.122    0.109
        14  -8.5076    104.3620    157.8530   8.2157631005e+01   2.8430903201e+01    0.2158711    0.1368881 -43.07 0.0001216549    1.594    0.373
        15 -11.9992    192.5925    194.3844   6.7720085587e+01   4.6865684001e+00     1.177117    0.6299556 -64.15   0.00369554    4.989    0.800
        16 -10.4389    191.5996    247.7203   7.7343353485e+01  -4.7486201170e+00    0.2401472    0.2047964  -7.56  0.000483296    1.130    0.115
        17 -14.8162    228.1474     79.8432   3.7551673175e+01   1.9529004906e+01     1.425816     0.737278  64.09  0.003552926    2.151    0.535
        18  -9.5201    157.9924    246.5080   8.4291824196e+01   1.3842598626e-01    0.2135775    0.1665422 -22.41 0.0005108722    1.325    0.245
        19 -13.7489     16.1013    138.7858   1.0567507502e+02   4.4409015700e+01     1.256533     1.071431 -26.68  0.004015845    1.283    0.221
        20 -12.0837      4.4158    149.9501   1.1041056413e+02   4.2381253921e+01     1.087561    0.5110883 -87.67  0.004871985    2.207    0.547
        21 -11.8828      2.2229    134.9993   1.0944090340e+02   4.6250388199e+01     1.269818    0.2269111 -70.45  0.004003941    4.048    0.753
        22 -10.1204    165.8482    150.8185   6.4592609745e+01   1.8531404866e+01     0.268069    0.2216482 -56.46 0.0006785187    1.295    0.228
        23 -11.2074    133.6182    143.8539   7.1007378957e+01   2.6438003176e+01     1.353984    0.3588094 -54.42  0.003080027    5.774    0.827
        24 -14.3488     56.2679    129.5979   9.1224368027e+01   4.2850023470e+01     2.901445      1.48307  21.75  0.008099948    2.215    0.549
        25 -11.3042    159.9006    143.2021   6.4261037600e+01   2.1371746118e+01    0.5070999    0.3593942  53.71  0.002017253    1.608    0.378
        26 -11.7955     67.7618    143.9397   9.0335010382e+01   3.7678886658e+01     1.162177    0.7266806  58.19  0.004139461    2.096    0.523
        27 -12.1296     44.3409    132.3391   9.5675369274e+01   4.3531096918e+01    0.5271757    0.4059437  14.81 0.0009713141    1.440    0.305
        28 -10.1786    188.7492    137.4303   5.6619938531e+01   1.6874339864e+01    0.3342348    0.2714832  55.39   0.00135138    1.390    0.281
        29 -10.3531    191.6320    134.3039   5.5343962225e+01   1.6940857707e+01    0.3762954    0.3171788 -54.19 0.0008817195    1.195    0.164
        30  -9.3448     94.8292    120.4833   7.6615795897e+01   3.9290380735e+01    0.2863741    0.2137569 -47.57 0.0005803861    1.308    0.236
        31 -10.2068     75.0728    105.7230   7.9366151864e+01   4.6056048527e+01    0.2532842     0.215652 -39.76 0.0002384661    1.118    0.105
        32 -11.0468    126.3409     90.7483   5.9397093841e+01   3.9533081715e+01    0.5416753    0.2654021 -41.39  0.001962616    2.086    0.521
        33 -10.8259    158.0358     88.2893   5.1152611143e+01   3.2978774598e+01    0.4284844    0.1974469 -38.06  0.001676141    2.242    0.554
        34  -8.2478    177.5994    192.3130   7.0564354179e+01   7.5573536468e+00    0.1433967    0.1166178  72.40 0.0001538974    1.866    0.464
        35  -9.2121    203.9790    188.9564   6.4320255635e+01   3.9200114721e+00    0.1994208    0.1775034 -87.47 0.0008737167    1.676    0.403
        36  -8.8116    172.9162    187.9532   7.0762264512e+01   9.2502562588e+00    0.2120117    0.1818627  75.10 0.0006152081    1.633    0.388
        37  -8.7701     14.8588    188.0812   1.1124208687e+02   3.2124151416e+01    0.1861857     0.146947  72.57  0.000285477    1.170    0.145
        38 -12.2239    139.0577     79.4358   5.3030301947e+01   3.8829991568e+01    0.6350094    0.5506769 -38.92  0.002147724    1.194    0.163
        39 -10.6656    232.0923    185.9567   5.8409760146e+01   2.3601289810e-01    0.3444648    0.2385592  52.81  0.001841996    2.166    0.538
        40 -10.4273    156.8506     79.6778   4.9144914939e+01   3.4769157347e+01    0.2728792    0.2036838 -48.56 0.0007903968    1.369    0.269
        41  -9.4475    103.9022     73.9441   6.0792009989e+01   4.7416146907e+01    0.2538338    0.2040174  37.42  0.000714516    1.179    0.152
        42  -9.6331    111.1767     72.1721   5.8131725597e+01   4.6217817259e+01    0.3037592    0.1956423 -42.02 0.0009905309    1.643    0.391
        43  -9.9487    106.1448     67.9360   5.8268648677e+01   4.8007755211e+01     0.417861    0.1787989 -33.46  0.001578407    2.670    0.625
        44  -9.7304    181.1696    184.8697   6.8312872344e+01   8.4779253526e+00    0.3966949    0.1907135 -45.42  0.001386408    2.023    0.506
        45  -9.3858    124.0000     64.4173   5.2360063463e+01   4.4733419219e+01    0.2954373   0.08214051 -37.07 0.0009224908    3.837    0.739
        46  -9.4033    181.2178     61.4986   4.0080008598e+01   3.2177620715e+01    0.2999997    0.2221729  17.43  0.001511445    2.142    0.533
        47  -8.7487     89.8866     59.1513   6.0405881478e+01   5.2762458552e+01    0.1877271    0.1508056   8.74 0.0003003766    1.272    0.214
        48  -9.8592    159.8009    242.3332   8.3260267904e+01   6.2550946688e-01    0.2385196    0.1995639  12.08  0.000567527    1.032    0.031
        49  -8.3626     72.5906     58.4744   6.6096017202e+01   5.6064466600e+01    0.1367419    0.1212602   5.60 0.0001991735    1.030    0.029
        50 -10.0251    112.5844     51.8349   5.1404502576e+01   4.9172902132e+01    0.3393633    0.1751613  47.07 0.0004546121    1.745    0.427
        51 -10.8743    177.6358    169.7647   6.6012103172e+01   1.2244023372e+01    0.2861183    0.2356746 -59.63  0.001265305    1.410    0.291
        52 -10.4498    121.7056     49.9290   4.8521964871e+01   4.7426566611e+01    0.1878218    0.1830143 -10.77 0.0006118526    1.116    0.104
        53 -10.9336    170.7154     42.2486   3.6966306438e+01   3.7225174178e+01    0.5468683    0.2374312  73.35  0.002200507    2.727    0.633
        54 -11.9730    185.5896    166.3049   6.3553144529e+01   1.1533502098e+01    0.6457159    0.4281818 -51.27  0.002329981    1.585    0.369
        55  -9.4494    182.4288    159.9617   6.2886943904e+01   1.3428400715e+01     0.290534    0.2078179  50.13  0.001009396    1.612    0.380
        56 -10.2968    204.6947    201.0025   6.6486569022e+01   1.5486901854e+00    0.2651845    0.1802639   0.73  0.001352741    1.635    0.388
        57 -10.5571    168.9304     32.0324   3.4678996685e+01   3.8889724198e+01    0.3856356    0.3487993 -22.69  0.002530976    1.360    0.265
        58 -11.9094    124.2630     32.7425   4.2650728409e+01   4.9051760046e+01    0.3902894    0.3340507 -50.27   0.00240425    1.337    0.252
        59  -9.8575    160.9305    164.3509   6.8700825857e+01   1.6493696337e+01    0.2663151    0.2082106 -36.30 0.0003784302    1.241    0.194
        60  -9.2782    198.4899     26.7067   2.9793349711e+01   3.2966883417e+01    0.3309149    0.1757943  59.55  0.001799605    1.831    0.454
        61 -10.3858    179.3717     24.0416   3.1372906280e+01   3.7450947574e+01    0.4377317    0.3202972  81.24  0.002719757    1.197    0.164
        62  -8.7911    187.4106     24.2539   3.0474321173e+01   3.5649843951e+01     0.169604    0.1327561  36.13  0.001044945    1.744    0.427
        63  -9.0990    158.1956     24.1388   3.4218619420e+01   4.2228142366e+01    0.1860242    0.1579918  53.92 0.0004788107    1.207    0.172
        64  -9.3838    207.2579    161.9601   5.8241481345e+01   8.5942698824e+00    0.2121427    0.1945357  11.87  0.000486624    1.146    0.127
        65  -8.7866    195.8811     18.6557   2.8325268881e+01   3.4429268998e+01    0.2253205    0.1620599  42.92  0.001380807    1.867    0.465
        66 -10.1962    127.7104    229.6947   8.8621712922e+01   7.8798180670e+00    0.2490556    0.2337022 -21.86   0.00047501    1.128    0.113
        67 -10.0058    200.5121    197.4818   6.6669121971e+01   2.8451733048e+00    0.1405809    0.1206029 -12.37 1.342037e-05    1.008    0.008
        68  -8.9809    171.0211    159.7825   6.5375320079e+01   1.5595566208e+01    0.2039413    0.1913859   5.98 0.0002277225    1.061    0.057
        69  -9.4976    159.8890    158.8365   6.7759171454e+01   1.7914056900e+01    0.2461612    0.2061135  -8.24 0.0007815317    1.288    0.223
        70  -8.6919    217.7593    225.2256   6.8310507640e+01  -4.5327933673e+00    0.2159004    0.1262914  -8.22  0.001069452    1.963    0.491
        71  -8.8232    238.7483    223.4100   6.4069578828e+01  -6.8886729073e+00    0.1620779    0.1026293  12.18 0.0009387161    1.561    0.359
        72  -9.1013     33.6644    218.6663   1.0943304781e+02   2.3036745483e+01     0.125162   0.09334887 -39.15  0.000705214    1.739    0.425
        73  -8.8597    150.9920    216.7467   8.1114526032e+01   6.9001894052e+00    0.1916018    0.1700606  18.98 0.0002531589    1.045    0.043
        74 -10.3593    239.4238    212.6271   6.2037437357e+01  -5.2567073887e+00    0.2435557     0.212255 -18.93 0.0006239119    1.235    0.190
        75  -9.0931    248.3204    211.6463   6.0305781181e+01  -6.1922295186e+00    0.2584428    0.1421036  22.28  0.001418808    1.973    0.493
        76 -10.8135    234.2177    211.0346   6.2686753528e+01  -4.3352483451e+00    0.4240035    0.2053486 -37.97  0.002131906    1.798    0.444
        77  -8.6893    225.2993    205.9659   6.3405764951e+01  -2.2981305753e+00    0.1790592    0.1428172 -24.09 0.0003086521    1.085    0.079
        78  -9.7399     11.3978    203.6440   1.1329821242e+02   2.8695277790e+01    0.2435257    0.1801173 -67.54    0.0015089    1.301    0.231
