#   1 NUMBER                 Running object number                                     
#   2 MAG_AUTO               Kron-like elliptical aperture magnitude                    [mag]
#   3 X_IMAGE                Object position along x                                    [pixel]
#   4 Y_IMAGE                Object position along y                                    [pixel]
#   5 X_WORLD                Barycenter position along world x axis                     [deg]
#   6 Y_WORLD                Barycenter position along world y axis                     [deg]
#   7 A_WORLD                Profile RMS along major axis (world units)                 [deg]
#   8 B_WORLD                Profile RMS along minor axis (world units)                 [deg]
#   9 THETA_WORLD            Position angle (CCW/world-x)                               [deg]
#  10 FWHM_WORLD             FWHM assuming a gaussian core                              [deg]
#  11 ELONGATION             A_IMAGE/B_IMAGE                                           
#  12 ELLIPTICITY            1 - B_IMAGE/A_IMAGE                                       
         1 -14.1274    223.7645     36.3768   3.2101832373e+01   2.6269608151e+01     1.844496     1.146832  39.76    0.0093557    2.501    0.600
         2 -13.2260      3.9740      6.9871   8.1870869034e+01   7.2935761766e+01     1.116436    0.5748886 -35.57  0.007122354    1.571    0.363
         3 -13.1899    248.1809     15.4698   2.5670629476e+01   2.3784404265e+01    0.6565496    0.3645943 -45.69  0.003253409    1.544    0.352
         4 -10.7212    189.6226     15.1236   3.0888911348e+01   3.6436882758e+01    0.2493195    0.2187927 -43.46  0.000823067    1.266    0.210
         5 -10.2757     56.4157      2.4898   5.4158321234e+01   6.6812033124e+01    0.2419755    0.1003402  47.11  0.001130676    2.144    0.533
         6  -9.7001     24.1560    231.7753   1.1462907423e+02   2.2088364524e+01    0.2694918    0.1502543  35.28  0.001599965    1.810    0.447
         7 -12.6336     48.9046    177.0472   1.0430982831e+02   3.1760595821e+01     1.024897    0.6162977 -24.41  0.001644911    3.005    0.667
         8 -11.8835     55.7799    171.2273   1.0182116366e+02   3.2371477591e+01    0.3362326    0.2720273 -47.73 0.0006962843    1.343    0.255
         9 -14.9897    106.0516    229.1853   9.7377121330e+01   1.2039296232e+01     8.273727     1.565436  41.40   0.02572837    4.143    0.759
        10 -10.3454    183.9421    216.1781   7.8473110076e+01   2.0269159056e+00    0.2061719    0.1858181  47.97  0.001247196    1.322    0.243
        11  -9.7520     68.8791    208.3421   1.0318353164e+02   2.1865208022e+01    0.2154754    0.1609408 -89.94 0.0005422551    1.312    0.238
        12 -14.6772     38.2119    248.2709   1.1304166589e+02   1.7244836624e+01     4.755951     1.467858  26.36   0.01570489    6.340    0.842
        13 -10.1980    193.6162    195.8897   7.2756729492e+01   4.1255821858e+00    0.6873596    0.3560722 -63.73  0.001963784    6.172    0.838
        14  -9.3899    100.5015    180.4728   9.1684586463e+01   2.3715996198e+01    0.3109618    0.2420993  -0.67  0.001105266    1.735    0.424
        15 -11.2575     67.6282    161.8545   9.7325901345e+01   3.3187845571e+01    0.2839297    0.2651888 -57.88 0.0004690201    1.108    0.098
        16 -13.0529     57.0440    130.2932   9.5014269299e+01   4.2495432715e+01     2.633733     0.797102 -70.59  0.005919226    7.332    0.864
        17 -12.5346     53.2183    116.4835   9.3540779357e+01   4.6384568695e+01     1.279931    0.3373667 -63.79  0.003651704    4.315    0.768
        18 -13.1679     75.5592    155.4311   9.4094813471e+01   3.3701195831e+01     1.589629    0.9453662  70.70  0.001126543    2.442    0.591
        19  -8.5861    110.8028    167.5992   8.6768296601e+01   2.5086072988e+01    0.2061836    0.1346483  49.27 0.0004018253    1.591    0.371
        20 -13.1939     53.6506    157.6423   1.0049916377e+02   3.6014512550e+01    0.5270788    0.3615083 -40.27  0.001826845    1.665    0.400
        21 -11.1295     46.9836    225.1618   1.0958866155e+02   2.0931180633e+01    0.5353606    0.2327855  80.00  0.002177099    3.247    0.692
        22  -9.3583    134.4979    142.9954   7.5446186046e+01   2.6552937434e+01    0.2876956    0.2396602 -52.19  0.001273754    1.197    0.164
        23 -13.6800     68.0170    144.0735   9.4248884993e+01   3.7612841925e+01     2.934965     1.341327  63.78  0.002747409    5.761    0.826
        24 -10.7047     92.2804    142.3251   8.6890526298e+01   3.4425191180e+01    0.3867303    0.3257522 -26.63   0.00104794    1.324    0.245
        25  -9.6113     95.7642    138.8403   8.5161733827e+01   3.4712201407e+01    0.3275015    0.2257281 -25.00  0.001423525    1.895    0.472
        26 -12.1382     79.6728    140.2307   9.0125611873e+01   3.6921226196e+01    0.3404697    0.2776037 -49.13 0.0005941025    1.179    0.152
        27  -9.7278    138.3497    136.0651   7.2843627122e+01   2.7385580254e+01    0.2743858     0.226358  58.65 0.0006360793    1.331    0.248
        28 -10.8222    105.9993    130.8813   8.0449340630e+01   3.4873191895e+01    0.4095373    0.3405289  -0.92  0.001022226    1.429    0.300
        29  -8.6904    135.5648    131.2432   7.2415345687e+01   2.9060986417e+01    0.2235102    0.1466838 -36.72 0.0008097669    1.606    0.377
        30 -10.9459     92.1938    127.1912   8.3651107738e+01   3.8175886870e+01    0.3132804    0.2641305 -28.94 0.0005096788    1.256    0.204
        31 -10.9502     66.5076    126.2613   9.1304488389e+01   4.2288787421e+01    0.3060101    0.2313143 -41.41   0.00157408    1.306    0.234
        32 -10.0070    114.3427    124.5928   7.6575792510e+01   3.4821360867e+01    0.4110376    0.2412597   5.15  0.001189104    4.461    0.776
        33 -10.5813     29.3956    123.0516   1.0233138733e+02   4.7175106988e+01    0.2723979    0.1815668  67.60  0.001221879    1.842    0.457
        34  -9.6565    244.3340    122.3396   4.8185550949e+01   8.6546241885e+00    0.1349714    0.1010928  -6.41 0.0007051484    1.750    0.429
        35 -11.2864     22.1707    120.4869   1.0418581996e+02   4.8393790356e+01    0.3913146    0.1998994  56.06  0.001756685    2.652    0.623
        36  -9.7834    103.9812    119.2434   7.8260232229e+01   3.8025891687e+01    0.2415992    0.2099621 -49.43 0.0003588294    1.115    0.104
        37  -8.6724     67.5027    117.5526   8.9150614342e+01   4.4304755004e+01    0.1440689    0.1341905 -55.85  0.000116388    1.035    0.034
        38  -9.9666    204.8749    110.7210   5.2040288994e+01   1.8486843407e+01    0.3727417     0.256285  37.44  0.001593121    1.703    0.413
        39 -12.0829      2.3026     79.2713   1.0419588924e+02   5.9304587449e+01    0.8192335    0.1327621 -66.10  0.002665109    4.413    0.773
        40 -11.2271     53.2563     92.2095   8.8043822265e+01   5.2163299672e+01    0.6090412    0.2390935 -59.06  0.002325334    2.576    0.612
        41  -9.9269     41.7207     92.0561   9.2172700658e+01   5.3485366544e+01    0.2124528    0.1892463  -5.29    0.0005003    1.185    0.156
        42 -10.6761    163.4375     84.4929   5.3472155764e+01   3.2670262703e+01    0.3175125    0.2120331  40.47  0.001440886    1.623    0.384
        43  -9.0516    184.4477     77.7176   4.7557712076e+01   2.8980282357e+01    0.1965099    0.1408129 -25.73 0.0009411537    1.608    0.378
        44 -11.0157     13.0584     60.8118   9.5848848403e+01   6.2717356627e+01    0.4004245    0.1837382 -52.84  0.001156762    1.697    0.411
        45 -12.3143      4.1367     58.1929   9.9051484786e+01   6.3764340626e+01    0.6284198    0.4865195 -85.33   0.00337509    1.684    0.406
        46 -12.5645    205.8114     51.5884   3.7705075982e+01   2.8162373295e+01    0.9351111    0.5450345 -60.80  0.004523802    1.836    0.455
        47 -14.3062     13.2552    205.2826   1.1506562849e+02   2.8834739330e+01     1.080882    0.8660592  12.52  0.006842651    1.776    0.437
        48  -8.3989     92.2572     52.6860   6.2132715223e+01   5.3866209647e+01    0.1259895    0.1111765 -71.67 0.0002356442    1.531    0.347
        49 -11.1957     15.6029     45.7194   9.0450523994e+01   6.5555977887e+01    0.2891763    0.2429888  37.44 0.0007906106    1.619    0.382
        50  -8.5485     94.7104     46.3606   5.9127626863e+01   5.4373785324e+01     0.130999      0.11042 -72.80 0.0007026197    1.692    0.409
        51 -11.2985      2.1741     38.0813   9.4557981904e+01   6.7838915100e+01    0.3226701    0.1812767 -60.97  0.001706723    1.817    0.450
        52  -9.9182    121.8710     29.9728   4.6146241927e+01   5.0719009045e+01    0.2742808    0.2166958 -87.25 0.0009927507    1.592    0.372
        53 -13.1017     10.0772    249.4779   1.1818807166e+02   2.0002136783e+01     1.356957    0.5932775  39.90  0.008085425    1.969    0.492
        54 -15.9154     25.7438    195.5786   1.1165919116e+02   2.9837449092e+01     8.204032     2.767845 -87.96   0.02844899    4.130    0.758
        55 -13.3129      8.0726    228.0679   1.1745841345e+02   2.4444947865e+01     1.540846     0.688137  84.87   0.00739504    2.054    0.513
        56 -10.5496     11.4059     52.7754   9.4444934783e+01   6.4460190621e+01    0.2294288    0.1202651 -47.44  0.001289971    1.477    0.323
