#   1 NUMBER                 Running object number                                     
#   2 MAG_AUTO               Kron-like elliptical aperture magnitude                    [mag]
#   3 X_IMAGE                Object position along x                                    [pixel]
#   4 Y_IMAGE                Object position along y                                    [pixel]
#   5 X_WORLD                Barycenter position along world x axis                     [deg]
#   6 Y_WORLD                Barycenter position along world y axis                     [deg]
#   7 A_WORLD                Profile RMS along major axis (world units)                 [deg]
#   8 B_WORLD                Profile RMS along minor axis (world units)                 [deg]
#   9 THETA_WORLD            Position angle (CCW/world-x)                               [deg]
#  10 FWHM_WORLD             FWHM assuming a gaussian core                              [deg]
#  11 ELONGATION             A_IMAGE/B_IMAGE                                           
#  12 ELLIPTICITY            1 - B_IMAGE/A_IMAGE                                       
         1 -14.4931     68.2812    144.3224   1.0748229185e+02   3.7389557759e+01     4.581422     2.366155  76.71  0.004462752    3.593    0.722
         2 -14.0494    223.2197     15.7784   3.9592489737e+01   2.7476542027e+01     1.178277     1.009753  33.11   0.00285482    1.530    0.346
         3 -13.9055    198.6112     38.5624   4.8233265704e+01   3.0665613737e+01     1.567708     1.120915  26.97  0.004614611    1.911    0.477
         4 -14.0769    206.4421     32.1633   4.5509792529e+01   2.9554438485e+01     1.831851     1.276123 -15.32  0.007409155    1.791    0.442
         5 -12.6004    214.4811     25.1475   4.2777527969e+01   2.8462702552e+01    0.5104933    0.4458903  31.85  0.001146342    1.441    0.306
         6 -10.5611      2.0000     11.4572   9.8068992648e+01   7.2805310785e+01    0.2426289    0.0499277 -51.65 0.0009410824    3.986    0.749
         7 -10.0712     46.3369      1.8483   7.0425879537e+01   6.9237773858e+01    0.1902192    0.1493617  36.14 0.0005465829    1.394    0.283
         8 -10.6261     50.8836      3.6459   6.9496703804e+01   6.8327503833e+01    0.2713157    0.1878182  58.18  0.001107144    2.224    0.550
         9  -8.4888    211.2726    202.6740   8.5464599157e+01   2.1702914944e-02    0.1143968    0.1066372 -89.55 0.0004025672    1.581    0.367
        10  -9.6568    174.6001    249.8447   9.9932594754e+01  -8.8029518069e-01    0.2111719    0.1648168  63.62   0.00110492    1.685    0.407
        11 -15.3565     86.0985    247.0361   1.1598720246e+02   1.3024159854e+01     9.369783     2.636076  33.88   0.03209742    5.067    0.803
        12 -13.5137      5.8406    186.8934   1.2663671998e+02   3.4357821628e+01    0.8922297    0.5014569 -88.48  0.001482837    1.400    0.286
        13 -14.7733      9.6251    207.8524   1.2714259678e+02   2.9663709662e+01     1.307946     1.004021 -85.45  0.004112795    1.239    0.193
        14 -13.1131     23.6825    225.2523   1.2560534928e+02   2.4820014619e+01    0.7155846    0.4890552  69.97  0.003001449    1.082    0.075
        15 -16.1104     43.1487    196.6333   1.1981747746e+02   2.8482586593e+01     9.494909     3.612027  77.55   0.03203117    4.898    0.796
        16 -12.0201     68.1039    174.8011   1.1197700898e+02   3.0190350940e+01    0.3093389    0.2498091 -58.34   0.00057856    1.329    0.248
        17  -9.3739     99.4118    180.6941   1.0550825453e+02   2.4150459981e+01    0.2173522    0.1656379 -54.08 0.0005377965    1.398    0.285
        18 -11.5535     41.6392    177.2493   1.1831433700e+02   3.2934514106e+01    0.4709785    0.3351982  11.63  0.001966777    2.232    0.552
        19 -13.6520     65.1940    160.8659   1.1079804160e+02   3.3838083505e+01    0.6258386    0.4831011 -38.66  0.002259995    1.652    0.395
        20 -11.7977     77.6373    164.9319   1.0832685126e+02   3.1133642558e+01    0.3948372    0.3103441  77.47 0.0003975841    1.235    0.190
        21 -12.9399     84.4786    158.6950   1.0565811842e+02   3.1577507037e+01     1.348434     0.948465  81.81  0.001419033    1.593    0.372
        22 -13.8027     86.8098    227.2816   1.1398131607e+02   1.6486922539e+01     1.579294    0.6562261  55.67  0.002537465    2.374    0.579
        23 -13.3364     36.9684    208.4248   1.2201909884e+02   2.6714596942e+01    0.5815361    0.4029056  38.60  0.001898378    1.573    0.364
        24 -10.2777    134.0000    147.0021   9.0976854390e+01   2.5483569756e+01    0.6553697    0.1946622 -53.41  0.001864714    3.914    0.744
        25 -10.1699    133.5141    141.0281   8.9781478580e+01   2.6928144659e+01    0.4857467    0.2461646 -56.07  0.001627516    2.174    0.540
        26 -14.6629      5.7384    246.0289   1.2961553094e+02   2.2821960889e+01      1.29014    0.7741022  51.15  0.009381065    1.367    0.268
        27 -10.5755     48.1035    145.7758   1.1301463364e+02   3.9582041155e+01    0.2275856    0.1916455 -15.55  0.001354995    1.641    0.391
        28 -10.6309     98.9567    143.5073   9.9194944169e+01   3.2841982145e+01    0.3070119    0.2953151  54.04  0.000861247    1.101    0.092
        29  -9.8612    101.6330    140.0547   9.7793961061e+01   3.3201523583e+01    0.3652183    0.2447962 -28.64  0.001322091    2.097    0.523
        30 -12.3978     86.9052    142.2928   1.0215735107e+02   3.5123142283e+01    0.3027883    0.2591589 -46.87 0.0004209206    1.232    0.188
        31 -10.0837     81.7135    141.7956   1.0345441983e+02   3.6052147923e+01    0.3406158    0.2073757  63.82 0.0007186632    2.039    0.510
        32 -13.5919     46.7851    221.7648   1.2115921905e+02   2.2880776375e+01     1.076373    0.6482874 -83.13  0.006675244    1.534    0.348
        33  -9.5035    174.7590    148.3479   8.1793202838e+01   1.6727552349e+01    0.2898088    0.1846153 -52.67  0.001123589    1.748    0.428
        34  -9.9544    137.1927    170.6252   9.4992908533e+01   1.9660908036e+01    0.2076969     0.134627  32.03 0.0006649548    1.668    0.401
        35 -10.1572    109.9356    131.5602   9.3755778161e+01   3.3717413766e+01    0.3416796    0.2648548  16.80 0.0008752588    1.645    0.392
        36 -10.1757    106.3202    131.6504   9.4749214952e+01   3.4362543077e+01    0.4139811    0.2728823 -61.44  0.001875399    1.548    0.354
        37  -9.0673    146.2860    168.6503   9.2517262608e+01   1.8329803568e+01    0.1482681    0.1156104  85.08  0.000567542    1.658    0.397
        38  -9.9272     32.2106    129.8019   1.1504444642e+02   4.5104944055e+01    0.1723946     0.130286 -53.67 0.0003385676    1.302    0.232
        39 -10.8659     97.0865    128.0263   9.6477935204e+01   3.6869685290e+01     0.319024    0.2612507 -29.14 0.0009048474    1.418    0.295
        40  -8.7693     80.6364    129.2904   1.0134705149e+02   3.9252117364e+01    0.1500306    0.1071201  73.25 0.0007026374    1.701    0.412
        41 -10.1196    116.3182    125.7030   9.0690815686e+01   3.3874925783e+01    0.3410247    0.2424028 -65.19  0.001547669    1.546    0.353
        42  -9.5908    229.6864    166.3241   7.4845420368e+01   2.5420533956e+00    0.1276814    0.1104157 -68.00  0.000311596    1.661    0.398
        43 -10.8079    135.3194    122.2447   8.4865916693e+01   3.0788438588e+01     0.580199    0.1376542 -50.91  0.001354606    5.297    0.811
        44  -9.8223    106.9070    120.0611   9.1913370222e+01   3.6992207856e+01    0.2172173    0.2061904 -46.53 0.0002928727    1.049    0.047
        45 -11.2052     23.7380    117.5110   1.1570593004e+02   4.8808679048e+01    0.3210559    0.2206599 -71.70 0.0009933112    1.182    0.154
        46  -9.9624    168.2551    113.2303   7.4631393118e+01   2.5354033014e+01    0.3905464    0.2728768 -72.77  0.001559157    2.073    0.518
        47  -9.3554    193.0907    165.8215   8.1757910457e+01   9.5899743887e+00    0.2124865    0.2015135  71.09 0.0008700195    1.252    0.201
        48 -10.1853    205.2894    110.5100   6.6389462061e+01   1.7338875214e+01    0.3417753    0.2641866  28.83 0.0009746863    1.482    0.325
        49 -10.3347    134.4487    104.1837   8.0327518546e+01   3.4957830742e+01    0.5455902    0.1523823 -43.51  0.001540527    3.508    0.715
        50  -8.8675     45.3355    105.2823   1.0706787187e+02   4.9707257869e+01    0.1354242   0.09264466 -35.22 0.0003871913    1.619    0.382
        51 -12.0564    248.7242    102.5723   5.7410365871e+01   9.3834109823e+00    0.3735096    0.3170444 -50.71  0.002186024    1.159    0.137
        52  -8.8608    204.5256    165.0371   7.9301627042e+01   7.4889429027e+00    0.2021126    0.1225151 -59.48 0.0008099414    2.663    0.624
        53  -9.5188    156.0859    200.4568   9.6129562251e+01   1.0183790291e+01    0.2639668     0.185927 -71.18  0.001318999    1.991    0.498
        54 -11.1040    244.4991     88.9604   5.4810898166e+01   1.2425728495e+01    0.2203771    0.1239726 -35.06 0.0005878326    1.575    0.365
        55 -10.8239    250.1084     87.7112   5.3767960396e+01   1.1461044719e+01    0.2562416    0.1610271 -43.08 0.0006345247    1.389    0.280
        56  -9.9605     73.4166     83.9637   9.2671592510e+01   5.1047725016e+01    0.2399048    0.1953409  58.57 0.0006410333    1.506    0.336
        57  -9.4692    159.6062     81.2077   6.7593585319e+01   3.3705751168e+01    0.2163278    0.1500857 -25.08 0.0004810105    1.603    0.376
        58  -8.5719    109.4809     79.5294   7.9937873319e+01   4.5508055686e+01    0.1499837    0.1449925 -39.68 0.0008090105    1.056    0.053
        59  -8.7683    184.5005     77.4683   6.1431238359e+01   2.8230354284e+01    0.1511612     0.148366   0.05  4.22594e-05    1.075    0.070
        60  -8.8443     48.9884     62.9935   9.5169101856e+01   5.8898506230e+01    0.1553282     0.134171 -31.24 0.0009564222    1.030    0.029
        61 -10.3236     13.4595     60.0839   1.0848648711e+02   6.2754893009e+01    0.2095052    0.1706566 -39.20 0.0004153238    1.110    0.099
        62 -14.0786      8.8418    230.0321   1.2841261039e+02   2.5424126180e+01     1.379791    0.4513616  59.01  0.007338685    2.418    0.586
        63 -13.5944     27.9323    215.8113   1.2425335642e+02   2.6215738520e+01     2.165728     0.707954  79.11  0.007330544    5.548    0.820
        64 -11.2346    193.1590    193.1147   8.7200783773e+01   4.7408478569e+00    0.7997016    0.4544845 -54.35  0.003563108    2.492    0.599
        65  -9.6263    150.1631    189.5779   9.5530967387e+01   1.3335448493e+01    0.2570647    0.2006647 -48.25 0.0009667957    1.388    0.279
        66  -8.8635     20.6846     52.6736   1.0351193182e+02   6.3811099991e+01    0.1318102   0.07232193 -34.11 0.0002142756    1.671    0.402
        67 -10.9913    138.4293     44.4032   6.0573596014e+01   4.5075156954e+01    0.3717947    0.2835039 -77.14 0.0004357385    1.704    0.413
        68  -9.5399      2.0000     37.0048   1.0729361281e+02   6.8151200242e+01    0.1921679   0.05157961 -60.01 0.0008038277    2.952    0.661
        69 -10.6322    189.5854     15.1767   4.2919806598e+01   3.5739198905e+01    0.2516702    0.1813714  77.50 0.0007682329    1.283    0.221
        70 -12.0965     63.1855    180.3165   1.1379376611e+02   2.9594433517e+01    0.4202062    0.3025905 -34.57  0.001873793    2.102    0.524
        71  -9.4667    162.5185    213.0130   9.6852867209e+01   6.8047973178e+00    0.1828685    0.1324062 -43.88  0.001024418    1.570    0.363
