#   1 NUMBER                 Running object number                                     
#   2 MAG_AUTO               Kron-like elliptical aperture magnitude                    [mag]
#   3 X_IMAGE                Object position along x                                    [pixel]
#   4 Y_IMAGE                Object position along y                                    [pixel]
#   5 X_WORLD                Barycenter position along world x axis                     [deg]
#   6 Y_WORLD                Barycenter position along world y axis                     [deg]
#   7 A_WORLD                Profile RMS along major axis (world units)                 [deg]
#   8 B_WORLD                Profile RMS along minor axis (world units)                 [deg]
#   9 THETA_WORLD            Position angle (CCW/world-x)                               [deg]
#  10 FWHM_WORLD             FWHM assuming a gaussian core                              [deg]
#  11 ELONGATION             A_IMAGE/B_IMAGE                                           
#  12 ELLIPTICITY            1 - B_IMAGE/A_IMAGE                                       
         1  -8.2321    120.4135     20.7705   7.1392648634e+01   5.2324709764e+01    0.2248163    0.1626901 -54.42  0.001018124    1.793    0.442
         2  -8.0545     29.9028     15.9210   1.0042438850e+02   6.8692700652e+01     0.163155    0.1377043 -67.88 0.0005796764    1.628    0.386
         3  -8.4872     55.7943     10.1425   8.6622274525e+01   6.6354079854e+01    0.1830549    0.1552326 -35.18 0.0006866586    1.296    0.228
         4  -8.1321     47.6648     10.3238   9.0025399059e+01   6.7496118222e+01    0.1735272    0.1411578 -56.57  0.001006973    1.735    0.424
         5  -8.1364     90.6437      8.8572   7.4040467532e+01   6.0303088713e+01    0.1906435    0.1127157 -32.45 0.0007274729    1.666    0.400
         6  -8.2142     12.8291      8.7959   1.0560299896e+02   7.1485810967e+01    0.1394688    0.1207024 -54.77 0.0004027245    1.345    0.256
         7  -7.8917    101.4621      8.4648   7.0845922923e+01   5.8058911454e+01    0.1368634     0.124467   3.59 4.553802e-05    1.072    0.067
         8  -8.6083     33.4171      5.0871   9.3735668341e+01   7.0116397621e+01    0.2811626    0.1784149 -56.43  0.001473921    2.357    0.576
         9  -8.5116     79.0700      3.7731   7.5098881474e+01   6.3194259621e+01    0.2845514    0.1574146 -37.75  0.001023522    1.944    0.485
        10  -7.6662     44.7128      3.3363   8.7730093075e+01   6.8942265101e+01    0.1112845   0.09065835 -48.56 0.0004626286    1.631    0.387
        11  -7.9113     16.6224      3.2982   1.0116156870e+02   7.2126790544e+01   0.09791192   0.08815564 -80.88 0.0007024863    1.756    0.431
        12  -8.4776     62.4149      1.6520   7.9725190405e+01   6.6453326467e+01    0.1841991    0.1568596  52.80  0.001171193    1.562    0.360
        13  -7.2885     39.2931      1.3118   8.9049781821e+01   6.9961480177e+01     0.122442   0.07847651  -9.27 0.0002334115    1.591    0.372
        14  -9.2307    147.2251    246.0672   1.1544227812e+02   1.0940840884e+01    0.2320607    0.1475436  74.88  0.001300833    2.414    0.586
        15  -8.4630    191.9229    249.9233   1.0897886070e+02   3.9778747315e+00    0.1554079    0.1064706  57.84 0.0009137843    1.751    0.429
        16  -7.6961    125.3224    250.3113   1.1922578732e+02   1.3530802898e+01   0.09273184   0.06780724  28.75 0.0007038199    1.652    0.395
        17  -8.4377     93.9240    249.3375   1.2392656912e+02   1.7801460052e+01    0.1916894    0.1126215  79.02  0.001186781    1.977    0.494
        18  -7.2363     86.2954    250.6549   1.2516557738e+02   1.8584812324e+01    0.0995722   0.05314898  63.97 0.0007032277    1.669    0.401
        19  -8.9152    120.4016    245.7643   1.1958411032e+02   1.4758258937e+01     0.262522    0.1505159  71.04  0.001507387    2.233    0.552
        20  -8.1502     20.9760    248.0000   1.3446929368e+02   2.6085223824e+01    0.1359205   0.03695748  39.39 0.0008075811    2.978    0.664
        21  -9.2865      9.9750    244.6501   1.3587141580e+02   2.7564713819e+01    0.2474789   0.07780703  82.62  0.001476087    3.391    0.705
        22  -9.3986    248.5326    242.1025   9.9527371345e+01  -3.6299093560e+00    0.2210365    0.1712704 -22.18  0.001143401    1.749    0.428
        23  -8.6208    201.8946    243.1447   1.0663911744e+02   3.1328357789e+00    0.1825841    0.1462699 -48.56 0.0009237555    1.964    0.491
        24  -8.7001    169.2929    243.5181   1.1172963914e+02   7.9829113096e+00    0.1717886    0.1400806  48.42 0.0006144469    1.196    0.164
        25  -8.4322     78.1369    243.5681   1.2591172339e+02   2.0517683851e+01    0.2416938   0.08751388  64.72   0.00115093    3.996    0.750
        26  -7.2780     49.6628    243.3284   1.3015706468e+02   2.3817128941e+01    0.1009381   0.04646135  62.70 0.0007051896    1.729    0.422
        27  -9.3701    183.2673    240.3772   1.0918268899e+02   6.2134328612e+00    0.3325955    0.2032792  64.54  0.001984162    2.598    0.615
        28  -9.2412    160.2366    240.4618   1.1281212118e+02   9.6679911976e+00    0.2289512    0.1698103 -82.96   0.00119317    2.176    0.541
        29  -7.9093    153.3839    242.1430   1.1407355389e+02   1.0491933182e+01    0.1192868   0.09579372 -83.81 0.0007991458    1.761    0.432
        30  -8.1739     88.1973    242.1833   1.2427579352e+02   1.9461955629e+01    0.1348383   0.08557808  66.66 0.0005987218    1.374    0.272
        31  -8.4794    214.4640    241.5356   1.0451706463e+02   1.3975876055e+00    0.1078897   0.07575101  34.00 0.0002738148    1.024    0.024
        32  -8.5387    146.6514    240.3738   1.1495062249e+02   1.1685010791e+01    0.2503827    0.1435262  64.95  0.001232501    2.266    0.559
        33  -8.9544    194.0199    239.4124   1.0738868592e+02   4.6800600415e+00     0.161272    0.1468619  33.13 0.0005463322    1.316    0.240
        34  -8.0226      2.6470    240.3109   1.3674304396e+02   2.8817778796e+01    0.0949785     0.037324  61.42 0.0007044485    1.725    0.420
        35  -8.6972    136.0202    239.1382   1.1651102369e+02   1.3377346396e+01    0.2043512    0.1068672  55.65  0.001299987    1.723    0.420
        36  -8.3045    129.3060    239.0995   1.1757353949e+02   1.4342684571e+01    0.1971415    0.0990538  59.35  0.001075505    2.065    0.516
        37  -7.8910     40.7249    239.3687   1.3126969215e+02   2.5320833912e+01   0.09760913   0.04666998  65.90 0.0007005401    1.678    0.404
        38  -8.7875    231.0420    237.2667   1.0144059736e+02  -7.0436898549e-01    0.1865134    0.1679933  88.00  0.001154947    2.176    0.540
        39  -8.3395    208.8271    238.2978   1.0495646726e+02   2.5397908009e+00    0.1368041    0.1128057  30.28 0.0006602887    1.196    0.164
        40  -7.8732    189.6285    237.1824   1.0779688515e+02   5.5727017367e+00    0.1260093    0.0960129  -6.69 0.0008750948    1.678    0.404
        41  -8.2676    153.4340    236.0707   1.1341143290e+02   1.1188285403e+01    0.2222553    0.1276749  74.67  0.001086068    4.003    0.750
        42  -8.0186     25.2488    237.2205   1.3343314774e+02   2.7183135701e+01    0.1360978   0.05465128  84.30 0.0008931699    2.499    0.600
        43  -8.7800    216.6651    235.3645   1.0336305280e+02   1.6204050555e+00    0.2013369    0.1500754  40.92  0.001430956    1.244    0.196
        44  -9.2335    213.8875    231.9235   1.0332419477e+02   2.3615111070e+00    0.2362156    0.1932754  67.53  0.001504377    1.954    0.488
        45  -9.1769    203.2012    234.4937   1.0533000756e+02   3.7590327945e+00    0.2577271    0.1752297 -47.31  0.001234716    2.305    0.566
        46  -8.2744    170.3623    236.1151   1.1071299574e+02   8.6279259741e+00     0.118314    0.1007689 -72.37 0.0006264914    1.722    0.419
        47  -9.3417    108.9751    234.4741   1.2038882211e+02   1.7772536423e+01    0.3616839    0.1556586  55.36  0.001040037    2.055    0.513
        48  -9.0771    247.7829    234.6144   9.8577475826e+01  -2.9500571685e+00     0.195246    0.1358992  17.47 0.0008417986    1.164    0.141
        49  -8.1321    123.0788    234.2595   1.1810426445e+02   1.5841199373e+01    0.1827515    0.1128719  74.23 0.0008137841    2.079    0.519
        50  -8.4162     99.5180    234.4550   1.2189757764e+02   1.9044864887e+01      0.22155    0.1101174  66.39    0.0010458    2.314    0.568
        51  -8.5992     78.8194    234.4853   1.2517286091e+02   2.1683721407e+01    0.1827647    0.1038183  80.05  0.001055106    1.929    0.482
        52  -8.0273     67.5139    244.9752   1.2760322467e+02   2.1587843718e+01    0.1224085   0.08205788 -85.44 0.0009025036    1.580    0.367
        53  -9.2398     68.2129    232.3087   1.2668220075e+02   2.3271350734e+01    0.3559091    0.1466137  68.08  0.001972541    2.934    0.659
        54  -8.5648    194.5816    232.8835   1.0647265702e+02   5.2481713189e+00    0.1782132    0.1426529  52.81 0.0008915373    1.406    0.289
        55  -8.5758    144.9910    233.4753   1.1448792148e+02   1.2757982925e+01    0.2312724    0.1299313  64.10  0.001370835    2.277    0.561
        56  -8.6282    140.2312    230.1704   1.1490651200e+02   1.3875475528e+01    0.2647407    0.1347729  57.51  0.001014787    2.006    0.501
        57  -8.0375    132.7621    232.9531   1.1641168756e+02   1.4620062192e+01    0.1620848     0.104261  73.47  0.001067563    2.010    0.502
        58  -9.3869    186.4742    230.6405   1.0747187735e+02   6.7402980325e+00     0.254539    0.2008072 -85.72  0.001413095    2.264    0.558
        59  -7.9678    157.5405    231.9910   1.1229341422e+02   1.1050565471e+01    0.1239149    0.1095169 -50.83 0.0005543687    1.530    0.347
        60  -7.8799     92.1414    231.7139   1.2285052535e+02   2.0388763927e+01    0.1702398   0.07776519  66.46  0.000750855    2.701    0.630
        61  -9.0033      1.8880    231.1835   1.3656368827e+02   3.0187437626e+01    0.1908335   0.07851577  75.12  0.001014437    1.940    0.485
        62  -8.7480    236.0282    230.6375   9.9756687889e+01  -8.9110646455e-01    0.1842712     0.136067 -13.17 0.0007805312    1.556    0.357
        63  -9.1082    246.5095    229.1442   9.7969731806e+01  -2.3295875568e+00    0.2184086    0.1613278 -12.44 0.0008076429    1.531    0.347
        64  -9.9280    149.7533    226.2937   1.1291366333e+02   1.2928357126e+01     0.478271    0.2912753 -89.63  0.002413092    3.968    0.748
        65  -8.0189    229.6216    228.8145   1.0046725721e+02   2.3456153302e-01    0.1184883   0.09941857 -24.60 0.0004473209    1.627    0.385
        66  -8.9515    162.2799    227.9646   1.1105240893e+02   1.0801187161e+01    0.2757575    0.1601662  56.09  0.001213602    1.729    0.421
        67  -8.7744    128.1683    227.5058   1.1660493891e+02   1.5993929729e+01    0.2290029    0.1372322  64.60  0.001259966    1.822    0.451
        68  -8.1291    223.5051    226.7221   1.0110751112e+02   1.3605193134e+00    0.1722115    0.1021271 -16.98 0.0008321211    2.061    0.515
        69  -9.3772    225.4415    221.7170   1.0008045993e+02   1.5210294587e+00    0.1908288     0.164096   6.28 0.0007733232    1.300    0.231
        70  -8.7888    206.1235    225.7970   1.0369875113e+02   4.1610352112e+00    0.2402178    0.1532228 -30.55  0.001037041    2.001    0.500
        71  -8.2416    119.7205    227.2210   1.1796704808e+02   1.7249238427e+01     0.152119    0.1134869  72.39 0.0006458591    1.385    0.278
        72  -7.8987     49.7527    227.1631   1.2923973954e+02   2.6122735615e+01    0.1755736    0.0636599  64.36 0.0009602793    2.856    0.650
        73  -9.7484    175.7961    233.4600   1.0952958781e+02   8.0889179625e+00    0.3323072    0.2078859 -58.76  0.002134569    2.696    0.629
        74  -8.9362     94.3150    224.5520   1.2190162564e+02   2.1117222563e+01    0.3078203    0.1467941  66.64  0.001698987    2.538    0.606
        75  -8.8916    216.7479    223.6311   1.0171759517e+02   2.7027293501e+00    0.2519391    0.1695831 -35.68  0.001194387    2.000    0.500
        76  -8.9057    180.6996    224.2928   1.0758622557e+02   8.3416067067e+00    0.2262787    0.1851344  64.51 0.0009907939    1.523    0.343
        77  -8.7636    104.6798    223.6497   1.2011071873e+02   1.9849005560e+01    0.2534906    0.1568112  80.17   0.00168337    1.973    0.493
        78  -7.7557     38.4920    224.9797   1.3086514573e+02   2.7647241843e+01    0.1333441   0.05571897  73.93 0.0008093817    2.455    0.593
        79  -8.6179    173.1634    223.4247   1.0870836046e+02   9.6332322022e+00    0.1949781    0.1500551  63.05 0.0006583529    1.531    0.347
        80  -8.0888    113.9126    224.1815   1.1862965699e+02   1.8489019740e+01    0.1649152    0.1121745  61.01 0.0007219002    1.284    0.221
        81  -9.4134    192.5391    221.5489   1.0529335592e+02   6.7593822446e+00    0.2615476    0.2080772  78.75  0.001039941    2.060    0.515
        82  -8.8593    239.0433    221.4628   9.7948312753e+01  -5.6242777023e-01    0.1953738    0.1688773 -29.71 0.0009556921    1.713    0.416
        83  -9.3926    160.1889    221.2314   1.1058122399e+02   1.1940871583e+01    0.4191748    0.1924908  59.01  0.001959004    3.156    0.683
        84  -8.6675    155.1911    219.2090   1.1116936452e+02   1.2977678637e+01    0.1897295     0.106262  54.43 0.0002280394    1.677    0.404
        85  -9.1762      6.1538    222.3950   1.3564527908e+02   3.1117478626e+01    0.1182431   0.08608326  75.67 0.0006705994    1.158    0.137
        86  -9.2373    120.3820    219.1339   1.1703787197e+02   1.8264977236e+01    0.3655899    0.2029304  69.39   0.00185703    2.407    0.585
        87  -8.5606     82.9717    220.7752   1.2345439897e+02   2.3140932779e+01    0.2276555    0.1095324  67.07  0.001330897    2.313    0.568
        88  -8.1263     73.0566    220.9915   1.2510163651e+02   2.4345831540e+01    0.1687553   0.09032889  67.09  0.001047101    1.754    0.430
        89  -7.9144     27.5229    221.5395   1.3238274144e+02   2.9271536017e+01   0.09451314   0.06445421  66.25 0.0001837782    1.014    0.013
        90  -8.2836    202.6842    219.9729   1.0343312587e+02   5.3017131601e+00    0.1478995    0.1239991  23.83 0.0004569913    1.160    0.138
        91  -8.5664    248.9436    218.2193   9.5953622636e+01  -1.7948551028e+00    0.2334911    0.1596701  65.27  0.001271759    3.469    0.712
        92  -8.5903    210.1297    218.4633   1.0202117803e+02   4.2631009067e+00    0.2345289    0.1437573 -29.59  0.001019366    2.027    0.507
        93  -9.4552    133.0585    216.2460   1.1457043178e+02   1.6784022997e+01    0.3971179    0.2329249  77.83  0.002102142    3.006    0.667
        94  -8.3056     61.9660    217.2696   1.2664701928e+02   2.6233983334e+01    0.1940884   0.09043112  74.90 0.0009006105    2.501    0.600
        95  -8.8219     51.6058    217.4001   1.2834436323e+02   2.7392545939e+01     0.234733    0.1257885  69.65  0.001603748    1.637    0.389
        96  -7.9906    179.2957    217.6424   1.0693826226e+02   9.3274046903e+00    0.1061624   0.08098821  66.43  0.000385649    1.699    0.411
        97  -8.7557    169.3603    216.2252   1.0840942459e+02   1.1097392767e+01    0.2202824    0.1761035  75.74 0.0009495244    1.686    0.407
        98  -8.7364    142.9633    216.4650   1.1290747000e+02   1.5238999019e+01     0.223618    0.1600936  84.39  0.001011803    1.957    0.489
        99  -7.9357    111.8108    217.2344   1.1829583305e+02   1.9767303810e+01    0.1826087   0.09101433  66.89 0.0009456444    2.750    0.636
       100  -7.8912     41.5025    215.9724   1.2988605270e+02   2.8705935126e+01    0.1367419   0.05886592  74.82 0.0008087331    2.453    0.592
       101  -8.1980     18.5820    215.2813   1.3347211287e+02   3.1085400779e+01    0.1655649   0.07220434 -86.81  0.001140424    2.090    0.522
       102  -8.6485    232.5267    214.2877   9.7856079815e+01   1.0967664123e+00    0.2818228     0.183355  -5.99  0.001657398    1.685    0.407
       103  -8.7987    185.7383    214.5398   1.0544296818e+02   8.6416113987e+00    0.2067326    0.1609809 -55.88  0.001268607    1.893    0.472
       104  -8.3489    154.4693    214.9763   1.1076768271e+02   1.3633224190e+01    0.1825871     0.149711  77.97  0.001066025    1.510    0.338
       105  -8.8537     93.6191    214.4887   1.2112577556e+02   2.2686830542e+01    0.3285072    0.1212847  55.13  0.001622006    2.587    0.613
       106  -9.2187    213.8674    212.2406   1.0049925807e+02   4.2942756508e+00    0.2896415    0.2086438  60.66  0.001463584    1.968    0.492
       107  -9.3805    216.7438    205.5317   9.8999871823e+01   4.5162731353e+00    0.3723647    0.1976301  20.38   0.00125018    2.213    0.548
       108  -9.3220     73.5118    212.3049   1.2434981441e+02   2.5612980011e+01    0.4863752     0.165482  61.10  0.002115678    4.003    0.750
       109  -8.1673    224.9012    212.7344   9.8813174660e+01   2.4598043646e+00    0.1589184    0.1451298 -27.75  0.001223892    1.561    0.359
       110  -8.7972    161.8159    212.3488   1.0917917009e+02   1.2796610319e+01     0.167788    0.1471173  70.70 0.0007353943    1.348    0.258
       111  -7.8322    106.3594    213.0866   1.1881135539e+02   2.1143742642e+01    0.1360248    0.0923581 -86.52 0.0004981899    1.751    0.429
       112  -8.9648    204.4114    210.8393   1.0182499370e+02   5.9904413420e+00    0.2336123    0.1851386 -53.56 0.0009757846    1.970    0.492
       113  -9.3908      6.8275    209.7373   1.3506067930e+02   3.3005131797e+01    0.3824121    0.1011156  71.95   0.00169055    4.932    0.797
       114  -8.2981    192.4054    210.6997   1.0378733346e+02   7.9868130070e+00    0.1720125    0.1121269 -42.51  0.000715042    2.039    0.510
       115  -9.4349    175.3675    210.0099   1.0655547860e+02   1.0880591258e+01    0.2948086    0.2054418  64.35  0.001277979    1.835    0.455
       116  -8.8680    148.0858    210.5780   1.1131162343e+02   1.5226104923e+01    0.2244558    0.1588533  75.28  0.001428778    1.881    0.468
       117  -8.9140    116.0854    210.4666   1.1685668809e+02   2.0133227884e+01    0.2477428     0.141684  62.00 0.0007953495    1.779    0.438
       118  -7.9544     32.4855    210.9517   1.3105235249e+02   3.0420370030e+01    0.1409054   0.05711101  75.31 0.0008095257    2.601    0.616
       119  -8.5501     85.3785    209.5675   1.2209162160e+02   2.4528747862e+01    0.2399572    0.1238919  64.95  0.001257674    1.979    0.495
       120  -8.2971     46.6578    209.6686   1.2865648731e+02   2.9144593771e+01     0.203176   0.08964293  78.21  0.001174033    2.575    0.612
       121  -9.0024    236.5818    208.4498   9.6306492921e+01   9.9628451994e-01    0.2152958    0.2038788  50.00 0.0009971272    1.623    0.384
       122  -8.6127    139.1702    208.1792   1.1256430965e+02   1.6961061535e+01    0.2183512    0.1625285  77.25 0.0008209766    1.637    0.389
       123  -8.1634    126.1845    208.5344   1.1487884663e+02   1.8911387324e+01    0.1745076    0.1291452  68.00 0.0007552258    1.370    0.270
       124  -9.3067    246.3734    207.3412   9.4615003352e+01  -4.5454069282e-01    0.2179371    0.1739199  -1.12 0.0005927946    1.288    0.223
       125  -8.3391    156.4842    208.0324   1.0952998795e+02   1.4220231568e+01    0.1397837    0.1161716 -55.27 0.0006221022    1.544    0.352
       126  -9.2236     99.5764    206.4365   1.1932307937e+02   2.3097124840e+01     0.317863    0.1765355  74.51  0.001350254    2.344    0.573
       127  -8.2983    109.1082    205.3928   1.1753480349e+02   2.1905481096e+01    0.1958542    0.1296361 -89.89 0.0006491086    1.871    0.465
       128  -8.7321     56.7401    205.5517   1.2667823345e+02   2.8679419467e+01    0.2636368    0.1234057  69.34  0.001301128    2.213    0.548
       129  -9.5065    194.8163    203.5744   1.0232573081e+02   8.4051850712e+00    0.3879088    0.3344719  19.71  0.001901133    1.158    0.137
       130  -9.3108    192.4175    197.3871   1.0178036786e+02   9.5480409226e+00     0.287594    0.2327466 -52.17  0.000949105    1.734    0.423
       131  -8.9232    183.8928    203.9837   1.0424074145e+02   1.0198190382e+01    0.2499763    0.1933875  65.10  0.000942159    1.650    0.394
       132  -8.6963    131.4389    204.3911   1.1346349944e+02   1.8706669409e+01    0.2474029    0.1451695  69.75   0.00110038    2.365    0.577
       133  -7.8745     92.4074    205.2256   1.2046357151e+02   2.4269368166e+01    0.1378153   0.09200639 -89.42 0.0006221317    1.651    0.394
       134  -8.6120     24.6333    204.8424   1.3199817450e+02   3.2166558785e+01    0.1341421   0.06802201  83.99  0.000556457    1.733    0.423
       135  -9.4308    250.1195    202.1718   9.3190222738e+01  -5.8161441314e-01    0.3030652    0.1556266 -22.87  0.001195534    2.116    0.527
       136  -9.5750    164.0334    203.1137   1.0754893976e+02   1.3633104573e+01    0.3983318    0.1986507  56.39  0.001098108    2.280    0.561
       137  -7.8504    237.9446    203.7854   9.5339188441e+01   1.2166777662e+00    0.1522636   0.07368138  40.57 0.0003672668    1.630    0.386
       138  -8.2542     48.2708    202.3924   1.2789818519e+02   3.0141001097e+01    0.1804364   0.09444173  78.37  0.001177762    1.868    0.465
       139  -9.0656    243.1032    201.0222   9.4078746870e+01   6.4458651523e-01    0.2232312    0.1824953 -35.02 0.0009840591    1.769    0.435
       140  -8.4986    210.8721    201.6586   9.9349032829e+01   5.9110666257e+00    0.1875281    0.1545529 -50.98 0.0007023369    1.839    0.456
       141  -8.8413    140.7168    201.5303   1.1145568018e+02   1.7658167891e+01    0.2957948    0.1578601  63.25  0.001146516    2.520    0.603
       142  -8.6530     79.9373    201.6681   1.2232866931e+02   2.6482989982e+01     0.274552     0.122304  65.95  0.001390136    2.808    0.644
       143  -7.8523    222.2598    201.6484   9.7486556908e+01   4.0032943737e+00   0.09759457   0.09131174  65.84 0.0003079709    1.609    0.379
       144  -9.6137    149.7463    198.9023   1.0949505780e+02   1.6568896645e+01    0.3507547    0.2331388  79.72  0.001507011    2.437    0.590
       145  -8.8137    124.2161    199.5262   1.1416592868e+02   2.0543011479e+01    0.2427651     0.156492  70.19  0.001281301    1.827    0.453
       146  -9.3366    112.6854    198.4196   1.1612074638e+02   2.2454558654e+01    0.3775382    0.1963314  64.32   0.00158481    2.349    0.574
       147  -9.2409     88.7856    198.5818   1.2045719936e+02   2.5814480276e+01    0.3325502    0.1834596  84.37  0.001875234    2.434    0.589
       148  -8.8995    237.0426    198.4627   9.4599333782e+01   1.8757103053e+00    0.2241535    0.1602024 -21.22  0.001122849    1.571    0.364
       149  -8.4818    177.0969    198.9374   1.0466587719e+02   1.1978820751e+01    0.1746109    0.1416269  57.93 0.0005012734    1.346    0.257
       150  -8.2400    202.1645    197.8713   1.0019967573e+02   7.8168151070e+00      0.17112    0.1448667  49.96 0.0005707938    1.332    0.249
       151  -9.2284     61.5015    197.2709   1.2521252395e+02   2.9479589912e+01    0.3019033     0.150428  67.52  0.001335569    2.010    0.502
       152  -9.0385     12.7895    197.3407   1.3356452830e+02   3.4480252140e+01    0.2648838   0.09554902  70.40  0.001523444    2.635    0.620
       153  -8.7163    216.0063    195.9915   9.7584570485e+01   5.6591501291e+00    0.2379343    0.1867111 -55.48  0.001199135    2.109    0.526
       154  -8.3857    133.1208    196.2476   1.1214266435e+02   1.9643958492e+01    0.1988215    0.1368785  82.31 0.0006143806    1.984    0.496
       155  -7.6423     36.3126    197.6194   1.2962627033e+02   3.2194713835e+01     0.110285   0.05366866  67.25 0.0007024738    1.804    0.446
       156  -7.9712     29.3404    197.6741   1.3081672079e+02   3.2883864610e+01    0.1077714   0.05185454  64.85 0.0007051343    1.731    0.422
       157  -8.8253    185.3079    194.9575   1.0262921020e+02   1.1074498572e+01    0.1980155    0.1763403 -75.22 0.0005089068    1.597    0.374
       158  -7.8846     53.3480    196.6343   1.2660091535e+02   3.0526811172e+01     0.115429    0.0578534  66.47 0.0007021305    1.869    0.465
       159  -8.8133    224.5026    194.3185   9.5912739920e+01   4.3922188569e+00    0.2345279    0.1815996 -41.21  0.001316046    1.824    0.452
       160  -7.4158    209.3044    195.6741   9.8646240165e+01   6.8422468966e+00    0.1070306   0.09168307  66.03 0.0006103019    1.645    0.392
       161  -9.0130    160.7983    194.2921   1.0686518455e+02   1.5369925445e+01    0.2531587    0.1881197  71.52 0.0009028267    1.732    0.423
       162  -9.2565    245.5765    193.4109   9.2401758797e+01   9.6259317972e-01    0.2045915    0.1828552  43.17 0.0007038788    1.521    0.342
       163  -8.7379     76.9289    193.9166   1.2215051182e+02   2.8138920939e+01    0.1740502      0.13401  83.87 0.0005119416    1.203    0.169
       164  -8.9296     43.4588    193.3096   1.2809697192e+02   3.2170782288e+01    0.2851577    0.1403243  70.95  0.001786847    1.947    0.486
       165  -8.3586    230.8359    194.1679   9.4862940683e+01   3.3373280490e+00    0.1693915    0.1480271  31.59  0.001010105    1.283    0.221
       166  -7.8964    205.2281    191.9395   9.8719257652e+01   7.9765544398e+00    0.1347413   0.09932557 -27.58 0.0003660772    1.590    0.371
       167  -8.2517    198.8569    191.9996   9.9815633014e+01   9.0812664883e+00    0.1730056    0.1498306  49.26 0.0005770363    1.293    0.226
       168  -8.3499    172.1841    191.6929   1.0443807393e+02   1.3773229460e+01    0.1799112    0.1635438 -64.84 0.0006728473    1.426    0.299
       169  -9.2055    139.5397    190.7820   1.1023829273e+02   1.9428469620e+01    0.2830088    0.1970882  75.65  0.001082535    1.875    0.467
       170  -8.6744     22.1960    192.3684   1.3172780208e+02   3.4454859625e+01    0.1386402   0.06486503  49.94 0.0005864647    1.702    0.412
       171  -7.8332    178.8618    191.5986   1.0323665064e+02   1.2625482197e+01    0.1648687   0.09812214  51.09  0.000438984    1.568    0.362
       172 -10.5177     92.1711    188.5758   1.1879649098e+02   2.6996075576e+01     0.819136    0.2799088  52.84  0.003701198    2.892    0.654
       173  -8.5906    148.3960    189.2299   1.0838738192e+02   1.8189401568e+01     0.215982    0.1631228  75.89 0.0007721917    1.659    0.397
       174  -9.0438    129.3024    188.7230   1.1185912280e+02   2.1403603362e+01    0.2584277    0.1733666  75.39 0.0008469587    1.915    0.478
       175  -8.3284    237.1835    188.5412   9.2875367588e+01   2.8406830553e+00     0.199453     0.150641 -11.67 0.0006346535    1.372    0.271
       176  -7.7267    210.2977    189.6500   9.7479487619e+01   7.3570429790e+00    0.1081509   0.09521455  73.86 0.0004020844    1.685    0.407
       177  -9.3585    155.9724    187.4944   1.0673886161e+02   1.7157029832e+01    0.3103666    0.2103385 -67.63  0.001114932    2.187    0.543
       178  -9.8841    120.9521    186.7187   1.1316151493e+02   2.3043322581e+01    0.4484054    0.2455704 -75.07  0.002219452    2.954    0.662
       179  -8.5808     34.4419    188.4653   1.2935655792e+02   3.3931139460e+01    0.2333133   0.09736189  65.45 0.0009204938    2.313    0.568
       180  -8.7825    216.5424    187.9089   9.6134959705e+01   6.4633321751e+00    0.2031055    0.1779893  55.60  0.000745099    1.478    0.323
       181  -8.7817    191.5551    187.3125   1.0031199851e+02   1.0945044083e+01    0.2443311    0.1970115 -76.94 0.0009721095    2.046    0.511
       182  -9.1847     54.7598    186.8424   1.2557193752e+02   3.2029444465e+01     0.359743    0.1763546  75.23  0.001814729    2.282    0.562
       183  -7.8433    230.3896    187.2523   9.3741642083e+01   4.1329758341e+00    0.1425482    0.1098328 -30.92 0.0005216033    1.607    0.378
       184  -8.8959    164.8732    186.7623   1.0499801420e+02   1.5722921045e+01    0.2345012    0.1890349  70.65  0.000978388    1.506    0.336
       185  -9.3032    109.5666    186.1441   1.1523952103e+02   2.4884064000e+01    0.3096189    0.2021391  76.64  0.001354654    1.830    0.454
       186  -8.6105    249.2256    185.5591   9.0451533615e+01   1.1163566039e+00    0.1890399    0.1762726  -9.21 0.0008230105    1.478    0.323
       187  -9.0534    183.0126    184.9965   1.0144182004e+02   1.2763943116e+01     0.249476    0.1780911 -48.58  0.000902256    1.822    0.451
       188  -8.7312    210.1517    184.3441   9.6596634258e+01   8.0009690220e+00    0.1864612    0.1502808   5.75 0.0004801997    1.235    0.190
       189  -8.3318    202.8292    184.7510   9.7921088778e+01   9.2565977705e+00    0.1918966    0.1607382 -74.16 0.0008043056    1.961    0.490
       190  -9.2459     66.6260    184.4044   1.2315909022e+02   3.1049087161e+01    0.3130621    0.1657989  63.64   0.00121498    1.815    0.449
       191  -8.5458    224.1067    183.6405   9.4133277155e+01   5.6147090767e+00    0.1787789     0.160059  -4.66 0.0005840862    1.276    0.217
       192  -8.1884    197.0176    183.9134   9.8787009828e+01   1.0399123375e+01    0.1765613    0.1472144  72.58 0.0007170902    1.697    0.411
       193  -8.8566    174.2594    183.6433   1.0279694833e+02   1.4505249422e+01     0.228884    0.1862895  74.75   0.00073957    1.619    0.382
       194  -8.9964    241.1298    181.7864   9.1041841020e+01   2.8587830890e+00    0.2592766    0.2061182 -60.89  0.001541276    2.466    0.595
       195  -9.0717     44.5732    182.6012   1.2710331510e+02   3.3896227203e+01    0.2748838    0.1372802  64.01  0.001233355    1.828    0.453
       196  -7.8714      1.7915    183.6257   1.3477132048e+02   3.7708415447e+01    0.1305035    0.0623713  50.33 0.0008326005    1.686    0.407
       197  -7.9787    235.2357    181.9468   9.2013928304e+01   3.8569941239e+00    0.1429168   0.09590296 -21.11 0.0004821273    1.592    0.372
       198  -9.3086    147.4794    180.5512   1.0727575130e+02   1.9650147740e+01    0.2859385    0.2123579  82.93  0.000985343    1.838    0.456
       199  -7.8295     83.3255    182.6460   1.1982582424e+02   2.9212332449e+01    0.1208083   0.07162498  69.56 0.0007046784    1.766    0.434
       200  -9.6611     25.4960    178.8822   1.3033221064e+02   3.6472286629e+01     0.486683    0.1732626  75.67   0.00223491    3.802    0.737
       201  -8.7430    137.6956    179.4010   1.0896431368e+02   2.1491958120e+01    0.2509339    0.1762483  74.73 0.0009422753    1.815    0.449
       202  -9.5001    191.5417    178.3428   9.8796731971e+01   1.2102914176e+01    0.2859148    0.2267953  59.09 0.0006440923    1.470    0.320
       203  -8.3671    169.4569    178.9340   1.0290861330e+02   1.6024221487e+01    0.1599505    0.1253512 -44.20  0.000827221    1.531    0.347
       204  -9.2377     35.7778    176.6678   1.2828346345e+02   3.5863134743e+01    0.4173176    0.1603975  80.63  0.001895071    3.746    0.733
       205  -9.5679    248.4736    176.7141   8.8952203821e+01   2.1182657464e+00    0.3448914    0.2437821 -38.00  0.001882721    1.928    0.481
       206  -8.5565    250.3984    172.7786   8.7913169816e+01   2.1863128403e+00    0.1811956    0.1521818 -11.02 0.0005356359    1.303    0.233
       207  -8.7748    205.1109    177.7056   9.6296328366e+01   9.7096414295e+00    0.1888984    0.1693349 -32.88 0.0005185913    1.391    0.281
       208  -8.7806    129.2802    177.5529   1.1031453635e+02   2.3188345087e+01    0.2481294    0.1671608  87.97 0.0009238997    2.154    0.536
       209  -8.6653    231.1756    176.8472   9.1743204673e+01   5.1165183230e+00    0.1879331    0.1587125 -24.11 0.0006764667    1.417    0.294
       210  -8.2532    217.6655    177.2281   9.4059339178e+01   7.4900186592e+00    0.1656497    0.1591522 -30.43 0.0007061427    1.411    0.291
       211  -9.3525    183.1728    176.2534   9.9941860482e+01   1.3912080415e+01    0.2192878    0.2082041 -62.79 0.0006657075    1.350    0.259
       212  -9.4109    104.4976    174.9900   1.1480911487e+02   2.7527698048e+01    0.4824369    0.2300945  63.15  0.002179486    2.878    0.653
       213  -8.1662     97.7080    177.5653   1.1646601143e+02   2.8084499243e+01    0.2066254    0.1033088  38.18 0.0007233866    1.967    0.492
       214  -8.9443     88.9522    176.8265   1.1808853805e+02   2.9457177585e+01    0.2369954    0.1566836  80.42 0.0009342908    1.642    0.391
       215 -10.1003     57.3221    173.3420   1.2389679377e+02   3.4123856143e+01    0.6670843    0.2829251  77.24  0.002781317    4.162    0.760
       216  -8.8282     13.0828    176.8601   1.3245353731e+02   3.7946030910e+01    0.2264744   0.08928064  64.84  0.001336181    2.282    0.562
       217  -7.4445    211.6892    176.3300   9.4913868785e+01   8.6797926194e+00    0.1126232   0.09972853  76.83 0.0007042201    1.669    0.401
       218  -9.3334    158.8383    175.1337   1.0427251798e+02   1.8483458054e+01    0.3599931    0.2317074  71.97  0.001407187    2.461    0.594
       219 -10.6934     75.9521    170.5473   1.1993858145e+02   3.2332011632e+01    0.9228946    0.3603921 -78.52  0.003560349    4.617    0.783
       220  -8.9149     78.8465    158.6664   1.1793841466e+02   3.4144416860e+01    0.3275437    0.1443502  30.05  0.001456655    3.240    0.691
       221  -8.3026    224.2597    174.2662   9.2408645104e+01   6.6425410544e+00    0.1502414    0.1426687  33.75 0.0005812461    1.349    0.259
       222  -9.4677    175.7473    172.3452   1.0062953977e+02   1.5822770996e+01    0.2517715    0.2214648 -39.14 0.0008093769    1.344    0.256
       223  -8.3488    143.0056    172.9568   1.0696010884e+02   2.1610213308e+01    0.1941665    0.1416888  73.04 0.0006769955    1.689    0.408
       224  -8.5151    134.7381    171.8899   1.0840848091e+02   2.3201847510e+01    0.2127036    0.1651491 -86.38 0.0007710979    1.597    0.374
       225  -9.6401    121.3903    170.5575   1.1084829995e+02   2.5644712157e+01    0.3107535    0.2252873  86.10  0.000948178    1.699    0.411
       226  -9.2620     44.8497    170.6745   1.2607885311e+02   3.6002890154e+01    0.3394286     0.163895  86.18  0.001374664    2.287    0.563
       227  -8.5789    205.8990    170.4638   9.4843363096e+01   1.0470728658e+01     0.207944    0.1770418 -49.78 0.0007374057    1.597    0.374
       228  -8.5307    198.7596    170.4070   9.6093919789e+01   1.1809600600e+01    0.2184139    0.1972749  72.55 0.0008257094    1.473    0.321
       229  -8.4333    237.1260    169.7085   8.9435823717e+01   4.8392346453e+00    0.1864639    0.1616126 -16.68 0.0005631347    1.332    0.249
       230  -8.6421    230.5781    170.1618   9.0591037677e+01   5.9670251163e+00    0.2035754    0.1559597  39.97 0.0007916454    1.242    0.195
       231  -9.1220    167.3123    168.8300   1.0160270792e+02   1.7891942373e+01    0.2722724    0.2106059  89.87 0.0008503948    1.940    0.484
       232  -8.6861    149.8526    169.6066   1.0509105746e+02   2.0939715843e+01    0.2201077    0.1664171 -76.56 0.0006661116    1.804    0.446
       233  -8.1876    244.4004    169.2728   8.8187311623e+01   3.5939655368e+00    0.1517785    0.1099777 -27.84 0.0003311687    1.563    0.360
       234  -8.5018     88.4538    168.7528   1.1721882745e+02   3.0964087535e+01    0.2025474    0.1092238 -70.61 0.0008750829    2.051    0.512
       235  -8.1537    218.9350    168.3529   9.2196394894e+01   8.3091875530e+00    0.1786644    0.1401076  31.60 0.0004445764    1.071    0.066
       236  -7.9905    211.4698    168.0726   9.3425345010e+01   9.7318214319e+00    0.1749729    0.1234627 -26.69 0.0005943126    1.559    0.359
       237  -8.7249    111.6557    167.4276   1.1234977390e+02   2.7744106833e+01    0.2863465    0.1757473  72.52  0.001141823    2.131    0.531
       238  -8.9120    191.9060    166.6037   9.6626111402e+01   1.3606005085e+01    0.2140564    0.1868739 -40.94 0.0005679282    1.394    0.283
       239  -8.4294    185.0765    166.7017   9.7895279593e+01   1.4882721453e+01     0.196576    0.1785665 -51.73 0.0005635205    1.380    0.276
       240 -10.1927     95.2582    162.6240   1.1503605907e+02   3.1101335330e+01     0.772925    0.4503787 -88.93  0.003077135    2.446    0.591
       241  -9.1765     20.3316    165.8347   1.3043021990e+02   3.9293499666e+01     0.306547     0.126218  68.45  0.001563313    2.450    0.592
       242  -8.4653     13.0281    167.5054   1.3191779731e+02   3.9622248558e+01    0.1468455   0.05005053  54.82  0.000809736    2.510    0.602
       243  -9.9099    136.7389    164.5037   1.0684519158e+02   2.4081537119e+01    0.5390804    0.2557882  59.29   0.00207453    2.844    0.648
       244  -7.9099    250.5999    164.7804   8.6342698091e+01   2.9738870641e+00    0.1559221     0.108295 -28.53 0.0006640482    1.608    0.378
       245  -9.4080    246.3493    163.3853   8.6735730436e+01   3.8743827002e+00    0.2812775    0.1918389 -30.13  0.000850783    1.651    0.394
       246  -8.4045    243.8531    159.5132   8.6364273081e+01   4.7430814674e+00    0.3879882    0.1400504  33.00  0.001523526    3.010    0.668
       247  -8.2758    233.8828    165.0826   8.9072170776e+01   5.9395844716e+00    0.1741237    0.1641414  12.47 0.0006129729    1.307    0.235
       248  -8.7750    213.0612    163.6737   9.2309432810e+01   9.9819257590e+00    0.2406379    0.1772058 -45.32 0.0007995176    1.804    0.446
       249  -8.8262    159.4877    164.3585   1.0232582154e+02   2.0018348362e+01    0.2542823     0.219319  88.61 0.0007710335    1.442    0.306
       250  -9.8095     33.4573    163.2368   1.2768825661e+02   3.8545272956e+01    0.4727778    0.1711454  57.83  0.002225107    2.784    0.641
       251  -8.2563    239.9579    164.1750   8.7909187787e+01   4.9369847942e+00    0.1741114    0.1559852  25.70 0.0004749866    1.247    0.198
       252  -8.7440     59.2879    163.6436   1.2254841637e+02   3.5677866830e+01    0.4639524    0.1694522  28.61  0.001849692    4.719    0.788
       253  -8.8920     60.6832    160.5520   1.2193665448e+02   3.6092523264e+01    0.2944035    0.1641795  74.89  0.001350037    1.987    0.497
       254  -8.6710    204.8739    162.9006   9.3596596832e+01   1.1635763622e+01    0.1998528    0.1744106 -29.74 0.0004786587    1.338    0.253
       255  -9.3159      3.3080    162.4155   1.3344527197e+02   4.1331179152e+01    0.3081881      0.11588  57.64  0.001752737    2.275    0.560
       256  -9.2578    177.5192    160.8328   9.8223664642e+01   1.7163513888e+01    0.2946449    0.2527823 -66.79 0.0009559118    1.537    0.350
       257  -8.9012    151.6357    161.1733   1.0331057495e+02   2.1967797202e+01    0.2716696    0.2085802 -87.13  0.001030269    1.813    0.448
       258  -8.5958    227.5467    159.3241   8.8987194895e+01   7.7798984937e+00    0.2328086    0.1970929 -60.55 0.0009073486    1.864    0.464
       259  -9.8765    250.0979    157.6549   8.5007932261e+01   3.8159407167e+00    0.3476201    0.1685624 -25.88     0.001183    2.072    0.517
       260  -8.3393    236.8965    158.8237   8.7345512266e+01   6.0949032924e+00    0.1570714    0.1488649  18.94 0.0004387092    1.318    0.241
       261  -9.1873    167.7661    157.4972   9.9473952707e+01   1.9531564400e+01    0.3243303     0.245064 -88.64    0.0013886    2.074    0.518
       262  -8.6338    128.0826    159.1579   1.0773117691e+02   2.6489876680e+01    0.2322962    0.1580615  61.88 0.0006835291    1.550    0.355
       263  -9.7376    105.7913    157.8309   1.1215990797e+02   3.0382581929e+01    0.4344274    0.3004253  89.21   0.00145728    1.760    0.432
       264  -8.7689    196.4251    157.8822   9.4142467380e+01   1.3935117947e+01    0.2275471    0.1988985  67.55 0.0006843907    1.449    0.310
       265  -8.3692    188.1409    157.7292   9.5638518805e+01   1.5566376859e+01    0.2067826    0.1795629 -42.21 0.0006006287    1.373    0.271
       266 -10.5622    216.2941    152.7858   8.9585804784e+01   1.0738516137e+01    0.4550693    0.3423288 -59.54   0.00169332    2.161    0.537
       267  -9.0862    157.7261    156.0375   1.0117919274e+02   2.1666408177e+01    0.2609606    0.2003156 -83.30  0.000905721    1.875    0.467
       268  -9.5846    119.5197    155.5289   1.0891970317e+02   2.8580508163e+01    0.3657629    0.2421852  89.28  0.001567471    2.192    0.544
       269  -8.6357    144.8310    155.1493   1.0361515646e+02   2.4207803465e+01    0.3152331    0.2123596  72.11  0.001315007    2.055    0.513
       270  -9.4610     81.5960    154.8285   1.1686264228e+02   3.4496437395e+01    0.3972534    0.2231927  70.95  0.001431459    2.230    0.552
       271  -9.0526     49.4419    155.1547   1.2370332062e+02   3.8409643051e+01    0.3021007    0.1584183  73.26  0.001399857    2.109    0.526
       272  -8.9858     33.9421    156.3525   1.2701615119e+02   3.9792716286e+01    0.2477661    0.1175951  36.19  0.001484261    2.186    0.542
       273  -8.6158    242.5646    155.0395   8.5668473038e+01   5.4744007850e+00    0.1830841    0.1678467  19.44 0.0005186824    1.254    0.202
       274  -7.8728    239.7009    153.2969   8.5772679984e+01   6.2028160291e+00    0.1869448    0.1500445  38.36 0.0004138103    1.238    0.192
       275  -7.7980    204.7120    155.3611   9.2147161802e+01   1.2662384415e+01    0.1212982    0.1065051 -80.68 0.0007024197    1.689    0.408
       276  -9.5695     67.9569    153.7072   1.1963064010e+02   3.6504326658e+01    0.3668156    0.2010319  69.56  0.001430936    2.122    0.529
       277  -8.3600    232.8234    153.7627   8.6989342917e+01   7.4418692452e+00    0.2272503    0.1446209 -35.21 0.0008671771    1.801    0.445
       278  -9.6545    132.8046    153.0724   1.0572825860e+02   2.6729953214e+01     0.386124     0.271557  73.31  0.001332439    1.800    0.444
       279  -9.1816    133.4890    148.4976   1.0477607891e+02   2.7413354863e+01    0.2628462    0.2254475 -33.12  0.001162054    1.352    0.261
       280  -8.7113    151.8176    152.6297   1.0173726647e+02   2.3334430591e+01    0.2042552    0.1564001 -51.13 0.0006050146    1.482    0.325
       281  -9.5144     20.2853    152.8644   1.2951099240e+02   4.1718486146e+01    0.1792002    0.1125498  55.47 0.0007817216    1.427    0.299
       282  -8.3200    182.6201    151.6209   9.5480137443e+01   1.7537034039e+01     0.243517    0.1908491  89.82  0.001059266    2.002    0.501
       283  -8.9533     98.3989    150.9214   1.1269878698e+02   3.2805414482e+01     0.285151    0.1884112  83.73  0.001110963    1.897    0.473
       284  -9.3596     29.3475    150.6778   1.2747310467e+02   4.1318132869e+01    0.3807883    0.1585114  70.20  0.001880012    2.909    0.656
       285  -9.5415    248.7438    149.5445   8.3562774521e+01   4.9442886596e+00    0.2856217    0.1850749 -16.48  0.000956644    1.495    0.331
       286  -8.8230    243.2043    150.2617   8.4585883581e+01   5.8929980257e+00    0.2358475    0.1604674 -31.93 0.0006475367    1.635    0.388
       287  -8.8408    189.4659    150.0357   9.3868904941e+01   1.6412506873e+01    0.2797419    0.2195913 -67.29 0.0008231311    1.905    0.475
       288  -8.3770    162.8151    150.7819   9.9176660489e+01   2.1541493873e+01    0.2334121    0.1735241 -75.89  0.001057958    2.022    0.506
       289  -8.8839      2.6719    150.1379   1.3286126688e+02   4.3650421216e+01    0.2313342   0.09723847  86.77  0.001363438    2.099    0.524
       290  -8.2012    237.0548    150.3425   8.5592689991e+01   7.0408952491e+00    0.1792125    0.1455893  25.98  0.000499966    1.071    0.066
       291 -10.1741     39.8060    147.3623   1.2495760527e+02   4.0939394448e+01    0.5633924    0.2880107  81.26  0.002455671    2.155    0.536
       292  -8.2911    198.8009    149.0744   9.1943412275e+01   1.4688102133e+01    0.1858686    0.1807316  84.16 0.0005295578    1.312    0.238
       293 -10.1247     89.1080    146.0993   1.1400630257e+02   3.5108139138e+01    0.5944414    0.3276308  88.48  0.002613332    3.069    0.674
       294 -10.8727     54.8961    143.3392   1.2122799169e+02   4.0098822993e+01    0.8758425    0.4604471 -80.98  0.003393629    1.976    0.494
       295  -9.0727    233.3083    147.5697   8.5627862955e+01   8.0834394892e+00     0.235528    0.1662908 -20.27  0.001008768    1.424    0.298
       296 -10.2905    149.0496    145.0807   1.0087813666e+02   2.5128244669e+01    0.5189587    0.3562079  81.89  0.001793372    2.367    0.578
       297  -9.1924    149.7511    137.2623   9.9180024163e+01   2.6338142169e+01    0.6425729    0.3744758  14.06  0.002234914    4.164    0.760
       298 -10.4224    106.9256    144.3910   1.0980104081e+02   3.2704154732e+01    0.7031221    0.4334536  84.76  0.002423957    2.566    0.610
       299  -9.0069     78.0590    147.1429   1.1659354768e+02   3.6455639133e+01    0.2560853    0.1625899  78.13 0.0008013989    1.813    0.448
       300  -7.9674    223.3124    146.9656   8.7174312900e+01   1.0101736172e+01    0.1800328    0.1542221   7.12 0.0003998425    1.079    0.073
       301  -9.7995    139.1189    145.0043   1.0294434925e+02   2.7004422922e+01     0.447495    0.2807782 -67.45  0.001325933    2.276    0.561
       302  -9.3073    140.1981    136.9925   1.0116402227e+02   2.8222284503e+01    0.3554591    0.2559402  -9.31  0.001656086    2.121    0.529
       303  -9.4257     13.5198    146.3577   1.3041100512e+02   4.3529633487e+01    0.3014827    0.1229167  58.41  0.001302742    2.336    0.572
       304  -9.1354    241.5321    137.1931   8.2075391393e+01   7.7215738102e+00     0.299444    0.1839533 -14.00 0.0009186725    1.637    0.389
       305  -8.4662    240.1939    145.2440   8.4017727694e+01   7.0370830239e+00    0.2115911    0.1575538  -2.14 0.0004294179    1.259    0.205
       306  -7.9010    206.7594    146.5721   8.9983269114e+01   1.3440317746e+01    0.1737272     0.122366  52.56 0.0005676807    1.487    0.327
       307  -8.3220    175.3645    146.0423   9.5760262149e+01   1.9824628724e+01    0.1814943    0.1702013 -29.59 0.0006577857    1.185    0.156
       308  -9.0841    247.0944    143.8723   8.2631440895e+01   5.8853119981e+00    0.2552876    0.1660549 -13.31 0.0006691203    1.490    0.329
       309  -8.9668    165.6939    144.0686   9.7277340415e+01   2.2060634374e+01    0.2810516    0.2127041  71.28 0.0009056993    1.702    0.412
       310  -9.8721    124.8228    142.2376   1.0550016665e+02   3.0084577933e+01    0.5421733    0.3273796 -69.52   0.00199185    2.308    0.567
       311  -7.9177    194.3628    144.0754   9.1725266221e+01   1.6290110657e+01    0.1758491    0.1241556 -45.33 0.0004490844    1.710    0.415
       312  -9.0889    243.2034    142.1157   8.2871687579e+01   6.8246028971e+00    0.3494773    0.1707425 -17.38  0.001606131    2.211    0.548
       313 -10.7429     73.2537    128.8560   1.1501651705e+02   4.0741719744e+01    0.6155478    0.2931108 -60.79  0.002280133    1.978    0.494
       314 -11.0055     69.5475    141.5012   1.1771793273e+02   3.8685033184e+01    0.6103542    0.3770128  86.99   0.00341997    1.855    0.461
       315 -10.0767     68.6803    134.7547   1.1697513515e+02   4.0144160142e+01    0.4295798    0.2399375  26.21  0.002204817    2.486    0.598
       316  -9.3212      2.7379    141.6235   1.3231276186e+02   4.5262148270e+01     0.330252    0.1329085  72.98  0.001729946    2.501    0.600
       317  -8.4795    182.0344    141.9709   9.3623620306e+01   1.9107301444e+01    0.2016589    0.1680904 -88.99   0.00054617    1.695    0.410
       318  -8.4977    250.4940    140.9276   8.1474872846e+01   5.5763669950e+00    0.1855766    0.1171932 -20.22 0.0005536259    1.525    0.344
       319  -8.5098    134.0000    140.0032   1.0309035188e+02   2.8838801727e+01    0.2084648   0.07619911 -47.37 0.0008018455    2.938    0.660
       320  -9.9376     23.4180    138.2764   1.2764737544e+02   4.4273625930e+01    0.4419564    0.1913667  69.50  0.001808044    2.678    0.627
       321  -8.7608    172.3670    138.3800   9.4766467968e+01   2.1634907738e+01    0.2737823    0.2232098 -88.05 0.0008499334    1.721    0.419
       322  -7.9849    218.5279    138.5373   8.6192349935e+01   1.2136469834e+01    0.1374793    0.1179475  20.12 4.806449e-05    1.003    0.003
       323  -8.2734    207.6442    138.1083   8.8017482810e+01   1.4416957888e+01    0.2002136     0.167268 -46.17  0.000731555    1.487    0.328
       324  -8.5642    197.5090    137.5361   8.9742700217e+01   1.6588085771e+01    0.2374147    0.2162013 -87.98 0.0007540943    1.465    0.318
       325  -8.6077     80.7642    137.6049   1.1460720067e+02   3.7960116578e+01    0.2220573    0.1428373  51.93  0.001279148    1.507    0.337
       326 -10.3374     83.4406    132.9417   1.1325880953e+02   3.8513380444e+01    0.5184324    0.2874078 -72.80  0.001347875    2.067    0.516
       327  -9.4424     38.9873    135.9628   1.2394992859e+02   4.3278959739e+01     0.310759    0.1698304 -85.84  0.001106546    1.770    0.435
       328  -8.9077    248.2249    135.3365   8.0617665656e+01   6.6418057633e+00    0.2662154     0.193637 -32.23 0.0007945174    1.519    0.342
       329  -8.3939    246.9964    130.4824   7.9738512663e+01   7.4410743601e+00    0.2315034    0.1677456 -33.61 0.0006435917    1.531    0.347
       330  -8.8310     85.1072    122.6568   1.1112176197e+02   4.0350077141e+01     0.366462    0.2368326  12.36  0.001706876    2.887    0.654
       331  -8.2375    162.6476    136.3856   9.6312521904e+01   2.3928868879e+01    0.1980312    0.1617384  82.75 0.0007041511    1.599    0.375
       332  -7.6664    187.5514    135.5367   9.1184657382e+01   1.8949373555e+01    0.1372245    0.1267332  34.54 0.0001023914    1.079    0.074
       333  -8.7674    179.3221    133.8307   9.2410157377e+01   2.0923536612e+01    0.2936846    0.2108029 -59.25 0.0009549875    1.921    0.479
       334  -8.7842    237.3020    133.7167   8.1990945085e+01   8.9688057588e+00    0.2248928    0.1521415 -24.70 0.0007771078    1.472    0.321
       335  -7.7642    231.3951    134.1920   8.3060901439e+01   1.0090921821e+01    0.1720574    0.1206109 -33.18 0.0003924076    1.548    0.354
       336  -9.0836    112.7540    133.2000   1.0652226116e+02   3.3874569342e+01    0.3099544    0.2228247 -88.91   0.00105117    1.789    0.441
       337  -9.1534    143.0885    131.8357   9.9488868760e+01   2.8589119192e+01    0.2778257    0.2181085 -71.20 0.0007580556    1.577    0.366
       338 -10.1546    132.2418    130.9530   1.0169073932e+02   3.0816193507e+01    0.5826615    0.3614092 -63.84  0.001138822    2.091    0.522
       339 -11.1477    131.0749    118.3522   9.9278348948e+01   3.3385650470e+01    0.8480229    0.5031492 -69.29  0.003187417    2.801    0.643
       340  -9.8139    133.4051    109.0159   9.6587564112e+01   3.4684294390e+01    0.5851266    0.2823303 -51.08  0.002369228    2.310    0.567
       341 -10.6087     98.2581    129.3526   1.0917219868e+02   3.7003821133e+01    0.8271791    0.2924809 -56.09  0.003315576    2.895    0.655
       342  -8.9805    250.6241    129.6453   7.8993896486e+01   6.8311261945e+00    0.4048268    0.1151653 -27.12  0.001325204    3.366    0.703
       343  -8.2822    204.7072    130.3844   8.6834528785e+01   1.6105898194e+01    0.2340392    0.1638547 -41.02 0.0005826438    1.634    0.388
       344  -9.7263    153.0118    128.1737   9.6571645482e+01   2.7270827263e+01    0.6374671    0.2918364 -44.33  0.002450356    2.343    0.573
       345 -10.1522     12.9078    129.2765   1.2919086214e+02   4.6922453347e+01    0.4285098    0.1917045  76.43  0.001999532    2.408    0.585
       346  -8.1676    220.4976    130.0221   8.3963094193e+01   1.2850400426e+01    0.1951441    0.1307179 -23.11  0.000674722    1.510    0.338
       347  -8.1500    211.8053    129.4881   8.5358045672e+01   1.4736979551e+01    0.2398158    0.1771779 -66.53 0.0008809523    2.279    0.561
       348  -7.7971    193.1424    130.4161   8.8985127742e+01   1.8544259440e+01    0.1891558    0.1297651  58.86 0.0004378019    1.658    0.397
       349  -9.2757    168.3562    129.4929   9.3654759443e+01   2.3901097683e+01    0.2697805    0.2311683 -80.99 0.0008761344    1.509    0.337
       350  -8.2213    161.4954    129.9787   9.5176678454e+01   2.5235804070e+01    0.1861887    0.1213145 -65.78 0.0008087331    2.420    0.587
       351  -8.7171     25.8768    129.8010   1.2629129880e+02   4.5750601120e+01    0.1824142    0.1282711 -11.26  0.001137568    2.582    0.613
       352  -7.9743      1.6473    130.2867   1.3176955885e+02   4.7539185300e+01    0.1077363   0.05867296  66.46 0.0007022677    1.666    0.400
       353 -10.5696     59.7449    124.8617   1.1766200747e+02   4.3265598681e+01     0.657907     0.347019  84.13   0.00254542    2.859    0.650
       354  -8.8089     58.6862    115.6407   1.1651816195e+02   4.5304258326e+01    0.2994377    0.2024826 -28.55   0.00148384    2.294    0.564
       355 -10.7258     44.9351    123.7818   1.2110270850e+02   4.5148544163e+01     0.894654    0.4118214  77.01  0.003681446    3.783    0.736
       356 -10.0219    118.0001    125.1166   1.0374300803e+02   3.4517218434e+01    0.5008422    0.3615358 -85.99  0.001344357    1.855    0.461
       357  -8.3878    228.4546    125.4889   8.1587285599e+01   1.1788684587e+01    0.2301506    0.1169069 -38.20  0.000835247    2.182    0.542
       358  -8.9957    179.2013    124.7777   9.0403986761e+01   2.2377567636e+01    0.2646718    0.2366245 -87.45 0.0007857984    1.419    0.295
       359 -10.1524     28.7197    122.6538   1.2486982921e+02   4.6951865801e+01    0.6307887    0.2747401  75.12  0.002826545    3.359    0.702
       360  -9.4197     26.7639    114.2280   1.2438009754e+02   4.8860630803e+01    0.4600236    0.1367538  23.77  0.001832252    5.246    0.809
       361  -7.9874    188.5837    123.8235   8.8347888728e+01   2.0512226164e+01    0.1926176    0.1314128 -45.47 0.0006082071    1.701    0.412
       362  -9.2615    158.8098    121.7376   9.3897701562e+01   2.7195310199e+01    0.3282432    0.2443719 -72.36 0.0007545286    1.924    0.480
       363  -7.7472    202.9839    122.0113   8.5220788902e+01   1.7669258160e+01    0.1701248    0.1528182   2.44 0.0003473975    1.071    0.067
       364  -8.8972    172.0319    121.7728   9.1152435877e+01   2.4394813028e+01     0.237056    0.2071984 -32.29 0.0005079842    1.208    0.172
       365  -9.5940     71.0469    120.0686   1.1413651138e+02   4.2835399087e+01    0.3333123    0.2052998 -89.24  0.000995147    2.049    0.512
       366  -9.8242    141.5849    118.6937   9.6965074162e+01   3.1260081491e+01      0.44774    0.2846345 -61.95  0.001014766    2.090    0.521
       367  -8.6906    141.3394    113.3336   9.5782318567e+01   3.2289372327e+01    0.2654206    0.1939515  16.68  0.001286377    1.780    0.438
       368  -7.8577    103.2144    119.3348   1.0608592478e+02   3.8194919053e+01    0.1873873    0.1150179  50.41 0.0008588749    1.651    0.394
       369  -9.7444      2.9832    117.4037   1.3047236643e+02   5.0012268744e+01    0.4271535    0.1788257  75.71  0.002238268    2.635    0.620
       370  -7.3827    231.3581    117.6962   7.9298994018e+01   1.2177102551e+01    0.1307678     0.111315 -69.17 0.0007039196    1.720    0.419
       371  -8.3751    192.9075    115.3166   8.5501563223e+01   2.0862504968e+01    0.2286229    0.1900067 -39.35 0.0003882522    1.322    0.243
       372  -7.9203    185.6319    115.9328   8.7051351067e+01   2.2374199577e+01    0.2000103    0.1291108 -45.39 0.0005868952    1.777    0.437
       373 -10.0203    109.3686    114.2150   1.0352794002e+02   3.8167899066e+01     0.445035    0.3077854 -83.22  0.001405933    2.021    0.505
       374  -8.9040    109.2604    107.8468   1.0215581072e+02   3.9451645147e+01    0.3290805    0.2355184  16.78  0.001629281    1.971    0.493
       375  -8.0749    249.8581    115.3286   7.5853423753e+01   8.6476439414e+00    0.1964749    0.1067114  40.37 0.0009395299    1.749    0.428
       376  -8.4209    167.3057    114.9189   9.0505640305e+01   2.6547641510e+01    0.2018613    0.1889995  -8.68  0.001151798    1.087    0.080
       377  -7.7073    153.2823    115.6396   9.3669353536e+01   2.9412114255e+01    0.1414803    0.1131474 -79.92 0.0003613063    1.674    0.403
       378 -10.1923     92.7438    112.4117   1.0728022876e+02   4.1283249558e+01    0.5655773    0.3111228 -69.82  0.001343478    2.356    0.576
       379  -8.9294     94.8980    104.0384   1.0496035425e+02   4.2650171989e+01    0.4492371    0.1907002  28.17  0.001485938    4.474    0.776
       380 -10.0538     78.9134    112.6023   1.1083175063e+02   4.3307388098e+01    0.4857481    0.3028645  87.88  0.001714634    2.303    0.566
       381  -9.0110     78.2424    105.4239   1.0961506132e+02   4.4895136957e+01    0.2953348    0.2404595 -26.62  0.001256137    1.535    0.348
       382 -10.0809    121.9967    112.6674   1.0013563536e+02   3.6190965934e+01    0.3660152    0.2659926 -63.75 0.0008546735    1.566    0.361
       383  -8.3963    174.8508    112.0646   8.8256952872e+01   2.5369697387e+01    0.2159719    0.1944493 -69.33 0.0005611376    1.348    0.258
       384  -8.5825    159.2950    111.8576   9.1460242204e+01   2.8796516031e+01    0.2480255    0.2113114 -69.72 0.0006287622    1.436    0.303
       385 -10.1300     66.2340    109.8367   1.1360066562e+02   4.5589941493e+01    0.5153872    0.2753171 -67.94  0.001942485    1.857    0.461
       386  -9.9613     14.1118    111.1774   1.2719540466e+02   5.0503764082e+01    0.3378404    0.1687865  72.61    0.0012434    2.211    0.548
       387  -9.0121    189.5820    108.9119   8.4560503362e+01   2.2580843637e+01    0.3605284    0.2026127 -53.23  0.001115517    2.622    0.619
       388 -10.5049    248.7532    104.7348   7.3515228839e+01   1.0129018546e+01    0.4546148    0.2628089 -23.96  0.002236191    1.621    0.383
       389  -8.8743     42.8651    109.3171   1.1961695821e+02   4.8376720288e+01    0.2561974    0.1174288  17.47  0.001085036    4.205    0.762
       390  -9.6517    118.5438    106.2433   9.9491363146e+01   3.8082515013e+01    0.4391809    0.2750002 -73.90   0.00184907    2.601    0.615
       391  -9.4915    121.6464    104.2454   9.8256874240e+01   3.7885441107e+01    0.2616893    0.1318339 -50.21 0.0006239834    2.059    0.514
       392 -10.4683    109.2876     99.1933   1.0012832442e+02   4.1168004055e+01    0.7112411    0.4277855  72.45  0.002812961    3.066    0.674
       393  -9.0014    107.4719     92.8478   9.9027252234e+01   4.2756122174e+01    0.5641501    0.2688649  29.09  0.002041284    3.375    0.704
       394  -9.6125    150.6447    103.1765   9.1195226492e+01   3.2178520236e+01     0.471064     0.296199 -62.16  0.001314624    2.336    0.572
       395 -10.5342     45.7192    102.3791   1.1778260409e+02   4.9547486709e+01     0.728984    0.3670434  70.75  0.003188729    3.297    0.697
       396  -9.5258     45.8091     92.8371   1.1612068330e+02   5.1566162670e+01    0.3708296    0.2286864  10.53  0.001969476    2.600    0.615
       397 -10.7377     23.0755    102.8155   1.2392217085e+02   5.1550930477e+01    0.6851093    0.3187741  71.16  0.003153554    3.029    0.670
       398  -8.6365    166.6629    104.3059   8.8006973196e+01   2.8470575730e+01    0.2407241    0.2187324 -72.46 0.0006085458    1.307    0.235
       399  -9.3058      6.6814    103.0995   1.2823962686e+02   5.2688766967e+01    0.2719612    0.1465192  71.85  0.001181636    1.930    0.482
       400 -10.0671    128.6780    101.1533   9.5790253821e+01   3.7108658636e+01    0.5464084     0.317672 -33.08  0.001730372    1.970    0.492
       401  -7.8412    175.5156    102.4813   8.5706153675e+01   2.6779807858e+01    0.1460769    0.1395598  25.52 6.264149e-05    1.041    0.039
       402  -8.5612    159.8192    101.0862   8.8638627333e+01   3.0539240896e+01    0.2868655    0.1946937 -49.95 0.0006661089    1.673    0.402
       403  -9.2279     82.0385     99.9758   1.0747373452e+02   4.5479749783e+01     0.336172    0.2203519 -77.60 0.0008757478    1.899    0.473
       404  -9.4221     94.9292     96.7924   1.0330497909e+02   4.4124634167e+01    0.3778528    0.2134603 -57.31 0.0006153109    1.803    0.445
       405 -10.0665     64.0408     96.0743   1.1159347431e+02   4.8769067020e+01    0.5110974    0.3074925  84.19  0.001620997    2.621    0.619
       406  -8.6329     64.3127     88.2496   1.0988005307e+02   5.0388318767e+01    0.3622065    0.2212532 -22.27  0.001651705    2.889    0.654
       407  -9.4374    139.8473    104.7679   9.4052734495e+01   3.4167883952e+01    0.3507547     0.269699 -78.48 0.0007517971    1.772    0.436
       408  -7.6132    171.3262     95.6815   8.4776530620e+01   2.8845758213e+01     0.147628    0.1193822 -76.63 0.0005249472    1.678    0.404
       409  -8.3481    164.8206     94.0981   8.5714239710e+01   3.0599489914e+01    0.2240384    0.1996898 -62.26 0.0006071412    1.304    0.233
       410  -9.5024    139.0071     92.1515   9.0978122591e+01   3.6658186142e+01    0.4142382    0.2794777 -55.20  0.001046753    1.733    0.423
       411  -7.6038    188.5060     93.5550   8.0789385888e+01   2.5183513723e+01    0.1486044    0.1390535  20.06 0.0002133783    1.015    0.015
       412  -8.1407    176.4283     93.3086   8.3095657462e+01   2.8048743110e+01    0.2315305    0.1839626  80.55 0.0005490452    1.657    0.397
       413 -10.5230    123.8581     91.2129   9.4407694476e+01   3.9958937832e+01    0.6030384    0.5114034  24.96  0.001401774    1.271    0.213
       414  -8.3756    157.8266     91.6156   8.6547932509e+01   3.2610820162e+01    0.2404232    0.1744316 -40.83  0.000503285    1.421    0.296
       415  -9.7960     34.7853     89.9628   1.1878349783e+02   5.3263333930e+01    0.4232653     0.220156 -85.81  0.001664879    2.382    0.580
       416  -9.3172     22.8916     90.2118   1.2224021360e+02   5.4225505260e+01    0.2296657    0.1966788 -18.72 0.0009601963    1.531    0.347
       417  -7.9836    150.9852     89.2741   8.7423554957e+01   3.4555445533e+01    0.2014157    0.1937505  31.71 0.0004477668    1.030    0.029
       418  -9.9195     86.3643     86.7814   1.0323266291e+02   4.7551283753e+01    0.4521371    0.3150527 -85.51  0.001181947    2.069    0.517
       419  -8.8874     86.3511     81.3333   1.0184965990e+02   4.8667984769e+01    0.3152384    0.1994771  11.18  0.001240346    2.811    0.644
       420  -7.3421    188.2909     87.3046   7.9132613620e+01   2.6184161164e+01    0.1537455    0.1107614  18.29 0.0003922859    1.572    0.364
       421  -8.0083    164.0268     86.9934   8.3927531371e+01   3.1966764562e+01    0.1864885    0.1643282 -25.08 0.0004098552    1.142    0.124
       422  -9.8842     48.4406     84.2802   1.1371379963e+02   5.3107928308e+01    0.4528041    0.2722151  82.71  0.001812444    2.510    0.602
       423  -7.4403    179.2785     85.6268   8.0412899609e+01   2.8591611584e+01    0.1518768    0.1165942 -62.20 0.0007009142    1.696    0.410
       424  -9.7024    104.7685     83.2815   9.7234423019e+01   4.5139135652e+01    0.4437882    0.2828889 -65.52 0.0009599703    2.087    0.521
       425  -8.4925    105.0306     77.4748   9.5543519184e+01   4.6227791905e+01     0.268798    0.2117467   4.41 0.0008524588    1.598    0.374
       426  -8.7647    157.9963     83.6616   8.4285085965e+01   3.3921874215e+01    0.3202521    0.2174832 -23.86 0.0009609498    1.585    0.369
       427  -9.2127    140.8234     82.7947   8.7941400520e+01   3.7952214008e+01    0.4094557    0.2583304 -50.01  0.001167531    1.770    0.435
       428  -9.5337     10.0393     81.5355   1.2473644481e+02   5.6978400778e+01    0.3679533    0.1840122  77.72  0.001547949    2.569    0.611
       429  -7.6568    170.5020     83.5265   8.1592067609e+01   3.1011776419e+01    0.1487981    0.1442678  17.89 8.532255e-05    1.044    0.043
       430  -9.4907      5.1296     92.2312   1.2747929010e+02   5.5043290343e+01    0.2950068    0.1625517  60.91  0.001258238    2.000    0.500
       431  -9.7921     24.6068     80.3652   1.2018014231e+02   5.6180708548e+01     0.431768    0.2126104 -86.67  0.001432942    2.588    0.614
       432  -8.5431    150.5640     80.8191   8.5117834812e+01   3.6113322933e+01    0.2796899     0.215656 -62.36 0.0008865579    1.627    0.385
       433  -8.9123    119.4980     80.4850   9.2552371343e+01   4.2864805092e+01    0.2927608    0.2111845 -82.98  0.000707521    2.193    0.544
       434  -8.9203     74.4259     80.2533   1.0504698206e+02   5.0691769314e+01    0.3240361    0.2006799 -70.97  0.001230397    2.027    0.507
       435  -9.0953    231.8480     79.2138   6.9602914982e+01   1.6976704516e+01    0.2418841    0.2119836   3.10 0.0003727802    1.060    0.057
       436  -8.5025    166.9150     79.8193   8.1271319886e+01   3.2460341557e+01    0.2515442    0.2117459 -26.70 0.0004635033    1.192    0.161
       437 -10.0555     63.8260     74.7821   1.0687955347e+02   5.3279441954e+01    0.6617005    0.2898429 -66.40  0.002537738    3.253    0.693
       438  -8.8644     63.8562     64.1763   1.0405794585e+02   5.5463158578e+01    0.5177273    0.2869705 -23.44  0.002160043    3.124    0.680
       439  -9.6235    128.1470     75.0952   8.8767110202e+01   4.2076872705e+01    0.4944834    0.2387883 -43.76 0.0008555881    2.086    0.521
       440  -8.1955    157.1648     76.2500   8.2305604304e+01   3.5351025541e+01    0.2063858    0.1767167 -59.17 0.0006235126    1.357    0.263
       441  -8.8546    140.5236     75.1712   8.5771192333e+01   3.9361148186e+01    0.3019483    0.1955612 -48.22 0.0008344073    1.689    0.408
       442  -8.3493    163.4818     73.4942   8.0126441319e+01   3.4296213666e+01    0.2670254    0.1307226 -43.26 0.0009617229    2.213    0.548
       443  -9.6792     82.3655     72.7619   1.0070341767e+02   5.1035359134e+01    0.3704337    0.2608172 -71.06 0.0009339303    1.793    0.442
       444  -9.1362    115.5202     72.4770   9.1238802781e+01   4.5162521563e+01     0.342965    0.2227904 -46.73  0.001077315    1.547    0.354
       445  -9.0614    105.9151     71.8191   9.3644867658e+01   4.7152283766e+01    0.2933723    0.1979588 -54.45 0.0006566585    1.608    0.378
       446  -8.4820     42.3179     72.6604   1.1314780387e+02   5.6217814476e+01       0.2249    0.1298586 -69.57 0.0007962311    1.693    0.409
       447  -7.4081    175.4754     72.5338   7.7392169342e+01   3.1532926498e+01    0.1521943    0.1432231  16.84 8.406242e-05    1.006    0.006
       448  -9.3475     95.1495     71.1384   9.6483189673e+01   4.9239588178e+01    0.3992517    0.2200014 -57.22 0.0008538008    2.144    0.534
       449  -9.6721     97.4064     60.5551   9.2555612919e+01   5.0861919349e+01    0.3458754    0.2695182 -38.98  0.001541416    1.202    0.168
       450  -9.5772     51.5819     69.9492   1.0954415364e+02   5.5788321762e+01    0.4473565    0.2374536 -74.12  0.001595394    2.633    0.620
       451  -8.8679     28.0403     71.0196   1.1739771677e+02   5.7886016754e+01    0.2380271     0.142327 -40.64  0.001008032    1.753    0.430
       452  -8.1686     32.0459     68.4435   1.1556594193e+02   5.8086910554e+01      0.19388    0.1225392  13.77 0.0008382354    2.158    0.537
       453  -9.0911     16.7434     70.1960   1.2089356278e+02   5.8926327000e+01    0.2488557    0.1659983  78.56 0.0009395749    1.734    0.423
       454  -8.7275    147.1112     68.3438   8.2144321497e+01   3.9015597735e+01    0.2828752    0.2078042 -40.68 0.0005801261    1.393    0.282
       455  -8.6825    138.6850     66.5089   8.3534608491e+01   4.1263689414e+01    0.2778429    0.2082125 -60.12 0.0006418833    1.674    0.403
       456  -9.1260    121.6050     65.5838   8.7496327872e+01   4.5169985218e+01     0.448405    0.2256763 -44.40  0.001401737    2.022    0.505
       457  -8.7929     84.2688     64.8869   9.7841049222e+01   5.2300441474e+01    0.4701377    0.2643637  11.54  0.001598576    4.529    0.779
       458  -8.9247     37.2485     64.3586   1.1292589308e+02   5.8468241754e+01     0.289586      0.18743 -83.18   0.00100027    1.903    0.474
       459  -8.9150    110.1767     63.7679   8.9970850374e+01   4.7834006371e+01    0.2693505    0.2320115 -64.83 0.0005548722    1.354    0.262
       460  -8.1330    158.1364     61.8231   7.7654354811e+01   3.7427012261e+01    0.2073828    0.1701856  19.18 0.0002708773    1.273    0.214
       461  -9.6726     73.3259     59.5753   9.9645911808e+01   5.5050935388e+01    0.4070791    0.2306383 -59.43  0.001103762    2.034    0.508
       462  -8.0102     88.8584     59.7775   9.4852106364e+01   5.2523306728e+01    0.1791465    0.1589096 -68.91 0.0005519044    1.304    0.233
       463  -9.8618     23.6307     56.7279   1.1587474573e+02   6.1252308589e+01    0.4301584    0.2467395  88.03  0.002170334    2.687    0.628
       464  -8.4044    130.8476     58.0940   8.2702379151e+01   4.4448074072e+01    0.2219544    0.1996049 -61.56 0.0005302387    1.283    0.221
       465  -9.6773      7.2867     56.9945   1.2169954036e+02   6.2307374281e+01    0.2882282    0.1905025  80.52  0.001131012    1.774    0.436
       466  -8.6943    139.9685     56.4529   7.9958379339e+01   4.2622508921e+01    0.2776591    0.1998063 -48.04 0.0006279197    1.546    0.353
       467  -9.2549    119.0136     55.2788   8.4773671396e+01   4.7515622754e+01    0.4621124     0.211308 -44.12  0.001508946    2.287    0.563
       468  -9.6429     54.3948     55.7472   1.0479969256e+02   5.8382874458e+01    0.3472831    0.2156047 -65.46  0.001291898    1.823    0.451
       469  -8.9296     44.1455     55.7602   1.0836995913e+02   5.9555083439e+01    0.3179046    0.1786032 -65.89  0.001620169    1.894    0.472
       470  -8.5834    105.9443     53.3867   8.7694051053e+01   5.0534793071e+01    0.2640738    0.1892594 -52.31 0.0007390081    1.573    0.364
       471  -9.1072    146.9627     59.5102   7.9358999151e+01   4.0484396016e+01    0.2378797     0.194019 -27.61 0.0004968729    1.215    0.177
       472  -7.9536    127.6092     52.2784   8.1531611378e+01   4.6131347089e+01    0.1470168    0.1177884 -79.87 0.0006998046    1.739    0.425
       473  -9.5673     92.3957     50.5736   9.0690116239e+01   5.3607499130e+01    0.4024741    0.2284994 -49.13  0.001184003    1.865    0.464
       474  -8.1200    149.8082     49.0215   7.5228889517e+01   4.1399787876e+01    0.2061241    0.1154178 -28.93 0.0006078454    1.776    0.437
       475  -8.3705    144.5748     49.0598   7.6394936116e+01   4.2669795327e+01    0.2258825    0.1435014 -29.99 0.0005050423    1.556    0.357
       476  -8.3014    129.9740     49.3325   7.9918079764e+01   4.6066750606e+01    0.2049104    0.1866508  41.97 0.0004111838    1.117    0.105
       477  -8.8929    120.9422     47.5265   8.1557406724e+01   4.8381002085e+01    0.2777681    0.2059956 -32.15 0.0005173915    1.307    0.235
       478  -8.3167    112.1699     46.9478   8.3683343634e+01   5.0361181233e+01    0.2118694    0.1880424 -50.81 0.0005950154    1.259    0.206
       479  -8.8484     82.0998     46.2429   9.2378595491e+01   5.6190734309e+01    0.2855415     0.175534 -45.79 0.0007522652    1.562    0.360
       480  -8.4300     45.0071     44.5485   1.0474430377e+02   6.1718838475e+01    0.2254034    0.1536951 -62.14 0.0005343976    1.526    0.345
       481  -8.9523     16.7814     44.8609   1.1559597606e+02   6.4217424446e+01    0.2034804    0.1373483 -79.07   0.00075536    1.607    0.378
       482  -8.8376    132.8497     43.4777   7.7139744440e+01   4.6299493612e+01    0.3030735    0.2128581 -54.85 0.0008692049    1.798    0.444
       483  -9.0205     58.2409     42.6432   9.9251209456e+01   6.0464927073e+01    0.3072533    0.2005795 -64.74  0.001148837    2.030    0.507
       484  -9.6474      5.1918     42.5416   1.1955121287e+02   6.5419470774e+01    0.2885472    0.1663856 -80.82  0.001304652    1.840    0.456
       485  -8.5385     92.8559     42.8819   8.7771702011e+01   5.4875042022e+01    0.2255826    0.1789372  -2.49 0.0009902872    1.351    0.260
       486  -9.1820     69.6886     41.8229   9.4918477678e+01   5.8984701721e+01     0.338547    0.2385369 -64.66  0.001122882    1.960    0.490
       487  -9.0950     36.2611     41.4663   1.0709370688e+02   6.3253673344e+01    0.3924576    0.2177466 -33.41  0.002105063    1.877    0.467
       488  -9.0775    105.9664     41.0635   8.3233355421e+01   5.2608955379e+01    0.3876746    0.1783078 -41.18  0.001005578    2.170    0.539
       489  -8.7902     95.2664     37.8101   8.5111022374e+01   5.5266728733e+01    0.3934098    0.1664714 -38.00  0.001287351    2.211    0.548
       490  -8.2565     80.8004     37.0651   8.9378829744e+01   5.8029306229e+01     0.202659    0.1702166 -47.15 0.0005295134    1.286    0.223
       491  -9.5225     26.1717     35.6267   1.0928072972e+02   6.5345782839e+01    0.2863821    0.1931726 -70.39 0.0008035994    1.678    0.404
       492  -8.2296    133.1985     36.1932   7.4390654568e+01   4.7270122572e+01    0.1980234    0.1742259 -54.24 0.0005238791    1.320    0.242
       493  -7.8514    125.8036     35.5927   7.5928295523e+01   4.9095071176e+01    0.1814042    0.1432622  65.78 0.0002140874    1.470    0.320
       494  -8.5480    111.7457     34.2037   7.9000005998e+01   5.2452089352e+01    0.3220912    0.1565415 -33.56   0.00135111    1.963    0.491
       495  -8.8763    119.1457     33.0377   7.6608360422e+01   5.0983757326e+01    0.3796576    0.1590599 -36.34  0.001121432    2.324    0.570
       496  -7.9480    140.4288     41.5231   7.4681754146e+01   4.4776851834e+01    0.1485803    0.1404697   4.81 0.0001353371    1.022    0.022
       497  -7.7589     88.5535     34.5257   8.5886547347e+01   5.7069834801e+01    0.1374662    0.1225261 -15.75 7.637119e-05    1.015    0.015
       498  -8.8936     48.5263     33.4741   9.9592213732e+01   6.3429990812e+01    0.2317425    0.1958738 -61.60 0.0006976929    1.393    0.282
       499  -8.6417    226.0632     30.8827   5.7082494879e+01   2.4032668369e+01    0.3026768    0.1997835 -15.82 0.0009092759    1.525    0.344
       500  -8.9419     72.1588     31.5516   9.0114584646e+01   6.0408377377e+01    0.2262095    0.1601573 -42.47  0.000617735    1.364    0.267
       501  -7.6045    139.4483     31.5455   7.1251065328e+01   4.6381728321e+01    0.1480813    0.1388042  14.28 0.0002270701    1.014    0.014
       502  -9.2153     13.0521     30.5286   1.1323053912e+02   6.7363209518e+01    0.2777748    0.1598998 -69.67    0.0011606    1.796    0.443
       503  -8.5043    101.4865     29.4637   7.9952010204e+01   5.5323338207e+01    0.2395791    0.1189106 -40.91 0.0006852045    2.090    0.522
       504  -8.7476     60.5503     32.7119   9.4741566996e+01   6.1974323448e+01    0.2341028    0.1899813 -51.82 0.0005880591    1.351    0.260
       505  -8.9118     81.4576     27.5446   8.5308859507e+01   5.9477748638e+01    0.2656557     0.210447 -54.76 0.0008487019    1.603    0.376
       506  -9.2072      3.6841     27.6212   1.1648127127e+02   6.8513545619e+01    0.2548606    0.1361286 -74.51  0.001455855    2.030    0.507
       507  -8.7901     91.8591     26.3498   8.1505748602e+01   5.7715744916e+01    0.2940359    0.1726059 -44.29 0.0008508092    1.890    0.471
       508  -8.0074    104.4697     22.9805   7.6417896937e+01   5.5613351458e+01    0.2082718    0.1299488 -28.44 0.0004383976    1.527    0.345
       509  -7.8685     34.4936     23.4672   1.0149343927e+02   6.6866753390e+01    0.1199874   0.09806278 -37.71 0.0001051811    1.063    0.059
       510  -9.0865     63.4858     20.8940   8.8710877903e+01   6.3532086054e+01    0.3333239    0.1904808 -45.78  0.001055911    1.854    0.460
       511  -8.9252     48.2582     21.6627   9.4979849061e+01   6.5572254429e+01    0.2383408    0.1856344 -44.35 0.0006938802    1.279    0.218
       512  -7.9616     19.6094     21.7727   1.0744240204e+02   6.8568166575e+01    0.1552115   0.09389083 -59.35 0.0004579072    1.580    0.367
       513  -8.0212    249.4021    249.2176   1.0037670980e+02  -4.2740391423e+00    0.1137792   0.09003468 -16.31 0.0009578606    1.668    0.401
       514  -8.3895     87.7263     17.4601   7.8895388402e+01   5.9788042214e+01    0.2439615    0.1446661 -36.89 0.0006299661    1.681    0.405
       515  -7.6465     39.2679     18.6650   9.7453720268e+01   6.7191899712e+01    0.1105264   0.09010445 -60.68 0.0003025081    1.590    0.371
       516  -7.6260    112.6839     17.2602   7.1826848544e+01   5.4534490001e+01    0.1310199    0.1116298 -65.37 0.0002597504    1.540    0.351
       517  -9.1235    175.8743    247.7600   1.1118455549e+02   6.5619505800e+00    0.2425984    0.1874156  84.84  0.001172832    2.144    0.534
       518  -8.4361     17.0523     14.2905   1.0578083554e+02   7.0161458252e+01      0.15316    0.1255554 -33.52 0.0004716965    1.092    0.085
       519  -8.8684     74.0795     19.4621   8.4269419790e+01   6.2014052884e+01    0.2846852    0.1821818 -48.60 0.0009196923    1.927    0.481
       520  -7.4513     83.6220     11.2745   7.7316348937e+01   6.1401339644e+01    0.1240259    0.1062256 -66.36 0.0007001514    1.698    0.411
       521  -8.7971    156.4710    248.3276   1.1423907459e+02   9.3484174656e+00    0.2005337    0.1329549  66.99  0.000588481    1.913    0.477
       522  -8.6446    132.3383    248.0910   1.1794650793e+02   1.2822387178e+01    0.2036845    0.1143729  61.94 0.0006037581    1.883    0.469
       523  -8.0550      7.5633     15.7480   1.1094088889e+02   7.0582236182e+01     0.149399   0.09095568 -63.98  0.000454206    1.617    0.382
       524  -8.2332    113.1180    248.6322   1.2095160217e+02   1.5389971607e+01    0.1533743    0.1144954  78.14 0.0008755039    1.453    0.312
       525 -10.9875    242.5974    242.4485   1.0044096233e+02  -2.8080744458e+00    0.3105298    0.2130802 -22.97 0.0005025685    1.843    0.457
       526  -8.4860    218.5928    247.8212   1.0470477764e+02   2.4235488717e-01    0.1524691   0.09686339 -18.84  0.001123556    2.006    0.501
       527  -9.1184    103.8868    247.1502   1.2224534382e+02   1.6798386038e+01    0.2444245    0.1452211 -85.56  0.001745054    2.264    0.558
       528  -7.5667     40.6553    248.3208   1.3171190334e+02   2.4085926181e+01   0.09886213   0.04341703  61.97 0.0007049776    1.729    0.422
       529  -8.3521    232.4783    247.0777   1.0255042686e+02  -1.7134808965e+00     0.123604   0.09427235  -8.33 0.0004824265    1.534    0.348
       530 -10.1085    224.0659    244.1202   1.0340860883e+02  -2.4842793660e-01    0.3277781    0.2169345 -34.84   0.00202467    2.152    0.535
       531  -9.1216    210.8475    246.3078   1.0567510047e+02   1.5120455527e+00    0.1704245    0.1581365 -88.86 0.0008149307    1.839    0.456
