#   1 NUMBER                 Running object number                                     
#   2 MAG_AUTO               Kron-like elliptical aperture magnitude                    [mag]
#   3 X_IMAGE                Object position along x                                    [pixel]
#   4 Y_IMAGE                Object position along y                                    [pixel]
#   5 X_WORLD                Barycenter position along world x axis                     [deg]
#   6 Y_WORLD                Barycenter position along world y axis                     [deg]
#   7 A_WORLD                Profile RMS along major axis (world units)                 [deg]
#   8 B_WORLD                Profile RMS along minor axis (world units)                 [deg]
#   9 THETA_WORLD            Position angle (CCW/world-x)                               [deg]
#  10 FWHM_WORLD             FWHM assuming a gaussian core                              [deg]
#  11 ELONGATION             A_IMAGE/B_IMAGE                                           
#  12 ELLIPTICITY            1 - B_IMAGE/A_IMAGE                                       
         1 -11.6704    128.7991     49.3688   5.2754826505e+01   4.6042542650e+01    0.4889996    0.3900877   9.41  0.002095349    1.520    0.342
         2 -10.7149     15.9390      6.0888   7.5473699009e+01   7.2426271423e+01    0.4850875    0.2365397 -36.05  0.002813206    2.025    0.506
         3 -11.0853     12.1491      2.1665   7.5573104366e+01   7.3338470581e+01    0.2842509     0.166188   2.99  0.001283253    1.569    0.363
         4 -10.9772     26.7614      2.6843   6.7855996899e+01   7.1466368898e+01    0.2765712    0.1893576  40.42  0.001404065    1.686    0.407
         5 -10.9605     21.9823     17.2838   7.7717650840e+01   7.0240251976e+01    0.6019802    0.5267047 -22.52  0.004387237    1.413    0.292
         6 -11.6507     21.8223      6.1215   7.2248872348e+01   7.1720562591e+01    0.5545536    0.3251402 -40.65  0.003318047    2.176    0.540
         7 -11.7313     18.8912     29.8893   8.4913912550e+01   6.8634469728e+01     1.159128    0.6307226 -46.23  0.006520278    1.833    0.454
         8 -12.3779    128.6742     11.4807   4.0700723702e+01   5.0479241479e+01    0.4047541    0.2658822  80.48  0.002216384    1.552    0.356
         9 -12.4390    129.0597     19.0769   4.3041408942e+01   4.9666503554e+01    0.2737844    0.2388569 -12.24 0.0005567833    1.335    0.251
        10 -10.6183     98.8596     22.5079   5.0742534568e+01   5.6211141275e+01    0.5634004    0.3642441  39.88  0.003062948    1.407    0.289
        11 -10.9397    108.4743     17.4210   4.6620000866e+01   5.4586080262e+01     0.380485    0.2798983  10.85 0.0001463395    1.593    0.372
        12 -11.7382      8.5935      8.5490   8.1018089139e+01   7.2869253573e+01    0.4376176    0.2188732  31.10  0.002454872    2.120    0.528
        13 -12.3207      4.6107     17.3350   8.7531818989e+01   7.1916205745e+01     0.489981    0.3901264 -38.90  0.002230121    1.420    0.296
        14 -11.0218      9.7574     15.6769   8.3765592670e+01   7.1733060064e+01    0.2752331    0.1631722  -9.12  0.000788715    1.536    0.349
        15 -11.8318    237.9991     17.8512   3.0056238358e+01   2.5322934111e+01    0.2603585     0.174942 -76.89 0.0003360523    1.254    0.202
        16 -11.0286    234.0000     11.5693   2.9124127151e+01   2.6823935432e+01    0.3265463    0.1052319 -37.96  0.001565227    2.665    0.625
        17 -10.4193     33.6986     15.6982   7.1017554685e+01   6.8970181943e+01    0.5305224    0.2760876   4.63  0.002499864    2.672    0.626
        18 -11.1408     48.2155     16.2562   6.4756550102e+01   6.6716276849e+01    0.5861232    0.3328051  13.96  0.002371235    1.988    0.497
        19  -9.5456     43.3882      8.5851   6.3132555439e+01   6.8352989117e+01    0.3892924    0.2099793 -33.51  0.002044128    2.075    0.518
        20 -12.3273     40.5649     16.2115   6.8060140478e+01   6.7916469366e+01    0.4731364    0.3454305 -37.60  0.001374909    1.699    0.412
        21 -10.7305     39.7034     11.0421   6.5956454903e+01   6.8659098007e+01    0.2333134    0.1527651  37.71 0.0004972116    1.461    0.316
        22 -10.5681     70.5921     14.0490   5.5483031719e+01   6.2947679297e+01    0.3513976    0.2151623  -5.57  0.001866781    1.871    0.465
        23 -11.1714     77.5269     11.0772   5.2078757608e+01   6.1857019656e+01    0.4657128    0.1953757  53.06  0.001387431    2.039    0.510
        24 -10.2322     74.3221      2.6215   4.9433427057e+01   6.3234368483e+01    0.2398813    0.2058613 -75.03 0.0008610147    1.670    0.401
        25 -10.1145     62.4084     14.6366   5.8526394231e+01   6.4435011189e+01    0.2329326    0.1887696  67.62  0.001433678    1.758    0.431
        26 -10.5102    117.7296     11.9535   4.2830827065e+01   5.2980937256e+01     0.433195    0.2319485 -13.61  0.002123835    2.417    0.586
        27 -10.2520    100.1669     12.8876   4.6864866119e+01   5.6873977059e+01    0.2727747    0.1834729   2.73  0.001226202    1.802    0.445
        28 -10.4886    157.0669     12.0055   3.6616072423e+01   4.3746890363e+01    0.2082413    0.1345687 -69.56  0.001075913    1.685    0.406
        29  -9.9112    138.3456     11.4778   3.9128673415e+01   4.8208334267e+01    0.2116171    0.1384241 -54.65  0.001158733    1.744    0.427
        30 -10.4189     72.2512      5.2525   5.1170454237e+01   6.3434620527e+01    0.2784964    0.2206264 -84.43 0.0008844675    1.987    0.497
        31  -9.4692     65.5017     11.9743   5.6268214609e+01   6.4130487259e+01    0.1633399   0.09184295  11.80 0.0004702226    2.199    0.545
        32 -12.0472    164.1371      8.1280   3.4701548903e+01   4.2457757871e+01    0.3909032    0.2904166  -9.63  0.001062063    1.819    0.450
        33 -12.6769    214.6287      5.9779   2.9417100689e+01   3.1393343325e+01    0.7581529    0.4122218 -81.68  0.004320692    1.713    0.416
        34 -10.7020    204.2425      1.8740   2.9353039705e+01   3.4018101845e+01    0.3796655    0.1996254  44.30   0.00190434    2.947    0.661
        35  -9.6284    150.5201      5.5526   3.5685751166e+01   4.5873520474e+01    0.2242106    0.1078944  72.20 0.0005404319    1.805    0.446
        36 -11.2491    146.1174      7.0873   3.6706686895e+01   4.6772615714e+01    0.3293706    0.2344319  30.29 0.0009200767    1.743    0.426
        37 -11.0766    148.4098      2.2069   3.5020932963e+01   4.6651180812e+01    0.3579426    0.2047913  70.02  0.001553082    1.459    0.315
        38 -10.3975    191.5212      7.5436   3.1698350227e+01   3.6252917898e+01     0.314593    0.2094908 -41.49  0.001108628    1.529    0.346
        39 -10.9949    187.4784      6.4459   3.1822119167e+01   3.7266419778e+01    0.3152398    0.2529339  86.48  0.001564664    1.057    0.054
        40  -9.8789    100.5410      7.5564   4.4815192172e+01   5.7255722447e+01    0.2061341    0.1244873 -10.90 0.0007546635    2.004    0.501
        41 -11.1228     98.0585      4.2950   4.4154291582e+01   5.8068600376e+01    0.3248172    0.2077679  23.59   0.00182892    1.732    0.423
        42 -10.6161     90.7736      6.8926   4.6831672247e+01   5.9448429810e+01    0.4068665    0.1495832  52.29  0.001837141    2.107    0.525
        43  -9.8864     81.4824      5.8273   4.8791124559e+01   6.1504964285e+01    0.1605693    0.1192906 -14.79 0.0004387959    1.495    0.331
        44 -12.0885    179.0013      4.1697   3.2100584493e+01   3.9400597454e+01    0.2303348    0.1905406 -78.78 0.0003256288    1.072    0.067
        45 -10.0535    118.9966      4.0674   3.9974284896e+01   5.3353615844e+01    0.2343924    0.1587777  89.88   0.00131004    1.672    0.402
        46 -11.0271     67.8667      3.7658   5.1857636586e+01   6.4424992562e+01    0.2227755     0.153961  42.36 0.0004369259    1.182    0.154
        47 -10.1121    243.1206      3.0938   2.6930067369e+01   2.5953875736e+01    0.1555267    0.1350859 -79.08 0.0007323006    1.263    0.208
        48 -11.0939    194.7890      2.2987   3.0217748514e+01   3.6038191352e+01     0.343947    0.1624048 -82.46  0.001683943    2.242    0.554
        49 -10.1540    126.2386      2.9886   3.8416807049e+01   5.1763375007e+01      0.18674    0.1454348  41.45 0.0006323597    1.294    0.227
        50 -10.4024    230.9605      1.5914   2.7401203344e+01   2.8492733395e+01    0.1580874    0.1150503 -84.56 0.0003227454    1.130    0.115
        51  -9.8266    108.0914      1.4508   4.1072605440e+01   5.6043727993e+01    0.1838224    0.1035644  62.57 0.0003503643    1.476    0.322
        52  -9.7411     32.8693      1.3458   6.4162645989e+01   7.0730550590e+01    0.2160216   0.09782123  47.78  0.001086588    2.573    0.611
        53  -9.7750      4.9379    168.9830   1.1777930412e+02   3.7693712498e+01    0.1540398    0.1274887 -88.33 0.0007142936    1.022    0.021
        54 -12.4936    226.5721    245.2770   7.7315945436e+01  -8.9944489680e+00    0.6423647    0.3339376  -7.90  0.003170484    2.422    0.587
        55 -11.4914    237.9918    246.4896   7.5450714195e+01  -1.0524326361e+01    0.2157083     0.185562  28.88  0.001338528    1.637    0.389
        56 -12.2912    232.4656    245.4317   7.6267650638e+01  -9.7290733800e+00    0.6273985    0.2267475 -30.79  0.002885108    2.756    0.637
        57 -11.5352     89.0796    249.5729   1.0613523595e+02   9.6813432228e+00     0.296815     0.226268  36.64 0.0007789338    1.182    0.154
        58 -10.2632     72.5208    250.1367   1.0964597913e+02   1.1813662608e+01    0.2124542    0.1673424  13.80  0.001070186    1.633    0.388
        59 -13.0265     19.2549    237.4293   1.1944593410e+02   2.0705700051e+01     1.631747    0.4113174  57.16  0.005872739    4.331    0.769
        60 -11.7256      4.7304    235.8947   1.2216392207e+02   2.2452917686e+01    0.3893482    0.3334899 -76.35  0.002632555    1.357    0.263
        61 -13.4164      5.9725    245.1165   1.2238774592e+02   2.0462416366e+01    0.9396549    0.6431671  35.20  0.004824868    1.557    0.358
        62 -12.5942     22.1369    249.0592   1.1957745287e+02   1.8043311090e+01    0.7444663    0.2306231  34.91   0.00350542    2.741    0.635
        63 -11.1065     17.4767    247.4795   1.2036752853e+02   1.8844427766e+01    0.2154504    0.1769545  77.77  0.000696161    1.132    0.116
        64  -9.6101     99.1837    164.8395   9.1655139026e+01   2.7293856499e+01     0.202441    0.1762739 -26.28 0.0003578741    1.270    0.212
        65  -9.2763    177.2762    168.6930   7.2958141344e+01   1.2013326382e+01    0.1395325     0.119927 -82.29  0.000220144    1.550    0.355
        66 -10.5220     10.5319    162.9140   1.1581306437e+02   3.8767694369e+01    0.2583989    0.1641852  44.35 0.0009709921    1.648    0.393
        67 -12.7702     21.3973    157.2498   1.1231523567e+02   3.9297376853e+01    0.6351783    0.4837994   4.81 0.0009403654    1.698    0.411
        68  -9.4909    216.3781    155.2018   6.2227004946e+01   7.5925168104e+00    0.1921762    0.1197121 -47.20 0.0003317591    1.562    0.360
        69 -10.2884     11.1415    153.5637   1.1473026300e+02   4.1063199366e+01    0.2754149    0.1681792  18.57  0.001471109    2.011    0.503
        70  -9.2706     85.2046    152.6261   9.3264141607e+01   3.2669953996e+01      0.15016    0.1127905 -86.58 0.0002422056    1.575    0.365
        71 -10.0152    177.3527    150.8632   6.9054187545e+01   1.5741560686e+01    0.2810395    0.2100657  71.02  0.001274604    1.907    0.476
        72 -10.2325    207.0587    146.6678   6.2109734465e+01   1.0894174636e+01    0.1931087    0.1828869   7.31 0.0005577835    1.120    0.107
        73 -10.3740     18.1021    146.6908   1.1201835763e+02   4.2259662803e+01    0.2768457    0.1950346 -19.18 0.0008430771    1.853    0.460
        74 -12.8826     49.4552    161.7375   1.0506858847e+02   3.5266050595e+01    0.5577754    0.4298626  39.61   0.00302325    1.365    0.267
        75  -9.7873    220.4544    143.9640   5.9105825922e+01   8.9695514657e+00    0.2157675    0.1226557 -40.66 0.0006277499    1.540    0.351
        76 -10.5141     54.5590    139.0945   9.9933938116e+01   4.0514065340e+01     0.310656    0.2555823 -52.17  0.001186473    1.136    0.120
        77  -9.4312     14.3011    140.2738   1.1235485427e+02   4.4186564397e+01    0.1313324   0.08666287 -45.24 0.0002171929    1.535    0.348
        78  -9.9545     10.4603    144.4912   1.1395381814e+02   4.3400683860e+01    0.2078963    0.1251626  -6.85  0.001033231    2.384    0.581
        79  -9.3787     82.0237    139.5297   9.1580461443e+01   3.6521959322e+01    0.2156673    0.1207563  56.28 0.0008078733    2.400    0.583
        80  -9.1574     19.6823    139.7009   1.1068977489e+02   4.3913790056e+01    0.1381015   0.08801892 -43.48 0.0005551114    1.616    0.381
        81 -10.4203      9.4075    136.1209   1.1330625171e+02   4.5587215671e+01    0.3321544    0.1139637 -75.82  0.001281908    2.648    0.622
        82  -9.6327      2.6255    135.7774   1.1526496994e+02   4.6110674098e+01    0.1923317     0.104046 -85.04 0.0009545987    1.704    0.413
        83  -9.6322     20.8540    135.1666   1.0973475973e+02   4.4976062802e+01    0.1943941    0.1292316 -55.40  0.001032688    1.323    0.244
        84  -9.9894    249.3026    134.0618   5.2452357491e+01   5.8118238854e+00     0.191772    0.1417607 -38.87 0.0006622248    1.105    0.095
        85 -10.1588    111.7695    132.9824   8.1322775452e+01   3.2948324144e+01    0.2212436    0.1286815 -49.97 0.0008870802    1.673    0.402
        86 -11.1660     54.5788    132.5722   9.8729985299e+01   4.2196582308e+01    0.3617519    0.2620612  46.04  0.001189678    1.518    0.341
        87 -11.2982     36.2384    130.4823   1.0421291719e+02   4.4788441452e+01    0.4983755    0.2504116 -47.39  0.002209892    1.872    0.466
        88 -11.0702     73.8229    129.3209   9.1950171483e+01   4.0387150964e+01    0.3373486    0.3026779 -62.32 0.0009757315    1.081    0.075
        89  -9.2945      9.4563    129.4564   1.1248238722e+02   4.7263399723e+01     0.132468    0.1089961 -68.64 6.549593e-05    1.009    0.009
        90 -10.6725     48.5445    126.0116   9.9431473913e+01   4.4607110980e+01     0.240974    0.1925466  51.91 0.0003393362    1.410    0.291
        91 -10.8227     24.2998    126.0177   1.0732747361e+02   4.7024293036e+01    0.2319747    0.1990823  18.47 0.0003812257    1.358    0.264
        92 -11.0889     21.5712    121.2499   1.0747467684e+02   4.8455120749e+01    0.3037454    0.1895517 -39.49  0.000985536    1.618    0.382
        93 -10.5254     18.0174    125.4925   1.0926425535e+02   4.7657504707e+01    0.3036616    0.1804364 -30.57  0.001327444    1.975    0.494
        94 -10.8722     13.2804    126.0315   1.1084420947e+02   4.7865878384e+01    0.2336897    0.2200371 -29.66 0.0003085042    1.210    0.173
        95 -11.1932     10.8243    122.8345   1.1118945592e+02   4.8837042730e+01    0.2831469    0.2250727 -80.93  0.001126227    1.161    0.138
        96  -9.9832    220.0327    124.2942   5.4896943377e+01   1.2680362476e+01    0.1910161    0.1765978 -42.10 0.0005402975    1.057    0.054
        97 -10.2254      2.6891    122.7004   1.1374583784e+02   4.9369809662e+01    0.3342102    0.1239654 -55.87 0.0008405951    2.087    0.521
        98  -9.8970      1.3368    119.1754   1.1373862611e+02   5.0319150245e+01    0.1985566    0.1441443 -87.80 0.0002693156    1.314    0.239
        99 -10.2805     72.8786    117.8270   8.9662928050e+01   4.3416178880e+01    0.4451907    0.2576194 -74.26  0.001692081    2.520    0.603
       100 -11.1944     14.9857    117.3952   1.0905588622e+02   4.9916745864e+01    0.4472973    0.2331939 -53.68  0.002216399    1.586    0.369
       101  -9.4292    179.2999    116.3341   6.0512325037e+01   2.2485751231e+01    0.1518883    0.1195509  -3.30 0.0006373783    1.653    0.395
       102  -9.9312    213.9952    115.5163   5.3935181575e+01   1.5454342659e+01    0.1913225    0.1418845  51.14 0.0004575627    1.514    0.339
       103 -11.1718    249.3946    112.2604   4.7989253513e+01   9.4796053399e+00    0.2396141    0.1956109 -48.85 0.0004606232    1.061    0.057
       104 -10.1641     94.9724    112.5006   8.1238684926e+01   4.1013462333e+01    0.2907308     0.220617 -65.80  0.000965975    1.504    0.335
       105 -11.1489     38.5145    111.4183   9.9959727377e+01   4.9394215178e+01    0.2555169    0.2336679 -49.09 0.0004970996    1.043    0.041
       106 -11.3935     36.0000    109.0716   1.0036999168e+02   5.0230921300e+01     0.330242    0.1694433 -60.65 0.0006588245    1.700    0.412
       107 -12.1301     14.3000    109.3649   1.0803218547e+02   5.1961733222e+01    0.5104906    0.3328041   9.95  0.002796394    1.836    0.455
       108 -10.7640      2.0088    108.0232   1.1204452571e+02   5.3027465832e+01    0.4802727    0.1549722 -68.00  0.001985809    2.375    0.579
       109 -11.1563     24.2794    107.2506   1.0416873967e+02   5.1738814296e+01    0.2781879    0.2190242  38.17  0.001612159    1.480    0.324
       110 -12.0642     55.0327    109.5452   9.3779178195e+01   4.7960438380e+01    0.4772708    0.2595049 -47.39  0.001263986    1.661    0.398
       111  -9.9460    243.5590    104.5108   4.7159178586e+01   1.1797948286e+01    0.1321219    0.1091054 -46.16 0.0001283208    1.013    0.013
       112 -10.0897     51.2575    104.5837   9.3959500912e+01   4.9647172087e+01    0.1919772    0.1371256   4.93 0.0009459032    1.644    0.392
       113 -10.7392     14.4197    103.3085   1.0697616722e+02   5.3441843284e+01    0.2849486    0.1906585 -18.92  0.001123093    1.695    0.410
       114 -11.2044    121.4766     99.7055   6.9899370364e+01   3.8631396862e+01    0.6658463    0.3972981 -19.27  0.002381978    2.756    0.637
       115 -11.5345    143.7408     98.5634   6.3802727518e+01   3.3972400596e+01     0.665305    0.4177893  51.57  0.002884603    1.636    0.389
       116 -10.2172     66.5347     98.4465   8.6983665384e+01   4.9045825658e+01     0.223678    0.1991703 -35.85 8.301625e-05    1.033    0.032
       117 -10.6840     51.0808     98.7912   9.2631116853e+01   5.1064273984e+01    0.3405186    0.2062309 -32.40  0.001562632    1.755    0.430
       118  -9.9071     23.1110     99.3353   1.0307974881e+02   5.3770217191e+01    0.2794341    0.1273016  17.85 0.0008377474    2.546    0.607
       119 -10.8113     14.3944     96.0244   1.0567749943e+02   5.5207877563e+01    0.5579469    0.1590027 -58.00  0.002200125    2.478    0.596
       120 -11.2860     10.7289     90.5528   1.0603230119e+02   5.6746655161e+01    0.3218045    0.2687075 -60.31 0.0005799278    1.092    0.084
       121 -10.0153      4.6746     98.2279   1.0963259146e+02   5.5262605730e+01    0.2644632    0.1541846  -5.91  0.001396543    2.094    0.522
       122  -9.8421      1.3178     95.8508   1.1047023649e+02   5.6003985083e+01    0.2349218    0.1045047 -72.03 0.0006744126    1.978    0.495
       123 -11.5923     37.6430     94.8845   9.6683729115e+01   5.3516130905e+01    0.3365486    0.2426061  44.18  0.001005613    1.672    0.402
       124  -9.3371    250.2981     95.6833   4.4486115723e+01   1.2040909776e+01    0.1305708   0.08436266 -62.06 0.0004137429    1.611    0.379
       125 -12.4644    158.3752     89.4441   5.7962193677e+01   3.2414920521e+01    0.7697943    0.4479587 -51.57  0.003247746    1.837    0.456
       126 -11.5924    157.2002     82.7770   5.6391221017e+01   3.3916377568e+01    0.9534331    0.4654185  36.34  0.003376751    2.914    0.657
       127  -9.7828    173.4664     83.5093   5.3329813393e+01   3.0019274860e+01    0.2018346    0.1425671  70.28  0.000657621    1.570    0.363
       128 -11.6382    163.9699     88.7260   5.6589893058e+01   3.1260670084e+01    0.4636016    0.2924947 -37.48  0.001644457    1.590    0.371
       129 -12.1480    166.6542     83.9697   5.4774187255e+01   3.1508393455e+01    0.7677287    0.5211474  63.07  0.002557749    1.560    0.359
       130 -11.0622     62.2842     98.8893   8.8608878297e+01   4.9556817164e+01    0.3677647    0.2880301   9.38   0.00121929    1.397    0.284
       131  -9.7167     20.6903     94.6467   1.0304616972e+02   5.5087874070e+01    0.2465715    0.0691893 -54.22 0.0009163971    2.548    0.608
       132 -11.2943     25.6786     91.0823   1.0038725158e+02   5.5535590027e+01     0.371087    0.1986095 -56.11  0.001680639    1.557    0.358
       133 -11.3894     21.7160     87.0497   1.0104120971e+02   5.6804306356e+01    0.4213958    0.2660836 -55.54  0.002003522    1.329    0.247
       134  -9.1782    113.4320     93.5083   7.0399462848e+01   4.1642820963e+01    0.1541531    0.1456234  -7.30 0.0001206644    1.057    0.054
       135  -9.5460     31.4518     92.9862   9.8596599288e+01   5.4573250406e+01    0.2031006    0.1183997 -57.71  0.000358066    1.499    0.333
       136  -9.4198     46.5391     92.5573   9.2757970963e+01   5.3084394859e+01    0.1394134    0.1261691 -39.28 6.358508e-05    1.045    0.043
       137 -10.8785    152.0271     90.8962   5.9756349307e+01   3.3599180436e+01    0.4232496    0.2633584  61.90     0.001806    1.824    0.452
       138 -10.6121     57.8091     89.9874   8.7858010974e+01   5.2242536775e+01    0.3926374     0.244755  21.47  0.001800981    1.764    0.433
       139 -10.5448     96.1908     89.9823   7.4578068393e+01   4.5862173340e+01      0.36992    0.2100846  23.00  0.001412936    2.408    0.585
       140  -9.9668     83.0415     88.7393   7.8517979533e+01   4.8557672289e+01    0.2046032    0.1879018  -1.45 0.0005724244    1.058    0.055
       141 -10.4842     78.1757     88.0203   7.9971077493e+01   4.9554887032e+01    0.3382104    0.3021182   5.96  0.001855693    1.111    0.100
       142 -10.1376     65.1219     87.6525   8.4509214271e+01   5.1720399315e+01    0.2705216      0.22352 -25.62  0.001014245    1.154    0.133
       143 -10.9035     67.3174     83.9987   8.2640247308e+01   5.2189838777e+01    0.3420351    0.2336699   6.83  0.001607982    1.775    0.437
       144 -11.1560      5.9977     82.7528   1.0637653474e+02   5.8843371421e+01    0.4943762    0.1575877 -38.15  0.001961871    2.998    0.666
       145  -9.3086    139.2816     87.6834   6.1840385771e+01   3.7133057744e+01    0.1514387    0.1198831 -77.02 0.0006989324    1.579    0.367
       146  -9.4042    120.7588     87.0169   6.6431653371e+01   4.1402083370e+01    0.1982918     0.127984 -41.57   0.00086781    1.555    0.357
       147 -10.2989     46.1520     87.2684   9.1532795548e+01   5.4352850785e+01    0.2569185     0.192168  47.28  0.001355043    1.656    0.396
       148 -11.6235     30.7907     81.9979   9.6223742318e+01   5.7187548438e+01    0.3737028    0.3056088   3.66  0.001475248    1.289    0.224
       149  -9.1975     79.6525     82.6854   7.7853351534e+01   5.0443075324e+01    0.1549446    0.1108315  -7.39  0.000572421    1.720    0.419
       150 -12.0781     21.1170     80.7938   9.9852170877e+01   5.8294586419e+01    0.7754816    0.3943301 -60.41  0.003213168    1.748    0.428
       151 -10.9508     15.1586     59.8064   9.7016862650e+01   6.3327537227e+01    0.2584585    0.1803688 -28.90 0.0003007048    1.228    0.185
       152 -14.0335     16.6010     67.6889   9.8510529952e+01   6.1548945806e+01    0.6829414    0.4109746   0.72    0.0017307    1.833    0.454
       153 -11.1604     19.8657     61.8546   9.5459562064e+01   6.2536919131e+01    0.3656833    0.2564834 -67.63  0.000976097    1.709    0.415
       154 -11.8973     12.8881     76.7658   1.0230801146e+02   5.9799287908e+01    0.5626051    0.3073239 -29.98   0.00290896    1.790    0.441
       155 -11.9851      8.2986     73.9738   1.0360149669e+02   6.0711131441e+01    0.7473804    0.3429413 -23.21  0.003456594    2.488    0.598
       156 -10.0312     70.8907     79.2669   7.9903942548e+01   5.2633477747e+01    0.2002838    0.1953574  81.51  0.001164131    1.249    0.200
       157 -10.6514     60.9602     78.2281   8.3267546606e+01   5.4386907444e+01    0.3303812    0.2167968 -43.72  0.001244073    1.422    0.297
       158 -10.9866     61.9514     72.0839   8.0968129831e+01   5.5517505422e+01    0.3328279    0.1831042 -42.58 0.0005819649    1.710    0.415
       159  -9.1983    228.7192     78.6823   4.3577806296e+01   1.8838436029e+01    0.1194735    0.1031363  -5.32 0.0003301806    1.579    0.367
       160 -12.7864     44.6195     75.2129   8.8768430437e+01   5.7212883257e+01    0.3050126    0.2738468  40.12 0.0004612468    1.346    0.257
       161 -10.5885     75.9536     74.9359   7.6719665876e+01   5.2676874178e+01    0.3668183    0.2537639  10.57  0.001318775    1.723    0.419
       162 -10.0141     74.3268     71.3259   7.6129776981e+01   5.3673787765e+01    0.2508674     0.187712 -13.98 0.0005378654    1.437    0.304
       163 -11.0606     78.0268     69.8766   7.4335670541e+01   5.3311193826e+01    0.4003842    0.2950446  56.99  0.001030552    1.768    0.434
       164 -10.4856     76.9398     63.4719   7.2556493681e+01   5.4708894851e+01    0.3586405    0.2685114 -40.66  0.001323411    1.364    0.267
       165 -10.6208     56.2535     67.0373   8.1547232797e+01   5.7373838655e+01    0.2876571    0.2371428  36.50  0.001628412    1.356    0.263
       166  -9.7412     48.6979     60.3063   8.2363318657e+01   5.9744095804e+01    0.2044331    0.1295658  31.90 0.0004171626    1.629    0.386
       167 -10.0148     53.9881     74.4898   8.4813418864e+01   5.6164761471e+01    0.2370967    0.1865991 -56.68 0.0005833483    1.415    0.293
       168 -11.7832     50.3670     68.6511   8.4428869957e+01   5.7863282687e+01    0.4553537    0.2586434 -45.27 0.0008015978    1.625    0.385
       169 -10.8080     51.6810     62.7449   8.1958742274e+01   5.8864628823e+01    0.3190565    0.2225335 -26.89 0.0008930418    1.358    0.263
       170 -10.7744    207.5973     73.3812   4.5205884841e+01   2.4074936660e+01    0.2216813    0.2106092 -62.74 0.0002851852    1.117    0.105
       171  -9.8982    145.7140     74.0653   5.6426521915e+01   3.8144159057e+01    0.2129667    0.1908528 -37.77 0.0009144864    1.143    0.125
       172  -9.4274     57.6439     74.6863   8.3447754535e+01   5.5613137776e+01    0.1501561    0.1002661 -14.48 0.0001487635    1.740    0.425
       173  -9.6984    100.4986     71.7752   6.7574070853e+01   4.8636586467e+01    0.1935838    0.1398238 -52.87 0.0005027375    1.598    0.374
       174 -10.1194    129.5606     70.7991   5.9246818838e+01   4.2457485563e+01    0.3864959     0.257497   3.95  0.001564486    2.498    0.600
       175  -9.5032    167.7689     69.8049   5.0755270110e+01   3.3682928659e+01    0.1878874    0.1574893 -79.57 0.0003284807    1.249    0.200
       176 -10.0608    123.3049     69.0281   6.0281411878e+01   4.4189175550e+01    0.2719012    0.2003214  25.61 0.0009299993    1.571    0.364
       177 -11.6111     43.9906     38.3048   7.6217705718e+01   6.4283599977e+01    0.4667114    0.2810937  46.39  0.002386041    2.241    0.554
       178 -10.5605     36.4108     68.9533   9.0307904955e+01   5.9482636773e+01    0.3240732     0.209591  50.49  0.001595604    2.305    0.566
       179 -10.6215     29.7423     66.9539   9.2571688561e+01   6.0587638616e+01    0.3526701    0.2583032  51.55   0.00109795    1.969    0.492
       180 -11.6717     31.4875     62.7244   9.0538551527e+01   6.1294174494e+01    0.6992845    0.4142121  50.67  0.003242431    2.832    0.647
       181 -10.8796     26.7813     55.9652   9.0517905459e+01   6.3123583707e+01    0.2992256    0.1869535 -33.25 0.0004347896    1.384    0.277
       182 -11.8786     26.7121     49.5782   8.8422407396e+01   6.4369593388e+01    0.4895634    0.3750325 -53.57   0.00187674    1.486    0.327
       183 -13.2277     37.4320     49.9214   8.3603179453e+01   6.3130033770e+01    0.8160779    0.6087858 -21.56  0.003403267    1.170    0.145
       184 -11.4105      6.6822     41.3808   9.5536886210e+01   6.7583529688e+01     0.641893    0.1542099 -44.17 0.0008771569    2.896    0.655
       185 -11.3281     10.1822     63.4931   1.0027129651e+02   6.2890535953e+01    0.3917695    0.2818986  10.55  0.001566615    1.513    0.339
       186 -11.5827      7.2070     51.7423   9.8457658726e+01   6.5519736838e+01    0.4400375    0.3030854 -16.20  0.001756164    1.343    0.255
       187 -11.6220     12.7625     51.7940   9.5795258362e+01   6.5135917439e+01    0.4666233    0.2649806 -50.91  0.002081355    1.508    0.337
       188 -10.6810     11.3360     44.8603   9.4311358352e+01   6.6596581264e+01    0.3778896    0.2110556 -51.02  0.001670883    1.588    0.370
       189 -12.0511      5.3173     58.8985   1.0130346443e+02   6.4156314534e+01    0.3697767    0.3185819   4.77  0.001159613    1.311    0.237
       190 -12.2117      6.0934     67.9940   1.0318548400e+02   6.2160750858e+01     0.250724    0.2181444 -50.25 0.0003537031    1.143    0.125
       191 -11.6706      4.3360     64.6977   1.0318446640e+02   6.2973670551e+01    0.2677132    0.1873382   9.63 0.0007694258    1.586    0.370
       192 -11.6833      2.3155     61.6910   1.0337253790e+02   6.3725192942e+01    0.2280347    0.1986216 -83.53 0.0006665461    1.445    0.308
       193  -9.7515     42.7511     68.5771   8.7532456532e+01   5.8839956026e+01    0.1764571     0.123262  34.88 0.0009452907    1.604    0.376
       194 -10.5649     94.1722     66.3121   6.7744627430e+01   5.0919368904e+01    0.3980315    0.2597772   8.75  0.001107503    2.216    0.549
       195  -9.6868     99.5728     65.2524   6.5715834331e+01   5.0007615310e+01     0.204767    0.1774873  23.31 0.0007475715    1.120    0.107
       196  -9.6793    127.6995     66.5648   5.8407339067e+01   4.3610153364e+01    0.1970005    0.1400419  61.98 0.0009347629    1.493    0.330
       197  -9.1942    143.7311     64.3488   5.4025824385e+01   4.0242725510e+01    0.1473469    0.1102442 -69.41 0.0005521523    1.621    0.383
       198 -10.1923    122.5406     64.0522   5.8917108307e+01   4.5208594844e+01     0.258816    0.2177362 -60.77 0.0003783084    1.359    0.264
       199 -10.8363    120.1896     60.8586   5.8502638954e+01   4.6267068607e+01    0.3306304    0.2419178  39.40   0.00144192    1.349    0.258
       200 -10.1903    153.2423     63.6143   5.1833000952e+01   3.8112334028e+01    0.2026732    0.1276566  48.40 0.0004398366    1.583    0.368
       201 -10.6428     85.5256     61.5185   6.8926797714e+01   5.3468597729e+01    0.2773932    0.1347296  45.97 0.0008127046    2.087    0.521
       202  -9.4994    201.7015     61.6984   4.3272948605e+01   2.7180560822e+01    0.1242714    0.1069363  23.02 0.0004830853    1.581    0.368
       203  -9.3908     98.4065     60.4394   6.4452019028e+01   5.1079927174e+01    0.1413814    0.1320221  14.38 1.660585e-05    1.011    0.011
       204 -11.0701     90.7272     74.6102   7.1578070738e+01   5.0044536473e+01    0.2548521    0.1946967 -26.70 0.0005891656    1.335    0.251
       205 -10.1861     55.5981     53.8686   7.7254937791e+01   5.9962719954e+01    0.2982093     0.206349  -7.95  0.001343965    1.555    0.357
       206 -11.6824     59.4257     58.4617   7.7366673634e+01   5.8546758462e+01    0.4325999    0.2758463 -34.29  0.001463994    1.495    0.331
       207 -11.2082     62.6885     50.8606   7.3330101361e+01   5.9377149189e+01    0.3549764    0.2007092 -29.38  0.001007385    1.815    0.449
       208  -9.8519    111.9889     57.7474   5.9650905409e+01   4.8605306383e+01    0.2061502     0.179125  37.20 0.0004324551    1.090    0.082
       209  -9.7187    147.1196     56.8902   5.1121475365e+01   4.0610123871e+01    0.2111623    0.1840428 -73.49 0.0003700988    1.214    0.177
       210 -11.5150     75.2158     56.1004   7.0579238230e+01   5.6328549474e+01    0.2253042    0.2084786 -11.16 0.0002789841    1.100    0.091
       211  -9.7064     68.4453     56.4602   7.3183430605e+01   5.7449040880e+01     0.138261    0.1224075  -0.54 3.605189e-05    1.005    0.005
       212  -9.4250    230.6829     55.3391   3.8331872539e+01   2.1963086591e+01    0.1368469   0.08032402 -64.77 0.0007048738    1.706    0.414
       213 -12.4806    105.1059     52.6792   5.9844227538e+01   5.0910485493e+01    0.3206879    0.2625128  44.36 0.0003618617    1.149    0.130
       214  -9.4322     82.4480     54.5073   6.7493225621e+01   5.5256825133e+01    0.1412593    0.1250605   8.73 3.665292e-05    1.037    0.036
       215 -10.2248    120.8511     52.0222   5.5483159157e+01   4.7493022244e+01    0.4039239    0.2289517  27.24   0.00140587    2.557    0.609
       216 -10.9657     87.9557     51.1847   6.4481248636e+01   5.4720562561e+01    0.2737203    0.2356052  14.49 0.0007150725    1.098    0.089
       217 -10.7718     76.2581     51.2373   6.8442598830e+01   5.6955316778e+01    0.7400042    0.1811179  41.91  0.002325524    3.926    0.745
       218 -10.2409     78.7280     47.1265   6.6059722071e+01   5.7149790532e+01    0.2111205    0.1748008 -36.17 0.0004761283    1.313    0.238
       219  -9.7038    237.3922     51.2098   3.6780956464e+01   2.1202954492e+01    0.1828545    0.0919041 -48.36 0.0009492031    1.662    0.398
       220  -9.2554    168.5334     51.5748   4.5698074734e+01   3.6303025093e+01    0.1397676    0.1242036 -84.96 0.0001611962    1.069    0.064
       221 -10.7972    249.4084    247.6209   7.3638728508e+01  -1.1964745574e+01    0.3580467    0.1744987 -10.17  0.001828469    2.429    0.588
       222 -11.3160    199.7767     49.5865   4.0650068575e+01   2.9370129866e+01    0.2706352    0.2067371  86.97 0.0005816097    1.262    0.208
       223 -10.2069     53.2417     49.9006   7.6759324164e+01   6.1014614179e+01    0.3105539    0.1791654  25.00  0.001482779    1.754    0.430
       224  -9.4932    120.1165     47.3859   5.4146892995e+01   4.8336363675e+01    0.1836397    0.1289205  66.01  0.000478551    1.520    0.342
       225  -9.4220    142.2850     40.6981   4.7260115444e+01   4.4042429148e+01    0.1360615    0.1022843 -73.25 0.0002782446    1.556    0.357
       226 -10.4048    142.9843     45.5386   4.8579086972e+01   4.3230103979e+01    0.2835366    0.2088213 -76.39 0.0007434471    1.643    0.391
       227 -10.0317    139.1675     43.0302   4.8575460702e+01   4.4476310078e+01    0.3272433    0.2250873 -20.36  0.001422896    1.742    0.426
       228 -10.0126    112.3497     45.9831   5.5613374941e+01   5.0299453888e+01    0.2658741    0.1761081  32.89 0.0009369027    1.607    0.378
       229 -10.2539     97.7724     39.5368   5.7286903246e+01   5.4392337012e+01    0.3468111    0.2024066  44.70  0.001260935    1.551    0.355
       230 -10.6291     92.1245     43.9647   6.0557147305e+01   5.4964428814e+01    0.3783194    0.3134816 -56.00  0.001565792    1.537    0.349
       231  -9.8989     95.8966     43.0055   5.9083370441e+01   5.4312437713e+01    0.2145738    0.1693345  20.85 0.0005957437    1.278    0.218
       232 -10.4145     83.3927     44.9946   6.3697309240e+01   5.6575085812e+01    0.2771721    0.1814719  48.40 0.0009753181    1.528    0.346
       233 -12.4791     73.3643     36.7010   6.3912838138e+01   5.9697200112e+01    0.9428159    0.3896731  35.00  0.003840902    2.540    0.606
       234 -12.8619     57.4959     34.5623   6.8985693065e+01   6.2797964838e+01    0.3699108    0.3122149 -27.60 0.0001491887    1.283    0.221
       235 -11.0022     71.7763     41.6082   6.6398993785e+01   5.9281780646e+01      0.34701     0.275641 -52.18  0.001240267    1.678    0.404
       236 -11.1457     67.4020     41.8680   6.8099707633e+01   6.0026239030e+01    0.3387431    0.2611137  22.91  0.001149369    1.183    0.155
       237 -10.1833    131.2963     42.2132   4.9943151934e+01   4.6446234554e+01    0.2801956     0.214461 -84.31 0.0008808892    1.593    0.372
       238 -10.3753    124.6098     42.2302   5.1413387488e+01   4.8008691741e+01    0.2996467    0.2210304  89.76  0.001512819    1.746    0.427
       239  -9.8478    107.0048     42.9708   5.5974054947e+01   5.1912579170e+01    0.2100871     0.187751  42.40 0.0003643268    1.034    0.033
       240 -12.1075     36.9919    243.9757   1.1636766740e+02   1.7433154220e+01    0.6812824    0.3105114 -87.31  0.003202484    2.408    0.585
       241 -12.9936     74.6618    237.3297   1.0795228935e+02   1.4104175697e+01    0.7769904    0.5445973 -81.48  0.004519701    1.536    0.349
       242 -10.4564     18.5242     42.3172   8.9848194257e+01   6.6495525603e+01    0.3760121    0.1870091 -29.11 0.0006776085    1.889    0.471
       243 -11.2079      8.2029     33.9964   9.2186685173e+01   6.8840111374e+01    0.4391255    0.3395249 -38.69  0.001906064    1.211    0.174
       244 -10.7361     88.8314    241.4597   1.0532336112e+02   1.1309198525e+01    0.2447957    0.1579685 -43.10  0.001305995    1.988    0.497
       245 -10.2167     59.5094    241.5237   1.1157427447e+02   1.5223593712e+01    0.1240198    0.1048253  60.11 0.0003099868    1.026    0.025
       246  -9.2777     50.3234    240.3055   1.1338187897e+02   1.6615101356e+01    0.1099442   0.09559185 -27.92 0.0007033075    1.642    0.391
       247  -9.9572    195.4725    238.8586   8.2218498295e+01  -3.9554127850e+00    0.2176338    0.1538612   4.95   0.00127917    1.326    0.246
       248 -12.0002      7.6220     24.9796   8.9031066759e+01   7.0442407910e+01    0.6605028    0.1984136  17.08  0.002735878    3.805    0.737
       249 -10.4550     14.3668     23.0181   8.4448892139e+01   7.0177626615e+01    0.3326547    0.1680028 -24.23 0.0009140504    1.877    0.467
       250 -10.6120     30.0379     32.9379   8.0521774348e+01   6.6938287666e+01    0.3941171    0.2508633 -20.05  0.001229114    1.441    0.306
       251 -12.5554     27.7236     38.0691   8.3713962741e+01   6.6344918870e+01    0.3351107    0.2239398  13.50 0.0003680764    1.426    0.299
       252 -11.7003     24.2943     35.0015   8.4204484139e+01   6.7233696972e+01    0.3290781    0.2541388 -17.72 0.0008512293    1.040    0.038
       253  -9.5068    162.7173     40.2946   4.3569730442e+01   3.9222277501e+01    0.1776494    0.1131239 -33.11            0    1.690    0.408
       254  -9.3286    160.2951     38.2942   4.3404986182e+01   4.0055624961e+01    0.1424079     0.123195 -84.53 0.0001905916    1.115    0.104
       255 -10.9450    152.6332     39.0554   4.4896580386e+01   4.1785698628e+01    0.2433335     0.218143  71.79  0.000518089    1.021    0.020
       256 -10.1536    116.2603     39.4065   5.2419945714e+01   5.0307373878e+01    0.2202414    0.1981272  45.90 0.0003880226    1.011    0.011
       257 -11.1649    225.1088     38.2459   3.5279663151e+01   2.5435321052e+01    0.2641557    0.1865109 -89.21 0.0004497987    1.333    0.250
       258  -9.2755     85.7267     38.7325   6.0592095196e+01   5.7009608577e+01     0.132439   0.09471736  18.61 0.0006868034    1.476    0.322
       259 -10.1740      1.5821     37.5957   9.6963173136e+01   6.8614690212e+01     0.216948    0.1115151 -45.79 0.0006915716    1.513    0.339
       260 -10.1107    100.9137     36.3186   5.5252673116e+01   5.4137637882e+01     0.212798    0.1669107  70.78  0.001143288    1.500    0.333
       261  -8.9514    173.2742     35.6871   4.0745254715e+01   3.7311374536e+01    0.1350895   0.09197619 -68.15 0.0002099654    1.558    0.358
       262 -11.7054     34.9971     42.7082   8.2040459008e+01   6.4711783620e+01    0.6675842    0.3276524   8.14  0.002819113    2.974    0.664
       263 -10.4350    107.2997     34.3164   5.2868841701e+01   5.2980837671e+01    0.3224165     0.191941  51.15  0.001042283    1.495    0.331
       264  -9.4140     84.6998     34.9200   5.9460692694e+01   5.7730210939e+01    0.1759139    0.1541124  19.19 0.0002989073    1.034    0.033
       265  -9.7898    201.9014     34.2841   3.6810938474e+01   3.0927672627e+01    0.1757555    0.1447555  87.76 0.0003989736    1.098    0.089
       266 -11.1781    221.7510     32.1062   3.4299263479e+01   2.6916874605e+01    0.2083106     0.164267 -70.19 0.0002788847    1.047    0.045
       267 -10.2985    205.8717     32.6250   3.6000004944e+01   3.0258591693e+01    0.1920476    0.1632654 -41.63 0.0006140904    1.285    0.222
       268 -10.1289    178.1442     32.8766   3.9352314108e+01   3.6518505405e+01    0.1679119     0.153538  37.08 0.0005286347    1.334    0.250
       269 -10.3791    166.6869     32.5301   4.0851994251e+01   3.9252731885e+01    0.2443916    0.1678817 -10.83  0.001252828    2.059    0.514
       270 -12.0870    101.0494     29.1513   5.2619729861e+01   5.4988097379e+01    0.5782576    0.3414023  44.08  0.001138627    1.512    0.339
       271 -10.9391     48.4308     31.7096   7.1545556624e+01   6.4647658503e+01    0.2477878    0.1837219   9.09 0.0002051977    1.211    0.174
       272 -10.8754     50.2743     27.7401   6.9058137958e+01   6.4924339087e+01     0.291171    0.1678907  12.42  0.001167024    2.056    0.514
       273 -12.0902     52.9045     40.7337   7.3363923531e+01   6.2591446525e+01    0.6130104    0.5430087  24.89  0.003940238    1.243    0.195
       274  -9.6698     44.4171     31.5042   7.3208511570e+01   6.5273163420e+01    0.1263004    0.1041659  -0.66 4.418558e-05    1.027    0.027
       275 -10.2165    236.5820     30.1377   3.2583250362e+01   2.4134667504e+01    0.2241855     0.136716  55.79   0.00115066    2.008    0.502
       276 -10.8998     59.0945     21.6432   6.2850365564e+01   6.4239438149e+01    0.2274141    0.1928603  11.18 0.0004876739    1.060    0.056
       277 -10.3211     60.1008     27.1585   6.4853489256e+01   6.3374261735e+01    0.2351104    0.1771814 -37.77            0    1.569    0.363
       278  -9.6643     62.3025     23.6588   6.2519649271e+01   6.3427395090e+01    0.1747183    0.1128465 -15.18 0.0009651032    1.618    0.382
       279 -10.1756    111.0463     28.0001   4.9746679969e+01   5.2886920244e+01    0.2293842    0.1429768  31.81  0.000751244    1.763    0.433
       280 -11.0728    244.1920    237.2115   7.2810696763e+01  -9.9814658512e+00    0.2165909    0.1596541  -9.18  0.001001782    1.034    0.033
       281 -11.2962    128.0605     26.3711   4.5560325937e+01   4.9133576780e+01    0.3837773    0.2518868 -11.65  0.001305899    1.951    0.487
       282  -9.8109    135.3129    238.0281   9.4738627367e+01   5.1085010920e+00    0.2081271   0.08973816 -33.12 0.0007046673    4.284    0.767
       283 -10.7452     69.7461     26.2555   6.0938719121e+01   6.1746262660e+01    0.5022527    0.2037172  33.94  0.002056712    2.672    0.626
       284 -10.0943    214.3561     25.8360   3.3649702827e+01   2.9247017428e+01    0.2006574    0.1429812 -86.31 0.0005497383    1.252    0.201
       285  -9.5030    204.2308     25.9718   3.4665482838e+01   3.1426446498e+01    0.1563403    0.0959976 -39.03 0.0004796114    1.616    0.381
       286 -10.9859    193.1650     25.4357   3.5708229998e+01   3.3955811194e+01    0.2068353    0.1503599 -65.12 0.0005963821    1.271    0.213
       287 -11.8950    165.0498     23.0854   3.8549097539e+01   4.0727944455e+01     0.250192    0.2079647  80.84  0.001551895    1.058    0.055
       288 -10.2560    185.9503     22.9465   3.5917381253e+01   3.5881216095e+01    0.1992473    0.1623453 -85.67 0.0006604072    1.065    0.061
       289 -11.3012     29.9697    233.0117   1.1701414989e+02   2.0496506637e+01    0.3044281    0.2550197 -64.60  0.002086238    1.401    0.286
       290 -10.4778     94.0590     22.3708   5.1940150254e+01   5.7268991301e+01    0.2690417    0.2350961  59.20  0.001054984    1.193    0.162
       291 -10.2025    159.7516    236.0019   8.9151595740e+01   1.7531581221e+00    0.1575745     0.112035 -43.23 0.0005494062    1.548    0.354
       292  -9.6342    226.2594     22.3503   3.1866431231e+01   2.7163624538e+01    0.1560212   0.09611087  88.74 0.0006455064    1.508    0.337
       293 -10.8976     67.9832     21.8233   5.9688376268e+01   6.2605362368e+01    0.3982485    0.1706195  53.18  0.001112539    2.527    0.604
       294 -10.0075    169.1153     25.8621   3.8737550791e+01   3.9460702444e+01    0.1659189    0.1439143  49.70 0.0002711724    1.275    0.216
       295  -9.8909    120.4704     21.0487   4.5330334895e+01   5.1472508326e+01    0.1719525    0.1318873 -21.66 0.0004621926    1.491    0.329
       296 -10.1026     15.0005     13.9693   7.9959774298e+01   7.1471043000e+01    0.1929458    0.1366783   7.35 0.0007184378    1.190    0.160
       297 -10.1348    109.4716    242.7842   1.0100256435e+02   8.0784582576e+00     0.263424     0.136712  48.36 0.0009441139    1.856    0.461
       298 -10.2564     24.0748    232.5063   1.1817676895e+02   2.1235998751e+01    0.2005518    0.1703213 -62.86 0.0006964568    1.427    0.299
       299 -10.1640     38.2503    232.8320   1.1529456793e+02   1.9609149825e+01    0.1795198    0.1360635  70.64 0.0005407706    1.118    0.105
       300  -9.7726    152.3290    230.0046   8.9825861474e+01   3.9832284190e+00    0.1969238     0.116639 -75.86 0.0007049957    4.314    0.768
       301  -9.5258    170.0047    229.2526   8.5893285966e+01   1.3897696857e+00    0.1717687     0.103412  31.68 0.0004958065    1.505    0.335
       302 -10.3719    172.9191     20.2875   3.6796634418e+01   3.9186814169e+01    0.1870934    0.1449984  79.74  0.001135597    1.132    0.117
       303  -9.7007    139.7731     19.9715   4.1455948856e+01   4.7047975471e+01    0.1931945    0.1191884  46.78 0.0006549013    1.593    0.372
       304 -10.3913    103.3838     19.6035   4.8567290779e+01   5.5512624982e+01    0.2528404    0.1883826 -75.28 0.0007105641    1.880    0.468
       305 -11.0596    120.8448    226.3429   9.6305750356e+01   9.6188140998e+00    0.2203418    0.1910057 -78.74 0.0007916935    1.338    0.253
       306  -9.9428     66.0315    226.3444   1.0872601518e+02   1.7588275451e+01    0.2021745    0.1722952 -64.44 0.0006872545    1.286    0.222
       307 -11.2006      4.4968    226.5755   1.2172383554e+02   2.4428777537e+01     0.300578    0.1689839  54.45  0.001832394    1.484    0.326
       308  -9.4053    190.4885    226.4822   8.1157174121e+01  -1.2139176214e+00    0.1344814    0.1106232   2.09 6.844336e-05    1.053    0.051
       309 -11.1083     20.9051    221.9830   1.1812162563e+02   2.3835071468e+01    0.2657253    0.1434532  87.69   0.00102213    1.733    0.423
       310  -9.5127     54.7243     18.8307   6.3293296238e+01   6.5329966044e+01    0.1499968    0.1424524  27.32  0.001034354    1.366    0.268
       311  -9.5720    194.9871     17.0060   3.3546842387e+01   3.4494785492e+01    0.1465205    0.1219856 -80.85   0.00096299    1.011    0.011
       312 -10.1955    184.4351     15.5167   3.4284093198e+01   3.7037708248e+01    0.1940548    0.1761063 -28.37  0.001311701    1.361    0.265
       313  -9.7618     74.7823     16.3083   5.5103295339e+01   6.1895940335e+01    0.3492831    0.1769042  52.57  0.001462901    1.820    0.450
       314  -9.7296    126.6489    221.8225   9.4324410162e+01   9.6299377099e+00    0.1760914    0.1317842 -70.05 0.0003837061    1.637    0.389
       315  -9.9359    123.6262    222.1424   9.5064154781e+01   1.0042219736e+01    0.1884216    0.1237191 -41.22 0.0005921195    1.720    0.419
       316 -10.0912     37.9891    217.6837   1.1413127093e+02   2.2955384333e+01    0.1779309    0.1469384  53.64 0.0008448061    1.137    0.120
       317 -11.8088     10.0162    217.2065   1.2007252781e+02   2.5950176713e+01    0.3411803    0.2267118  46.25  0.001772454    1.395    0.283
       318 -11.5948     29.6104    216.0026   1.1582821503e+02   2.4256681474e+01     0.409602    0.2649104  25.85   0.00182086    1.802    0.445
       319 -11.8058    235.9508    214.3111   7.0268118610e+01  -5.6127023644e+00    0.3198459    0.2116458  -8.98  0.001203236    1.429    0.300
       320  -8.8570     96.6878     13.2943   4.7841290431e+01   5.7602890096e+01    0.2068169    0.1212902  63.21 0.0003460948    1.641    0.390
       321  -9.7848     31.0530     12.6838   7.0839624127e+01   6.9712881246e+01    0.1610166    0.1203763  14.48 0.0005916525    1.104    0.094
       322  -9.7145    136.9757    215.5327   9.0980715296e+01   9.2602902058e+00    0.2033084    0.1196348  10.99 0.0008096918    2.589    0.614
       323 -10.6897     21.5494    212.6755   1.1732612094e+02   2.5845369290e+01    0.2973371    0.1165719  57.06  0.001317822    2.515    0.602
       324  -9.8373    208.8429    211.9117   7.4903653716e+01  -1.4517182704e+00    0.2084151    0.1534228  -8.11  0.000669523    1.282    0.220
       325 -12.2507      5.6088    208.6332   1.2046468569e+02   2.8264046847e+01    0.4606615    0.2879585 -80.65   0.00257852    1.373    0.272
       326 -10.3388    108.1885    210.3913   9.6945919350e+01   1.4992322261e+01    0.2087965    0.1181187  44.69 0.0009443724    1.683    0.406
       327 -10.5154     10.7827    208.4161   1.1934945847e+02   2.7847566880e+01    0.2326201    0.1772112 -58.38 0.0005292175    1.498    0.332
       328  -9.2967    188.2449    205.3517   7.7864021007e+01   2.8751913456e+00    0.1402877   0.09675257 -13.68 0.0003790049    1.584    0.369
       329  -9.2254     27.6970     10.3356   7.1347945978e+01   7.0452974128e+01   0.09703662   0.09394576  -2.59 0.0004267424    1.664    0.399
       330 -11.3738     20.9191    199.3926   1.1644715905e+02   2.8974564459e+01    0.4250203    0.3017547 -80.93   0.00256907    1.234    0.189
       331 -10.8079    245.2807    202.6817   6.6513203311e+01  -5.0253543778e+00    0.3561272    0.1688659  42.65  0.001728088    2.742    0.635
       332 -10.2792    175.3311    202.8155   8.0147075646e+01   5.4597815673e+00     0.223881    0.1836693  37.62 0.0005043836    1.267    0.211
       333 -10.9353     16.6634    193.1261   1.1692421837e+02   3.0861315307e+01      0.34595    0.2346605  29.44  0.001883659    1.662    0.398
       334  -9.5124    212.4778    188.5055   6.9765157072e+01   2.0922984589e+00    0.1372245    0.1188782 -15.70 8.785321e-05    1.028    0.028
       335 -11.0772     16.5195    184.5142   1.1624756349e+02   3.2943625857e+01    0.4081673    0.2079801 -79.12  0.001480776    1.718    0.418
       336 -10.1238     14.7024    180.6580   1.1635724113e+02   3.4042650004e+01    0.2168502    0.1713307 -12.50 0.0008259624    1.777    0.437
       337  -9.6254     61.6438    184.8508   1.0495715973e+02   2.7878884646e+01    0.2032966    0.1251028 -81.10 0.0009415054    1.727    0.421
       338 -10.3761    167.8192    183.6046   7.8127123981e+01   1.0624190843e+01    0.2098607      0.13538  46.35 0.0006338255    1.692    0.409
       339  -9.7583     58.5176    182.0486   1.0540003361e+02   2.8982519876e+01    0.2150232    0.1297631 -67.10 0.0009766686    1.563    0.360
       340  -9.4466      1.5476    180.5322   1.1949525304e+02   3.5147525712e+01    0.1253147    0.1002228  88.97 0.0001545331    1.005    0.005
       341  -9.9379    244.4698    178.4720   6.2064741767e+01  -9.9751438142e-01    0.2421032    0.1010504 -30.63  0.001025358    2.360    0.576
       342 -10.7759     46.5221    177.7714   1.0799241026e+02   3.1524674048e+01    0.3237687    0.2505868 -77.64  0.001105597    1.180    0.153
       343  -9.4786     69.5505    178.2069   1.0195513123e+02   2.8473474835e+01     0.194878    0.1253898 -51.87  0.000595521    1.566    0.362
       344 -10.9220     34.1153    174.1564   1.1081280963e+02   3.3802264830e+01    0.2634892    0.1825583 -64.60 0.0004812907    1.317    0.241
       345 -10.7200     18.1461    173.1193   1.1481940695e+02   3.5595130379e+01    0.3392249    0.2042312  63.54  0.001775539    1.685    0.406
       346 -12.3038     37.0359    164.5632   1.0889379577e+02   3.5928741422e+01    0.8098453    0.5709013 -67.39  0.004377478    1.261    0.207
