#   1 NUMBER                 Running object number                                     
#   2 MAG_AUTO               Kron-like elliptical aperture magnitude                    [mag]
#   3 X_IMAGE                Object position along x                                    [pixel]
#   4 Y_IMAGE                Object position along y                                    [pixel]
#   5 X_WORLD                Barycenter position along world x axis                     [deg]
#   6 Y_WORLD                Barycenter position along world y axis                     [deg]
#   7 A_WORLD                Profile RMS along major axis (world units)                 [deg]
#   8 B_WORLD                Profile RMS along minor axis (world units)                 [deg]
#   9 THETA_WORLD            Position angle (CCW/world-x)                               [deg]
#  10 FWHM_WORLD             FWHM assuming a gaussian core                              [deg]
#  11 ELONGATION             A_IMAGE/B_IMAGE                                           
#  12 ELLIPTICITY            1 - B_IMAGE/A_IMAGE                                       
         1 -15.1017     10.6342    145.2571   1.4415363588e+02   4.4037874354e+01     9.714895     2.906066  89.91   0.03191268    5.036    0.801
         2 -13.6696    197.8348     26.7490   6.7634931015e+01   3.2515451126e+01     1.811475      1.47787  24.89  0.008362405    1.539    0.350
         3 -13.5127    212.9299      8.0077   6.0950015867e+01   3.0786304361e+01    0.9939092    0.8373787  64.58  0.003742154    1.238    0.192
         4 -11.4576      3.9725      3.7671   1.1680413785e+02   7.4273975446e+01    0.3799725    0.2356188 -23.97  0.002657622    1.302    0.232
         5 -10.2824    198.5133    246.4964   1.1729186121e+02  -2.9762347317e+00    0.1190408   0.09153317  30.10 0.0008105232    1.008    0.008
         6  -9.8692    250.1907    249.6142   1.0901185195e+02  -1.0910578297e+01    0.1785859   0.07766825 -32.60  0.001014528    2.595    0.615
         7 -12.4078    127.4565    248.6562   1.3032574277e+02   8.0162252052e+00    0.7187571     0.321706  31.34  0.003259761    2.899    0.655
         8 -11.1723     99.1453    248.8463   1.3541425348e+02   1.2272645446e+01     0.317452    0.2464135  -4.39  0.001909709    2.733    0.634
         9 -11.2270     34.3590    249.8198   1.4651462827e+02   2.0600902107e+01    0.4114032    0.1490804  45.68  0.002411498    2.022    0.505
        10 -12.2561     35.6270    244.1661   1.4600511893e+02   2.1426358067e+01    0.4567805    0.2845883  48.21  0.003302254    1.382    0.276
        11  -9.8696     29.1585    249.8322   1.4735051173e+02   2.1185704712e+01    0.1893923    0.1445721 -89.15 0.0008933199    1.368    0.269
        12 -10.4619     30.2232    246.5989   1.4701735059e+02   2.1618939919e+01    0.2328282    0.1134008  34.53 0.0007834039    2.400    0.583
        13 -11.3784     11.6053    249.3818   1.5008719708e+02   2.3135326068e+01    0.2944774    0.1809591  69.47  0.002313418    1.098    0.089
        14 -12.0096     11.1931    241.6794   1.4983839958e+02   2.4497956215e+01    0.4623039    0.2210899 -61.74  0.002910095    2.768    0.639
        15 -11.7495     10.7420    234.3408   1.4959920342e+02   2.5836578900e+01    0.3290787    0.2228512 -59.51  0.002414257    2.142    0.533
        16 -10.2181      3.1545    249.6053   1.5138624313e+02   2.3940953807e+01    0.1609514    0.1432337  63.98  0.001468497    1.601    0.375
        17 -10.5466      2.5329    246.4604   1.5136911620e+02   2.4533019873e+01     0.200646    0.1175862  64.70 0.0008631247    1.136    0.120
        18 -12.1875    146.3479    248.5053   1.2689647115e+02   5.0618865014e+00    0.5384288    0.2102327  42.94  0.002652118    1.969    0.492
        19  -9.5511    214.6812    249.6680   1.1493891242e+02  -5.8308316358e+00    0.1184444   0.07326109  14.93 0.0007048269    1.692    0.409
        20 -10.9521     22.0035    237.5015   1.4790432367e+02   2.4108882812e+01    0.2492694    0.1720006 -55.37  0.001769054    2.276    0.561
        21 -11.4347     19.5324    242.8985   1.4856219788e+02   2.3423215754e+01     0.308417    0.1343245  73.22  0.001790126    1.907    0.476
        22 -10.0373    186.4949    240.9978   1.1865446771e+02  -3.6234175490e-01    0.1428744    0.1063248 -80.57 0.0008104621    2.546    0.607
        23 -11.2879    237.8490    247.4808   1.1070664528e+02  -8.9791235527e+00    0.2807612    0.1783452 -27.17  0.001893079    1.760    0.432
        24  -9.9892     54.4960    229.2003   1.4179586577e+02   2.1833004180e+01    0.2353732    0.1248212  63.54  0.001016811    1.563    0.360
        25  -9.7779     17.3657    226.8227   1.4815095375e+02   2.6527878734e+01    0.1420662   0.07855443 -73.83 0.0009516838    1.766    0.434
        26 -10.0978     56.3965    223.4603   1.4101776892e+02   2.2661509551e+01    0.2137569     0.185848 -69.89  0.001187804    1.498    0.333
        27 -10.2742    173.7028    222.4809   1.1833180092e+02   4.4099738241e+00    0.2534674    0.1962616  56.47  0.001554077    1.369    0.270
        28  -9.1036     91.9893    214.5125   1.3335452638e+02   1.9403448411e+01    0.2883706    0.1526698  70.17  0.001396832    2.244    0.554
        29  -8.4380    221.6003    213.5495   1.0801539906e+02  -2.4556725639e+00    0.1226048    0.1030094  18.63 0.0001152311    1.042    0.040
        30  -8.9053    152.6532    213.0714   1.2102464794e+02   9.6019001421e+00    0.1635378    0.1543354  48.46 0.0003369151    1.116    0.104
        31 -12.4378      9.9661    207.0684   1.4843869400e+02   3.1013309735e+01    0.6040059    0.3727067  32.89   0.00284147    1.984    0.496
        32 -10.7010     60.0060    208.7162   1.3911009603e+02   2.5054018211e+01    0.4217715    0.1385207  52.91  0.001594967    2.704    0.630
        33 -11.7684     59.6883    200.0792   1.3838568834e+02   2.6843130250e+01    0.2470081    0.2134476 -81.66  0.000508993    1.267    0.210
        34 -10.7351     13.6766    196.6901   1.4718075836e+02   3.2723499260e+01    0.3668026    0.1445667  50.86  0.002056781    2.067    0.516
        35 -12.0581     66.2238    191.4782   1.3617126764e+02   2.7766646059e+01    0.2566451    0.2229864 -84.55 0.0004353336    1.199    0.166
        36 -11.4094      2.6024    182.5677   1.4849668059e+02   3.6609527812e+01    0.3143838    0.1970986 -86.30  0.001807419    1.242    0.195
        37 -13.2684     63.2050    176.6940   1.3519433408e+02   3.1368161850e+01     0.479848    0.2734003 -48.70  0.001740363    2.251    0.556
        38 -10.8769     76.6797    178.3417   1.3236194739e+02   2.9130314855e+01    0.2319084    0.1998731  80.89 0.0002934691    1.044    0.042
        39  -9.7918     97.8417    174.7416   1.2704235170e+02   2.6649625505e+01    0.2513567    0.1888652  77.50 0.0006768008    1.332    0.249
        40 -11.9630     84.7122    169.0007   1.2925379563e+02   3.0004057868e+01    0.7240607    0.6063582  31.05  0.003767008    1.437    0.304
        41 -12.9889     32.6526    234.2873   1.4595260675e+02   2.3514685263e+01    0.2674963    0.2206484 -89.12 0.0007737651    1.365    0.267
        42 -10.2548     96.8734    153.2873   1.2382679860e+02   3.1622293070e+01    0.3095491    0.2979631  -4.94  0.000833364    1.297    0.229
        43  -9.4062    100.0395    148.9479   1.2226330972e+02   3.2082328014e+01    0.2613846    0.2264023 -23.34   0.00039806    1.509    0.337
        44 -12.1103     85.6305    152.2398   1.2645604473e+02   3.3685154223e+01    0.2985249    0.2483633 -50.91 0.0008834085    1.327    0.246
        45 -12.1965     67.5183    143.5807   1.2968387385e+02   3.8371226363e+01    0.6805211    0.4106236  64.96  0.002762495    1.868    0.465
        46 -11.0458     30.5015    131.1884   1.3767047130e+02   4.5565247931e+01    0.2937962    0.1995429  63.75 0.0005882405    1.502    0.334
        47  -8.3971     79.5622    131.5929   1.2441557817e+02   3.9469702197e+01    0.1413989    0.1236781  87.68 0.0001897587    1.086    0.079
        48 -10.0824    109.2807    137.6078   1.1770372505e+02   3.3051303501e+01    0.4335006    0.3046077 -15.29  0.001468127    2.498    0.600
        49 -10.5663     96.1509    135.2271   1.2065792158e+02   3.5935318636e+01    0.2475883    0.2228323 -46.72 0.0003351221    1.207    0.171
        50 -11.7594     21.7929    126.4622   1.3941487757e+02   4.7437610909e+01    0.4228082     0.218677  52.91   0.00123674    2.094    0.522
        51  -9.0104    106.3828    124.1464   1.1556943687e+02   3.6695170352e+01    0.1969367    0.1704036 -63.58  0.000394719    1.116    0.104
        52  -9.0227    167.9946    112.9984   9.7455868529e+01   2.5881216981e+01    0.2493174    0.1924127 -81.10  0.001009453    1.681    0.405
        53 -13.9700     37.5202    227.7094   1.4471876831e+02   2.4161502375e+01    0.6660001    0.4635501  66.50  0.002366917    1.047    0.045
        54 -10.5096    157.8996     76.3811   8.9413371904e+01   3.5399117795e+01    0.2744706    0.2149899 -51.18 0.0006848668    1.322    0.244
        55 -12.7451     47.7457    216.5295   1.4209767338e+02   2.5065564256e+01    0.6892622    0.5682751 -74.28  0.003705775    1.422    0.297
        56 -12.5532    123.2827    232.1137   1.2925448219e+02   1.1330802321e+01    0.8100773    0.1619664  43.97  0.002795522    3.797    0.737
        57 -12.1818    105.7495    230.5576   1.3240636899e+02   1.4361116027e+01    0.5628548    0.1556123  42.66  0.002289849    2.849    0.649
        58 -11.6063    172.6397    248.0913   1.2210765664e+02   9.1698508226e-01    0.3669937    0.2426748  53.64  0.002278341    1.532    0.347
        59 -10.3483     81.3132    248.5001   1.3852278448e+02   1.4873540097e+01    0.3203617    0.1119163  59.04  0.001418075    3.064    0.674
        60 -12.6774     90.1603    227.2384   1.3502189400e+02   1.7306371537e+01     1.447266    0.1719414  48.99  0.003584578    8.069    0.876
