#   1 NUMBER                 Running object number                                     
#   2 MAG_AUTO               Kron-like elliptical aperture magnitude                    [mag]
#   3 X_IMAGE                Object position along x                                    [pixel]
#   4 Y_IMAGE                Object position along y                                    [pixel]
#   5 X_WORLD                Barycenter position along world x axis                     [deg]
#   6 Y_WORLD                Barycenter position along world y axis                     [deg]
#   7 A_WORLD                Profile RMS along major axis (world units)                 [deg]
#   8 B_WORLD                Profile RMS along minor axis (world units)                 [deg]
#   9 THETA_WORLD            Position angle (CCW/world-x)                               [deg]
#  10 FWHM_WORLD             FWHM assuming a gaussian core                              [deg]
#  11 ELONGATION             A_IMAGE/B_IMAGE                                           
#  12 ELLIPTICITY            1 - B_IMAGE/A_IMAGE                                       
         1 -13.3944    168.1517     56.0893   6.4720940075e+01   3.5408874032e+01     2.074349     1.259221  20.21  0.006332033    2.484    0.597
         2 -13.2677    182.6100     40.8137   5.7524038355e+01   3.3842748043e+01     1.033363    0.8581324 -26.82  0.003034221    1.167    0.143
         3 -13.8892    204.4064      9.2621   4.5335444554e+01   3.1780119971e+01     1.100794     1.024399   4.26   0.00387292    1.176    0.150
         4 -11.5606    190.1180     14.9129   4.8404070771e+01   3.4853476115e+01    0.3962673    0.3193754  55.04  0.001334586    1.292    0.226
         5 -12.2560    237.7846      2.9186   4.1214182488e+01   2.4479163535e+01    0.7241247    0.3646329  77.28  0.003609757    2.134    0.531
         6 -11.3850     59.5206      2.9880   7.0351043121e+01   6.9001797123e+01    0.4168901    0.2441854  38.50  0.002081535    1.725    0.420
         7 -10.9506    193.1975    195.3152   9.2094820713e+01   9.2097804830e+00    0.8485177    0.4213772 -54.46  0.003410669    5.278    0.811
         8 -13.4042    246.5443    239.7568   9.0133610126e+01  -2.4985078930e+00     1.261598    0.5459284 -21.38  0.008218489    2.481    0.597
         9 -17.9938     44.2096    240.1913   1.2417485139e+02   2.2988531257e+01     6.039487     4.906151  43.49   0.05240705    1.293    0.227
        10 -11.9406    151.6644    195.7886   9.9801855788e+01   1.5623863819e+01    0.4250923    0.3036275  22.67  0.002666088    1.393    0.282
        11 -11.6861     68.0694    194.6828   1.1668169199e+02   2.7790958884e+01    0.3053403    0.2616802 -27.60  0.001512243    1.743    0.426
        12 -10.5247     81.7802    195.9910   1.1394103419e+02   2.5810098324e+01    0.2943903    0.2624597 -13.60 0.0009016745    1.599    0.375
        13 -11.1458    141.7138    188.2533   1.0067929429e+02   1.8327513213e+01    0.2310495    0.1852935  15.83 0.0008929452    1.346    0.257
        14 -11.7704     71.3864    209.8212   1.1725394453e+02   2.4749348291e+01    0.3510824    0.1966609  26.57 0.0007574538    2.052    0.513
        15  -8.5004    164.6655    187.2926   9.6051065461e+01   1.4793195837e+01    0.1170463    0.0900591  60.42 0.0004488502    1.638    0.390
        16  -9.9291    238.5143    185.4809   8.3022508359e+01   3.5196327746e+00    0.1149915   0.08789538  11.22 0.0001815245    1.012    0.012
        17 -10.5204    153.2852    184.0756   9.7761604153e+01   1.7114438228e+01    0.2081156    0.1756421 -77.04  0.001107122    1.638    0.390
        18 -12.2575    145.7197    182.0075   9.8954149844e+01   1.8666302189e+01    0.4058421    0.3317823  74.52  0.001659063    1.580    0.367
        19 -12.2024    142.8147    173.2814   9.8191839285e+01   2.0556260835e+01    0.5417236    0.3612795 -46.41  0.002713028    1.726    0.421
        20 -10.0311    189.2812    178.4459   9.0024206964e+01   1.2004186593e+01    0.3264252    0.2473507  64.11  0.001257692    2.008    0.502
        21  -9.8466    188.0168    173.7056   8.9432573440e+01   1.2857187684e+01    0.2500602    0.1789768 -53.19  0.001435666    2.021    0.505
        22  -9.5584     68.0108    172.2026   1.1457779014e+02   3.2041744566e+01    0.4686586    0.1445116  51.75  0.001811835    3.370    0.703
        23 -19.1315     30.0721    102.7240   1.1675881185e+02   5.1753620679e+01     16.33885    0.9295846 -70.94   0.02771415   15.197    0.934
        24  -9.4152    240.3121    169.3030   7.9877610332e+01   4.9776828347e+00    0.1220068   0.07431464  11.15 0.0002381609    1.612    0.380
        25  -9.6676    186.9254    165.7873   8.8214382937e+01   1.4147187855e+01     0.276358    0.1779209 -42.94  0.001085958    1.832    0.454
        26  -9.2337    117.7530    162.1318   1.0185033934e+02   2.6685552860e+01    0.1893331    0.1594947  66.36 0.0005443197    1.219    0.180
        27 -10.1605      6.8959    161.2935   1.2792499063e+02   4.0616949083e+01    0.1691146    0.1432467  34.92  0.001288065    1.388    0.280
        28 -11.0753     95.4088    157.3132   1.0630979410e+02   3.1167057788e+01    0.2507898     0.224105  48.83 0.0003464448    1.072    0.067
        29 -12.0476    100.4951    150.7785   1.0410131571e+02   3.1686807378e+01    0.5477288    0.4478946 -14.36  0.003132913    1.697    0.411
        30 -10.2379    113.8286    151.7606   1.0107774039e+02   2.9312869076e+01    0.4185378    0.2299386  69.30  0.001600034    3.401    0.706
        31 -10.9732    133.8267    145.4241   9.5319229298e+01   2.7029302583e+01     1.058218    0.2844451 -54.43  0.002860534    6.259    0.840
        32 -10.0553    174.5554    148.9063   8.7356414034e+01   1.8888551050e+01    0.2456421    0.2104685  69.36  0.000973114    1.508    0.337
        33 -10.2301    143.4681    146.2125   9.3311683465e+01   2.5121618823e+01    0.3146243    0.1355657 -48.73   0.00129568    2.598    0.615
        34 -11.1738    110.2906    137.4973   9.9431426105e+01   3.2761931173e+01    0.4891434    0.3147115 -31.18  0.002287889    2.196    0.545
        35 -11.8377     99.2431    136.7779   1.0208251433e+02   3.4775334830e+01     0.273686    0.2680559  42.09 0.0005726603    1.122    0.108
        36 -10.9938    105.8743    130.6962   9.9268151842e+01   3.4933075493e+01     0.347796    0.3031318 -76.97  0.001149794    1.194    0.163
        37  -9.9851    136.0000    129.0569   9.1535116504e+01   2.9720474098e+01     0.361395   0.08085598 -46.04  0.001026213    4.709    0.788
        38 -10.3017    160.5196    127.8041   8.5789168279e+01   2.5105797778e+01    0.3284029    0.2600628 -49.74  0.001769851    1.405    0.288
        39 -10.0913    116.5238    128.5836   9.6152386690e+01   3.3477756249e+01    0.2724923    0.2409091  -1.14 0.0007181652    1.354    0.261
        40 -10.4912    104.6404    124.4092   9.8355719333e+01   3.6475308448e+01    0.2514774    0.2296699  -9.14 0.0006449306    1.305    0.234
        41  -9.6139    120.7863    123.0493   9.3929244054e+01   3.3815945532e+01    0.2262172    0.1624003 -21.07  0.000994953    1.935    0.483
        42  -9.4084    111.4879    118.0441   9.5227348305e+01   3.6588966164e+01    0.2123901    0.1802034  45.19 8.943318e-05    1.148    0.129
        43  -9.9271    231.2790    113.7000   6.9834625567e+01   1.3162278144e+01     0.237732    0.1978932   8.69 0.0007421909    1.109    0.098
        44  -9.9809    168.0625    113.1555   8.0797008375e+01   2.6081965840e+01    0.3576569    0.2659419 -73.18  0.001222482    2.022    0.505
        45 -10.2320    134.7999    111.6119   8.7862452934e+01   3.3343347072e+01    0.5199147    0.1128212 -46.25  0.001388523    4.879    0.795
        46 -11.2874    119.2951    109.8094   9.1315527091e+01   3.6819724604e+01    0.5515862    0.3949936  55.93  0.002712232    1.463    0.316
        47  -9.7163    205.5622    110.1118   7.3053673945e+01   1.8700661540e+01    0.2591799    0.1898239  34.47 0.0007357441    1.363    0.267
        48  -9.9942    134.5889    104.4915   8.6152300246e+01   3.4781310235e+01    0.4095508    0.1428383 -43.04  0.001387464    2.918    0.657
        49  -9.1318     75.3303    104.3233   1.0255233868e+02   4.5794340095e+01    0.1390795    0.1082626 -25.00 0.0004234977    1.699    0.411
        50  -9.7068    128.4903     95.2311   8.5248916479e+01   3.7899360757e+01    0.2771975    0.2059578  47.13 0.0007788253    1.339    0.253
        51  -9.2715    151.6267     82.1245   7.6039922881e+01   3.5184646960e+01    0.2139264    0.1422543 -23.29 0.0006090374    1.698    0.411
        52  -9.7717    184.3332    212.6904   9.6221266019e+01   8.4358233077e+00    0.1857793    0.1583871  38.91  0.001390539    1.297    0.229
        53  -9.1025    167.7520    229.7173   1.0131766120e+02   8.7911921715e+00     0.130757    0.1073148  44.51 0.0004696067    1.310    0.237
        54 -12.6286    187.5144     34.3035   5.4800571397e+01   3.3396230724e+01    0.5910973    0.5147619   2.89  0.001332758    1.235    0.190
        55 -12.0464    198.5147     23.0767   5.0032180112e+01   3.1877112678e+01    0.4300407    0.3321182 -15.98  0.001658821    1.317    0.241
        56  -9.9504      5.6180    226.9227   1.3041624585e+02   2.8747926179e+01    0.0832524   0.04350451  30.43 0.0002183785    1.909    0.476
        57 -12.7171     11.5711    206.0278   1.2870999920e+02   3.1727499409e+01    0.4075611    0.1439935  38.99  0.002416985    2.054    0.513
        58  -9.0280     87.6391    203.1478   1.1342510324e+02   2.3804579241e+01    0.3771198     0.226906  84.55  0.002197382    2.164    0.538
