#   1 NUMBER                 Running object number                                     
#   2 MAG_AUTO               Kron-like elliptical aperture magnitude                    [mag]
#   3 X_IMAGE                Object position along x                                    [pixel]
#   4 Y_IMAGE                Object position along y                                    [pixel]
#   5 X_WORLD                Barycenter position along world x axis                     [deg]
#   6 Y_WORLD                Barycenter position along world y axis                     [deg]
#   7 A_WORLD                Profile RMS along major axis (world units)                 [deg]
#   8 B_WORLD                Profile RMS along minor axis (world units)                 [deg]
#   9 THETA_WORLD            Position angle (CCW/world-x)                               [deg]
#  10 FWHM_WORLD             FWHM assuming a gaussian core                              [deg]
#  11 ELONGATION             A_IMAGE/B_IMAGE                                           
#  12 ELLIPTICITY            1 - B_IMAGE/A_IMAGE                                       
         1 -12.8878    119.5945     38.9529   3.3312714058e+01   5.0426001353e+01    0.9528202    0.5942316 -19.28  0.004457518    1.830    0.454
         2 -11.2284      4.6372     36.2292   7.6244760023e+01   6.8016384504e+01    0.6003842    0.3290192 -43.00  0.003313749    1.351    0.260
         3 -12.5061    160.0176     29.7308   2.1640036715e+01   4.1664978815e+01    0.4234186    0.4060642 -16.32 0.0004958106    1.162    0.139
         4 -12.1587    104.8581     13.2670   2.7382906148e+01   5.6819826602e+01     0.531716    0.4020366  -5.61  0.002100679    1.410    0.291
         5 -11.7932    105.8958     20.9112   3.0118105928e+01   5.5785330461e+01    0.3619529    0.3253006  -1.90 0.0007272016    1.144    0.126
         6 -11.8641     26.5859     28.2053   6.2893059621e+01   6.7832189115e+01      0.51294     0.347827 -28.70  0.002459937    1.187    0.158
         7 -12.1115     20.2440     22.1586   6.3539926399e+01   6.9414798958e+01    0.7506836    0.3247681 -29.16  0.003807489    2.229    0.551
         8 -11.2499      5.9049     10.5139   6.6165036530e+01   7.2406033679e+01      0.47267    0.3093834  11.85  0.003361309    1.550    0.355
         9 -10.4032     12.2565      8.1908   6.1570162439e+01   7.2272102978e+01    0.3596073    0.2378046 -55.97  0.002223615    2.383    0.580
        10 -12.2945     16.3972     13.8133   6.1922660087e+01   7.1071987019e+01    0.6852905    0.3220491 -21.54   0.00327965    2.230    0.552
        11 -11.8891     22.3794     11.4300   5.7690472065e+01   7.0866908786e+01    0.4629909    0.2718613   3.84  0.002496127    1.715    0.417
        12  -9.4822    121.2962     11.5273   2.2926834039e+01   5.3204162777e+01    0.3609433    0.1619951  67.88  0.001388779    2.367    0.577
        13 -11.2082    134.9072     15.2471   2.1503467330e+01   4.9560576109e+01    0.6399071    0.3379276  55.42   0.00284298    1.612    0.380
        14 -11.0503    179.1928     20.6228   1.5984428931e+01   3.7826667542e+01    0.5601484    0.2579371  41.50  0.002194166    2.824    0.646
        15 -11.7663     35.6337     17.9838   5.4205253223e+01   6.8462616582e+01    0.5739079     0.225534 -30.36  0.002127654    2.489    0.598
        16 -13.0408    164.2449     18.5109   1.7531739911e+01   4.1862120942e+01     0.575773    0.3030205  41.70  0.002148948    2.142    0.533
        17 -10.3519    127.1775     11.8389   2.1828550851e+01   5.1770022027e+01    0.3368779     0.256611 -79.84  0.001304996    1.642    0.391
        18 -11.4664     68.0370     18.7946   4.1016158640e+01   6.3579313662e+01    0.3874103    0.3170178   6.67 0.0009595934    1.036    0.034
        19 -11.4572    228.6766     15.9799   9.2841570168e+00   2.6230312140e+01    0.3540207    0.2275249  67.31 0.0004074497    1.507    0.336
        20 -10.5553    148.2568     15.9293   1.9310295548e+01   4.6176101394e+01    0.4787962     0.207238  42.53  0.001913035    2.497    0.600
        21 -11.3501     86.3343     14.0932   3.2840451137e+01   6.0673578976e+01    0.4588843    0.3790623 -11.00  0.001889759    1.227    0.185
        22  -9.6965     87.4060      7.6076   2.9737223564e+01   6.1102784088e+01    0.5008136    0.2531081  56.07  0.002274036    1.907    0.476
        23 -12.0284     47.8945     12.6387   4.6161282236e+01   6.7562046729e+01    0.5622567    0.3115676  41.26  0.003152377    1.919    0.479
        24 -11.7718    192.4243      8.8026   1.1144571702e+01   3.5750650212e+01    0.6635286    0.4211243  11.56  0.002534415    2.642    0.622
        25 -11.1498    223.7839      2.6920   6.6935131418e+00   2.8813888609e+01    0.3119837    0.2006943  84.30  0.000381679    1.365    0.268
        26 -11.5802    212.1580      9.1297   9.2108950184e+00   3.0887680483e+01     0.579087    0.3642419  -3.12  0.002808904    2.675    0.626
        27 -10.8782    218.4993      4.0146   7.4354340403e+00   2.9913542507e+01    0.3251869    0.2200001  82.75 0.0009176661    1.294    0.227
        28 -11.2636    169.8038      9.2123   1.3995693742e+01   4.1394130259e+01    0.4960861    0.1930406  56.94  0.002073062    2.186    0.543
        29 -10.6145    163.6745      6.9887   1.4172838559e+01   4.3152351778e+01    0.5746576    0.3006092  -3.45  0.002437737    3.033    0.670
        30  -9.8646    145.0920      9.5718   1.7783920164e+01   4.7583261351e+01    0.2348259    0.1765848  23.71 0.0006320316    1.525    0.344
        31 -11.0775    225.5192     14.4307   9.2156460558e+00   2.7140828040e+01    0.2950905    0.2126133 -39.85 0.0005916476    1.399    0.285
        32 -10.2063      1.0000      7.5079   6.7629904536e+01   7.3201300942e+01    0.2892006   0.07829314 -47.43   0.00138807    2.798    0.643
        33 -10.9800      2.1990      2.0627   6.4407696361e+01   7.3947274432e+01    0.3172197    0.1728211  -5.23  0.002048027    1.768    0.434
        34 -11.3195    184.6691      5.4181   1.1114158978e+01   3.8017365217e+01    0.4734103    0.3411833 -33.71  0.002705066    1.525    0.344
        35 -10.1844    153.1217      7.5562   1.5867041634e+01   4.5758144602e+01    0.4026701    0.1165254  58.09  0.001500107    2.635    0.620
        36 -10.2964    156.9442      3.4598   1.4046472711e+01   4.5161829791e+01    0.2265127    0.1555843 -82.28   0.00119642    1.574    0.365
        37 -10.3625    152.0988      1.3887   1.4096952834e+01   4.6550231344e+01    0.5177962    0.1368572  73.67  0.001540508    4.449    0.775
        38 -10.6821    122.2111      5.5132   2.0545221678e+01   5.3524641924e+01    0.3028833     0.203387 -26.41 0.0008142697    1.671    0.402
        39  -9.8056     62.1334      7.3641   3.7913934999e+01   6.5910273807e+01    0.2165197    0.1449073  -3.04 0.0009791465    1.433    0.302
        40 -10.3336    232.8261      7.3032   6.9911697187e+00   2.6247538966e+01    0.2765281    0.1742889  88.85   0.00157544    1.428    0.300
        41 -11.9533    233.5607      2.9244   5.9782279658e+00   2.6549420193e+01    0.4564815    0.2228085 -70.55 0.0008554902    2.066    0.516
        42  -8.9536     78.0204      7.5228   3.2532476369e+01   6.2985418977e+01    0.3447499    0.1976412  73.26   0.00141495    3.789    0.736
        43  -9.7372     76.5216      3.4931   3.1177633583e+01   6.3654979661e+01    0.2622277    0.1532474  22.34  0.001193463    1.706    0.414
        44  -9.9717     73.1122      3.0793   3.2073480125e+01   6.4346161784e+01    0.2831545    0.1571397  35.70  0.001083655    1.556    0.357
        45 -10.5830    176.5559      5.8768   1.2190070336e+01   4.0008453032e+01    0.3993579      0.16791  73.75  0.001082708    2.172    0.540
        46  -9.0637     18.6832      6.2837   5.7142644327e+01   7.1962149968e+01   0.09176029   0.08553936  -3.89 0.0006446029    1.583    0.368
        47 -11.4011    206.2961      2.9605   8.2725319905e+00   3.2932731989e+01    0.4593299    0.2850408  78.68   0.00251962    1.409    0.290
        48  -9.8793    147.8363      5.2642   1.5954076258e+01   4.7284989571e+01    0.2300329    0.1225529 -67.32 0.0009498289    2.777    0.640
        49 -10.3057    141.4052      3.3819   1.6363299909e+01   4.9042348637e+01    0.2927525    0.2182382  76.61  0.001661718    1.270    0.213
        50 -11.5727    133.8899      2.6827   1.7384164230e+01   5.0945567973e+01    0.4273292    0.2870053  66.08  0.002144118    1.305    0.234
        51  -9.2871    128.6708      1.2797   1.7815841201e+01   5.2324145513e+01    0.2159877    0.1198435  68.52 0.0006376056    1.646    0.393
        52 -10.1901     41.3908      4.0571   4.4762952433e+01   6.9524132381e+01    0.2780446    0.1644531  -4.63   0.00153616    1.686    0.407
        53 -11.2355     22.1877      3.2519   5.3737380523e+01   7.2011225909e+01    0.2081411    0.1408268 -14.26 0.0004452265    1.163    0.140
        54 -10.6237    243.6911      2.6536   5.1802459091e+00   2.4323520137e+01    0.3973803    0.1643234  54.52  0.001810654    2.984    0.665
        55 -10.5983    105.2284      2.1169   2.2876197513e+01   5.7735412096e+01    0.2951703    0.2309793  78.08  0.001255495    1.486    0.327
        56 -10.9133    113.9066      2.1769   2.1000757835e+01   5.5748661399e+01     0.412803    0.2050837  60.07  0.001512549    1.719    0.418
        57 -10.5570    247.1316      5.9051   5.6118065934e+00   2.3220583706e+01    0.2032498    0.1354272 -66.61 0.0009467858    1.257    0.204
        58 -10.0911     13.2255      1.9666   5.7963792119e+01   7.3072642953e+01    0.1996284     0.131551   3.67 0.0007928893    1.323    0.244
        59  -8.8204     33.5260      1.4988   4.7088470437e+01   7.0883889667e+01    0.1163815   0.08776117   0.40 0.0008101185    1.003    0.003
        60  -9.6914     39.4758    133.6249   8.3946341638e+01   4.3789600930e+01    0.1909412    0.1505716 -23.09 0.0006892358    1.656    0.396
        61  -9.2783    188.4127    250.2177   6.7264052827e+01  -3.6848158218e+00    0.1448436    0.1196065 -53.55   0.00050873    1.699    0.411
        62 -11.0540     50.1431    249.2857   9.3080654269e+01   1.7363897843e+01    0.3243978    0.1044697  51.20   0.00160455    2.345    0.574
        63 -10.6382    104.1184    131.0610   6.5194881400e+01   3.5211499761e+01    0.2320715    0.2172059  43.68 0.0004483126    1.105    0.095
        64  -9.5949     93.1566    130.1046   6.8061858618e+01   3.7369575899e+01    0.2825739    0.1996702 -61.92  0.001352964    1.391    0.281
        65 -11.1493     10.5224    127.4956   9.1093896208e+01   4.7718125846e+01    0.5097867    0.2460888 -58.96  0.001909255    1.709    0.415
        66  -9.1446     26.5398    127.4855   8.6686909932e+01   4.6480265013e+01    0.1282446    0.1049157 -72.79 5.313842e-05    1.016    0.016
        67  -9.6620     22.8226    126.9400   8.7652176297e+01   4.6922090579e+01    0.1822044    0.1399428 -61.74 0.0003864877    1.154    0.134
        68  -9.8857     32.9366    125.8095   8.4640637379e+01   4.6308044449e+01    0.2556585    0.1470891  80.68   0.00122259    2.150    0.535
        69  -9.9606      2.2292    125.8251   9.3135702431e+01   4.8642902017e+01    0.2303863    0.1456539  79.65  0.001295346    1.532    0.347
        70 -12.0370    103.8093    122.4061   6.3300078357e+01   3.7322248314e+01    0.3533667    0.3389505  53.78  0.001150968    1.069    0.065
        71 -10.4020     49.6225    123.1420   7.9359684885e+01   4.5231877702e+01      0.27766    0.1992328  16.34  0.001502635    1.764    0.433
        72  -9.3096     56.4917    122.4664   7.7203397241e+01   4.4586271797e+01    0.1378462    0.1221486 -73.07 0.0004822426    1.035    0.034
        73 -10.1563     44.5329    119.5585   8.0246655342e+01   4.6656347560e+01    0.2467719    0.2096568 -86.97 0.0007100594    1.157    0.135
        74 -10.2787     43.5231    116.4930   8.0013235775e+01   4.7500257332e+01    0.2901844    0.2478115  30.31  0.001788511    1.359    0.264
        75 -10.4074      7.2115    114.8291   9.0527831747e+01   5.0884545349e+01    0.3819326    0.1652241 -59.57  0.001524296    1.784    0.439
        76 -12.1159      2.6098    111.7820   9.1482478878e+01   5.1858950305e+01    0.4488447    0.2674738 -70.54  0.001691659    1.286    0.222
        77 -11.3595      5.1251    105.7547   8.9993588359e+01   5.3104441778e+01    0.3533847    0.3476676 -41.14  0.002719489    1.272    0.214
        78  -9.5124     37.6668    115.6375   8.1639663095e+01   4.8296313271e+01    0.2073025    0.1309495 -41.27   0.00104834    1.668    0.400
        79 -10.0070     79.1066    114.7357   6.8790403389e+01   4.3334042969e+01    0.2826482     0.228112 -57.75 0.0009310661    1.155    0.134
        80  -9.3331     67.9510    115.1467   7.2283914762e+01   4.4863261976e+01    0.2341438    0.1539147  64.33  0.001079244    2.006    0.502
        81  -9.3178     57.7361    114.7245   7.5333043482e+01   4.6302328051e+01    0.2248524    0.1126163 -73.13 0.0009003368    2.409    0.585
        82 -10.6945     29.8811     97.6117   8.0877568350e+01   5.3260186535e+01    0.6812942    0.2203784 -48.83  0.002782146    2.604    0.616
        83 -10.6155     35.2774     92.7767   7.8110302279e+01   5.3903132210e+01    0.4558878    0.2164986 -61.39  0.002173826    1.783    0.439
        84 -11.5942     27.4433     85.0959   7.9218159058e+01   5.6331158751e+01    0.5879317    0.4881124   0.37  0.003844841    1.399    0.285
        85 -12.1789     42.6877     85.1032   7.3822920211e+01   5.4931153500e+01    0.8741133    0.3960643  16.39  0.003142204    3.073    0.675
        86 -10.1776     35.9255    102.8797   7.9899548525e+01   5.1490358716e+01     0.527826    0.3071727   0.58  0.001824519    2.589    0.614
        87 -13.1384     17.5536    100.4504   8.5374942079e+01   5.3549165312e+01    0.3366822    0.2850992 -87.96 0.0005157414    1.207    0.171
        88 -11.6056      9.5895     97.3425   8.7429287469e+01   5.4777579444e+01    0.4515137    0.4230286  81.70  0.001472864    1.234    0.190
        89 -11.9360     21.1294     92.9195   8.2919318494e+01   5.5032429100e+01    0.8310111    0.5116276  71.00  0.003075594    2.291    0.563
        90 -11.4906     25.8753    106.9867   8.3816207687e+01   5.1398029530e+01    0.7503222    0.3716106 -40.05  0.003631317    2.203    0.546
        91 -11.2029     21.3300    114.6464   8.6384346973e+01   4.9951270675e+01    0.4056373    0.2459994   3.92  0.002188013    2.356    0.576
        92 -11.2985     28.2687    113.2152   8.4087678959e+01   4.9728398212e+01    0.3327466      0.28061   5.56 0.0008470129    1.481    0.325
        93  -9.0468     86.3007    113.6724   6.6367192721e+01   4.2444455504e+01    0.1484785    0.1144881  83.48 0.0007030523    1.640    0.390
        94  -9.9899     48.7632    112.3862   7.7647487764e+01   4.7918946872e+01    0.2356455    0.2009661 -73.56 0.0008358912    1.102    0.093
        95  -9.1476     93.6760    112.3576   6.3837738693e+01   4.1507745768e+01    0.1556879    0.1172809  84.15 0.0007044754    1.772    0.436
        96 -11.1362     79.9432    108.3766   6.7051462998e+01   4.4712777199e+01    0.4609109    0.3394034  25.02 0.0009665976    1.548    0.354
        97  -9.4831     67.5024    110.5285   7.1420028788e+01   4.6030050184e+01    0.2825029    0.1418558  32.22  0.001219975    2.204    0.546
        98  -9.2214    120.8229    108.7813   5.5069289346e+01   3.7120616077e+01    0.2724518    0.1790072  -3.02 0.0009642115    2.913    0.657
        99  -9.6207    102.3044    109.3449   6.0522490585e+01   4.0652904082e+01    0.1563863    0.1184879 -16.81  0.000704105    1.689    0.408
       100 -10.1556     15.7557    108.8541   8.7215064100e+01   5.1718203436e+01    0.2081375    0.1900289  87.36 0.0007327811    1.181    0.153
       101  -8.9979    143.4707    105.9999   4.8289205525e+01   3.2761195541e+01    0.2256305    0.1370607 -65.50 0.0008082222    2.464    0.594
       102  -8.6717    118.4349    105.4779   5.4850091964e+01   3.8353219201e+01    0.1534556     0.150033 -48.73 0.0001081761    1.014    0.014
       103  -8.9206    182.4678    104.4617   3.8870331384e+01   2.3840479108e+01    0.1559992    0.1505966 -71.06 0.0002383013    1.048    0.046
       104  -9.8597     85.8665    103.8428   6.4092931432e+01   4.4820018377e+01    0.2235054    0.1938485 -27.11 0.0006633351    1.203    0.169
       105  -9.7678     64.6923    101.7073   7.0303219624e+01   4.8497037298e+01    0.2077062    0.1014574 -38.06 0.0002022962    2.365    0.577
       106 -11.7089     68.5434     95.8294   6.7612783871e+01   4.9328606767e+01    0.4312561    0.3428929 -12.54 0.0006576806    1.462    0.316
       107 -10.8940     52.0369     99.2219   7.3876986788e+01   5.0664903766e+01     0.645066    0.2058205 -48.19  0.001832885    2.759    0.637
       108  -8.8376    120.4746    101.4880   5.3183814689e+01   3.8807133532e+01    0.1542328    0.1509246 -20.04 1.545779e-05    1.019    0.018
       109  -9.9435     80.9967     98.2298   6.4183930223e+01   4.6903515799e+01    0.2155586    0.1999255 -88.93 0.0005005015    1.199    0.166
       110  -9.6452     77.6433     96.7298   6.4871099770e+01   4.7773904936e+01    0.2472367    0.2107462 -19.45 0.0004720149    1.255    0.203
       111 -10.3900     82.7972     93.3938   6.2317712083e+01   4.7708146113e+01    0.5498763     0.399749  74.07  0.002545143    2.052    0.513
       112 -10.8707     79.0182     93.5047   6.3572331281e+01   4.8290627082e+01    0.4872723    0.4175174  59.44  0.002670933    1.361    0.265
       113 -10.9093     42.9988     94.1931   7.5791118558e+01   5.2823955954e+01    0.3512108    0.3111235 -61.69  0.002218954    1.076    0.071
       114  -9.9598    120.4873     90.4899   5.0037278724e+01   4.1156294624e+01     0.152256    0.1507457 -24.89 0.0001325625    1.024    0.023
       115 -11.2829    126.0301     94.6433   4.9705494702e+01   3.9082151327e+01    0.2716004    0.2656483 -14.89 0.0001799393    1.016    0.016
       116 -10.1777    121.8547     93.8875   5.0644198209e+01   4.0148405339e+01     0.293097    0.2524116 -48.56 0.0006825313    1.170    0.145
       117  -9.6217    104.5775     92.5687   5.5282068362e+01   4.3979124443e+01    0.2518469     0.211058  50.15  0.001282631    1.268    0.211
       118 -10.7442     98.6562     91.1395   5.6675425052e+01   4.5421168138e+01    0.2978574    0.2465867  42.15  0.000493616    1.257    0.204
       119 -11.5800     89.7365     88.6115   5.8749445472e+01   4.7589682505e+01    0.6745102    0.3332996 -40.73  0.001673503    2.012    0.503
       120 -10.4249     49.5826     91.4881   7.2934242374e+01   5.2735871820e+01    0.3162193    0.2658496  20.40  0.001723507    1.346    0.257
       121 -11.6701      7.0973     88.9337   8.6931495203e+01   5.6831260399e+01    0.4556634    0.3382086   6.57  0.001950946    1.693    0.409
       122  -9.8968     66.4712     88.7356   6.6471696488e+01   5.1229905645e+01    0.3347284     0.224964 -13.78   0.00135807    1.999    0.500
       123  -9.8584    104.0549     87.6397   5.4002011877e+01   4.5137636290e+01    0.2148817    0.1990154  15.78  0.001156545    1.099    0.090
       124 -10.2992    143.2898     84.5614   4.2218162450e+01   3.7171814189e+01    0.2628307    0.2491014   7.71 0.0003126567    1.098    0.089
       125 -11.7217     77.0577     80.5433   6.0573387600e+01   5.1448611767e+01    0.8408738    0.6004398 -80.71  0.001977195    2.248    0.555
       126  -9.4048    133.0202     84.5467   4.4846089114e+01   3.9574984181e+01    0.2197475    0.1521493  52.37 0.0002950979    1.470    0.320
       127  -9.9891    120.7087     83.2806   4.7815664638e+01   4.2585254215e+01    0.5433659    0.2251742 -52.05  0.001749775    3.124    0.680
       128 -10.1685    113.2370     82.7070   4.9780858550e+01   4.4298783772e+01    0.2878201    0.2775013  43.93 0.0007789352    1.076    0.070
       129 -10.5663     67.3079     81.7447   6.4269224407e+01   5.2657551376e+01    0.3293268     0.247882 -14.28  0.001736767    1.513    0.339
       130 -11.3167     53.2865     76.0869   6.7673210569e+01   5.5734747158e+01    0.5934615    0.3897408 -63.80  0.003054998    1.688    0.408
       131 -11.2824     58.9290     77.6810   6.6078478890e+01   5.4681258493e+01    0.5293639    0.3629338 -27.27  0.002769595    1.533    0.348
       132  -9.2290    103.3436     80.1865   5.1962569901e+01   4.6827485985e+01    0.2086081    0.1356608 -50.66 0.0002881343    1.621    0.383
       133  -9.8185     92.0074     71.9688   5.2939568823e+01   5.0647990691e+01    0.2702961    0.2369098 -82.45  0.001306636    1.485    0.327
       134  -9.1260     88.7393     73.6792   5.4555540178e+01   5.0901134453e+01    0.2016259    0.1867248  11.68 0.0002352176    1.074    0.069
       135 -10.3265     88.8052     77.8145   5.5830772980e+01   5.0046175038e+01    0.4640644    0.3142796  56.94  0.002150967    1.917    0.478
       136 -10.1672     94.1796     76.5950   5.3711807219e+01   4.9317856160e+01    0.5107765    0.2545162  41.59  0.001790207    2.064    0.516
       137 -11.6023     12.9614     73.7676   8.2103818162e+01   5.9868729401e+01    0.5232233    0.3618941 -74.89  0.003244041    1.448    0.310
       138  -9.6252    233.3354     77.7133   2.3275009220e+01   1.6588957919e+01     0.145809    0.1012023 -68.64 0.0002564619    1.628    0.386
       139  -9.4984     46.7898     76.1139   7.0063196597e+01   5.6483022164e+01    0.1968003    0.1359119 -33.22   0.00108048    1.383    0.277
       140  -8.8340    112.4921     75.4951   4.7749543668e+01   4.5889867456e+01    0.1483144    0.1455694  -5.50 0.0001031818    1.044    0.042
       141  -9.6905    103.4192     74.6960   5.0213519996e+01   4.7913099769e+01    0.2832995    0.2309784  82.11  0.001391132    1.696    0.410
       142 -11.0463      1.9943     71.8143   8.5779587179e+01   6.0875963169e+01    0.3602744    0.1423221 -59.77  0.001568503    1.793    0.442
       143  -9.0942     80.7572     73.9932   5.7323756322e+01   5.2217777635e+01    0.1837058    0.1138571 -44.32  0.000773088    1.524    0.344
       144 -10.0091      1.3343     80.8733   8.7584046192e+01   5.8922684324e+01    0.1989242   0.08784261 -68.84 0.0004543354    1.788    0.441
       145  -9.5327     24.6697     73.9309   7.7765279184e+01   5.9030684533e+01    0.3422677    0.1682193 -35.52  0.001207907    2.049    0.512
       146 -11.4300     35.1323     71.6618   7.3252031148e+01   5.8634678704e+01    0.6735895    0.2579454  22.77  0.002915436    3.084    0.676
       147 -10.2529     41.0068     73.0374   7.1392543968e+01   5.7764661795e+01    0.2329009    0.2066116 -29.23 0.0006764537    1.081    0.075
       148 -11.6489     40.5987     69.1439   7.0489758892e+01   5.8638740074e+01    0.2958217    0.2467408   5.96 0.0007944878    1.298    0.229
       149 -10.5208    186.9098     71.6603   2.9106588695e+01   2.8697750703e+01    0.4309103    0.3496341 -26.98  0.002128634    1.331    0.249
       150  -9.6065    153.2926     72.8258   3.6306751337e+01   3.6924234259e+01    0.2906554    0.1827489  32.25  0.000748009    1.967    0.492
       151  -9.7293     14.5055     67.5892   8.0190656444e+01   6.1111539820e+01    0.3612036    0.1880231   6.21  0.001942878    2.420    0.587
       152 -11.1910    122.8974     68.7458   4.2631323455e+01   4.4885068599e+01    0.5468456    0.2802828  45.67  0.002124629    1.908    0.476
       153 -10.4087     78.5799     67.7195   5.6064910183e+01   5.3841979954e+01    0.3433994    0.3193477 -78.61  0.002008344    1.349    0.259
       154 -10.3474    219.5818     66.9069   2.2577511937e+01   2.1466592731e+01     0.468659    0.2115971  66.30  0.001849515    2.440    0.590
       155  -9.2891     52.1373     65.8559   6.5117540947e+01   5.8029392077e+01    0.1815162    0.1402399 -15.96 0.0006373076    1.304    0.233
       156  -9.4500     25.9739     65.6875   7.5252212671e+01   6.0702099109e+01    0.1577333    0.1420599 -22.23 0.0004378452    1.159    0.137
       157 -12.7062      6.1855     61.7383   8.2151002831e+01   6.2827174888e+01    0.6414799    0.4193053 -33.55  0.002467926    1.402    0.287
       158  -9.9305     13.8105     56.3300   7.7767535838e+01   6.3520088245e+01    0.2425691    0.1296085 -41.27 0.0003851572    1.516    0.340
       159 -11.1646     91.9241     62.4518   4.9803468990e+01   5.2485954989e+01    0.3644941    0.2630934  53.42 0.0006841167    1.626    0.385
       160 -10.2645     58.4793     63.1556   6.1865410456e+01   5.7763165227e+01    0.3476207    0.2908721  85.01  0.001170854    1.809    0.447
       161  -9.7515     64.0893     61.4075   5.9190710796e+01   5.7327749214e+01    0.3658956    0.1870103  30.63  0.001683262    2.107    0.525
       162 -10.1921     51.9312     48.2235   5.9350560287e+01   6.1481264811e+01     0.246273    0.2041519  23.64 0.0006214888    1.292    0.226
       163  -9.7131     51.3622     56.3047   6.2373366805e+01   6.0031900251e+01    0.2957603    0.2032226  30.96 0.0006721698    1.582    0.368
       164 -11.0410     40.6685     56.9080   6.6850666533e+01   6.1147073420e+01     0.387102     0.229752  23.95  0.001022898    1.849    0.459
       165 -11.0626     44.0490     43.9619   6.1062421388e+01   6.3228681472e+01    0.2521824    0.2015229  -8.30 0.0002965149    1.142    0.124
       166 -11.2435     39.7373     43.9259   6.2882393954e+01   6.3726446234e+01    0.5215415    0.2844989   7.12  0.002017098    2.386    0.581
       167 -10.2616     50.5353     61.4925   6.4379326549e+01   5.9110020601e+01    0.3109838    0.2170062  35.82  0.001295341    1.633    0.388
       168 -11.1573     43.1706     62.3262   6.7519322228e+01   5.9786900407e+01    0.2875763    0.2053869 -36.52 0.0005712052    1.204    0.169
       169 -10.7836     46.1486     59.1389   6.5357353052e+01   6.0098091402e+01    0.2785119    0.2364143 -51.29 0.0009449109    1.247    0.198
       170 -10.3772    158.0222     63.2327   3.2352853963e+01   3.7385576536e+01    0.4852489     0.179697  47.27  0.001360967    2.699    0.630
       171  -9.8255    154.9827     60.9389   3.2302979317e+01   3.8523561960e+01    0.2189908    0.2115543  87.07 -0.001877172    1.049    0.047
       172  -9.5841    106.0292     63.5071   4.5738585127e+01   4.9495917249e+01    0.2332827    0.1413717  43.88  0.001046121    1.633    0.387
       173 -11.0115    234.8387     61.1623   1.9144469073e+01   1.8808862764e+01    0.4402917    0.2478217  69.51  0.002078942    1.903    0.475
       174  -9.6396     84.8040     61.6344   5.1891547223e+01   5.3942553965e+01    0.2507549     0.178393  46.44  0.001274934    1.549    0.354
       175 -12.4031     74.5956     52.2704   5.2155013657e+01   5.7402584603e+01    0.9719251    0.3883557 -50.03  0.003166677    3.249    0.692
       176 -11.1613    117.1077     54.3874   3.9415267811e+01   4.8667626434e+01     1.055474    0.5868447 -63.32  0.003439943    4.102    0.756
       177 -10.2202    122.7569     44.4284   3.4444076121e+01   4.8914240050e+01    0.3049416    0.2430015  21.36 0.0007477917    1.326    0.246
       178 -10.4481    112.4790     50.5250   3.9355387890e+01   5.0318305956e+01    0.2831677    0.2675269  41.70 0.0009051269    1.094    0.086
       179 -10.9568    116.0143     48.9957   3.7833977979e+01   4.9771001418e+01    0.3312102    0.2982378  31.88 0.0004200444    1.042    0.040
       180  -9.9990    174.7649    246.3904   6.9307315978e+01  -9.6149055165e-01     0.240172    0.1346563  32.98  0.001276262    1.519    0.342
       181  -9.3680    113.8315     61.3284   4.2710332955e+01   4.8220506746e+01    0.2091883    0.1870948 -39.36  0.001129842    1.169    0.144
       182  -9.9330    106.6360     58.7318   4.3923764695e+01   5.0214679348e+01    0.3417929    0.2344913 -71.60  0.001419881    2.603    0.616
       183 -11.4107     32.2736     52.9979   6.9087773926e+01   6.2758366066e+01     1.365901    0.3952184  16.85  0.003922159    7.483    0.866
       184  -9.6725     29.3442     59.8368   7.2326600478e+01   6.1643154837e+01    0.3267594    0.2349508 -63.42  0.001972408    1.472    0.321
       185 -10.5895     25.0054     59.5091   7.4001256014e+01   6.2070345593e+01    0.4639013    0.2043222  41.46    0.0021208    3.255    0.693
       186 -10.7147     25.2043     56.1927   7.2993201162e+01   6.2732916531e+01    0.4110668    0.2111656 -28.08  0.002098446    2.061    0.515
       187 -10.4124    109.7260     40.1858   3.6395368523e+01   5.2484559883e+01    0.5392756    0.3649602 -14.45  0.001685777    1.673    0.402
       188  -9.9781     91.6418     57.2774   4.8098837844e+01   5.3476415113e+01    0.2685998     0.204801  50.40 0.0006779605    1.464    0.317
       189 -10.1630     88.1089     55.7889   4.8737242271e+01   5.4403615451e+01    0.4380053    0.1820834 -32.79  0.001488412    2.643    0.622
       190 -10.3735    157.9841     55.3925   2.9962107449e+01   3.8647128582e+01     0.442828    0.3586076 -81.46  0.002213053    1.424    0.298
       191  -9.6009    125.3253     56.9042   3.8064814936e+01   4.6380410219e+01    0.2088267    0.1928378 -17.97 0.0008105054    1.104    0.095
       192 -11.4948     45.2576     49.4597   6.2511369036e+01   6.2075017370e+01     0.612311     0.339871 -45.24   0.00322794    1.603    0.376
       193  -9.3470     66.9601     55.0622   5.5951469185e+01   5.8109939734e+01    0.1894219    0.1682127 -80.22 0.0008221288    1.613    0.380
       194  -9.7507    246.3553     54.3080   1.6208200078e+01   1.7249597219e+01     0.126564    0.1036131  27.08  0.000704241    1.723    0.420
       195 -11.2954     60.7230     47.9147   5.5753251918e+01   6.0331532425e+01    0.7257524    0.3153069 -37.09  0.002939423    2.174    0.540
       196  -9.3084     55.5705     50.5437   5.8725666379e+01   6.0575674334e+01    0.1314123    0.1114134 -19.71 9.029123e-05    1.006    0.006
       197 -10.6342    240.1419     50.8150   1.6104764356e+01   1.9120052009e+01    0.2255714    0.1955174 -28.52 0.0007870636    1.310    0.237
       198 -10.1796    146.1778     47.9957   3.0126645002e+01   4.2728030902e+01    0.4787987    0.2216194 -16.54  0.001531963    3.817    0.738
       199  -9.6102     81.5522     50.5209   4.9059244493e+01   5.6511552119e+01    0.2149867    0.2068212 -41.48 0.0006252691    1.248    0.199
       200 -10.5149     82.9096     46.8278   4.7219384990e+01   5.6888073716e+01    0.2894757    0.2331091   3.60 0.0006313609    1.222    0.181
       201 -10.4324     26.3845     48.7716   7.0274000498e+01   6.4111150261e+01    0.2639257    0.1331184 -28.99  0.001134964    2.012    0.503
       202 -10.8984     20.9171     45.7302   7.1714011195e+01   6.5142947363e+01    0.3951661    0.1860091 -38.65  0.000965187    1.761    0.432
       203 -10.7967     25.7749     42.4423   6.8487213006e+01   6.5372644508e+01    0.3281606    0.2851946  72.17  0.001499842    1.829    0.453
       204 -10.2773     22.2736     37.0142   6.8219217648e+01   6.6672376065e+01     0.318869    0.1780837  36.50  0.001467009    2.329    0.571
       205  -9.9635      1.8973     48.9287   8.0949983821e+01   6.5672700388e+01    0.1917078    0.1458025 -62.32 0.0008302197    1.247    0.198
       206  -9.7337    173.3662     48.5666   2.4966824669e+01   3.5748193459e+01    0.4264247    0.1513764  68.17  0.001295549    3.599    0.722
       207  -9.7612     13.6798     46.4331   7.5128152034e+01   6.5517884130e+01    0.2152047   0.09745669 -41.98  0.001154331    1.722    0.419
       208 -10.6083    137.7837     44.6556   3.0895297824e+01   4.5286315783e+01    0.6931829    0.2611247  42.37  0.001672141    2.960    0.662
       209 -10.0549    199.9330     44.9242   1.9728572859e+01   2.9522104908e+01    0.3968456    0.2047565  79.99  0.001568355    2.355    0.575
       210  -9.9419    160.2280     43.3908   2.5819013571e+01   3.9838805780e+01    0.3489384    0.1504145  70.98 0.0002595102    3.019    0.669
       211 -10.2891    155.9687     42.2215   2.6274141916e+01   4.1083486044e+01    0.3194156    0.2599167  30.66  0.001097269    1.348    0.258
       212 -12.1006    126.1642    242.0189   7.8188291125e+01   7.6636239429e+00    0.4161342    0.3030599 -83.10  0.002516592    1.734    0.423
       213 -10.3324     11.9729     29.8635   7.0615824622e+01   6.8741535849e+01    0.3228754     0.198105 -40.27  0.001606869    1.250    0.200
       214 -10.2575      7.7586     30.3743   7.2864887005e+01   6.8922182283e+01    0.2549362    0.1526212 -20.54  0.001382279    1.539    0.350
       215  -9.7369     91.7387     41.9492   4.2440348046e+01   5.5988916145e+01    0.3109173    0.1972622  64.27  0.001388282    2.395    0.582
       216  -9.5791     17.2036     41.9829   7.2201072045e+01   6.6138010214e+01    0.2128827   0.09117583 -35.55 0.0009790743    2.057    0.514
       217 -11.3992     79.5308     35.0791   4.3817936950e+01   5.9332948874e+01    0.7341959    0.5148491 -22.08  0.004051289    1.394    0.283
       218  -9.7281    231.5159     38.5406   1.4211099638e+01   2.2771640578e+01    0.2882532    0.1230626 -34.06  0.001238523    2.265    0.558
       219  -9.2958    194.1405     38.7591   1.8901572615e+01   3.1815407847e+01    0.1889274    0.1583215  39.89 0.0004882608    1.376    0.273
       220  -9.1711    183.7898     38.1660   2.0260919060e+01   3.4519448209e+01    0.1818738    0.1605411  44.29 0.0004976935    1.231    0.188
       221  -9.7668    153.4302     37.7838   2.5367723572e+01   4.2324301948e+01    0.2878115     0.211086  23.27 0.0008388674    1.662    0.398
       222 -11.1944     61.1634     35.9718   5.0970954014e+01   6.2274214572e+01    0.4440535    0.2776407 -11.43  0.001930102    1.809    0.447
       223  -9.5546     70.6332     34.2470   4.6661302948e+01   6.1019316074e+01    0.1910098     0.171254  -7.90 0.0007336438    1.121    0.108
       224 -10.0708     67.5359     31.9800   4.6882966712e+01   6.1873865335e+01     0.321021    0.2073248  19.49  0.001182317    1.601    0.375
       225 -11.0502     57.1024     30.7087   5.0423639053e+01   6.3700767221e+01    0.4387186     0.260761 -13.59  0.001500642    1.896    0.473
       226 -11.5994     48.8812     30.5128   5.3752453090e+01   6.4893366148e+01     0.597746    0.2446922  31.22  0.002098334    2.540    0.606
       227 -10.0265     43.1442     28.1536   5.5249325149e+01   6.6008678291e+01    0.1827858     0.145269 -11.88 0.0002499689    1.018    0.017
       228  -9.2713    206.4566     37.5033   1.6909911811e+01   2.8907746362e+01    0.1404884    0.1245696 -79.28 0.0001239283    1.016    0.016
       229 -11.2296    176.0828     34.4857   2.0406872975e+01   3.6966052582e+01    0.6197275     0.395075 -41.29  0.002568319    1.615    0.381
       230 -11.2698    183.2722     25.8060   1.6874170509e+01   3.6195488470e+01     0.506348    0.2969239  32.29  0.002192587    2.471    0.595
       231  -9.2880    187.3395     23.3074   1.5634197901e+01   3.5455951016e+01    0.2065697     0.176356  23.44 0.0008246282    1.462    0.316
       232  -9.5654    132.1799     36.8752   2.9536674990e+01   4.7723310847e+01    0.2974055    0.1858346 -88.96  0.001173458    2.773    0.639
       233  -9.5280     13.0148     36.7135   7.2442928519e+01   6.7421418450e+01    0.2369099    0.1242484 -46.06  0.001044772    1.464    0.317
       234  -9.6708     94.0844     35.8140   3.9335798872e+01   5.6420895377e+01    0.1913059    0.1839459  75.61 0.0005866176    1.310    0.237
       235 -10.6708    131.0447    240.7105   7.7070966774e+01   7.0962957219e+00    0.1871646    0.1407773  43.43 0.0009484778    1.095    0.087
       236 -11.8967    164.3459     27.7515   2.0304206457e+01   4.0796983988e+01    0.3071309    0.2687957  68.67 0.0004623951    1.036    0.035
       237 -11.8039     67.6190    240.8626   8.9302158287e+01   1.6632776416e+01    0.4413703    0.2242188  46.46  0.002526641    1.582    0.368
       238 -11.2649    147.0585    237.9045   7.3541917078e+01   4.9278155687e+00    0.4124242    0.3120696  63.63  0.001694695    1.460    0.315
       239 -11.6651    106.7990     32.2605   3.4243759879e+01   5.4212515054e+01    0.6861287    0.3844884  10.09  0.002453132    2.956    0.662
       240 -12.0518    113.6640     24.9511   2.9676184973e+01   5.3573703448e+01    0.6756299    0.2919372  53.42  0.001833688    2.044    0.511
       241  -9.9404    240.3154     32.5615   1.1940040568e+01   2.1550364662e+01     0.303396    0.1876987  54.17  0.001603132    1.857    0.462
       242  -9.1742    183.3342     32.2900   1.8678827478e+01   3.5391412086e+01    0.1438018    0.1023097  39.42 0.0003841906    1.632    0.387
       243 -11.0100     32.4427     31.1092   6.1299348302e+01   6.6758522593e+01    0.2207582     0.169108 -26.08 0.0002641287    1.066    0.062
       244 -10.4940    167.0942    238.0459   6.9601928661e+01   1.5592124899e+00    0.1968159    0.1653228  33.97 0.0008394498    1.027    0.026
       245  -9.4869      5.8034     21.9428   7.0857336074e+01   7.0532180725e+01    0.4215723    0.1929706  -6.10  0.002219186    2.672    0.626
       246  -9.5922     48.7040    238.6456   9.2598594515e+01   1.9501628640e+01   0.09770478   0.08710451 -53.13 0.0004163274    1.692    0.409
       247  -9.2107     15.3764    233.7941   9.8168859212e+01   2.4206211093e+01    0.1419237   0.08154764 -73.91  0.000943335    1.687    0.407
       248 -10.4036    197.4749    232.4794   6.2831093569e+01  -2.6405984141e+00     0.128671    0.1046265  23.15 0.0003192598    1.014    0.013
       249  -9.7052    246.9974    231.0228   5.3478175253e+01  -1.0051165559e+01    0.1475456    0.1130137   9.85 0.0005707186    1.014    0.014
       250  -9.2773     75.5135    224.4923   8.6310129794e+01   1.8677282022e+01    0.1251896    0.1006109  65.53 0.0001187695    1.009    0.008
       251  -8.9201    230.0002     30.7579   1.2556692691e+01   2.4135476970e+01    0.1633924    0.1038019  74.43  0.000301081    1.514    0.340
       252 -10.2204    198.3801     28.6715   1.5644992078e+01   3.2039629053e+01    0.3635572    0.2543733  52.80  0.001908708    1.485    0.327
       253 -10.9978    189.0505     28.0872   1.6710564569e+01   3.4457424364e+01    0.3958694    0.3134864   8.33  0.001709872    1.707    0.414
       254 -12.1091    126.2198     28.5968   2.8004667656e+01   5.0203502851e+01    0.5070273    0.3975707  68.43  0.002745157    1.330    0.248
       255  -9.9031     88.7366     29.4241   3.8478501701e+01   5.8367242928e+01    0.4025846    0.1994685  41.46  0.001856718    1.870    0.465
       256 -11.0890    143.6431     25.3803   2.3238680922e+01   4.6313721788e+01    0.7823045     0.360232  80.73  0.002518935    3.965    0.748
       257 -11.0069    148.3097     22.6769   2.1482564994e+01   4.5447936929e+01    0.4475869     0.172475  49.09  0.001730817    2.382    0.580
       258 -10.2375    155.5755     24.5472   2.0794537052e+01   4.3402244946e+01    0.3761623    0.2212988  85.31  0.001272908    2.105    0.525
       259  -9.7507    155.4858     20.5477   1.9555553831e+01   4.3868538620e+01    0.2143206    0.1893281 -52.28  0.001188608    1.225    0.184
       260  -9.6032    213.0234     24.4812   1.2853883767e+01   2.8942306093e+01    0.2107197    0.1217877  72.75  0.001040184    1.614    0.380
       261  -9.0597    233.7399    223.3444   5.4501739249e+01  -7.1182132602e+00    0.1021948    0.1001675 -50.81  0.000379374    1.595    0.373
       262 -11.2075    135.2705     22.4127   2.3891822631e+01   4.8720641590e+01    0.6474235    0.3138986  57.12  0.002857892    1.789    0.441
       263  -9.7627     49.6772    222.6785   9.1211400075e+01   2.2481178672e+01    0.1028796   0.09165578 -45.94 0.0006500702    1.677    0.404
       264 -10.2280    127.2670     16.3314   2.3408930257e+01   5.1309428973e+01    0.3186621    0.1829444  45.59 0.0009318321    1.572    0.364
       265  -9.7871     59.7557     23.8386   4.6410214414e+01   6.4291280629e+01    0.1824384    0.1427773  -6.47 0.0004368903    1.111    0.100
       266  -9.4485    164.6310    211.9854   6.6081279961e+01   6.3327790217e+00    0.1768295    0.1709324  35.37 0.0004983013    1.117    0.105
       267 -10.2185     90.9456     22.5811   3.5002289120e+01   5.8782872646e+01      0.26957    0.2077106  14.70  0.001559178    1.246    0.197
       268 -11.2559     38.9201     22.2484   5.4598219461e+01   6.7437035841e+01    0.2157339    0.1652301 -14.65 0.0004004255    1.056    0.053
       269  -9.5201    152.5898    206.7913   6.7778618556e+01   9.4622697710e+00     0.183552    0.1342639 -67.02 0.0009500333    1.736    0.424
       270  -9.4482    223.2901     22.4077   1.1282426342e+01   2.6735806763e+01    0.1800287     0.113246  88.37 0.0006653334    1.538    0.350
       271  -9.1186     61.4995    206.5195   8.7398408795e+01   2.4295656648e+01    0.1275651    0.1025335  72.30 0.0005103613    1.013    0.013
       272 -10.0113     16.4729    205.4931   9.6346402642e+01   2.9711141143e+01    0.1154024   0.08627082  78.63 0.0001714845    1.015    0.014
       273  -9.0837     78.4880    203.5516   8.3468536898e+01   2.2561027901e+01    0.1319011    0.1094829  69.25 0.0001487215    1.015    0.015
       274  -9.2619    216.5361     20.5143   1.1515419118e+01   2.8566229178e+01    0.1329235    0.1149372 -81.43 8.587151e-05    1.020    0.020
       275  -9.9947     74.6882     19.5185   3.8968500936e+01   6.2303174704e+01    0.2423976    0.1711865  19.13  0.000652132    1.327    0.246
       276  -9.7759     46.9935     19.4602   4.9741995828e+01   6.6786602528e+01    0.2426795    0.1462553 -16.58  0.001366118    1.615    0.381
       277  -8.8487      1.4787     20.5200   7.2602148573e+01   7.1030424777e+01    0.1142996   0.07893427 -31.89 0.0008091577    1.063    0.060
       278  -9.8790    246.4740     19.5012   8.5262250491e+00   2.1804583559e+01    0.1290934    0.1015411 -68.42 7.573597e-05    1.045    0.043
       279  -9.2574     81.0036     19.4729   3.6824830129e+01   6.1122412539e+01    0.2001198     0.117561  46.83  0.001036644    1.608    0.378
       280  -9.6271    139.5799    198.7938   6.9304448816e+01   1.3387709312e+01     0.188921    0.1358964 -70.23 0.0008521707    1.703    0.413
       281 -10.8091      6.1461    198.5340   9.7894001908e+01   3.2130505570e+01    0.2241276    0.1122565 -66.27  0.001329187    1.901    0.474
       282 -10.0160    119.4792     16.2087   2.5042403745e+01   5.3175646003e+01    0.3458247    0.1935945  51.50 0.0008643066    1.534    0.348
       283  -9.7883    233.8177    196.9733   4.9645733234e+01  -3.3860868723e+00    0.1936856    0.1504657 -56.36   0.00107506    1.960    0.490
       284 -12.0255      4.5843    184.1703   9.7319717643e+01   3.5316817809e+01    0.5603567    0.3331322  88.66  0.002655672    1.319    0.242
       285 -10.3364    186.7390     15.2649   1.3523421427e+01   3.6501547495e+01    0.2411921    0.2122709  59.01 0.0005998248    1.178    0.151
       286  -8.7301     86.3247    185.6610   7.9453390512e+01   2.5317599583e+01    0.1475959   0.09436604  70.96 0.0007051256    1.725    0.420
       287  -9.6193    218.4964     12.9685   9.5246605806e+00   2.8957734911e+01    0.1892474    0.1240508 -33.73  0.001039534    1.613    0.380
       288  -9.4930    250.5181    176.5109   4.2644584928e+01  -3.0492861822e+00    0.1320686    0.1114553  -7.81 0.0008103126    1.004    0.004
       289  -9.6777     74.7375     13.5975   3.6333146348e+01   6.2979301030e+01    0.1676566    0.1159806  53.62  0.000945063    1.624    0.384
       290  -9.5391     28.2709    175.9621   9.1652258104e+01   3.4954292016e+01    0.1766684    0.1330279 -85.48 0.0005431148    1.094    0.086
       291  -9.3641     51.8337    173.8259   8.6028854559e+01   3.2821094693e+01    0.1864824    0.1322794  70.86 0.0006158116    1.322    0.244
       292  -9.1909     39.5065    173.5226   8.8867122923e+01   3.4325404407e+01    0.1274176    0.1045555  86.86 0.0002490433    1.009    0.009
       293 -10.1464     14.0536    159.3168   9.3388592285e+01   4.0062096594e+01    0.2163396    0.1875117 -56.45  0.000797889    1.366    0.268
       294 -11.8827      9.0951    166.9247   9.5144999387e+01   3.8744298251e+01    0.4346039     0.242965  42.43  0.002171499    1.831    0.454
       295 -11.4207     11.2511    162.9757   9.4344814942e+01   3.9459594965e+01     0.356265    0.1802292 -85.88  0.001945308    1.673    0.402
       296 -10.2200     18.7899    164.8572   9.2790038992e+01   3.8385141310e+01    0.2509812    0.2221015 -24.48  0.001695111    1.608    0.378
       297  -9.3120     66.3620     10.4405   3.7816851015e+01   6.4844250249e+01    0.2373695    0.1009027  41.80  0.001127434    2.090    0.522
       298  -9.7282    204.8555    163.2843   4.8336534933e+01   7.5256090374e+00    0.2339557    0.1942681 -43.33 0.0005746051    1.271    0.213
       299 -10.3976     27.9444    161.9783   9.0381173951e+01   3.8197344137e+01    0.3155774    0.2199463 -53.18  0.001902292    1.568    0.362
       300  -9.2647     38.4978    160.4785   8.7679653446e+01   3.7474021418e+01    0.1288048    0.1072733 -86.68 3.947876e-05    1.019    0.019
       301 -10.9598      9.3268    155.5689   9.4161340963e+01   4.1300715741e+01    0.2443188    0.1744198 -81.99  0.001114287    1.100    0.091
       302  -9.7168    104.1693    154.9623   7.0078114128e+01   2.9506700777e+01    0.2747481    0.2015135 -55.73  0.001356548    1.353    0.261
       303 -12.4059     22.0640    149.7587   9.0539867433e+01   4.1593630391e+01    0.6636289    0.3228624 -45.28  0.001923579    2.554    0.608
       304 -10.6507     16.5080    147.8397   9.1716469889e+01   4.2512803427e+01    0.2485941    0.1780723 -81.01 0.0003862583    1.118    0.106
       305 -10.4203     30.6208    152.3592   8.8696381749e+01   4.0191962685e+01      0.28841    0.2172439  84.08  0.001787474    1.182    0.154
       306 -10.3037      4.1880    153.6663   9.5197447781e+01   4.2121256063e+01     0.233895     0.115047  43.92  0.001079924    2.084    0.520
       307 -11.2094     47.2598    146.9887   8.3748586114e+01   3.9725454516e+01    0.6027598    0.3702264 -45.67  0.003088874    1.833    0.455
       308  -9.6966     61.8904    151.8284   8.0607555189e+01   3.6770418522e+01    0.2084644    0.1809823 -49.65 0.0007439847    1.271    0.213
       309 -10.2987      3.0601    147.8880   9.4981879265e+01   4.3517752764e+01    0.2383589    0.1326235 -76.65 0.0008223029    1.395    0.283
       310 -11.5947      5.7228    142.1650   9.3830684933e+01   4.4644897163e+01     0.512948    0.2569477  80.97 0.0003125218    2.013    0.503
       311 -10.6854      2.0172    140.0332   9.4550996594e+01   4.5385860768e+01    0.4124308    0.1347618 -70.03  0.001772869    2.243    0.554
       312  -8.8739    239.3412    146.6897   3.8277649335e+01   3.7138309376e+00    0.1344847     0.109871 -69.68 0.0003261539    1.694    0.410
       313  -9.1323     74.0438    146.0635   7.6445784837e+01   3.6495771540e+01    0.1693967    0.1514047 -77.68 0.0006019901    1.022    0.021
       314 -11.0729     33.1725    144.2271   8.7076577425e+01   4.1874512776e+01    0.2865694     0.236349 -84.24 0.0007916058    1.024    0.023
       315 -10.2851     16.1722    141.1577   9.1108664586e+01   4.4101276764e+01    0.2006638    0.1222728  72.88 0.0005559355    1.671    0.402
       316 -11.2070     12.3206    136.0856   9.1558925618e+01   4.5582530134e+01    0.5137646    0.2781088 -54.49  0.002866787    1.726    0.421
       317  -9.1915    217.5027    138.9214   4.0439021903e+01   9.4049225732e+00    0.2160517    0.1381907 -37.02 0.0004049765    1.488    0.328
       318 -10.0914     79.9677    138.3008   7.3423412297e+01   3.7504545440e+01    0.3091659      0.22724  39.04 0.0009665981    1.435    0.303
       319 -10.5192     40.1939    138.1964   8.4405388965e+01   4.2613599669e+01    0.3020104    0.2067264  60.45  0.001149768    1.562    0.360
       320 -11.4298     22.6223    136.3207   8.8883234778e+01   4.4713889131e+01    0.5304154    0.3482417  44.83  0.002659062    1.661    0.398
       321  -9.8074     31.7994    137.4582   8.6574154365e+01   4.3623567182e+01    0.3137347    0.1932318  38.91  0.001266208    1.779    0.438
       322 -10.9166     29.9511    133.1571   8.6506706002e+01   4.4823761065e+01    0.3219919    0.2245444 -47.87 0.0007688111    1.489    0.328
       323  -9.4453     47.4620    135.0318   8.1937711131e+01   4.2593622924e+01    0.2088365    0.1165297 -66.96 0.0008728101    1.565    0.361
       324 -10.0901     72.8246    133.7315   7.4567965307e+01   3.9673088780e+01    0.4209913    0.2593991 -22.69  0.001698642    2.866    0.651
