#   1 NUMBER                 Running object number                                     
#   2 MAG_AUTO               Kron-like elliptical aperture magnitude                    [mag]
#   3 X_IMAGE                Object position along x                                    [pixel]
#   4 Y_IMAGE                Object position along y                                    [pixel]
#   5 X_WORLD                Barycenter position along world x axis                     [deg]
#   6 Y_WORLD                Barycenter position along world y axis                     [deg]
#   7 A_WORLD                Profile RMS along major axis (world units)                 [deg]
#   8 B_WORLD                Profile RMS along minor axis (world units)                 [deg]
#   9 THETA_WORLD            Position angle (CCW/world-x)                               [deg]
#  10 FWHM_WORLD             FWHM assuming a gaussian core                              [deg]
#  11 ELONGATION             A_IMAGE/B_IMAGE                                           
#  12 ELLIPTICITY            1 - B_IMAGE/A_IMAGE                                       
         1 -14.7067    163.0389     38.1871   2.9023408883e+02   6.3203486322e+00   0.05902156   0.04082813 -48.84  0.004033309    1.454    0.312
         2 -14.1276    176.1216      5.9148   2.8987743423e+02   6.6047359015e+00   0.04498846   0.03909086  23.67  0.004301677    1.134    0.118
         3 -10.9167    118.1359    244.4850   2.9205451171e+02   4.2556083238e+00   0.02011171  0.005301457  42.01  0.001259234    4.048    0.753
         4 -19.9218     74.7315    171.3176   2.9210423431e+02   5.3570790581e+00    0.9342232    0.3679646 -63.48   0.07322849    2.731    0.634
         5 -12.7567    169.9860    195.1886   2.9114000870e+02   4.4936777718e+00   0.02162563   0.01231195 -62.44  0.001447777    1.816    0.449
         6 -10.6585     28.8351    239.1345   2.9306481459e+02   4.8700033385e+00  0.009588275  0.009100105  80.25 0.0007606009    1.115    0.103
         7 -12.9301    176.0840    195.2300   2.9106902778e+02   4.4552480092e+00   0.02071961   0.01413963  61.89  0.002072126    1.814    0.449
         8 -13.8494    179.3627    192.0675   2.9101088761e+02   4.4707762276e+00    0.0316331   0.02398024  68.57  0.002044687    1.590    0.371
         9 -11.5262    157.9818    193.1668   2.9126759241e+02   4.5913651083e+00   0.01143584  0.009770014 -82.15 0.0003257439    1.289    0.224
        10  -9.2607     15.8092    237.5936   2.9320749947e+02   4.9680959921e+00    0.0157673   0.01049825  32.71  0.001365293    1.454    0.312
        11 -10.5556     24.3045    234.8028   2.9309077715e+02   4.9473088960e+00  0.007427453  0.005847037 -61.25   0.00021432    1.297    0.229
        12 -10.8232     21.5224    184.9052   2.9281192121e+02   5.5321725765e+00   0.02011288   0.01007747 -23.50  0.001375782    3.985    0.749
        13 -12.7665    206.5108    181.5112   2.9062754994e+02   4.4216092298e+00   0.01977851     0.015045 -20.74  0.002135647    1.511    0.338
        14 -13.6915    210.8151    179.2559   2.9056312557e+02   4.4204025199e+00   0.04243921   0.02433466 -27.78  0.003699319    2.406    0.584
        15 -12.3280     30.0317    183.5784   2.9270404169e+02   5.4946111159e+00   0.02076015   0.01211112  46.27  0.001163583    1.826    0.452
        16  99.0000     28.4064    179.5346   2.9269779411e+02   5.5506703443e+00   0.05310249   0.01963886  14.54  0.002814321    6.281    0.841
        17 -12.0683     24.1974    230.5180   2.9306531241e+02   4.9967166157e+00   0.02089821   0.01372505  51.58  0.001602761    1.697    0.411
        18 -11.3971      4.7383    180.1392   2.9297860436e+02   5.6901811456e+00   0.01211507  0.009743338  -5.94 0.0005824465    1.387    0.279
        19 -11.7825     42.6774    177.0697   2.9251535435e+02   5.4903513287e+00   0.01927308   0.01490363 -54.42  0.001531254    1.297    0.229
        20 -10.0102    227.8009    231.9291   2.9069547576e+02   3.7162020208e+00  0.008736683  0.005211627 -58.92 0.0004862637    1.685    0.406
        21 -12.9562    198.0436    175.9338   2.9069141021e+02   4.5377439692e+00    0.0207371   0.01740812 -89.02  0.001169417    1.351    0.260
        22 -10.7850     10.4044    174.8192   2.9287905051e+02   5.7156728673e+00   0.01004913  0.008546427  41.09 0.0005367941    1.175    0.149
        23 -13.4764    137.7996    171.7262   2.9136904805e+02   4.9606472210e+00   0.02656107   0.01789556  59.09  0.002656283    1.796    0.443
        24 -12.2001    208.4989    227.9754   2.9089590355e+02   3.8813260294e+00   0.01031317  0.006598501 -60.58 0.0006253862    1.590    0.371
        25 -12.3028     15.5779    219.9924   2.9310047363e+02   5.1697700676e+00   0.01505388   0.01071756 -47.32  0.001607803    1.419    0.295
        26 -12.6576    203.6949    167.8931   2.9057490235e+02   4.5938756632e+00   0.03246203   0.02361321  51.44  0.002754041    1.488    0.328
        27 -13.0113    146.5081    171.4956   2.9126578284e+02   4.9090930636e+00   0.02551634    0.0139699  49.47  0.002302761    2.091    0.522
        28 -11.0840    123.8651    166.7897   2.9150104332e+02   5.1034195600e+00    0.0125153   0.00838799  48.82 0.0006304139    1.602    0.376
        29 -11.1209    224.8604    165.7916   2.9031454694e+02   4.4857706361e+00  0.009492998  0.007773328  61.10 0.0006236411    1.355    0.262
        30 -10.0974      2.7276    164.7073   2.9290575639e+02   5.8781601058e+00  0.006676317   0.00498406 -26.45 0.0002534259    1.517    0.341
        31  99.0000     14.9293    215.5501   2.9308035310e+02   5.2243202271e+00   0.01048262  0.007964357 -35.30 0.0007815628    1.406    0.289
        32 -11.2425     23.0770    155.4171   2.9260939903e+02   5.8579827483e+00   0.01390295   0.01299604 -71.79 0.0009373879    1.114    0.102
        33 -14.2333    134.0220    145.5744   2.9124913549e+02   5.2814203472e+00   0.05777089   0.01787936 -68.41  0.003299893    5.343    0.813
        34 -13.5296    143.7360    145.1192   2.9113265812e+02   5.2261482988e+00   0.03272894   0.01773045 -88.74  0.002441549    3.513    0.715
        35 -12.9754    153.3906    145.8338   2.9102423833e+02   5.1579286257e+00   0.02009707   0.01230462  30.61    0.0020012    1.581    0.367
        36 -10.2209    140.3227    218.6373   2.9163354923e+02   4.4116446659e+00   0.01095206  0.005992357 -76.82 0.0007167534    2.486    0.598
        37 -11.4007      5.2375    137.2874   2.9270494468e+02   6.1745236878e+00   0.01638194   0.01184842  -7.36  0.001693509    1.679    0.404
        38 -10.8039    174.8492    149.1090   2.9079393485e+02   4.9870632654e+00   0.01053188  0.009042547  59.57 0.0006673402    1.257    0.204
        39 -13.7987    135.3304    122.2625   2.9108743669e+02   5.5382244268e+00   0.05039099   0.01452848 -67.24  0.002824385    5.489    0.818
        40 -10.2969    138.5934    215.4891   2.9163404168e+02   4.4581854459e+00   0.01073734  0.006614171 -77.69 0.0005161537    2.052    0.513
        41 -11.0285    139.7305    249.5510   2.9183394045e+02   4.0638825327e+00   0.01270734   0.01136388  67.35  0.001154649    1.211    0.174
        42 -10.7553    125.0000    250.1533   2.9200976285e+02   4.1485372482e+00   0.01017855   0.00381087 -61.15 0.0005104833    2.719    0.632
        43 -10.8962    114.0826    250.2198   2.9213771357e+02   4.2155672832e+00  0.009124056  0.008239536 -36.05 0.0003484586    1.127    0.112
        44 -11.3423    112.5127    211.2984   2.9191262901e+02   4.6678867711e+00   0.01327673   0.01140402   9.19  0.001168005    1.201    0.167
        45 -10.1525      9.7574    211.6527   2.9311654215e+02   5.3006360424e+00  0.006840428   0.00483899 -33.23  0.000287632    1.572    0.364
        46 -10.5051      7.3212    245.6176   2.9335671930e+02   4.9292769220e+00   0.00792753  0.006321059  12.94 0.0004898551    1.310    0.237
        47 -13.5024     11.6036    206.1349   2.9306052214e+02   5.3519975730e+00   0.03051976   0.01818891  19.22  0.002429015    1.809    0.447
        48 -10.6975    205.4228    110.1350   2.9019154499e+02   5.2391374779e+00   0.01154055  0.009132215  12.01 0.0006720886    1.331    0.249
        49 -10.7311      9.2372    202.3170   2.9306438732e+02   5.4100632078e+00  0.009170488  0.008117001  32.25            0    1.109    0.098
        50 -10.4978    151.0411    250.5453   2.9170806971e+02   3.9822940060e+00  0.009737708  0.006439694  28.22 0.0004486636    1.480    0.324
        51 -10.7686    156.9766    105.9647   2.9073174635e+02   5.5886047593e+00  0.009754319  0.009403363  36.79 0.0003018275    1.037    0.035
        52 -11.0230    125.1968    242.9010   2.9196211649e+02   4.2297689378e+00  0.008702817  0.007424933 -50.46  0.000316586    1.180    0.152
        53 -12.0282    135.5994    196.1985   2.9154819072e+02   4.6961146858e+00   0.02094596   0.01324285  75.99  0.001879731    2.396    0.583
        54 -10.0389    180.4505     76.5234   2.9027189045e+02   5.7765984820e+00  0.006579591  0.006465592  19.90 0.0001279439    1.011    0.011
        55 -10.7653     13.6561     59.9748   2.9212184029e+02   7.0012971587e+00  0.009262363  0.008475984 -63.27 0.0004361156    1.123    0.109
        56 -14.3882    151.5029     53.3770   2.9046483035e+02   6.2198968896e+00   0.05474908   0.03787962 -13.39   0.00310061    1.839    0.456
        57 -11.7896     13.4603    244.7011   2.9327924591e+02   4.9017593573e+00   0.02128539  0.006643587 -51.52  0.001548694    3.021    0.669
        58 -12.8770    166.4572     30.6321   2.9014645392e+02   6.3847392578e+00   0.02014293   0.01624233 -39.47 0.0009755688    1.280    0.219
