#   1 NUMBER                 Running object number                                     
#   2 MAG_AUTO               Kron-like elliptical aperture magnitude                    [mag]
#   3 X_IMAGE                Object position along x                                    [pixel]
#   4 Y_IMAGE                Object position along y                                    [pixel]
#   5 X_WORLD                Barycenter position along world x axis                     [deg]
#   6 Y_WORLD                Barycenter position along world y axis                     [deg]
#   7 A_WORLD                Profile RMS along major axis (world units)                 [deg]
#   8 B_WORLD                Profile RMS along minor axis (world units)                 [deg]
#   9 THETA_WORLD            Position angle (CCW/world-x)                               [deg]
#  10 FWHM_WORLD             FWHM assuming a gaussian core                              [deg]
#  11 ELONGATION             A_IMAGE/B_IMAGE                                           
#  12 ELLIPTICITY            1 - B_IMAGE/A_IMAGE                                       
         1 -11.7013    236.2981      7.0602   1.8746417882e+01   2.8352569851e+01    0.4707846    0.2728474 -39.13  0.003347335    1.675    0.403
         2 -11.2812    246.7397      1.9618   1.7365351463e+01   2.7099365742e+01    0.7822043    0.1442882  77.06   0.00328967    5.387    0.814
         3 -12.0692    227.3416     17.2402   2.1076177714e+01   2.8868591652e+01    0.4213555    0.3270137 -41.52  0.002229057    1.419    0.295
         4 -13.0100    239.5017     18.6443   2.0562289123e+01   2.6594892530e+01     0.732149    0.4091899 -58.29  0.003538482    1.378    0.274
         5 -12.2195    248.0644     11.9493   1.8944092700e+01   2.5869952117e+01    0.6719429    0.4156763 -31.15  0.004789348    1.989    0.497
         6 -11.9264    111.2779     18.9883   3.4767108973e+01   5.3310948459e+01    0.5267857    0.3500833  -7.27  0.002881619    2.103    0.525
         7 -12.2284     55.4603     19.7932   5.0937109692e+01   6.5316734470e+01    0.2790701     0.258626  85.90 0.0004047946    1.519    0.342
         8 -11.1381    101.3075     15.8664   3.5776328083e+01   5.5899911322e+01    0.4804493    0.3219649  39.94  0.001984255    1.502    0.334
         9 -10.3562     81.5082     16.4680   4.0830794759e+01   6.0280513100e+01    0.2739176    0.2544277  62.68  0.001439277    1.164    0.141
        10 -10.8237     83.6213     13.0901   3.8962347649e+01   6.0140700068e+01    0.2446903    0.2125053  69.41 0.0006960203    1.184    0.155
        11 -11.3159     31.0726     11.1550   5.8116685289e+01   7.0640024534e+01    0.4042803    0.2593817  -9.50  0.001728332    1.688    0.407
        12 -10.1045     39.4200      9.1276   5.2878414447e+01   6.9467940826e+01    0.2491835    0.1705326  34.59 0.0005124121    1.166    0.142
        13 -10.5073     35.0269      3.8710   5.2287317444e+01   7.0787693859e+01    0.3298603    0.2230858 -23.26  0.001687902    1.662    0.398
        14 -10.8405     40.5516      2.6743   4.9072276401e+01   6.9919138472e+01    0.3276889    0.1881469  59.53  0.001263775    2.188    0.543
        15 -10.7203     46.9606      5.5010   4.7737790039e+01   6.8454350753e+01    0.5899497    0.3134452  35.50  0.003150294    1.604    0.376
        16 -11.3745     43.5192     12.4231   5.2606723979e+01   6.8376560655e+01    0.2736415    0.1887985  41.39 8.429919e-05    1.248    0.199
        17 -11.2496     45.9599      9.2520   4.9990433743e+01   6.8269830264e+01    0.3390935    0.1826057  47.58 0.0002880226    1.585    0.369
        18 -10.8383    135.2542      1.7917   2.5844011032e+01   4.9348363712e+01    0.5551473    0.1831037  64.50  0.002534559    2.314    0.568
        19 -12.3338    127.7379      4.6357   2.7631647393e+01   5.0825750618e+01    0.4101925    0.2899009 -79.29  0.002540082    1.425    0.298
        20 -10.1601    125.7050     14.3050   3.0764751500e+01   5.0438796222e+01      0.23652    0.1814259 -57.01 0.0005570953    1.419    0.296
        21 -11.2592    123.1758     11.2366   3.0252163298e+01   5.1302321814e+01    0.4616989    0.2236832  59.50  0.001469561    1.689    0.408
        22  -9.9235    176.3743     12.3202   2.4055163116e+01   3.9350090310e+01    0.2220626    0.1467886  82.43 0.0002371537    1.294    0.227
        23 -10.5489    188.9948      7.4968   2.1919081595e+01   3.7203408788e+01    0.3923388    0.2882793   4.99  0.001843007    2.483    0.597
        24 -12.6709    187.0988     13.7297   2.3401031126e+01   3.6974768282e+01    0.2600436    0.1873684 -75.49 0.0004434972    1.163    0.141
        25 -11.8827    182.4375     12.2165   2.3480650712e+01   3.8089432310e+01    0.2978643    0.2196074 -50.37  0.001133277    1.315    0.240
        26  -9.8512    155.6792     14.6921   2.6783643899e+01   4.3605058813e+01    0.1768824     0.173887  30.94  0.000650233    1.323    0.244
        27 -10.8815    153.4783      3.2246   2.4155636981e+01   4.5148233262e+01     0.560333    0.2646647  56.10    0.0029938    2.042    0.510
        28 -10.0142    157.5184     11.0479   2.5666946381e+01   4.3548867754e+01    0.2623479    0.1699141 -62.40 0.0009833074    1.513    0.339
        29 -10.5226    149.6738     11.9830   2.6805286057e+01   4.5204174362e+01    0.2640198    0.1638372  60.63 0.0005179937    1.468    0.319
        30 -10.7596    153.4368      9.3948   2.5707701137e+01   4.4606608718e+01    0.2259166     0.167076 -82.75 0.0005376889    1.202    0.168
        31  -9.8314     53.0578     10.7763   4.7800460811e+01   6.6763037251e+01    0.1817257    0.1686573 -25.33 0.0009018434    1.366    0.268
        32 -10.3047     63.2044     10.1014   4.3805365004e+01   6.4794288929e+01    0.2219377      0.19308  64.12 0.0007875473    1.296    0.228
        33  -9.3803     62.5891     13.8315   4.5644281172e+01   6.4554053931e+01    0.1993609    0.1488859 -32.80  0.001221921    1.617    0.382
        34 -10.7832     58.2673     13.0060   4.6834237400e+01   6.5509718229e+01    0.4362649    0.2362546  51.21  0.001519042    1.576    0.366
        35 -11.0949     24.1014     13.3727   6.3175438689e+01   7.1416382009e+01    0.3677795    0.2023379  25.42  0.001275754    1.559    0.359
        36  -9.9408    131.5175     13.7106   2.9699625828e+01   4.9159898715e+01    0.2448877    0.1676338  86.63 0.0007634674    1.386    0.278
        37 -10.1239    144.1859     11.9821   2.7483356609e+01   4.6438178478e+01    0.3521561    0.1909108 -65.30  0.001819834    2.113    0.527
        38  -9.5556     73.2885      8.6912   4.0057854182e+01   6.2796356603e+01    0.1793291    0.1541085  60.41 0.0002148514    1.161    0.139
        39 -10.3096     76.5073      9.4451   3.9451766569e+01   6.2032934833e+01    0.3362816    0.1952006 -21.75  0.001505445    2.084    0.520
        40 -10.3302     77.6771      6.0059   3.7755553156e+01   6.2074460778e+01    0.3404626     0.228458 -64.74   0.00185986    2.240    0.554
        41 -11.1765    218.1174      3.9095   1.9215977908e+01   3.1906290083e+01    0.4847451    0.3848037   8.85  0.003448913    2.414    0.586
        42 -11.4266    208.5894     10.3933   2.1053455120e+01   3.3050970916e+01    0.3351836    0.2523979  84.19   0.00251057    1.227    0.185
        43 -11.4751    211.4115      4.9779   1.9827602620e+01   3.3052415022e+01    0.5098678    0.2511005 -89.58  0.003106265    1.851    0.460
        44 -10.5531    204.2590      3.9636   2.0096970136e+01   3.4516521270e+01    0.2583417    0.2227409  17.60  0.001319493    1.930    0.482
        45 -11.4777    199.1404      3.4900   2.0349550854e+01   3.5558938737e+01    0.6145225    0.2222768  84.55  0.002999071    2.759    0.638
        46 -10.0109     91.2241     10.5655   3.6147755311e+01   5.8672953070e+01    0.3812625    0.1395958  59.98  0.001675447    2.163    0.538
        47 -11.2839     89.4212      3.2802   3.3879183363e+01   5.9684560377e+01    0.4293938    0.3000922 -86.65  0.002508602    1.727    0.421
        48 -10.0056    134.9170      9.9018   2.8138458364e+01   4.8732273829e+01    0.1770483    0.1451739  75.51 0.0002900131    1.026    0.025
        49 -10.9438    168.1009      5.7574   2.3326145678e+01   4.1737073243e+01    0.3494926    0.2910843  15.26  0.001588496    1.812    0.448
        50 -10.0510    115.8514      8.0587   3.0466935816e+01   5.3265051402e+01    0.1802735    0.1490785  75.88 0.0004497544    1.054    0.052
        51  -9.9577    103.1207      7.9572   3.2714391072e+01   5.6195380719e+01    0.2243979    0.1540069  69.00  0.001116161    1.239    0.193
        52  -8.9318     22.8956      8.0236   6.1093944585e+01   7.2270461829e+01     0.144239    0.1042068  22.61 0.0003263615    1.099    0.090
        53 -10.3064    225.0041      6.7057   1.9318477821e+01   3.0376616597e+01    0.1509376    0.1084505 -76.24 0.0008653605    1.083    0.077
        54  -9.5350    178.7291      5.6859   2.2367096131e+01   3.9491822886e+01     0.163082    0.1207297 -82.89 0.0004302368    1.095    0.087
        55 -10.3027    175.8841      3.1783   2.2051562229e+01   4.0318787850e+01    0.1899802    0.1584203 -47.63 0.0005808129    1.323    0.244
        56  -8.7144     26.2419      6.3780   5.8267174119e+01   7.1961888172e+01    0.1215933   0.07674302   6.14 0.0006932713    1.632    0.387
        57 -11.4596      3.3048      3.9856   7.2129112119e+01   7.5259275083e+01    0.3004207     0.224485  -0.33  0.000540821    1.028    0.027
        58 -10.4471      7.4113      2.5351   6.8257785001e+01   7.5004774625e+01    0.2115108    0.1494264  -7.36 0.0006317057    1.203    0.169
        59 -10.4535     16.5930      2.9628   6.2203697427e+01   7.3780157689e+01     0.317431    0.2417253  54.44  0.001699533    2.304    0.566
        60 -10.2980    106.8022      2.4071   3.0191010990e+01   5.5801024379e+01    0.2503945    0.1977846  70.10  0.001356305    1.045    0.043
        61  -9.5622    103.5025      1.4873   3.0465247878e+01   5.6626018427e+01    0.2360259    0.1299134  68.48 0.0008842317    1.489    0.329
        62  -9.8897    229.9598      2.2711   1.8256196116e+01   2.9932278025e+01    0.1434257    0.1039553 -75.69 0.0004021345    1.071    0.066
        63  -9.3088    120.5290      2.4020   2.8001829369e+01   5.2655918530e+01    0.1977534    0.1501675  73.14 0.0005619188    1.069    0.065
        64  -9.9267    115.6137      1.1214   2.8346927270e+01   5.3881572215e+01    0.4415916    0.0802272  67.89  0.001448805    4.180    0.761
        65 -10.2783     38.6097     16.8295   5.7059434891e+01   6.8713859213e+01    0.5285184    0.2039325  29.29  0.001805376    3.053    0.672
        66 -11.9716     81.0831    103.1814   7.0030560632e+01   4.5765810326e+01    0.3412768    0.3025797  72.53 -0.0009232552    1.382    0.277
        67  -9.3031     67.5133    104.9343   7.5433014309e+01   4.7606639611e+01    0.2239658    0.1475021 -50.60 0.0005764231    1.519    0.341
        68 -10.4136     21.3633    104.6512   9.4029723715e+01   5.3130869707e+01    0.2637056    0.2272234  81.32 0.0006792129    1.371    0.271
        69  -9.9724     16.9214    104.2522   9.5824911516e+01   5.3561995769e+01    0.2384944    0.1860774 -60.08 0.0005355363    1.195    0.163
        70 -10.3980    249.5107    104.5023   3.5015407636e+01   1.3767107987e+01    0.1150213   0.09022535 -45.84 0.0008104077    1.030    0.029
        71  -9.4484    114.0662    104.2864   5.9796460653e+01   3.9221954389e+01    0.2127635    0.1916539  41.00 0.0004378974    1.095    0.087
        72 -10.3779    106.8191    103.3050   6.1661465326e+01   4.0888427231e+01    0.3526851    0.2356146  33.57 0.0007628449    1.514    0.339
        73  -8.9962    131.4577    103.5781   5.4924199192e+01   3.5784329889e+01     0.145509    0.1432911  57.54 0.0002611773    1.030    0.029
        74  -9.4588    127.2565    101.9689   5.5583964134e+01   3.6984411157e+01    0.1967722    0.1860361 -36.28 0.0002527091    1.068    0.064
        75  -9.3125     57.1602    101.6055   7.8584462263e+01   4.9946762183e+01    0.2070116     0.139166  11.13 0.0003801268    1.614    0.381
        76  -8.8317    143.4834    100.4878   5.1232797746e+01   3.3874256649e+01    0.1422536    0.1415005 -26.66 9.885077e-05    1.020    0.019
        77  -9.3467     66.6805    100.4278   7.4581594288e+01   4.8803169985e+01    0.2100861    0.1423793  16.20 0.0009416725    1.579    0.367
        78  -9.8238    116.9951     96.8834   5.6986060347e+01   4.0152002792e+01    0.3795636    0.2071566 -54.85  0.001146601    2.199    0.545
        79 -11.0290    101.4184     97.7684   6.1806862654e+01   4.3143940911e+01    0.3442183    0.2521096  51.43  0.001625731    1.451    0.311
        80  -9.6356     86.9297     97.4145   6.6433115273e+01   4.6007021841e+01    0.2872816    0.2184593 -65.14  0.001353037    1.629    0.386
        81  -8.7498     63.2905     98.2991   7.5325294810e+01   4.9827854330e+01    0.1538108    0.1107535 -17.35 0.0002819363    1.561    0.359
        82  -9.6968     26.8655     96.9949   9.0162647368e+01   5.4596736568e+01    0.2062751    0.1908367 -32.85 0.0003979742    1.056    0.053
        83 -10.6946    107.8894     95.9903   5.9352892353e+01   4.2212394837e+01    0.3011046    0.2090314  48.74 0.0003460677    1.456    0.313
        84  -9.9463     36.6943     95.4444   8.5553828138e+01   5.4005807823e+01    0.3574683    0.2217509 -15.60   0.00160576    1.835    0.455
        85  -8.8704     69.6833     95.2843   7.2057098765e+01   4.9507827747e+01    0.1459599    0.1186131  63.28 0.0002112523    1.584    0.369
        86  -9.2023     80.9402     94.5004   6.7706220324e+01   4.7741868922e+01    0.2344345     0.144816  33.89  0.001024918    1.570    0.363
        87  -9.8410     16.8080     92.3137   9.3648542942e+01   5.6566187776e+01    0.2608676    0.1747241 -61.85  0.001338122    1.419    0.295
        88  -9.1566    113.1452     91.8358   5.6678244496e+01   4.1967017514e+01    0.2042245    0.1717598  15.91 0.0003977085    1.309    0.236
        89  -9.5856     31.5405     79.0174   8.3767931174e+01   5.8437113789e+01    0.2533692     0.173868 -68.84 0.0008028923    1.789    0.441
        90 -12.4167     34.8882     89.4600   8.4907921250e+01   5.5642508835e+01    0.3004044    0.2825087 -81.25 0.0008679251    1.278    0.218
        91 -10.5611     33.9483     83.9419   8.3943469478e+01   5.7044067318e+01    0.4828606    0.3127898  -4.07  0.002121795    1.662    0.398
        92  -9.5426    127.1331     89.4242   5.2271006015e+01   3.9463339245e+01    0.3062551     0.179673 -56.27  0.001287129    2.074    0.518
        93 -12.3028    105.8127     80.8777   5.5654282668e+01   4.5630093885e+01    0.6331632    0.5032445  15.48  0.001317845    1.450    0.310
        94 -10.0645     54.7673     88.9249   7.6211358349e+01   5.3261903502e+01    0.3607064    0.2038171  25.09 0.0009323117    1.758    0.431
        95 -11.6769     12.9213     88.1084   9.4579079572e+01   5.7864004816e+01    0.2288728    0.2088041 -26.66  0.001395617    1.071    0.066
        96  -9.6819    120.2442     87.8331   5.3617358899e+01   4.1242508950e+01     0.290168    0.1999224  59.34 0.0007946184    1.591    0.372
        97 -10.1485     84.0657     86.8442   6.4402604386e+01   4.8806014890e+01    0.2319525     0.212999 -32.25 0.0004091946    1.122    0.109
        98  -8.5389    131.2755     86.3358   5.0409204520e+01   3.9143895401e+01    0.1429777    0.1149275   4.02 0.0003175183    1.606    0.377
        99 -10.2805     75.2796     83.0649   6.6436464484e+01   5.1210038662e+01    0.3220561    0.2586516  34.91   0.00102346    1.197    0.165
       100 -10.6068     79.8509     80.9823   6.4138633365e+01   5.0801728312e+01     0.252296    0.2204186   3.80 0.0002544158    1.141    0.124
       101  -9.7877    187.9242     83.0394   3.8663316432e+01   2.7752187384e+01    0.1869182    0.1664839 -64.98  0.001180002    1.020    0.019
       102  -9.0461     20.3323     83.6569   9.0184919257e+01   5.8396758771e+01    0.1374833    0.1043837  57.09 0.0007050778    1.755    0.430
       103  -9.3316    120.9313     82.3288   5.1895941839e+01   4.2122818167e+01    0.2027397    0.1758438  44.31 0.0003855434    1.111    0.100
       104 -11.0822     53.9296     81.0108   7.4306966496e+01   5.5151687458e+01    0.2617933    0.2140756 -43.83 0.0003337485    1.249    0.199
       105  -9.6005     86.8815     80.2360   6.1452985625e+01   4.9608806754e+01    0.2188744    0.1977442 -46.38 0.0002714995    1.207    0.171
       106 -11.6201     45.7522     73.1345   7.5521477058e+01   5.8014113941e+01    0.3972763    0.3316259 -51.10  0.002212747    1.327    0.246
       107  -9.3044     22.8969     79.7202   8.8040386512e+01   5.9108668245e+01    0.2560341    0.1537307 -45.51 0.0008467298    1.480    0.325
       108  -9.2224    150.7080     78.9810   4.4176399090e+01   3.6200536335e+01    0.1892059    0.1710041 -49.44 0.0002692904    1.112    0.101
       109  -8.8510    187.0333     76.2223   3.7268618837e+01   2.8999409423e+01    0.1522209    0.1028864  61.24 0.0003320733    1.534    0.348
       110  -9.3938     61.1808     76.1705   6.9820024520e+01   5.5059723761e+01    0.1881326    0.1607785  44.78  0.000235178    1.308    0.235
       111 -11.8291      7.9071     74.0183   9.4048235535e+01   6.1534377513e+01    0.3572555    0.2331551  -5.92 0.0007702789    1.500    0.333
       112 -10.1691    151.9300     73.5161   4.2528018614e+01   3.6834022825e+01    0.2896793    0.1939243 -33.60 0.0009587748    1.627    0.385
       113 -10.3748     56.8730     72.1142   7.0337936431e+01   5.6585672390e+01     0.380005    0.1886171 -32.37 0.0008449578    2.403    0.584
       114 -10.0819     61.2502     70.8381   6.8102628083e+01   5.6134428855e+01    0.5943253    0.4601395  18.45  0.002002877    1.228    0.186
       115 -12.0184     51.3594     70.1685   7.2096464351e+01   5.7831522435e+01    0.3240867    0.2811545 -63.37 0.0003713545    1.459    0.315
       116 -11.9350     56.1325     67.5217   6.9168283856e+01   5.7627809160e+01    0.3652179    0.2714738  10.82 0.0002940134    1.346    0.257
       117 -10.7437     57.9674     57.9929   6.5136911889e+01   5.9137968683e+01    0.7108355    0.4878048  80.18  0.002693111    3.971    0.748
       118  -9.6590     61.5399     57.4333   6.3446066952e+01   5.8623197806e+01    0.2327725     0.209098  -3.56 -5.859907e-05    1.082    0.076
       119 -10.4126    136.9427     71.6332   4.5097051847e+01   4.0453575094e+01    0.3983087    0.3123049 -62.62  0.002133573    1.401    0.286
       120  -9.0833     83.5395     73.4012   6.0480223421e+01   5.1587020384e+01    0.2226822    0.1821671 -32.48 0.0004369637    1.280    0.219
       121  -9.7241     81.9375     70.2582   6.0035169126e+01   5.2491122116e+01    0.2066596    0.1909322  58.56 0.0002999413    1.226    0.185
       122  -9.3392     23.9750     72.7930   8.5745660267e+01   6.0599102917e+01    0.1846844    0.1563552 -12.38  0.001079302    1.051    0.048
       123  -8.7748    183.0059     72.2239   3.6956258822e+01   3.0428681927e+01    0.1505639    0.1027882  63.11            0    1.495    0.331
       124 -10.9705     30.6645     71.1188   8.2003983508e+01   6.0300124204e+01    0.2352978    0.1966986  -0.45 0.0002541749    1.092    0.084
       125 -10.8787     17.3666     70.6277   8.8478412705e+01   6.1657835424e+01    0.2762064    0.2214025 -38.65 0.0006602256    1.113    0.102
       126  -9.5341    142.8449     71.0593   4.3692489314e+01   3.9235317392e+01    0.2053594    0.1804659 -78.18 0.0004712388    1.176    0.150
       127  -9.7531    112.1274     82.6396   5.4359139583e+01   4.3959323153e+01    0.2315774    0.1942864  21.30 0.0002864971    1.288    0.223
       128  -9.9999     85.1213     67.1294   5.7923260364e+01   5.2433350588e+01    0.2323978    0.2136128  28.55 0.0004659208    1.021    0.021
       129 -10.0074     89.4328     65.6136   5.5996685860e+01   5.1826466034e+01     0.307266    0.2246381  57.72 0.0007677368    1.511    0.338
       130 -10.5511     73.9808     67.5124   6.2016839701e+01   5.4525067383e+01    0.2510989    0.2222534 -21.41 0.0003564997    1.157    0.136
       131 -10.0537     35.1845     67.7966   7.8826548812e+01   6.0504512623e+01    0.3131373    0.2050441  47.62 0.0007324225    2.029    0.507
       132  -8.6017     97.2756     67.6652   5.4180826118e+01   4.9832422315e+01      0.13862    0.1147215 -85.74  0.000379017    1.604    0.377
       133  -9.6305      9.6664     66.4194   9.1381644357e+01   6.3163270033e+01    0.2663739    0.1881863  49.23  0.001427275    1.931    0.482
       134 -10.3088    194.8578     65.7420   3.3870256896e+01   2.8999810344e+01    0.2131797    0.1564432 -50.57 0.0003051581    1.229    0.186
       135 -10.6900    180.9345     64.0595   3.5383835275e+01   3.2070497375e+01    0.2663867    0.2108717 -48.40 0.0007695712    1.205    0.170
       136  -9.4680    177.0799     63.9844   3.5925616535e+01   3.2886302744e+01     0.175315    0.1678728  89.04 0.0003323021    1.130    0.115
       137 -11.4237    111.1257     65.8247   4.9648180468e+01   4.7151837906e+01    0.2346525    0.2235356  52.15 0.0002430905    1.032    0.031
       138 -10.0393      2.1621     64.6062   9.4910636973e+01   6.4001707013e+01    0.2707228    0.1982707  77.55  0.000843478    1.982    0.495
       139  -9.7393    161.2820     64.7619   3.8610625220e+01   3.6153359856e+01    0.2293717    0.1526011 -45.10 0.0005614754    1.485    0.327
       140 -10.5672    153.0174     64.9646   4.0114089178e+01   3.7936646632e+01    0.1968101    0.1935616 -56.58  0.001240463    1.124    0.111
       141  -9.1719     25.9465     65.4591   8.2701291586e+01   6.2022293010e+01    0.2017092    0.1237649  20.94  0.001015755    1.570    0.363
       142 -10.0149     44.0261     62.1857   7.2814390076e+01   6.0507186033e+01    0.4487974    0.1886527 -56.96  0.001651241    3.329    0.700
       143 -10.6469     81.4109     61.3457   5.7280851394e+01   5.4195392641e+01    0.4216719    0.2330478 -30.69  0.001426776    2.123    0.529
       144  -9.4893    147.0266     61.7473   4.0380394066e+01   3.9754092915e+01    0.1809945    0.1656028  70.45 0.0003317684    1.040    0.038
       145  -9.3412     22.0330     60.9680   8.3384372109e+01   6.3364142422e+01    0.1985955    0.1625351 -15.20            0    1.041    0.039
       146 -10.1261    218.6443     59.2906   2.9789240148e+01   2.5370000535e+01    0.1954276    0.1425087 -68.05 0.0007063411    1.226    0.184
       147  -9.8482    109.3837     58.4183   4.7828693948e+01   4.8727923150e+01    0.2889818    0.2251295 -42.71  0.001563882    1.399    0.285
       148  -9.2896    105.5424     57.4429   4.8550797774e+01   4.9730666185e+01    0.2105698    0.1586141  28.43 8.888712e-05    1.455    0.313
       149  -8.8705      4.3596     60.2642   9.2695842006e+01   6.4852893426e+01    0.1409885   0.07738385 -27.83 0.0003238017    1.634    0.388
       150 -12.3343    150.7275     57.4629   3.8570809382e+01   3.9557571444e+01    0.3179777    0.2436138 -64.45 0.0005860644    1.364    0.267
       151  -9.6984    197.2862     57.7060   3.1828856101e+01   2.9649373001e+01    0.1720464    0.1383385 -83.91  0.000170702    1.160    0.138
       152 -10.2506    200.4649     55.3485   3.0953476494e+01   2.9343969851e+01    0.2381474    0.2162184  72.62  0.001242207    1.240    0.194
       153  -9.4350    185.1428     57.8688   3.3391494549e+01   3.2081089348e+01    0.1757535    0.1451961 -72.22 0.0002772419    1.096    0.087
       154 -10.2658    160.7613     56.9808   3.6746151115e+01   3.7404307492e+01    0.3043799    0.2323015 -68.63  0.001090942    1.338    0.253
       155  -9.7275     95.0532     57.5070   5.1578888239e+01   5.2004087233e+01     0.221553    0.1285519  47.10 0.0008427551    1.564    0.361
       156  -9.8935      8.1728     56.8223   8.9694257510e+01   6.5367708378e+01    0.2356778    0.1173812 -39.30 0.0007458748    1.711    0.415
       157 -10.8383     19.8344     55.4299   8.2856428196e+01   6.4726997280e+01     0.250736     0.191519 -31.98  0.000377365    1.163    0.140
       158 -11.0593     10.9881     52.6594   8.6920343552e+01   6.6047560878e+01     0.367268    0.2747632  35.46 0.0003820467    1.620    0.383
       159 -11.0549     18.1028     49.3113   8.1832081745e+01   6.6125593850e+01    0.6859573    0.3785779  20.37  0.002816964    1.701    0.412
       160 -10.2505     26.6760     48.0324   7.6643866379e+01   6.5477145744e+01    0.2579099     0.200654  -2.03  0.000552077    1.111    0.100
       161  -9.4848     68.5553     54.1878   5.9492811384e+01   5.7911587175e+01    0.2457215    0.1370533 -43.21  0.001131669    1.995    0.499
       162 -10.5613    127.9552     52.4932   4.1625939195e+01   4.5419492256e+01     0.334223    0.2112068 -46.38  0.001283391    1.709    0.415
       163  -9.5868    178.9163     53.0630   3.3120293140e+01   3.4039690350e+01    0.2286651    0.1613091 -40.10  0.001340815    1.434    0.302
       164  -9.9409    173.0674     51.0800   3.3454372175e+01   3.5550015069e+01    0.3996246    0.1929677 -63.14  0.001697248    2.794    0.642
       165  -8.6162     88.3667     53.2952   5.2234214320e+01   5.4091567832e+01    0.1478418    0.1016448  21.66 0.0007029718    1.720    0.419
       166  -9.3777     44.4811     53.1290   6.9445270635e+01   6.2172988482e+01     0.332212    0.2337529 -71.45  0.001553953    2.639    0.621
       167  -8.6232     45.3480     48.8067   6.7439559035e+01   6.2819973836e+01    0.2537051    0.1618454 -42.30 0.0009917183    1.679    0.404
       168 -12.1390      2.0089     51.2164   9.1670129762e+01   6.6934387863e+01    0.2625216    0.1690076 -44.47 0.0003912645    1.314    0.239
       169  -9.8512    117.6459     51.4161   4.3608828777e+01   4.7918201671e+01    0.2441994    0.1666283  48.65 9.664257e-05    1.353    0.261
       170 -11.7931    122.5469     50.0720   4.2085583697e+01   4.6994381590e+01    0.3398739    0.2309321 -48.49  0.001270528    1.622    0.384
       171  -9.8239    113.1685     51.4107   4.4680316965e+01   4.8932215849e+01    0.1912595    0.1246698  66.18 0.0004326345    1.610    0.379
       172  -9.6215     35.0558     50.9562   7.3291674797e+01   6.3894427616e+01    0.2037512     0.167923  -2.12 0.0003263628    1.041    0.039
       173 -11.6199    233.1758     48.3027   2.6333811056e+01   2.4219916389e+01    0.2315289    0.1611882 -58.01 0.0002476616    1.141    0.124
       174  -9.9746    212.0647     49.5444   2.8512718894e+01   2.7879321275e+01    0.2396522    0.1542403 -79.71  0.001463055    1.575    0.365
       175 -10.1056    201.3897     49.7981   2.9678189311e+01   2.9899810220e+01    0.2232185    0.1744339 -89.38 0.0008263279    1.192    0.161
       176  -9.7466     53.4761     49.1267   6.3849300537e+01   6.1457470908e+01    0.2568145     0.202951  64.27 0.0009326143    1.903    0.474
       177 -11.7696    138.1815     47.5299   3.8167434560e+01   4.3775527849e+01    0.2730228    0.2292484 -78.75 0.0003858209    1.223    0.182
       178 -10.0638    134.3258     43.5933   3.7781440838e+01   4.5176801474e+01    0.2425296    0.1859364  56.69 0.0005599632    1.203    0.169
       179  -9.5814    103.8095     49.0324   4.6312611344e+01   5.1374990366e+01     0.201001    0.1820177 -82.33  0.001185907    1.259    0.205
       180  -9.8434     85.0989     48.4888   5.1613349147e+01   5.5515955033e+01    0.3014888    0.2056332  -8.32  0.001433766    1.972    0.493
       181  -9.6494    194.1088     48.2684   3.0162795950e+01   3.1546366449e+01    0.2182306    0.1468287 -84.29 0.0009831939    1.502    0.334
       182  -9.0731     63.5132     47.5284   5.9030724436e+01   5.9948474850e+01    0.1399316    0.1194131  20.18 0.0001305433    1.031    0.030
       183 -12.1982    163.4443     42.6575   3.2762661741e+01   3.8740966516e+01    0.3097273    0.2208638 -79.99  0.001788581    1.434    0.302
       184 -10.2113     38.6304     45.4355   6.9429272042e+01   6.4408512875e+01    0.6651635    0.2199734 -50.61  0.002361308    3.951    0.747
       185 -11.1019     33.4912     38.3002   6.9260771098e+01   6.6357484155e+01    0.4427551     0.330912 -64.42  0.002396569    2.243    0.554
       186 -10.5199    108.1085     43.7219   4.3486943978e+01   5.1149418937e+01    0.4531801    0.2796541  71.08  0.001881068    1.885    0.469
       187 -10.0880     89.1417     38.1675   4.6709896907e+01   5.6106039633e+01    0.2398758    0.2049709  39.59 0.0002770388    1.048    0.046
       188 -12.3849     91.2577     43.8935   4.8102858242e+01   5.4867399221e+01    0.4141295    0.2702743  49.25 0.0008449213    1.352    0.260
       189  -9.6128     97.4362     41.4975   4.5521031942e+01   5.3840137002e+01    0.2328646    0.2008566  24.72 0.0005484923    1.210    0.174
       190 -11.6450    239.7089     40.5150   2.4397706770e+01   2.4061635504e+01    0.3048816    0.2575104  39.59  0.002302398    1.894    0.472
       191 -11.3965    250.2457     38.9240   2.3361063460e+01   2.2508378463e+01    0.3582496    0.1832978 -41.63  0.001624333    1.642    0.391
       192 -11.9538    245.6340     32.1133   2.2502175591e+01   2.4060691682e+01    0.3428503    0.2873323 -60.08 0.0008451631    1.216    0.177
       193  -9.4179    209.3778     41.1073   2.7074259179e+01   2.9455710627e+01    0.2141193     0.108504 -28.81  0.001100435    2.510    0.602
       194 -11.9228     30.2814     53.6950   7.6716857482e+01   6.3965147623e+01    0.4316853    0.3867003 -45.97  0.002681135    1.334    0.250
       195 -10.7751    230.5004     39.3244   2.4893710159e+01   2.5794780997e+01    0.2511403     0.150362 -52.88 0.0005455362    1.340    0.254
       196  -9.9309    226.5347     37.5058   2.4872758102e+01   2.6717508429e+01    0.1817339    0.1597189 -83.65   0.00095953    1.223    0.182
       197 -10.1075     27.9942     39.9151   7.2872999781e+01   6.6803293247e+01    0.3621487    0.1751941 -45.56  0.001023298    2.145    0.534
       198 -12.3905    140.2625     37.8319   3.5099875881e+01   4.4547303410e+01    0.2674867    0.2540002 -85.52 0.0003258722    1.106    0.096
       199 -10.7774    114.7726     36.7681   3.9714760877e+01   5.0528768691e+01    0.5574359     0.367919 -11.16  0.002689693    2.151    0.535
       200 -11.6620     84.4768     38.3805   4.8193798989e+01   5.7084163866e+01    0.4082034    0.2635182 -45.83  0.002099765    1.886    0.470
       201 -10.6099     75.4158     40.0562   5.1779318428e+01   5.8750863395e+01    0.2395787    0.1761084  49.36 0.0003372136    1.269    0.212
       202  -9.9901    126.9749     37.4969   3.7418384070e+01   4.7635358256e+01    0.3918941    0.2485019  79.55  0.001980628    1.747    0.428
       203  -9.9743    126.9453     34.0296   3.6397678233e+01   4.8061029854e+01    0.1879053    0.1678824  77.77            0    1.045    0.043
       204 -10.8822    124.0879     30.7879   3.5970829427e+01   4.9097030437e+01      0.25721    0.2010619  75.36 0.0004324572    1.185    0.156
       205 -11.0204     55.3339     38.4091   5.8869485576e+01   6.2854997847e+01     0.373068    0.2659072  38.49  0.000946849    1.268    0.211
       206 -10.5079     54.0762     33.3415   5.7335453623e+01   6.3822298352e+01    0.2269245    0.1920432  -0.47 0.0003322186    1.161    0.139
       207  -9.7273    194.7720     37.3553   2.7740363285e+01   3.2783338797e+01    0.1962579    0.1322378 -53.67 0.0006347862    1.323    0.244
       208  -9.0590      2.3865     37.7641   8.7398288404e+01   6.9641608188e+01    0.1680052   0.09308361 -41.35 0.0002241901    1.524    0.344
       209  -8.9685     44.6407     36.8854   6.3075985996e+01   6.4911289195e+01    0.1575312    0.1228403 -47.42 0.0001391056    1.655    0.396
       210 -10.4524    154.7197     34.8705   3.2044573290e+01   4.1634255111e+01    0.2939623    0.2078111  58.20  0.001079369    1.361    0.265
       211  -9.9145     73.5124     35.5091   5.0708966255e+01   5.9765456803e+01    0.2419876    0.1623202  21.26 0.0008344538    1.679    0.404
       212 -10.8014     61.3166     34.5250   5.4838041287e+01   6.2312423348e+01     0.431466    0.3143624 -76.48  0.001713555    2.872    0.652
       213 -10.1032    169.9931     33.4589   2.9656737185e+01   3.8435907800e+01    0.2719645     0.145607 -48.09 0.0005487849    1.810    0.447
       214  -9.7403    149.0377     33.5535   3.2537566779e+01   4.3067366928e+01    0.1729171     0.153755  88.25 0.0002762148    1.034    0.033
       215 -11.9273    236.4359     30.4688   2.2841606297e+01   2.5804053454e+01    0.3999392    0.2668398 -41.18  0.002865603    1.446    0.309
       216 -11.3333    246.3741    248.8357   6.0004031031e+01  -7.7759580474e+00    0.3234192    0.1697003  30.34  0.002039735    2.291    0.564
       217  -9.0922    107.3624    246.8201   8.8334713590e+01   7.8992608940e+00     0.172234    0.1171637 -41.27 0.0006969877    1.617    0.381
       218 -10.8872    222.6905     21.7850   2.2227148423e+01   2.9216363815e+01    0.2794187    0.1680993 -70.81 0.0009735962    1.426    0.299
       219 -11.2284     76.8723    219.7217   9.2692313516e+01   1.7460518742e+01    0.6940385    0.3928581  -2.88  0.002807888    2.655    0.623
       220 -10.8359     69.0271    217.5021   9.4497874343e+01   1.8932118919e+01    0.2907339    0.2358255  70.67 0.0003749998    1.378    0.274
       221 -10.1881     73.6566    214.0673   9.2864447477e+01   1.9166112184e+01    0.3207614    0.2523208 -39.67    0.0011277    1.379    0.275
       222  -9.4980     68.2101     33.1562   5.1671033058e+01   6.1152466115e+01    0.2241166    0.1885538 -62.08 0.0004244585    1.660    0.398
       223 -12.0650    132.3212     29.6128   3.4138627543e+01   4.7334730476e+01    0.3127097    0.2682429 -65.05 0.0001238088    1.219    0.180
       224  -9.3079    223.3457     31.0341   2.3909759294e+01   2.8055037001e+01    0.1521251    0.1152436 -59.62 0.0004511776    1.084    0.078
       225  -9.9061    217.0068     30.5409   2.4318218068e+01   2.9277719083e+01    0.2183675     0.116347 -54.33 0.0007693115    1.575    0.365
       226 -10.3951     27.9518     28.0984   6.7957792329e+01   6.8765750842e+01    0.5865912    0.2912923   4.12  0.002263531    3.539    0.717
       227  -9.9652     47.2334     28.8992   5.8478066813e+01   6.5656522420e+01    0.2347016     0.152775  35.14 0.0007670287    1.315    0.240
       228 -10.3776     82.3560     27.4670   4.4791791154e+01   5.8908638615e+01    0.3407909    0.2309608  51.80  0.001544427    1.263    0.208
       229 -10.8303     34.8358     26.1374   6.3333965428e+01   6.8067412172e+01    0.3993737    0.2447502 -41.66  0.001481307    1.929    0.481
       230  -9.8428     71.8076     26.6156   4.7804607481e+01   6.1244834695e+01    0.3603506    0.1341783  52.08  0.001484071    2.343    0.573
       231  -9.1753     10.4781     27.3344   7.8263087615e+01   7.0913399936e+01    0.2271121    0.1238207  -3.05  0.001000146    1.883    0.469
       232 -11.0204    249.1355     23.2011   2.0762868639e+01   2.4489068899e+01    0.2817138    0.1434039 -55.56  0.001882371    1.485    0.326
       233 -10.6564    179.6900     22.3051   2.5981665612e+01   3.7619776132e+01    0.5689991    0.2271419 -67.73  0.002232894    3.817    0.738
       234  -9.6871    177.9602     19.0431   2.5419605317e+01   3.8331288747e+01    0.1769896    0.1378056 -78.34 0.0003017581    1.084    0.078
       235  -9.9944     23.0942     23.8852   6.8864725337e+01   7.0058017620e+01    0.2528305    0.1978343 -30.74  0.001397392    1.376    0.273
       236  -9.2715    172.0090     23.7462   2.7124880508e+01   3.9098578373e+01    0.1607641    0.1309592  89.47 0.0002168601    1.042    0.040
       237 -10.0470     99.4670     23.4419   3.8797160075e+01   5.5555086359e+01    0.2443456     0.198596  70.69  0.000716172    1.185    0.156
       238 -10.5246     67.1072     21.9117   4.7500015377e+01   6.2761479132e+01    0.3952219    0.2210758  33.55  0.001430599    1.745    0.427
       239  -9.6688     55.9938    216.8486   9.7868668829e+01   2.0608122843e+01    0.2115526     0.180042 -74.86  0.000759813    1.253    0.202
       240  -9.4255    123.8376    206.0155   7.8493061187e+01   1.4182912414e+01    0.1825272    0.1662884  -7.97  0.001032968    1.049    0.046
       241  -9.7398     51.0289     22.5725   5.4008006518e+01   6.5814367744e+01    0.2271813    0.1644797  -0.87 0.0006401205    1.493    0.330
       242  -9.5914    211.9554     22.0394   2.3069672405e+01   3.1183964571e+01    0.1671282    0.1332489 -77.55 0.0004896203    1.057    0.054
       243  -9.6183    164.8360     22.3777   2.7611198988e+01   4.0801186878e+01    0.2101205    0.1328965  66.75 0.0008230537    1.421    0.296
       244 -10.3729      7.4673     21.2874   7.7676007983e+01   7.2214101887e+01    0.3450786    0.2156062  -0.61  0.001900369    1.404    0.288
       245  -9.7337      1.4227     21.3921   8.1935087804e+01   7.2709711214e+01    0.2073315    0.1058172 -48.92 0.0001418394    1.954    0.488
       246 -10.1394    188.3246     20.7129   2.4794462867e+01   3.5995725802e+01    0.1800594     0.134322 -78.48 0.0004036351    1.127    0.113
       247 -11.3353    192.6964     18.1247   2.3851339016e+01   3.5380110501e+01    0.3215447    0.2290598  68.64  0.002186027    1.396    0.284
       248 -11.1959    151.4642     18.9389   2.8379231915e+01   4.4121347796e+01    0.3684576    0.2251081  82.50  0.001842249    1.515    0.340
       249  -9.7759     27.6113     19.7577   6.4302619243e+01   7.0045815126e+01    0.2932176    0.2132545  29.57  0.001834491    1.256    0.204
       250  -8.3950    223.0075    188.2120   5.4005477069e+01   3.8181589009e+00    0.1289406   0.09537678  21.51            0    1.468    0.319
       251  -9.6748    100.9875    176.0242   7.9565332340e+01   2.4586279026e+01    0.2116778    0.1994656  -2.50            0    1.013    0.013
       252 -11.0912      4.6384    162.9992   1.0740001824e+02   3.8892967067e+01    0.2270949    0.2139668   6.99   0.00030479    1.173    0.148
       253  -9.8404    136.8620     17.6170   3.0016729015e+01   4.7560937062e+01    0.2347104    0.1013044  65.16 0.0008196123    1.927    0.481
       254  -8.7529    137.2875     14.3782   2.9055565944e+01   4.7777797887e+01    0.1676744    0.1224885 -20.27  0.001019301    1.754    0.430
       255  -9.4764     87.0109     15.7460   3.9089214969e+01   5.9136637166e+01    0.1714558    0.1596727  72.74 0.0002635487    1.176    0.150
       256 -10.1470      6.2783    159.3706   1.0658783521e+02   3.9741226272e+01    0.2562261     0.172631 -44.84 0.0007427635    1.503    0.335
       257  -9.9234     16.2129    154.3823   1.0293990317e+02   4.0385925115e+01    0.1993806     0.119895  32.90  0.000948178    1.703    0.413
       258 -10.1586      3.9069    152.1546   1.0670183039e+02   4.1784066070e+01     0.300524    0.1801384 -87.37 0.0006776223    1.636    0.389
       259 -10.0415      5.4043    147.8580   1.0581998300e+02   4.2830808938e+01    0.2992683    0.1982752  23.08 0.0003953782    1.614    0.381
       260  -8.9642     29.5550    150.5318   9.8057239560e+01   4.0332768957e+01    0.1421364    0.1359044 -75.97 5.770077e-06    1.035    0.033
       261 -10.2418     29.4896    146.3794   9.7526568492e+01   4.1452403427e+01    0.3259945     0.206604  41.31 0.0007156177    1.665    0.399
       262 -10.7850     11.1390    144.9113   1.0361077491e+02   4.3257888313e+01    0.3602803    0.2109407  25.50 0.0006731228    1.786    0.440
       263 -11.2645    221.2339     15.6131   2.1180853192e+01   3.0146036764e+01    0.1946444    0.1472253 -67.19 0.0002296494    1.031    0.030
       264 -10.3476      2.9284    142.5887   1.0613941746e+02   4.4363428763e+01    0.2944586    0.2384038  46.91  0.001080722    1.328    0.247
       265  -9.3791     44.3458    141.1339   9.1562395884e+01   4.1383726601e+01    0.2087825    0.1857717 -61.96 0.0006368724    1.103    0.093
       266 -10.2857     17.2747    140.9853   1.0105743331e+02   4.3883624206e+01    0.3085233    0.2097491  16.48  0.001230218    1.571    0.364
       267  -9.9348     71.9434    138.0948   8.1403414344e+01   3.8638699028e+01    0.2222353    0.2168306  20.06 0.0002884534    1.057    0.054
       268  -9.9984      9.9756     15.5366   7.3287557918e+01   7.2876786807e+01    0.2229996    0.1723463 -12.94 0.0008703247    1.127    0.113
       269 -10.5902     29.5603    137.9629   9.6316386749e+01   4.3702209203e+01    0.2491992    0.2091199  15.07 0.0001281618    1.247    0.198
       270 -10.9611     12.7644    135.0904   1.0192929277e+02   4.5765612320e+01    0.2337883    0.2102329 -42.78 0.0002319643    1.075    0.070
       271  -8.9136      7.9926    136.7811   1.0380751566e+02   4.5613715700e+01    0.1644052    0.1140626  11.14 0.0008436537    1.577    0.366
       272  -9.4563    184.8346    134.1417   5.0400055220e+01   1.9322028042e+01    0.1943717    0.1740113 -53.37 0.0002775407    1.142    0.124
       273  -9.9253     29.5678    133.5242   9.5650896195e+01   4.4887903595e+01    0.2499434    0.2056223 -82.81 9.010173e-05    1.276    0.217
       274 -11.2722     27.3249    130.1742   9.5962976617e+01   4.5976957092e+01    0.5011754    0.2956559 -13.86  0.001958426    2.040    0.510
       275  -9.6754      4.7786    131.5043   1.0436162660e+02   4.7191954487e+01    0.2053564    0.1700188  73.77 0.0003766818    1.290    0.225
       276  -9.4589     68.9901    126.7886   8.0048797375e+01   4.1975951694e+01    0.2800291    0.2118278 -53.38 0.0006753317    1.313    0.238
       277 -10.0562     48.8813    126.7293   8.7343611647e+01   4.4680064014e+01     0.262257    0.2132392 -69.04 0.0002653135    1.292    0.226
       278 -10.5288     98.8049    125.8169   6.9837967000e+01   3.7291459251e+01    0.2661432     0.238692  30.23 0.0003673533    1.101    0.092
       279 -10.5989     17.1972    133.3918   1.0012642273e+02   4.5914983633e+01    0.4525568    0.2420181  55.52  0.001901269    2.345    0.574
       280 -11.0349     23.5969    124.9235   9.6552349291e+01   4.7680177918e+01    0.3865774    0.2463844  89.80    0.0017624    1.887    0.470
       281  -9.8599    230.1308    124.7091   4.1151146215e+01   1.3510264180e+01    0.2223235    0.1869483 -80.82  0.001480243    1.471    0.320
       282  -9.9614     59.0255    125.0465   8.3262910072e+01   4.3829971958e+01     0.221987     0.206705 -19.36 -0.001877172    1.026    0.026
       283 -10.2317     12.1507    129.1091   1.0141122710e+02   4.7393160843e+01    0.2629541    0.1847499  35.14 0.0006362271    1.542    0.351
       284  -9.1990     16.2751     14.0607   6.8359375395e+01   7.2367903137e+01    0.1615043    0.1309737  -1.03 0.0003856622    1.116    0.104
       285 -10.8445     15.9278    122.0211   9.9040277718e+01   4.9017219689e+01    0.3657613    0.3175743  81.07  0.001350862    1.264    0.209
       286  -8.5311     79.4898    121.4347   7.5161135187e+01   4.1683991264e+01    0.1561778    0.1461298  -6.00 8.973463e-05    1.029    0.029
       287 -10.3271    250.0000    120.0203   3.7746902630e+01   1.1348108205e+01    0.1994944   0.05244061 -41.23 0.0008051637    2.961    0.662
       288 -11.1283     41.5649    119.4698   8.8703164255e+01   4.7411075240e+01    0.2690291    0.2498251 -31.49 0.0001767677    1.001    0.001
       289  -8.6567     24.2936    119.3000   9.5389658679e+01   4.9105761382e+01    0.1521958   0.09563448 -35.98 0.0002119734    1.569    0.363
       290 -10.1723     20.9402    118.4614   9.6563591725e+01   4.9590405107e+01    0.2550234    0.1917055 -63.88 0.0002775069    1.246    0.197
       291  -9.9177     71.9538    117.3851   7.6857502631e+01   4.3887139971e+01    0.2529409    0.2191011 -68.13 0.0005580757    1.295    0.228
       292  -9.3813     66.8999    117.8588   7.8797444655e+01   4.4539696246e+01    0.2402699    0.1965296 -19.89 0.0005001363    1.261    0.207
       293  -9.7265     30.4179    117.8644   9.2746970834e+01   4.8951226994e+01    0.2264533    0.1933903  31.19  0.000397057    1.252    0.202
       294  -8.9725    192.3131     11.3542   2.2463382992e+01   3.6152554491e+01    0.1033507   0.08199555  46.25 0.0006937573    1.734    0.423
       295  -9.7976     11.2749    117.9361   1.0025382758e+02   5.0391248049e+01    0.2951765    0.1962891  64.49  0.001434101    1.852    0.460
       296  -9.3252     98.8038    117.4920   6.7809810857e+01   3.9253202368e+01     0.216298    0.1506865  35.76 0.0004004992    1.412    0.292
       297  -9.6838     57.2454    117.4299   8.2283669503e+01   4.6018056150e+01    0.2104313    0.1378169  36.84 0.0009018019    1.568    0.362
       298 -11.1527     46.8613    116.3405   8.6021423338e+01   4.7614690715e+01    0.2607297    0.2257691 -44.13 0.0002292255    1.096    0.088
       299 -10.6075     15.5627    115.6717   9.8243151542e+01   5.0707235203e+01    0.2693411    0.2246074 -40.01 0.0003144059    1.100    0.091
       300 -10.4402     84.2259    113.1944   7.1528164433e+01   4.2880197474e+01    0.2696148    0.2475419 -88.27 0.0002735455    1.289    0.224
       301 -10.6743     62.6111    110.8927   7.8753636911e+01   4.6900803220e+01    0.5070598    0.2336373 -49.02 0.0009659986    2.074    0.518
       302 -10.4628      8.9445    105.0126   9.9287842043e+01   5.3873866325e+01    0.4077221    0.2534891 -56.67   0.00206598    1.385    0.278
       303 -10.3055      1.9965    112.9717   1.0321540177e+02   5.2181749510e+01    0.3259715    0.2629917 -70.20  0.001696613    1.152    0.132
       304 -10.6645      5.5834    109.2581   1.0129156624e+02   5.2965496089e+01    0.3248344    0.2167611 -30.51 0.0005118067    1.454    0.312
       305  -9.2373     98.5703    113.5191   6.6882402881e+01   4.0214132296e+01    0.1540698    0.1473718  -2.09 5.680948e-05    1.012    0.012
       306  -9.7050     71.6398    112.9075   7.5896345656e+01   4.5035523939e+01    0.2079412    0.1904437 -43.32 0.0003754093    1.104    0.094
       307 -10.1938     10.0453    112.6154   9.9979504388e+01   5.1851463176e+01    0.2440156    0.1966002 -73.37  0.001365118    1.217    0.179
       308  -9.6931     50.5098    111.9784   8.3660593397e+01   4.8277847603e+01    0.2128725     0.195301 -10.25 0.0003450974    1.040    0.038
       309 -10.6006     35.5891    111.1670   8.9422941112e+01   5.0186028412e+01    0.6169585    0.1853206 -64.13   0.00196122    3.344    0.701
       310 -10.3291     21.1009    110.4160   9.5166038173e+01   5.1672276973e+01    0.2829504    0.2412471  61.05  0.001421996    1.378    0.274
       311  -9.7592     28.5017    109.5208   9.1981190158e+01   5.1286341916e+01    0.2547286    0.2292656 -27.01 0.0006636616    1.038    0.036
       312 -11.8524    120.8558    107.8650   5.8828914609e+01   3.7085840636e+01    0.4587331    0.2558078  40.20 0.0008227011    1.787    0.440
       313 -11.7871     45.6448    103.3219   8.3637376092e+01   5.1043630558e+01    0.6350933    0.2983232 -61.40  0.002489983    2.236    0.553
