#   1 NUMBER                 Running object number                                     
#   2 MAG_AUTO               Kron-like elliptical aperture magnitude                    [mag]
#   3 X_IMAGE                Object position along x                                    [pixel]
#   4 Y_IMAGE                Object position along y                                    [pixel]
#   5 X_WORLD                Barycenter position along world x axis                     [deg]
#   6 Y_WORLD                Barycenter position along world y axis                     [deg]
#   7 A_WORLD                Profile RMS along major axis (world units)                 [deg]
#   8 B_WORLD                Profile RMS along minor axis (world units)                 [deg]
#   9 THETA_WORLD            Position angle (CCW/world-x)                               [deg]
#  10 FWHM_WORLD             FWHM assuming a gaussian core                              [deg]
#  11 ELONGATION             A_IMAGE/B_IMAGE                                           
#  12 ELLIPTICITY            1 - B_IMAGE/A_IMAGE                                       
         1 -10.9266     63.4492     94.2186   9.8053300594e+01   5.0270382487e+01     1.958564    0.6056833 -50.50   0.00200168    2.734    0.634
         2 -11.0304     31.7821     64.5736   1.0189031204e+02   6.0502308474e+01     1.857804    0.6238069 -33.90   0.00607998    4.578    0.782
         3 -10.3032     10.2000     18.9886   9.6587060626e+01   7.1071074393e+01     1.242775    0.4084477 -24.43  0.003802324    6.865    0.854
         4 -10.3649     16.3208     66.8011   1.0862542443e+02   6.1215567801e+01     1.506559   0.01641612 -59.68  0.004232444    5.638    0.823
         5 -10.7445     37.3757      9.6344   7.8089014549e+01   6.9707869674e+01     0.865242    0.2854124 -39.52  0.002286672    3.127    0.680
         6 -11.1716     23.7809     32.5211   9.5027023833e+01   6.7594577610e+01     1.483912    0.4469098 -38.56  0.005581521    2.929    0.659
         7 -10.4198     27.7725     11.5814   8.3830371696e+01   7.0615931386e+01    0.9341512    0.4084419  35.20  0.004902264    2.504    0.601
         8 -10.2206      4.8220     42.9060   1.0748527119e+02   6.6921310278e+01    0.8631934    0.3344517 -66.01  0.004010302    2.649    0.622
         9  -9.8578    130.7301     46.0328   6.1952148149e+01   4.6804600900e+01     1.321573     0.485715 -20.56  0.002714669    5.747    0.826
        10 -10.1790     69.4892     40.5275   7.8504197939e+01   6.0354629099e+01    0.9306698     0.370548 -38.37   0.00357164    2.389    0.581
        11 -10.1471     73.4138     16.0062   6.6478015220e+01   6.3143687947e+01     1.194171    0.2398025 -31.91  0.003880968    4.644    0.785
        12 -10.1382     46.2672     29.5374   8.3370036291e+01   6.5613372177e+01    0.4634395     0.264642 -48.51  0.001075399    2.076    0.518
        13 -10.2456     52.4174     14.0518   7.3571846883e+01   6.6973727659e+01    0.7838495    0.3265952  30.12  0.003386086    2.625    0.619
        14 -10.1503     62.7296      3.1617   6.4102053378e+01   6.6482867169e+01    0.4602056    0.3520516  27.87  0.002339103    1.114    0.102
        15  -9.5237     63.3847     21.5765   7.2711937239e+01   6.4218104137e+01    0.4349295    0.2750994 -46.25  0.000959252    2.116    0.527
        16 -10.1758     64.4769     12.7460   6.8162219809e+01   6.5141098346e+01    0.4404645    0.3189504 -32.72   0.00147225    1.525    0.344
        17  -9.2049     96.3972     14.6811   5.8795224978e+01   5.8651908877e+01    0.7022488    0.2904799 -12.40  0.002609974    3.510    0.715
        18  -8.9884    102.1338      7.9964   5.4517809542e+01   5.8046909238e+01    0.3390362    0.2096702 -40.09 0.0008227769    1.934    0.483
        19  -8.5697    104.2249      2.4743   5.1751864864e+01   5.8054834340e+01    0.2658728    0.1800238  37.81  0.001178004    1.319    0.242
        20  -9.4460     91.4741     26.3549   6.5117676905e+01   5.8330731189e+01    0.5823311    0.2534335 -41.28  0.002394807    2.718    0.632
        21  -8.4425     97.6052      6.1915   5.4892218865e+01   5.9213418703e+01     0.228461    0.1601395  36.27 0.0004160404    1.261    0.207
        22  -8.5733     95.6536      3.1506   5.4090969255e+01   5.9905111828e+01    0.2597327    0.2013238  10.72 0.0007960326    1.278    0.218
        23  -9.9331    131.7548     19.1307   5.2217330022e+01   4.9992095866e+01    0.4856407    0.3670317  20.98  0.001438774    1.461    0.316
        24  -9.7611    119.2804     19.8246   5.5138607255e+01   5.2918837915e+01    0.6500159    0.3754049 -10.13  0.002196465    2.116    0.527
        25  -8.8250    112.4445     15.5066   5.5059644696e+01   5.4973030064e+01    0.2814734    0.2195747 -40.38 0.0005954115    1.472    0.321
        26  -9.2565    110.6894      5.7420   5.1618600979e+01   5.6301384009e+01    0.4913688    0.2442081 -14.86  0.002281693    2.307    0.567
        27  -9.0790    114.2229      9.9428   5.2487261067e+01   5.5103574382e+01     0.332928     0.203664  34.61 0.0003755323    1.618    0.382
        28  -9.0758    115.4554      4.4089   5.0081986766e+01   5.5304302018e+01    0.3575194    0.2295594 -51.04  0.001056017    2.017    0.504
        29  -9.3631    103.0280     20.9340   5.9580672170e+01   5.6517758407e+01    0.3953642    0.2611018 -30.55  0.001391084    1.601    0.376
        30  -7.7331    105.3179     14.3232   5.6314877176e+01   5.6720684989e+01    0.2843647     0.158961  17.20  0.001260343    2.328    0.570
        31  -8.3851    154.7957     17.2802   4.7449481447e+01   4.4438157476e+01    0.3791278    0.1899491 -59.22  0.001489083    2.832    0.647
        32  -8.6491     84.7539      6.8411   5.8675470164e+01   6.1888002136e+01    0.5308496    0.2728381  -0.98  0.002409192    2.515    0.602
        33  -9.6283     85.0666     12.9843   6.1328713178e+01   6.1207846495e+01    0.4212005    0.2837404 -51.27  0.001680739    2.194    0.544
        34  -7.7445     80.7159     12.6992   6.2550265758e+01   6.2111587740e+01    0.2407662    0.1374511 -45.31 0.0009674843    2.464    0.594
        35  -9.4414      2.2885     14.3247   9.9048898029e+01   7.2393254400e+01     0.428168    0.1952426 -61.40  0.002031056    3.089    0.676
        36 -10.4109      5.7831      4.8743   9.2705242387e+01   7.3683013181e+01     0.460617    0.3312409 -12.27  0.001962583    1.126    0.112
        37  -8.8322    125.2514     12.9527   5.1293632927e+01   5.2200160586e+01    0.4310993    0.2395117 -49.78  0.001740247    2.335    0.572
        38  -8.2933    120.9907      5.7725   4.9481351601e+01   5.3878582729e+01    0.2928637    0.1542729  58.26  0.001414454    1.622    0.383
        39  -8.3733    126.9582      9.0530   4.9529039599e+01   5.2154647889e+01    0.3483523    0.1821235  52.84  0.000830796    1.634    0.388
        40  -8.6602    125.5482      5.1264   4.8363561997e+01   5.2840749157e+01    0.3064549    0.2277589  44.26  0.001199652    1.218    0.179
        41  -8.2033    131.2230      6.0019   4.7638844508e+01   5.1388544524e+01    0.2506992    0.1575585  22.42 0.0007830987    1.894    0.472
        42  -8.9665    135.3925      2.4841   4.5685103759e+01   5.0663361570e+01    0.4475952    0.2190585  35.38  0.001967442    2.341    0.573
        43  -8.3966    141.2426     11.8235   4.7902625819e+01   4.8387447777e+01     0.284557    0.1564011 -44.11  0.001310226    2.063    0.515
        44  -8.3871    137.4352      9.2659   4.7685827721e+01   4.9571397237e+01    0.2563023    0.1778748 -31.09 0.0007609531    1.579    0.367
        45  -9.1212    133.7888     11.7990   4.9224600761e+01   5.0233013570e+01     0.558186    0.1971159 -38.10  0.001680942    3.058    0.673
        46  -8.6808    156.0000      8.5915   4.4504526367e+01   4.4993490496e+01    0.3473865    0.1686116 -29.49  0.001585678    2.185    0.542
        47  -8.6143    237.3069      6.4670   3.5446283557e+01   2.5494019977e+01    0.2235935    0.1699801 -65.44 0.0002430369    1.092    0.085
        48  -8.3250     76.5619      6.0595   6.0812198049e+01   6.3607354898e+01    0.2832668    0.1664016 -41.85  0.001027576    2.254    0.556
        49  -8.9893     78.6690      3.2266   5.8831554869e+01   6.3455253195e+01    0.3117626    0.2737654  -5.92  0.001232904    1.201    0.167
        50  -8.5610     89.2011      2.7252   5.5586986866e+01   6.1329726836e+01    0.2139594    0.1579102 -27.19 0.0008272479    1.505    0.336
        51 -10.1433     18.4288      4.9035   8.5401609851e+01   7.2562814260e+01     0.504442    0.3972586 -57.78  0.003287678    2.354    0.575
        52  -8.1684    248.9974      1.4087   3.3554754419e+01   2.3496010730e+01    0.1630699    0.1020454  85.22 0.0009745879    1.472    0.320
        53  -8.4248    143.4431      4.9449   4.5222516631e+01   4.8466037260e+01    0.2918138    0.1462773 -54.43 0.0007933161    2.641    0.621
        54 -10.7318    126.8788    103.6807   8.1170881047e+01   3.6812808127e+01     1.133221    0.6423493 -27.11  0.003842289    2.474    0.596
        55  -9.7259    198.5835    248.7718   9.4297791292e+01  -4.7162395132e+00     0.329402     0.206221 -21.28  0.001962194    1.901    0.474
        56 -10.8857    187.1632    248.1852   9.6327069629e+01  -2.9052741759e+00    0.5806679    0.2508919  45.14  0.002814957    2.210    0.548
        57 -10.5244    108.8763    111.9173   8.8414366119e+01   3.8619088178e+01     1.490687    0.5340321 -53.80  0.002938579    3.015    0.668
        58 -10.2832    107.9160     99.1687   8.5281707404e+01   4.1723687394e+01    0.6818948    0.4325559  66.13  0.001807734    2.397    0.583
        59  -9.6986     41.9915    122.8119   1.1071855897e+02   4.5892558533e+01    0.6698866    0.3225881  87.99  0.002421018    3.563    0.719
        60  -9.3682    143.7111    124.9484   8.2371058242e+01   2.8446613256e+01    0.3945412    0.2222509  47.68            0    1.811    0.448
        61  -9.9187     27.0969    122.7803   1.1506669678e+02   4.7310417271e+01    0.5164672     0.272442  72.74  0.002311686    2.522    0.603
        62  -8.2608    244.6251    123.8930   6.1713111512e+01   6.8454175178e+00    0.2044319    0.1123882 -44.23 0.0005997646    1.726    0.421
        63  -9.6754    200.5211    123.3331   6.9297148086e+01   1.6092961988e+01    0.2632124     0.253863 -49.84 0.0003042428    1.078    0.072
        64  -7.8515    158.0111    122.0138   7.8141017315e+01   2.5924276768e+01    0.2518362    0.1970898 -84.06  0.001116828    1.698    0.411
        65  -8.2794     98.3470    120.4976   9.3558649921e+01   3.8538115255e+01    0.3459158    0.2119967 -24.40  0.001184215    2.625    0.619
        66  -7.9309    205.6642    120.0393   6.7502025172e+01   1.5580942531e+01    0.2143598    0.1824007 -33.41 0.0003565961    1.113    0.101
        67  -8.4104      1.5141    116.5855   1.2161150861e+02   5.0602704365e+01    0.3437341    0.1183697 -82.14  0.001429629    2.777    0.640
        68 -10.2282     91.9646    112.9981   9.3644271431e+01   4.1444545617e+01    0.6357349     0.433928 -79.39  0.002013099    1.975    0.494
        69  -9.0771     92.7142    103.6496   9.1064538191e+01   4.3521681295e+01    0.7227181     0.476995   1.85  0.002828492    2.569    0.611
        70  -9.5367     94.3983     97.1988   8.8817722966e+01   4.4711322667e+01     0.385461    0.3266616 -46.88  0.000586588    1.116    0.104
        71  -8.9727     96.0803     90.9613   8.6538111980e+01   4.5809354083e+01    0.5141063    0.3339548 -11.15  0.002030256    2.515    0.602
        72 -10.1746     14.2385    111.4680   1.1728840114e+02   5.1021249797e+01    0.5838678    0.3050857  71.02  0.002787292    2.508    0.601
        73  -8.5604    153.0991    115.1766   7.7548931408e+01   2.8495129450e+01    0.2199624    0.1877055 -72.24 0.0005902739    1.333    0.250
        74 -10.2621     78.3200    113.0344   9.7784091095e+01   4.3647639097e+01    0.5592366    0.3492943 -81.66  0.001775027    2.322    0.569
        75  -8.2306     77.6170    105.7494   9.6286008992e+01   4.5504841765e+01    0.4124503    0.2626825 -20.60  0.001727492    2.369    0.578
        76  -8.3782    219.3169    249.6832   9.0679556408e+01  -7.8648402153e+00    0.1028732   0.08748557  47.20            0    1.652    0.395
        77  -9.8867     59.2452    109.1628   1.0287369623e+02   4.7250425851e+01    0.6013823     0.477874  38.57  0.002608611    1.401    0.286
        78  -7.4249    167.4817    114.5243   7.4009943089e+01   2.5339161956e+01    0.1575555    0.1528005 -65.63  0.000809213    1.059    0.055
        79  -7.6639    203.0025    112.9692   6.6251018857e+01   1.7491745352e+01    0.2423156    0.1857577   7.30   0.00112555    1.677    0.404
        80  -9.4922     36.3497    111.3602   1.1050346973e+02   4.9246918210e+01    0.4089344    0.3364601 -79.56  0.002365841    1.138    0.122
        81  -8.0365    158.9628    111.7655   7.5247972728e+01   2.7877008005e+01    0.2678257    0.2211444 -42.45 0.0005288724    1.194    0.162
        82  -7.8995     53.6505     39.1480   8.4207420410e+01   6.3005904591e+01    0.1876429     0.164209 -32.18 0.0008777269    1.215    0.177
        83  -9.3583     44.2415     53.5930   9.3443869858e+01   6.1509979438e+01     0.305336    0.2641554 -19.71 0.0006117686    1.068    0.063
        84 -10.8169     21.7864    102.0343   1.1353559732e+02   5.2729112970e+01     1.193904    0.5574038  87.88  0.003691887    3.469    0.712
        85 -10.3424     18.2060     88.5643   1.1239990886e+02   5.6158194915e+01      1.32247          nan -53.20   0.00368037    5.611    0.822
        86 -10.0052     50.0940     54.5904   9.1392366737e+01   6.0611318284e+01    0.4262032    0.3528944 -84.07  0.001272192    1.841    0.457
        87  -9.8978     55.3091     44.1880   8.5500458335e+01   6.1887328252e+01     1.016176    0.5220891   0.18  0.003301238    5.024    0.801
        88 -10.5767     25.7774     78.2700   1.0760571121e+02   5.7970863984e+01    0.8098875    0.4587601 -81.20  0.003225217    2.305    0.566
        89  -9.8928    171.5079    247.9941   9.9240148126e+01  -4.5433105655e-01     0.269817      0.20047 -50.05  0.001350703    1.742    0.426
        90  -8.9283    149.6919    110.2067   7.7058765261e+01   3.0330887717e+01    0.2633433    0.2356711  41.34 0.0004914199    1.135    0.119
        91  -9.8085    149.1767    102.7289   7.5142385843e+01   3.2028751511e+01    0.6194132    0.3494355 -47.71  0.001451886    1.805    0.446
        92  -8.5304    150.7724     96.4225   7.2981529554e+01   3.2958433013e+01    0.3306405    0.2313564   1.37  0.001301449    2.238    0.553
        93 -10.7483     44.7879    102.4698   1.0613613044e+02   5.0547620176e+01    0.7634594    0.4182326  71.10  0.002901087    3.443    0.710
        94  -8.3964     39.9676    106.6624   1.0851574067e+02   5.0032425187e+01    0.2692184    0.1607071 -83.96 0.0006345778    1.970    0.492
        95  -9.8052      5.3025    103.7727   1.1897450340e+02   5.3397879254e+01    0.4442764    0.3385516  37.66  0.001749976    1.599    0.375
        96  -7.5433     36.6514    105.2849   1.0932254738e+02   5.0687229621e+01    0.1306088   0.09470475  71.07 0.0007019395    1.653    0.395
        97  -7.4187    189.1775    104.3831   6.6726955161e+01   2.2288236818e+01     0.216369    0.1493772  65.54 0.0009431799    1.700    0.412
        98  -8.0770    166.1089    103.9099   7.1487638640e+01   2.7824108289e+01    0.2371119    0.2073871 -66.16 0.0004406418    1.239    0.193
        99  -8.0374     74.0468    102.3832   9.6598376229e+01   4.6844626402e+01    0.3872704    0.1776263 -50.65  0.001152971    1.951    0.488
       100  -8.8012    159.0461    101.3336   7.2397272388e+01   3.0011705444e+01    0.2957015     0.222376 -51.77 0.0004720056    1.377    0.274
       101  -9.6431     81.6538     99.3438   9.3398691549e+01   4.6383666273e+01    0.7122685    0.3257482 -54.85  0.001997156    2.105    0.525
       102  -8.6192    164.3912     94.5113   6.9272901432e+01   3.0101831846e+01    0.3173885    0.2487389 -63.06 0.0006708861    1.448    0.310
       103 -10.0703     34.4686     90.5342   1.0714259563e+02   5.4400160166e+01    0.7515116    0.2941296 -72.36  0.002602682    3.329    0.700
       104  -8.8977     35.6506     81.6758   1.0475195945e+02   5.6344446651e+01    0.2964472    0.1854874 -42.53  0.001053291    1.425    0.298
       105  -9.2048     38.7061     79.6578   1.0314795678e+02   5.6511828012e+01    0.3679668    0.2347848  -8.33  0.001369885    2.053    0.513
       106  -8.1470    139.2293     87.8796   7.3359216372e+01   3.7384490013e+01    0.4177452    0.2314861  31.01   0.00145847    2.457    0.593
       107  -9.1809    140.3750     82.3634   7.1410217425e+01   3.8209128591e+01    0.5789717    0.3357188 -34.77  0.001206648    1.779    0.438
       108  -8.6788    139.9875     75.7179   6.9462298589e+01   3.9570980366e+01     0.482807    0.3061285 -55.10   0.00134212    1.875    0.467
       109  -7.5779    149.2954     93.3113   7.2448403965e+01   3.3936288028e+01    0.1584541    0.1258807   5.92 0.0002436507    1.595    0.373
       110 -10.1017      4.4292     89.5058   1.1724802146e+02   5.6766616194e+01    0.6905779    0.2844938 -86.32  0.001956626    3.138    0.681
       111  -9.5003      5.9712     78.9530   1.1499322666e+02   5.9101309100e+01    0.8102172    0.2393263 -37.67   0.00311342    3.909    0.744
       112  -8.6660    157.5497     91.2615   6.9903847599e+01   3.2381488052e+01    0.3643476    0.1556423 -37.07  0.001237163    2.383    0.580
       113  -9.0747    240.2144     97.0238   5.6170860489e+01   1.2187256004e+01    0.2831607    0.1650831  31.02  0.001193649    2.619    0.618
       114 -10.3108     47.6782     84.2102   1.0101916831e+02   5.4531249274e+01    0.7138612    0.3780115 -65.45  0.001854885    1.989    0.497
       115  -9.3174     48.7977     77.4015   9.8843435468e+01   5.5946347143e+01    0.5876523    0.3893384 -19.99  0.003016283    1.789    0.441
       116  -8.5882    246.4979     89.4919   5.3534275442e+01   1.2108051676e+01    0.1385684    0.1216945 -41.20 0.0006948121    1.021    0.021
       117  -7.8149    174.6540     88.5452   6.5383842530e+01   2.8759164584e+01    0.2921779    0.1438205 -38.12  0.001100824    1.989    0.497
       118  -8.6132    150.3929     89.2226   7.0996941319e+01   3.4492831582e+01    0.2534319    0.2303321  59.93 0.0006649503    1.131    0.115
       119 -10.2386     85.3514     86.6028   8.8698155042e+01   4.8675906278e+01      0.49224    0.3910342  88.12  0.000872179    1.752    0.429
       120  -9.6232     87.7480     78.7299   8.5548179541e+01   4.9969287124e+01    0.6331835    0.4038748  10.73  0.001945117    2.362    0.577
       121  -9.2024     83.3480     64.7257   8.2474297833e+01   5.3606832513e+01    0.6033344    0.3587122  -8.76  0.002288508    2.984    0.665
       122  -8.4178    163.4972     87.0897   6.7359662806e+01   3.1750844063e+01    0.2365402     0.152955 -39.35 0.0004219049    1.526    0.345
       123  -9.2645    242.2116     85.7906   5.3249856011e+01   1.3590222014e+01    0.2848789    0.1955123  11.23   0.00129433    2.421    0.587
       124  -9.9902     81.6123     72.4302   8.5615738656e+01   5.2352468442e+01    0.4513049    0.3204727 -70.03 0.0009513016    2.041    0.510
       125  -9.4194    115.1169     72.1727   7.4983963947e+01   4.5904363486e+01    0.5869932     0.370469 -34.69  0.002138898    1.597    0.374
       126 -10.3052    103.9102     82.5798   8.1618663979e+01   4.6126757538e+01    0.5395492    0.3357078 -56.09 0.0009210549    1.847    0.459
       127  -9.7896    105.4744     71.2185   7.7518702733e+01   4.8118248456e+01    0.7832422     0.577384 -14.69  0.003712544    1.590    0.371
       128  -7.8649    170.5008     83.4617   6.4809535874e+01   3.0717823714e+01    0.2702926    0.1370729 -47.57  0.001010528    2.077    0.519
       129  -8.8541    157.7266     83.1594   6.7506815477e+01   3.3899149813e+01    0.4498254    0.2038052 -33.54  0.001402117    2.368    0.578
       130  -8.9097    157.0026     76.4868   6.5685429385e+01   3.5313509068e+01    0.3865784    0.2265298 -52.26   0.00112973    1.947    0.486
       131  -9.1793    138.8620     92.7627   7.4892073237e+01   3.6475583871e+01    0.4430536    0.3239802 -85.91 0.0007439203    2.038    0.509
       132  -8.7752    149.9387     80.4122   6.8490109710e+01   3.6305098917e+01    0.4637826    0.2186598 -36.49  0.001132784    2.150    0.535
       133  -9.3620    119.1126     79.0083   7.6036733172e+01   4.3696742599e+01    0.6525668    0.3127683 -37.12  0.002237584    2.131    0.531
       134  -9.0096     74.1860     80.1950   9.0561151063e+01   5.1902511922e+01    0.3521285    0.2360049 -66.29 0.0008926456    1.878    0.467
       135 -10.3669     65.7618    109.9829   1.0099566018e+02   4.6197945251e+01     0.989908    0.5677752 -67.72  0.002426071    1.822    0.451
       136  -8.0545    166.4941     78.9474   6.4348528456e+01   3.2528942523e+01    0.2330077     0.151584 -38.01 0.0004826809    1.523    0.343
       137  -8.1816    184.7321     77.8891   6.0406103353e+01   2.8210493843e+01    0.2265585    0.2082494  -4.73 0.0006084386    1.207    0.171
       138  -7.1526    174.3384     78.6947   6.2654833920e+01   3.0635789014e+01    0.1606767    0.1198882 -74.85 0.0006735531    1.676    0.403
       139  -8.9875    202.4283     75.7239   5.6693897244e+01   2.4261277569e+01    0.3989234    0.2584219 -31.11   0.00130242    1.569    0.363
       140  -9.5125    127.4132     75.2394   7.2558538746e+01   4.2586479546e+01    0.4644338    0.2773809 -50.62  0.000877129    1.863    0.463
       141  -8.7828    129.9904     68.5034   6.9709991055e+01   4.3252759157e+01    0.4486614    0.2704897  23.91  0.001706883    2.451    0.592
       142  -8.5406    130.4801     64.5158   6.8277472539e+01   4.3852994931e+01     0.391653    0.2082633 -41.39  0.001243438    1.905    0.475
       143 -10.5900     55.4229     70.9324   9.4541423690e+01   5.6564572283e+01    0.6450453    0.3907839  55.96  0.001377201    2.660    0.624
       144  -9.7369     54.9856     63.1746   9.2306037742e+01   5.8256358856e+01    0.4133069    0.2877159 -13.97  0.001468482    1.620    0.383
       145  -8.6869    162.8155     73.1570   6.3420032226e+01   3.4475403802e+01    0.3277268    0.1984092 -51.26 0.0006549889    1.820    0.451
       146  -8.9417    106.9519    250.6331   1.1179337864e+02   9.0943369488e+00    0.1724392   0.09173984  42.31            0    1.504    0.335
       147 -10.0421    163.3955    241.7951   9.9936449085e+01   1.7430088776e+00    0.3833216    0.2051315 -34.29  0.001961223    2.510    0.602
       148  -8.7297     40.9647     20.6236   8.1770129860e+01   6.7692851473e+01    0.2261511    0.1548998 -30.28 0.0003119334    1.303    0.232
       149  -9.7909    154.1621    243.4925   1.0194720402e+02   2.9544742725e+00    0.2626444    0.1735263 -41.93  0.001562849    1.864    0.464
       150  -7.7996    232.9888    241.7522   8.7012476524e+01  -8.8381816500e+00    0.1506243   0.08204127  32.24 0.0004205081    1.545    0.353
       151 -10.8612     22.0330     53.7064   1.0287705436e+02   6.3610757835e+01    0.8217353     0.478565 -87.88  0.002870467    4.143    0.759
       152  -8.2375    249.0793    239.9263   8.3934029306e+01  -1.0814195486e+01     0.159192    0.1288466  12.64            0    1.205    0.170
       153 -10.0105     13.2670     45.5782   1.0438093258e+02   6.5891676099e+01    0.6159368    0.2944055 -18.20  0.002383205    2.578    0.612
       154  -8.5501    109.6573    237.4696   1.0988749352e+02   1.0955018246e+01    0.2216934    0.1384533  54.26 0.0005674093    1.401    0.286
       155 -10.0514      7.4400     28.2752   1.0161033894e+02   6.9603494274e+01    0.2757969    0.2635317  57.94  0.001021151    1.566    0.361
       156  -7.7587    175.1317     72.9435   6.0841859567e+01   3.1447553558e+01    0.2629772    0.1603607 -57.88 0.0009361049    1.990    0.497
       157  -7.9631    169.6620     71.1673   6.1411240480e+01   3.3117867449e+01    0.2482935    0.1831017 -55.94 0.0006799944    1.464    0.317
       158  -9.1139    146.9891     69.2503   6.5752830830e+01   3.9064672765e+01      0.36912    0.2565094 -58.48 0.0008207401    1.722    0.419
       159  -8.0429    156.5327     70.0280   6.3832999161e+01   3.6582457101e+01    0.2294354    0.1508301 -37.03 0.0004560268    1.525    0.344
       160  -9.7784     94.8309     68.4138   7.9911551861e+01   5.0775407705e+01    0.4223654     0.271944 -50.85  0.001053411    1.684    0.406
       161  -9.6091     96.8538     59.0374   7.6034225880e+01   5.2153710192e+01    0.8386168    0.4751533 -21.58  0.003419117    2.287    0.563
       162  -9.1534    121.1888     66.1277   7.1282556312e+01   4.5698175731e+01    0.3985136    0.2635409 -49.52   0.00101503    1.666    0.400
       163  -8.1945    122.3674     60.8413   6.9184293439e+01   4.6372352664e+01    0.2795946    0.2267835 -13.52 0.0006019356    1.331    0.249
       164  -8.3396     75.8367     66.7206   8.5757122500e+01   5.4481183981e+01    0.3367266    0.1790837 -58.92  0.001263018    2.619    0.618
       165  -9.3877    138.2503     65.1954   6.6549989452e+01   4.1891666930e+01    0.6412895     0.333221 -29.91  0.001443776    2.114    0.527
       166  -9.0084    138.9361     56.9236   6.3681041969e+01   4.3123064092e+01    0.4363329    0.1973507 -42.11 0.0005122054    2.295    0.564
       167  -9.1336    141.4922     49.2036   6.0530554342e+01   4.3711012536e+01    0.5346438     0.345455   1.69  0.001533468    2.343    0.573
       168  -8.0247    142.1371     44.3585   5.8769626051e+01   4.4267083703e+01    0.3850697    0.1728253  50.32  0.001504025    2.079    0.519
       169  -9.0696    139.5129     40.2625   5.7958424846e+01   4.5494013688e+01    0.4586562    0.2330606 -41.05  0.001336631    2.085    0.520
       170  -9.4029    109.8432     63.8948   7.3754018174e+01   4.8592977161e+01    0.4391755    0.2750503 -52.08 0.0007064922    1.883    0.469
       171  -9.0729    110.5424     58.2677   7.1603942621e+01   4.9450229553e+01    0.3963123    0.2808258  22.52  0.001101624    1.628    0.386
       172  -9.9952     62.8459     61.0270   8.8598329725e+01   5.7619361088e+01    0.7747689    0.2737015  32.66  0.002181688    3.156    0.683
       173  -7.1380    177.6283     65.7385   5.8279072100e+01   3.2036504984e+01    0.1552297    0.1140886  30.82 0.0006980421    1.656    0.396
       174  -8.4365    170.8569     65.0927   5.9380876133e+01   3.3843717243e+01    0.2378505      0.20032 -66.63 0.0004082008    1.268    0.211
       175  -8.2571    157.6650     63.2065   6.1492822635e+01   3.7465179769e+01    0.2570603    0.2202177 -62.74 0.0007594392    1.254    0.203
       176  -8.0088    147.0107     64.0276   6.4100454620e+01   3.9966697510e+01    0.2553718    0.1847498  20.40  0.001131423    1.767    0.434
       177  -9.8512     73.1239     59.2475   8.4181963281e+01   5.6398610799e+01    0.4920158    0.2901929 -54.64 0.0008599685    2.033    0.508
       178  -9.7932     75.1777     51.1550   8.0515053168e+01   5.7567952453e+01    0.7966068    0.4583381   3.16  0.003036753    3.209    0.688
       179  -9.5310     49.4254     60.9744   9.3771143483e+01   5.9405561067e+01    0.3697333    0.1237907 -54.56  0.001351597    3.075    0.675
       180  -9.4645      6.9091     32.5117   1.0332813378e+02   6.8841835886e+01    0.2448589    0.1775463 -17.89 0.0008406755    1.283    0.221
       181  -8.1587    164.3999     60.4992   5.9276708361e+01   3.6219122438e+01     0.246172    0.1463143 -33.98 0.0006956945    1.710    0.415
       182  -7.7886    152.5985     60.2786   6.1666636421e+01   3.9212131128e+01    0.1985392    0.1483185 -22.17 0.0009300145    1.477    0.323
       183  -9.2444    153.5580     36.0050   5.3699514233e+01   4.2550810994e+01    0.4565386    0.2427685 -28.21  0.001186715    2.012    0.503
       184  -8.6523    148.9912     41.9632   5.6533475675e+01   4.2897536974e+01    0.3396316    0.2826245 -82.73 0.0009828872    1.361    0.265
       185  -8.6483    153.4692     41.2336   5.5404278244e+01   4.1871174807e+01    0.2592211    0.2232845  72.18 0.0005839382    1.152    0.132
       186  -8.3034    152.5360     53.0657   5.9391699860e+01   4.0376112675e+01     0.346246     0.173515 -37.60  0.001347617    2.005    0.501
       187  -8.5114    150.0871     48.1829   5.8334435996e+01   4.1728209011e+01    0.3915242    0.2446548 -43.54  0.001078344    1.678    0.404
       188  -8.2914    146.4885     59.0402   6.2625354111e+01   4.0928796670e+01    0.3170127    0.1374205 -40.25 0.0008096042    2.322    0.569
       189  -8.5800    147.5330     53.9671   6.0755374792e+01   4.1483629954e+01    0.5199396    0.2332285 -21.16  0.001701311    3.351    0.702
       190  -9.0161    130.0668     57.1281   6.5917251223e+01   4.5214929919e+01    0.5157581    0.2402048 -34.52  0.000976107    2.186    0.543
       191  -9.1938     88.1345     56.2659   7.7884485701e+01   5.4336662666e+01    0.8723659    0.3720907 -32.01  0.003264999    2.630    0.620
       192 -10.1525     85.1423     47.9569   7.5815360472e+01   5.6353279830e+01    0.3738905    0.3008242 -64.08  0.000945532    1.746    0.427
       193  -9.3543    118.1289     55.0483   6.8338720357e+01   4.8321848780e+01    0.4902469    0.3071958 -35.52  0.001506844    1.608    0.378
       194  -9.2071    121.0362     46.8923   6.4680688341e+01   4.8961173743e+01    0.4644066    0.2029779 -33.10 0.0005148332    2.338    0.572
       195  -8.3148    122.7321     41.0240   6.2144191737e+01   4.9434512779e+01    0.4894814    0.2512795  24.06  0.001655809    3.480    0.713
       196  -9.1181    162.8993     52.9496   5.7260824100e+01   3.7782860576e+01    0.4514646    0.2541996 -26.72  0.001532832    1.972    0.493
       197  -8.6946    111.9187     46.8107   6.7109903141e+01   5.1043133210e+01    0.2780247    0.2253271 -43.77 0.0005126139    1.343    0.256
       198  -8.7344    113.2175     42.2065   6.5059589891e+01   5.1451827504e+01     0.346501    0.1843322  18.42  0.001122849    3.687    0.729
       199  -8.7735    105.2798     52.8332   7.1217419872e+01   5.1509341144e+01    0.4159973    0.2296462 -45.67   0.00139799    2.005    0.501
       200  -7.7556    107.3402     48.3361   6.8972344073e+01   5.1806352314e+01    0.2672397    0.1316828  39.62  0.001082448    2.081    0.519
       201  -7.5960    172.4578     50.0491   5.4603045744e+01   3.5792072291e+01    0.2134097    0.1454182 -32.81 0.0003919765    1.509    0.337
       202  -9.5877    188.2419    233.9956   9.4010340045e+01  -1.0724017779e+00     0.242658    0.2262699 -62.86  0.001110445    1.484    0.326
       203  -8.8496    132.9669     35.9956   5.7929811490e+01   4.7677877576e+01     0.291137    0.2071602 -27.56 0.0004732576    1.482    0.325
       204 -10.8748    134.0674     31.0186   5.5943029509e+01   4.8050349892e+01    0.3535395    0.2671839  -0.70            0    1.545    0.353
       205  -8.6093    157.3314     48.3666   5.6921655844e+01   3.9877920353e+01    0.3726389    0.1835361 -30.63  0.001470988    2.132    0.531
       206  -7.9010    162.1886     45.9541   5.5230217941e+01   3.8997750240e+01    0.2279239     0.189277 -69.17 0.0005407846    1.307    0.235
       207  -8.3672    220.0136    229.9713   8.7406234820e+01  -5.4616543944e+00    0.1783908    0.1438953  12.55 0.0003269381    1.022    0.022
       208  -9.4831     71.4913     26.3470   7.1804096477e+01   6.2168349054e+01    0.4850502    0.3735207  -9.73  0.002248876    1.205    0.170
       209  -7.0119    110.2898    224.3436   1.0824416359e+02   1.3257221319e+01    0.1166318     0.100304  -6.77 0.0005204047    1.653    0.395
       210  -9.8051     76.1482     32.2298   7.2653022974e+01   6.0494516755e+01    0.4165456    0.2925714  47.98   0.00108524    1.576    0.366
       211  -9.5401     79.5627     23.9434   6.7920938893e+01   6.1003852362e+01    0.4736573    0.2507304  29.00  0.001240405    2.057    0.514
       212  -9.0440     84.7157     21.9170   6.5350247623e+01   6.0255399516e+01    0.2890089    0.2315308 -28.85 0.0009678005    1.329    0.247
       213  -9.1238    218.4862    212.3124   8.4640854881e+01  -2.7583758488e+00    0.2672201     0.237706 -68.79  0.001007244    1.808    0.447
       214  -8.4135     42.1207     28.1149   8.4603482356e+01   6.6379102110e+01    0.2185871    0.1512966 -18.37  0.001313764    1.283    0.221
       215  -8.7727     46.7823     20.2796   7.8983839089e+01   6.6958200259e+01    0.3569354    0.1769555 -27.29  0.001267398    1.926    0.481
       216 -10.0054      9.8294    207.7041   1.2674183401e+02   2.9478790688e+01     0.490303    0.2602422  34.65  0.003029875    2.040    0.510
       217  -9.0379     40.1518     34.7522   8.8265229427e+01   6.5504071906e+01    0.3846921    0.3313147 -31.11   0.00139863    1.202    0.168
       218 -10.1146     35.8920     38.0125   9.1465231846e+01   6.5405088027e+01    0.3923107    0.1967283 -34.81 0.0003583055    1.763    0.433
       219  -9.1910    104.9337     41.0776   6.6959838747e+01   5.3448813342e+01    0.3775166    0.2342503 -46.12 0.0008594279    1.884    0.469
       220  -8.3101    106.2751     36.1125   6.4680253611e+01   5.3873092077e+01    0.2552878    0.1941734  43.45 0.0009111207    1.239    0.193
       221 -10.3249     90.2482     38.2507   7.0345477820e+01   5.6921868705e+01    0.8117228    0.3197688  34.53  0.002883636    3.176    0.685
       222  -7.7974    160.3562     38.8574   5.3350122351e+01   4.0448444316e+01    0.2005194    0.1403175 -13.49 0.0009437287    1.734    0.423
       223  -8.4019     96.8642     33.3794   6.6343539739e+01   5.6274316715e+01    0.2526253    0.1811727  -6.86 0.0005786769    1.509    0.337
       224  -9.0783    144.2937     36.5450   5.5695312723e+01   4.4809618174e+01     0.278445    0.2249615 -60.08 0.0005816506    1.400    0.286
       225  -8.9635    118.9165     34.8469   6.0846257711e+01   5.1182114811e+01    0.3380101     0.202542 -29.06 0.0006956592    1.736    0.424
       226  -9.2210     60.1858     33.5898   7.9258108641e+01   6.2967733884e+01    0.3892931    0.2358736 -47.20  0.001470982    1.961    0.490
       227  -8.6469    206.8336    206.9813   8.5893314866e+01  -4.3057021386e-02    0.2306927    0.1629607  34.41 0.0007269296    1.293    0.226
       228  -8.8801     63.0590     26.6597   7.5125159737e+01   6.3562574947e+01    0.3748131    0.2008668  34.75  0.001891474    1.828    0.453
       229 -10.3546    238.2103    205.4158   7.9788768671e+01  -4.8673334916e+00     0.213773     0.185927  -0.82 0.0002667842    1.152    0.132
       230  -9.7755    124.0134    206.0091   1.0291785598e+02   1.4571613271e+01    0.1918113    0.1697088  52.20  0.001160346    1.006    0.006
       231  -9.0730    110.4226     33.1347   6.2401428266e+01   5.3356972073e+01    0.3199035    0.2322019 -46.69 0.0009273834    1.619    0.382
       232  -9.0802    101.1883     32.1532   6.4583478428e+01   5.5523189349e+01    0.3130409    0.2115714 -44.01 0.0008279637    1.723    0.420
       233  -7.2287    130.6442    205.2422   1.0136696910e+02   1.3591479820e+01    0.1389726     0.094273  60.49 0.0006926496    1.588    0.370
       234  -8.9619    207.9672    202.2814   8.4816464606e+01   5.0200909745e-01    0.2212431    0.1827529 -21.01 0.0002877794    1.208    0.172
       235  -8.9606    192.4779    194.9764   8.6519882182e+01   4.4165547854e+00    0.3476198    0.2132898 -56.90  0.001497535    2.389    0.581
       236  -7.9659    189.7084    190.3720   8.6213404604e+01   5.7194125235e+00    0.2673881    0.1933408 -70.08  0.001263576    2.300    0.565
       237  -8.2588     92.6200     20.6808   6.2397163997e+01   5.8789205409e+01    0.2941209    0.1978903  19.75 0.0007637371    1.557    0.358
       238  -8.3270    208.2435    197.6890   8.3907478608e+01   1.1866238242e+00    0.1992685    0.1726461 -35.28 0.0005245359    1.298    0.230
       239  -7.2114    218.2408    197.6667   8.1991536038e+01  -5.1268021282e-01    0.1145652    0.1049076 -59.12 0.0002574973    1.542    0.352
       240  -9.8438    154.1185     27.3975   5.0816630501e+01   4.3481023543e+01    0.5142471    0.2583734  51.96  0.002234276    1.834    0.455
       241  -9.2127    144.0148     26.2334   5.2281926486e+01   4.6163373952e+01    0.3357695    0.2246218  46.68  0.001047877    1.423    0.297
       242  -7.7124    214.3172     26.6629   4.2271236544e+01   2.8486684584e+01    0.1470749   0.08829525 -63.55  0.000671609    1.701    0.412
       243  -8.6034    128.4151     25.8082   5.5313101613e+01   5.0057780082e+01    0.2691648    0.2118513 -67.78 0.0006897554    1.583    0.368
       244 -10.2859    176.1410    192.8714   8.9498211426e+01   7.7657834900e+00    0.2406252    0.2369863  -0.51 0.0003706217    1.129    0.114
       245  -8.6626    163.9498     23.6308   4.7993400466e+01   4.1420646401e+01    0.2603137    0.2251099   3.13   0.00111232    1.359    0.264
       246  -8.2996    140.3378     22.8327   5.1827840472e+01   4.7469929393e+01    0.2077805    0.1689784 -50.82 0.0004883561    1.365    0.267
       247  -7.4166    234.8135    193.4203   7.8126507356e+01  -2.5984131847e+00    0.1661751    0.1102112  23.03 0.0004115589    1.448    0.310
       248  -9.1745    111.4880     21.0768   5.7464620235e+01   5.4595204320e+01    0.3916524    0.1383334 -24.34  0.001452978    3.123    0.680
       249  -8.4735    128.0923    192.0617   9.9877713793e+01   1.6703499773e+01    0.2028022    0.1853861  56.13  0.000308415    1.012    0.012
       250  -9.4973     60.9843    186.2208   1.1438694172e+02   2.8457789196e+01    0.2379072    0.1809213  78.15            0    1.173    0.147
       251  -8.4765    197.0853    177.1435   8.2102942240e+01   6.7002848808e+00    0.2065627    0.1918096  13.92 0.0003593058    1.051    0.048
       252  -7.6751    182.5306    174.5280   8.4590135752e+01   9.9740398403e+00    0.1440729    0.1353597  16.35 1.942898e-05    1.020    0.020
       253  -7.1192    106.5030    171.4549   1.0153972761e+02   2.4986296765e+01    0.1433174    0.1330165  72.65 3.151504e-05    1.005    0.005
       254  -8.7816     61.9304    170.3642   1.1226194515e+02   3.1994998785e+01    0.2275309    0.1721828 -77.39 0.0003170028    1.196    0.164
       255  -7.2228    151.3419     20.6523   4.9109890135e+01   4.4950781869e+01    0.1489291     0.101105 -67.16 0.0007045208    1.795    0.443
       256  -8.0652    230.2676    168.3648   7.3907004276e+01   2.0981021982e+00    0.2286195    0.1576863 -49.37  0.001162979    1.763    0.433
       257  -8.2917    139.8587     18.0863   5.0289600053e+01   4.8103536457e+01    0.1987539    0.1797547 -67.90  0.000371561    1.213    0.176
       258  -7.4019    125.0769    168.9884   9.6593382775e+01   2.2237490347e+01    0.1668845    0.1599905  78.79 0.0009344876    1.025    0.024
       259  -7.8518    249.9489    168.2465   7.0458277002e+01  -1.2556161926e+00    0.1564219    0.1086598  37.89 0.0004989721    1.544    0.352
       260  -7.4175    155.0252    149.0857   8.5320216381e+01   2.0724626489e+01    0.1726359    0.1704722   8.88            0    1.010    0.010
       261  -8.7591    133.6719    146.0880   8.9855312256e+01   2.5770386415e+01    0.6950663    0.1929872 -53.93  0.001832811    4.474    0.776
       262  -9.2547     66.8021    144.3104   1.0722471700e+02   3.7628919690e+01    0.5069765    0.3133261  65.08  0.002369606    1.920    0.479
       263  -8.8035    112.3888    133.9591   9.2717789982e+01   3.2750551332e+01    0.4409954    0.2616162  66.79   0.00126742    2.623    0.619
       264  -8.9263     83.1952    131.4150   1.0029754062e+02   3.8411615102e+01     0.746029    0.4090759  74.61  0.002430168    3.925    0.745
       265  -8.1456    142.5861    131.8902   8.4355685516e+01   2.7140053388e+01    0.3110818    0.2114875  82.86  0.001183891    2.462    0.594
       266  -9.8716    133.5158    131.3068   8.6517612720e+01   2.9178735406e+01    0.5725885    0.4470091  30.04  0.002509056    1.400    0.286
       267 -10.1410     58.1416    124.4332   1.0622685072e+02   4.3651191917e+01    0.6123765     0.365384  85.73  0.002053984    2.351    0.575
       268  -9.9535     66.1058    129.3038   1.0479712402e+02   4.1417852161e+01    0.5128295    0.4427732 -49.43  0.002942802    1.169    0.145
       269 -10.0367     71.2296    125.8190   1.0263610754e+02   4.1568212924e+01    0.5923183    0.3639825 -81.78    0.0014141    2.048    0.512
       270  -9.8626     98.5159    128.5500   9.5345507479e+01   3.6570687514e+01    0.6434667    0.4008515  77.90  0.002336625    2.768    0.639
       271 -10.2851    140.7690    117.7477   8.1282678902e+01   3.0684877576e+01    0.8135718    0.3894653 -47.84  0.001730242    2.095    0.523
       272 -10.8068    123.6179     90.2997   7.8229038233e+01   4.0400391202e+01     1.437647    0.7273864 -33.59  0.003380662    2.250    0.556
       273  -9.8704     37.8029     41.9940   9.2106986952e+01   6.4465060161e+01    0.3764533    0.3297091 -76.14  0.001516266    1.688    0.408
       274  -9.5340    110.9281     90.0322   8.1769409935e+01   4.3131981989e+01    0.8733552    0.4837296  24.08  0.003115709    2.819    0.645
       275 -10.3488    117.6359    124.2299   8.9029107821e+01   3.4034763941e+01     1.049332    0.6792685 -46.13  0.002495565    1.517    0.341
       276 -10.4887    131.8503    119.6232   8.4072571524e+01   3.2186434702e+01     0.866864    0.5550362  73.93  0.002472693    2.629    0.620
       277 -10.9329    133.4212    109.4130   8.0985350213e+01   3.4133411450e+01      1.26198    0.5477535 -40.85  0.004398874    2.352    0.575
       278 -10.1363    139.6161    103.9757   7.7887371190e+01   3.3945628476e+01    0.8015506    0.3978917 -46.84  0.001486886    2.021    0.505
       279 -11.1712    120.0782    109.7704   8.4690770783e+01   3.6880910060e+01     2.020919    0.9051371 -61.40  0.005867301    3.890    0.743
