#   1 NUMBER                 Running object number                                     
#   2 MAG_AUTO               Kron-like elliptical aperture magnitude                    [mag]
#   3 X_IMAGE                Object position along x                                    [pixel]
#   4 Y_IMAGE                Object position along y                                    [pixel]
#   5 X_WORLD                Barycenter position along world x axis                     [deg]
#   6 Y_WORLD                Barycenter position along world y axis                     [deg]
#   7 A_WORLD                Profile RMS along major axis (world units)                 [deg]
#   8 B_WORLD                Profile RMS along minor axis (world units)                 [deg]
#   9 THETA_WORLD            Position angle (CCW/world-x)                               [deg]
#  10 FWHM_WORLD             FWHM assuming a gaussian core                              [deg]
#  11 ELONGATION             A_IMAGE/B_IMAGE                                           
#  12 ELLIPTICITY            1 - B_IMAGE/A_IMAGE                                       
         1 -12.3653     56.6401     36.4076   4.6186191746e+01   6.2145863155e+01    0.9252937    0.4030658 -28.39  0.003479435    2.487    0.598
         2 -12.1399     82.8851     37.5396   3.7331591848e+01   5.7468518370e+01    0.8739174    0.5016873  12.31  0.003714661    2.525    0.604
         3 -10.8575    122.4246     19.9839   2.0664363173e+01   5.1105186674e+01     0.380199    0.2454545  16.74 0.0009761774    1.953    0.488
         4 -11.4103    137.6409     14.3539   1.5995588701e+01   4.8105094933e+01    0.5425245    0.2878797 -20.54  0.001245629    2.245    0.555
         5 -12.6935    128.5172     23.5794   2.0616235732e+01   4.9326096577e+01     0.346356    0.2872344 -31.53 0.0001051781    1.345    0.257
         6 -11.9457    133.0694     18.6609   1.8159345507e+01   4.8765128836e+01    0.4521671    0.2810611 -50.42   0.00231818    1.960    0.490
         7  -9.7245     81.6513     16.8302   2.9608979044e+01   6.0197281714e+01    0.2783717    0.1493294 -26.43   0.00144549    1.982    0.495
         8 -10.9305     21.7695     23.7887   5.6265662237e+01   6.8488226504e+01     0.500339    0.2443202 -29.23  0.002750933    1.840    0.457
         9 -10.8080     37.1775      7.6726   4.1710986925e+01   6.8755601667e+01    0.3590698    0.2217954  16.50  0.002023872    1.449    0.310
        10 -11.4915     35.0017     14.5468   4.5928741261e+01   6.8231130611e+01    0.4299446    0.1993769  26.28 0.0007897465    2.112    0.527
        11 -11.6114     12.8945     15.8581   5.7347747920e+01   7.0528311572e+01    0.6952615    0.4406908  28.14  0.003939725    1.757    0.431
        12 -10.9720      9.5435      9.4430   5.6230878284e+01   7.1750380806e+01    0.3094768    0.1881185  27.54  0.001667826    1.783    0.439
        13 -12.0662      3.5189     18.9583   6.3627770488e+01   7.0817826368e+01    0.2561933    0.2109845 -19.02 0.0003058127    1.203    0.169
        14 -12.4519      2.9638     13.8556   6.1811856628e+01   7.1649796891e+01    0.7607754    0.1733115 -42.87  0.003360781    3.235    0.691
        15 -12.0855    237.9895     17.8125   5.0976285953e+00   2.4787097326e+01    0.4217091    0.3014818  20.11  0.002371153    2.687    0.628
        16 -11.0079     63.9178     12.5606   3.3500911956e+01   6.3958960812e+01    0.6058927     0.244942  30.47 0.0008823575    2.814    0.645
        17 -10.6156     54.1662     14.1285   3.7742881929e+01   6.5448722745e+01    0.3098069    0.2195396 -15.93  0.001970588    1.350    0.259
        18 -11.2225    166.1930     13.0163   1.1330581622e+01   4.1455660207e+01    0.4032894    0.2205272  79.55  0.001863424    1.813    0.449
        19 -10.6656     73.8964      1.7581   2.5636262436e+01   6.3098787485e+01    0.2052914    0.1979717  71.85  0.001109633    1.390    0.281
        20 -12.0764     75.2822     11.2209   2.9226266457e+01   6.1993980672e+01    0.6842977    0.4240405  18.31  0.003820734    1.665    0.399
        21 -11.0663    232.7693     13.8041   4.7009686894e+00   2.6316273832e+01    0.3225373    0.1414273 -47.24 0.0008798151    1.977    0.494
        22 -12.1632    235.5354      9.6369   3.6463253134e+00   2.6191079883e+01      0.40054    0.2113116  86.11  0.001992482    1.791    0.442
        23 -10.2412    177.3705     12.2917   9.7443408950e+00   3.8884110518e+01    0.2261331    0.2129195  21.94 0.0003774995    1.305    0.234
        24 -11.4000    175.0000     10.0042   9.4371963321e+00   3.9662379436e+01    0.4862578    0.2099615 -17.26  0.002054203    3.402    0.706
        25 -10.7286    101.5942      9.0657   2.1359335998e+01   5.6784740459e+01    0.4643854    0.2918961   0.81  0.002526535    1.903    0.475
        26 -11.5968    164.4382      4.6686   9.3062203448e+00   4.2636515362e+01    0.3104534    0.2138517  85.46 0.0004671616    1.354    0.262
        27 -11.5082    160.0708      8.9659   1.1033151029e+01   4.3286838278e+01    0.2921873    0.2351009  78.76 0.0003859014    1.100    0.091
        28 -12.1013    154.3426      8.2543   1.1612085963e+01   4.4708235644e+01    0.5098162    0.3482017 -57.30   0.00222197    1.638    0.389
        29 -11.4034    145.5787      9.6858   1.3300566046e+01   4.6656410641e+01    0.4144256    0.3023212  -6.27  0.001596162    1.718    0.418
        30 -10.7207    133.1140     10.2137   1.5475327135e+01   4.9543001333e+01    0.2487099    0.1478395 -54.60  0.001245447    2.159    0.537
        31 -10.3615    120.1015      9.8449   1.7724364760e+01   5.2585838116e+01    0.2909386    0.1912572  10.10  0.001151788    1.890    0.471
        32 -10.1334     27.3624     10.4985   4.7590941639e+01   6.9712435517e+01    0.2054741    0.1215658 -30.25  0.001281746    1.582    0.368
        33  -9.9353     90.1847      8.5179   2.3934690421e+01   5.9258395865e+01      0.28114    0.1499733  26.68  0.001393825    2.050    0.512
        34 -10.4898    248.1942      7.7910   2.3878515762e+00   2.3825231706e+01    0.1460012    0.1274299  72.49  0.001087114    1.375    0.273
        35 -11.3382     82.2121      6.9981   2.5459584922e+01   6.1019405776e+01    0.2094363     0.154882  36.88 0.0002847444    1.116    0.104
        36 -10.4715     19.9674      7.4273   4.9769189462e+01   7.0964317534e+01    0.3775362    0.2925369  -6.93  0.001366528    1.106    0.096
        37  -9.1893     23.7234      4.6772   4.6524112588e+01   7.0864632074e+01    0.1153507   0.08932479  -0.12 0.0003097792    1.089    0.081
        38 -10.6592     26.9510      2.4888   4.3848413363e+01   7.0714044935e+01    0.2266314    0.1951235  46.12  0.001346647    1.934    0.483
        39 -10.1912     22.0500      1.5204   4.5759121100e+01   7.1433854939e+01    0.2388711     0.142208  17.04  0.001036986    1.457    0.314
        40 -10.0933     17.2904      3.3328   4.9118781122e+01   7.1770407155e+01    0.2673144    0.1335433 -18.50   0.00143055    1.947    0.486
        41  -9.5646     14.3040      2.2635   5.0155187404e+01   7.2224600532e+01    0.1686682     0.119604   4.53 0.0001594351    1.114    0.102
        42 -10.0454    214.3271      7.1775   4.8235381112e+00   3.0966165409e+01    0.3076543    0.1348678 -87.15  0.001379814    2.644    0.622
        43  -9.3147    127.9850      7.0155   1.5342749843e+01   5.1010576803e+01    0.1455255    0.1376168   6.03  0.000571054    1.200    0.167
        44 -10.4664    126.4281      2.7141   1.4222415624e+01   5.1716485254e+01    0.2683161    0.1979637  52.04  0.000900508    1.158    0.136
        45 -11.5196    179.0777      3.9224   7.4317555086e+00   3.9270648931e+01     0.256804     0.218102 -81.46 0.0002984329    1.086    0.079
        46  -9.7248     68.4702      5.4024   2.8862485354e+01   6.3820839102e+01    0.1867565    0.1016592  48.78 0.0007652511    1.625    0.384
        47  -9.3730     59.4615      5.2779   3.1804619723e+01   6.5461646856e+01    0.2076705    0.0922069  47.98 0.0008282575    2.034    0.508
        48 -11.7299    241.9744      3.0210   1.8946342255e+00   2.5569873112e+01    0.3983744    0.1953706  78.09  0.001568493    1.861    0.463
        49 -10.1032     97.9424      3.0875   1.9966468464e+01   5.8063732405e+01    0.1862257    0.1658417 -15.90  0.000680788    1.294    0.227
        50 -11.0063     91.2009      2.3808   2.1281067477e+01   5.9551400519e+01    0.1987547    0.1909005 -52.25  0.000313145    1.330    0.248
        51  -9.9225      9.4667      2.3562   5.2837601079e+01   7.2703892174e+01    0.2085432    0.1768495  58.43  0.001387589    2.870    0.652
        52 -10.6689    230.2737      1.6615   2.4351314965e+00   2.8109193853e+01    0.2069608    0.1380209  79.36  0.000609148    1.339    0.253
        53  -9.9207    168.8817      2.1262   8.1060545278e+00   4.1811401274e+01    0.1863112    0.1450746 -80.37 0.0004330912    1.230    0.187
        54 -10.4981    223.1045      5.4147   3.7357658492e+00   2.9245343958e+01     0.196229    0.1463885 -51.70 0.0005069883    1.257    0.204
        55  -9.8230    102.6476      1.3873   1.8297898836e+01   5.7173030678e+01    0.1608721   0.09710103  52.08 0.0002867396    1.345    0.256
        56 -12.1114     34.2812     22.5987   4.9859658611e+01   6.7246818897e+01    0.2555587    0.1894152  -4.94 0.0001673023    1.107    0.097
        57 -12.0820    248.0191    248.0505   5.0136474244e+01  -1.1392895027e+01    0.5849289    0.3575822  -4.97  0.003676815    1.511    0.338
        58 -12.5316    226.6737    245.6883   5.3532261882e+01  -8.3425953270e+00    0.6444045    0.4365093 -11.36  0.004101708    1.375    0.273
        59  -9.8598    109.8752    250.1728   7.7107574027e+01   8.3441343807e+00    0.1920852    0.1448816  54.51 0.0006299231    1.205    0.170
        60 -10.5386     91.1489    249.4019   8.0757072773e+01   1.1192130629e+01    0.2124643    0.1657493  89.74 0.0006405692    1.385    0.278
        61 -11.6950     21.6209    248.5999   9.3800898937e+01   1.9981906109e+01    0.4576359    0.1795184  49.88   0.00255843    1.986    0.497
        62 -10.6237      5.2370    244.4216   9.6431823497e+01   2.2416555511e+01    0.2403907    0.1437856  77.80  0.001089895    1.336    0.251
        63  -9.5727     13.3078    249.6789   9.5308959891e+01   2.0636620154e+01    0.1768212    0.1111463  61.97 0.0005832711    1.218    0.179
        64 -10.0849    145.1987    190.1081   6.0575853969e+01   1.4275138732e+01    0.2166192    0.1895757  -0.02 0.0005374117    1.234    0.190
        65 -10.2628    244.8315    188.1343   3.9962278662e+01  -2.5470762766e+00     0.185491    0.1643272 -21.23 0.0004827479    1.190    0.160
        66 -10.1449    226.0005    188.4888   4.3376453342e+01   3.3138797153e-01     0.189644    0.1248655  33.03 0.0004566431    1.536    0.349
        67  -9.7007     61.9760    184.6902   7.9730660615e+01   2.8845478093e+01    0.1849395    0.1684318  73.39  0.001145841    1.047    0.045
        68 -12.0959     15.9334    182.2419   9.0278520544e+01   3.4450518734e+01    0.4631336    0.2643987  61.45  0.002217687    1.713    0.416
        69 -11.0326     22.8447    179.9819   8.8498244347e+01   3.4334328644e+01    0.3892525     0.166091  62.03   0.00161602    2.798    0.643
        70 -10.8850    249.4990    179.5794   3.7508584930e+01  -1.9093309390e+00    0.2811448    0.1105176 -37.39  0.001231841    2.239    0.553
        71 -11.0234      3.0668    179.7923   9.2947488782e+01   3.6082158762e+01    0.3735258    0.2093522 -21.97  0.001799986    3.608    0.723
        72 -11.8093      7.7467    172.9063   9.1350664647e+01   3.7278076024e+01    0.4569722    0.1958569 -52.88  0.002229391    2.430    0.588
        73 -10.5493     54.0586    175.7229   8.0517100001e+01   3.1958299040e+01    0.2472229    0.1771855 -62.19 0.0006764496    1.318    0.241
        74  -9.8942    172.1967    175.3857   5.1605399278e+01   1.2280254576e+01    0.2049804    0.1350712  48.53 0.0008113593    1.627    0.385
        75  -9.4092      1.4732    175.4887   9.2977001823e+01   3.7176309603e+01    0.1190344   0.09400147 -88.59 4.398008e-05    1.012    0.012
        76 -10.5876     17.8278    172.8299   8.8996978382e+01   3.6449391680e+01     0.268513    0.1298612  65.56  0.001273277    2.337    0.572
        77  -9.4308     25.2660    169.4001   8.6873759566e+01   3.6573864739e+01    0.1305318   0.08085647 -49.83 0.0001594727    1.731    0.422
        78 -10.6086      1.4327    165.3054   9.2183615000e+01   3.9502344857e+01    0.4280634    0.1039736 -78.12  0.001532112    3.795    0.737
        79  -9.1055     93.3252    166.7353   6.9092611663e+01   2.8553918336e+01    0.1462567     0.107627  67.40 0.0002388379    1.565    0.361
        80 -10.0907     67.4542    165.6947   7.5683067332e+01   3.2636129532e+01     0.257236     0.131937 -68.93 0.0007501016    1.984    0.496
        81 -10.0121    186.3313    165.6943   4.6530555731e+01   1.1501549367e+01    0.1418156    0.1194619  88.41 0.0007038288    1.660    0.398
        82 -10.3486      8.1122    163.3815   9.0435316722e+01   3.9449859629e+01    0.2650004    0.1716801 -23.49  0.001481788    2.335    0.572
        83 -10.5716     50.9932    159.7306   7.9132431416e+01   3.6169460735e+01    0.2762471    0.1776795 -73.84 0.0005447856    1.472    0.321
        84  -9.8292     20.1507    157.6500   8.6889388565e+01   3.9816227804e+01    0.1932206    0.1596267   2.07  0.001228338    1.597    0.374
        85 -10.7265    248.0292    156.0129   3.3029997234e+01   2.1201537496e+00     0.271955    0.2027654   6.73  0.001197159    1.531    0.347
        86 -10.3237      2.4066    157.2974   9.1267775122e+01   4.1283223110e+01    0.1810123    0.1497616 -11.77 0.0008212313    1.643    0.391
        87  -9.6544    213.3291    154.2928   3.8692450587e+01   8.5203260812e+00    0.1877203    0.1371436  51.50 0.0004969852    1.584    0.369
        88 -10.1925    158.9892    153.6882   4.9977060183e+01   1.9371034692e+01    0.3457881    0.2405968  40.01  0.001050178    1.438    0.304
        89 -10.1858     11.0353    153.0264   8.8715197146e+01   4.1652214590e+01    0.3385417    0.1377681  45.31  0.001590612    2.621    0.618
        90 -10.0106     40.9133    152.2564   8.0772890871e+01   3.9116970369e+01    0.2357161    0.1641252 -67.20 0.0005915847    1.263    0.208
        91  -9.6990    143.8921    148.3938   5.2403506521e+01   2.3566452448e+01     0.253806    0.1747836 -40.73 0.0005266884    1.466    0.318
        92 -11.9989     13.8902    147.8576   8.7428298396e+01   4.2656391206e+01    0.2507187    0.1919003 -81.64  0.000294969    1.106    0.096
        93  -9.6872     37.3305    146.3063   8.0913928991e+01   4.0935463492e+01    0.1350623   0.09170287 -39.20 0.0003042797    1.660    0.397
        94 -10.6251      6.4305    145.4849   8.9122889400e+01   4.3766472334e+01     0.357593    0.1562008  27.58  0.001800603    2.588    0.614
        95 -10.8811    217.5593    145.0656   3.5905271213e+01   9.4021327123e+00     0.377784    0.1951859  33.90  0.001581932    2.357    0.576
        96 -11.6210     17.8734    144.0942   8.5936919702e+01   4.3238798345e+01    0.3660859    0.2140559  57.63  0.001938456    1.935    0.483
        97 -10.6836     14.0040    140.2397   8.6526012204e+01   4.4460365814e+01    0.2236814    0.1751732 -73.91 0.0002812807    1.053    0.051
        98  -9.8888    188.9533    139.6913   4.0212280320e+01   1.6096069900e+01    0.2062013     0.194063  39.17 0.0004836461    1.110    0.099
        99  -9.9988    236.1476    138.1642   3.1215671706e+01   7.1717238867e+00    0.1822802    0.1553828 -57.74 0.0006302393    1.319    0.242
       100 -13.2946     37.4322    135.1389   7.9221711695e+01   4.3639546298e+01    0.4579789    0.3712473 -84.10  0.001062787    1.202    0.168
       101 -11.2403     38.1623    126.4482   7.7590549674e+01   4.5672802706e+01    0.3963892    0.2465471  -2.37  0.001604693    2.326    0.570
       102  -9.7400    144.1762    136.8530   4.9670964116e+01   2.6052195935e+01    0.2165503    0.1830296  -6.34 0.0004433855    1.354    0.262
       103 -10.2780      2.7669    136.3815   8.9135610225e+01   4.6152119676e+01    0.2891146    0.1272661 -70.64 0.0009812361    1.782    0.439
       104  -9.3986      9.2371    136.3810   8.7376000062e+01   4.5722873864e+01    0.1423106    0.1119452  45.30 0.0002465071    1.443    0.307
       105 -10.4492     20.5506    135.0182   8.4052002383e+01   4.5197130268e+01    0.1953087    0.1426582 -69.51  0.000842076    1.146    0.127
       106 -11.4417     17.3691    131.0251   8.4426460530e+01   4.6404085741e+01    0.3661946    0.2584622   9.66  0.001952428    1.800    0.445
       107 -11.6487     54.6007    132.5252   7.3726166737e+01   4.2376695802e+01    0.6026821    0.3165337  24.34 0.0007630108    2.247    0.555
       108 -10.2228     77.5201    130.5362   6.6516555372e+01   3.9749250385e+01    0.2462178    0.2296708  78.48 9.332944e-05    1.144    0.126
       109 -10.9268     73.6409    129.1150   6.7372293094e+01   4.0665590174e+01    0.3268301    0.2651861  53.29 0.0009270019    1.359    0.264
       110 -11.2765      4.6190    130.2241   8.7940926241e+01   4.7483721211e+01    0.2337087    0.1917298 -65.58 0.0002799333    1.069    0.065
       111  -9.4815      4.3007    126.3187   8.7570598588e+01   4.8422492361e+01    0.1275575   0.07410633 -47.85 0.0003184273    1.621    0.383
       112 -11.1963     24.7331    126.9161   8.1694806899e+01   4.6796994533e+01     0.298933    0.2213184 -74.33 0.0007343072    1.207    0.172
       113 -10.2522    229.5833    125.2931   2.9484721549e+01   1.0620383664e+01    0.2700426     0.118916 -42.09  0.001121188    2.040    0.510
       114 -10.5456     46.7961    124.3426   7.4583614301e+01   4.5269247940e+01    0.2932434     0.227033   9.95  0.001057672    1.540    0.351
       115 -10.8546     30.5678    124.1373   7.9509823172e+01   4.6954876435e+01    0.3102274    0.1915858 -55.87  0.001450706    1.375    0.273
       116 -10.2123    117.3891    123.7886   5.3490397693e+01   3.4393541443e+01    0.2841519    0.1883739 -39.03  0.001141747    1.540    0.350
       117 -10.9772      1.9358    118.0837   8.7247178146e+01   5.0491765937e+01    0.4044785    0.1528946 -58.32  0.001500434    1.976    0.494
       118 -11.6089      9.8546    122.6930   8.5503203286e+01   4.8921625254e+01    0.4495288    0.3331128 -32.40  0.002810126    1.503    0.334
       119 -10.3284      7.6832    118.5788   8.5599377464e+01   5.0031411659e+01    0.3359643    0.1792368   7.25  0.001751726    2.510    0.602
       120  -9.4094    226.1154    123.3384   2.9617337888e+01   1.1631608557e+01    0.1874429    0.1316424  64.26 0.0009391449    1.782    0.439
       121 -10.9000     20.6150    121.3531   8.2094750211e+01   4.8461806369e+01     0.425939    0.2399026 -36.79  0.001254469    1.958    0.489
       122  -9.9220     25.3650    118.6716   8.0218782697e+01   4.8716609630e+01    0.2504748    0.1910639  75.57  0.001078458    1.510    0.338
       123 -10.9885     69.4672    121.5301   6.7023586400e+01   4.3086025476e+01    0.4250281    0.2839197  21.10  0.001741793    1.747    0.428
       124  -9.4493     65.4015    119.7460   6.7896700340e+01   4.4076337716e+01    0.2266199    0.1691014  -8.75 0.0005557075    1.682    0.406
       125 -10.3455     56.5455    121.0667   7.0931377872e+01   4.4912330886e+01    0.2149808    0.1272944 -60.26  0.000464889    1.554    0.356
       126 -10.3213    100.1867    117.7956   5.6883251899e+01   3.9003596798e+01     0.217185    0.1793379 -16.77 0.0009045939    1.357    0.263
       127 -11.8241     30.1838    106.8685   7.6604736865e+01   5.1095359167e+01    0.6657553    0.4168188  64.53  0.003270114    2.312    0.567
       128 -11.4615     19.3293    109.0740   8.0543736235e+01   5.1464617994e+01    0.6446447    0.3245494 -13.50  0.002839203    3.120    0.680
       129 -12.0332     16.2694    115.6587   8.2563438814e+01   5.0139506113e+01    0.3826427     0.283939  73.70  0.001186531    1.559    0.359
       130 -11.8090     12.9658    110.6412   8.2828802134e+01   5.1549648746e+01     0.477522    0.3666548 -62.45  0.002280109    1.063    0.059
       131 -10.5396    249.6012    117.2412   2.4710044241e+01   8.2521141523e+00    0.1906186     0.112787 -30.53 0.0008345896    1.625    0.385
       132 -10.2761     75.5390    112.3615   6.3043757836e+01   4.4363533435e+01     0.305652    0.1715237  33.49  0.001025356    1.891    0.471
       133  -9.6203     85.8390    116.1595   6.0767324182e+01   4.1855576663e+01    0.2000286    0.1680574 -18.71 0.0003338315    1.291    0.225
       134  -9.1316     31.6712    116.7275   7.7920362781e+01   4.8629174406e+01    0.1332781   0.08823489 -35.74 0.0006984121    1.586    0.369
       135 -10.9404    182.2379    114.6845   3.5609575017e+01   2.2410400467e+01    0.5250681    0.2564258  40.25  0.001550733    2.309    0.567
       136 -10.6339     72.3019    115.9160   6.4890976809e+01   4.4011674512e+01    0.3440713    0.2918894 -77.92  0.001164664    1.316    0.240
       137 -11.6201     55.4757    109.7249   6.8869679433e+01   4.7741095560e+01    0.2860777    0.2737042  -6.30 0.0009639972    1.115    0.103
       138 -10.2993      2.7592    107.6152   8.5601818692e+01   5.2877924596e+01    0.2429821    0.2056765  83.40  0.001101603    1.278    0.218
       139 -10.8044     61.8655    106.2466   6.5984616257e+01   4.7731741347e+01    0.2484253     0.225583 -77.45 0.0009940981    1.219    0.180
       140 -12.0981     61.9478     99.2624   6.4263849707e+01   4.9321560953e+01    0.7939103    0.2377151 -48.56  0.002761571    2.897    0.655
       141 -10.8985     41.2184     97.7136   7.0975649966e+01   5.2155258118e+01    0.4483705     0.268399 -66.82  0.001456454    1.748    0.428
       142  -9.6073    119.2298    101.3897   4.7123311627e+01   3.8923439184e+01    0.2203392    0.1442045  52.23 0.0009591664    1.667    0.400
       143 -10.1161    108.1912     99.7825   4.9805578249e+01   4.1484472080e+01     0.252016    0.1730931  89.08 0.0009553591    2.833    0.647
       144 -11.6913     15.7150     97.9444   7.9806984084e+01   5.4307024425e+01    0.4541451    0.2248466 -59.36  0.002337847    1.597    0.374
       145 -10.3853     32.8983     97.1865   7.3742185074e+01   5.3095429286e+01    0.3563047    0.2071963 -85.22  0.001566289    2.686    0.628
       146 -10.3592     31.8895     92.9042   7.3170638753e+01   5.4163644590e+01    0.2060532    0.1679473 -61.55 0.0003097828    1.173    0.148
       147  -9.0100      9.6823     99.2338   8.2067739790e+01   5.4405550222e+01    0.1096133   0.08852112  66.29 0.0002780204    1.504    0.335
       148 -10.2480    225.8841     98.0337   2.3955448483e+01   1.6014414568e+01    0.2094696    0.1939192  74.25 0.0003185848    1.167    0.143
       149  -9.7124     81.9119     97.6067   5.7256192705e+01   4.6704309531e+01     0.235268     0.180608 -34.94  0.000439953    1.260    0.207
       150 -10.7694    102.4722     95.9008   5.0401956378e+01   4.3412614026e+01    0.3216653    0.2539586 -79.02 0.0008997454    1.752    0.429
       151 -11.9191     50.6528    104.1696   6.9221195001e+01   4.9619893542e+01     0.454198    0.3287859  -3.81 0.0009264969    1.669    0.401
       152  -9.3702     57.3312     96.2990   6.5088844073e+01   5.0599210839e+01    0.1443334   0.09852687 -23.55 0.0001735805    1.645    0.392
       153 -10.0352     23.9379     90.1535   7.5409519059e+01   5.5466175632e+01    0.2200067    0.1712614 -89.44 0.0009561235    1.585    0.369
       154  -9.8466     23.8123     96.2088   7.6693921476e+01   5.4102060781e+01    0.1688939    0.1427669 -41.34 0.0002568057    1.081    0.075
       155  -9.8051     26.8677     93.9132   7.5159158807e+01   5.4375208666e+01    0.1805315      0.15906 -74.13            0    1.221    0.181
       156 -10.5811    226.2883     93.1646   2.2790593613e+01   1.6736513683e+01    0.2413502    0.2064195 -84.58  0.000427551    1.261    0.207
       157 -10.2495     52.0689     93.5044   6.6207768083e+01   5.1884575075e+01    0.2350806    0.1864407  21.75 0.0003611962    1.365    0.267
       158 -11.5337     57.2724     90.3142   6.3575376298e+01   5.1939039227e+01    0.4483222    0.3010535 -12.16 0.0006848354    1.842    0.457
       159  -9.4056     80.4011     93.2430   5.6548755579e+01   4.7901890624e+01    0.1473533    0.1077141  -2.38  0.000617533    1.683    0.406
       160  -9.8247    231.6068     91.2634   2.1601696510e+01   1.5955130306e+01    0.1837597    0.1213883 -30.60 0.0004210508    1.542    0.352
       161 -10.0664    160.3971     90.6834   3.3975109147e+01   3.1905287339e+01    0.2960346    0.2281526 -79.68  0.001106544    1.677    0.404
       162  -9.7572     36.0499     90.8215   7.1221158167e+01   5.4240104106e+01    0.2766203    0.1859745  69.62  0.001348952    2.414    0.586
       163 -11.2350     10.4857     90.9992   8.0352176596e+01   5.6228694809e+01    0.2009581    0.1791995  10.04 -6.26904e-05    1.331    0.249
       164 -11.8722    107.5911     85.1017   4.5750559914e+01   4.4610808021e+01    0.4404241    0.3372762 -70.77  0.000689436    1.805    0.446
       165 -12.5708     94.5377     88.5677   5.0709769829e+01   4.6429231834e+01     0.314625    0.2855977  41.57  0.001739915    1.170    0.146
       166 -10.0522     73.9114     89.1594   5.7553395947e+01   4.9814036972e+01     0.227831    0.1856001 -43.23 0.0002855389    1.163    0.140
       167  -9.6875     48.9779     90.1472   6.6451882949e+01   5.3001588105e+01    0.1835649    0.1759627 -81.42 0.0003442172    1.231    0.187
       168  -9.6064    177.7466     89.0363   2.9971005564e+01   2.8179096233e+01    0.2003416    0.1834098 -32.47 0.0003286485    1.112    0.101
       169 -10.8884     84.8893     88.2238   5.3667476132e+01   4.8216892642e+01    0.4443876    0.2258087  32.93   0.00126875    2.103    0.524
       170 -10.9378     65.4165     85.9415   5.9548651994e+01   5.1772159165e+01    0.4349467    0.2823195 -59.24  0.001533371    1.731    0.422
       171  -8.9992     18.2675     88.6354   7.7129023701e+01   5.6239032583e+01    0.1198824   0.09223768  84.34 0.0003784844    1.652    0.395
       172 -11.5348     75.6127    100.7999   6.0139018171e+01   4.6998181851e+01    0.3687699    0.2817692 -56.62  0.001910687    1.330    0.248
       173 -10.3843     29.9675     85.4751   7.2184161830e+01   5.5999984653e+01     0.221311    0.1840057  52.09  0.001132074    1.534    0.348
       174 -10.6468     30.4515     81.5312   7.1067214217e+01   5.6822252776e+01     0.316128    0.1999637 -46.83 0.0009176019    1.316    0.240
       175 -10.3599    117.1338     83.4879   4.2555168729e+01   4.2956234545e+01    0.2377757    0.2122412 -67.59 0.0007794053    1.307    0.235
       176  -9.9695     69.1990     83.0541   5.7414265121e+01   5.1825255406e+01    0.3233019    0.2157457 -72.22 0.0009715835    2.419    0.587
       177 -10.8834     77.1615     82.0539   5.4404685982e+01   5.0785011333e+01    0.4899914    0.2124382  40.47  0.001374394    2.419    0.587
       178 -10.1507     21.2545     82.5190   7.4732258497e+01   5.7375055361e+01     0.209239    0.1647702 -48.41  0.001324756    1.048    0.046
       179  -9.7807     42.5081     82.5641   6.6845927315e+01   5.5395122180e+01    0.1320297    0.1155935 -35.39 0.0001543223    1.028    0.027
       180 -10.1689      7.3783     81.0083   7.9572459789e+01   5.8636217586e+01    0.3074132    0.1471886 -39.64  0.001055166    1.845    0.458
       181 -10.7481     49.5334     78.4485   6.3137246473e+01   5.5465062123e+01    0.3673338    0.2804807  58.90 0.0005550269    1.881    0.468
       182  -9.6193     44.8106     74.5996   6.3819642573e+01   5.6827153431e+01    0.1721977    0.1187881  38.76 0.0007587079    1.705    0.413
       183 -12.7714     88.2841     77.3388   4.9304812944e+01   4.9818436189e+01    0.3649653    0.2950982  17.97 0.0004071849    1.261    0.207
       184  -9.2112    203.5123     78.0286   2.2672816578e+01   2.4131726861e+01    0.2008519    0.1325206 -38.77 0.0003710058    1.458    0.314
       185  -9.6612    112.3313     78.3417   4.2341496148e+01   4.4936602548e+01    0.2232049    0.1673849   3.48 0.0005998756    1.652    0.395
       186 -10.2366     18.5151     77.9852   7.4741052394e+01   5.8569950265e+01    0.3166464    0.1385652 -40.29  0.001515053    2.021    0.505
       187  -9.9912     21.5236     75.0499   7.2895459728e+01   5.8974321159e+01    0.2272493    0.1924816 -84.56  0.001256182    1.489    0.328
       188  -9.1113    149.0150     77.7660   3.2880920359e+01   3.6866109036e+01    0.1919218    0.1221577  52.72 0.0004284433    1.543    0.352
       189  -9.2908    122.2107     77.0516   3.9235508469e+01   4.3066486587e+01    0.1943752    0.1190692 -36.95 0.0008177775    1.663    0.399
       190 -10.5552     99.8806     76.0675   4.5283847919e+01   4.7880764051e+01    0.2802687    0.2097581 -47.40   0.00116576    1.425    0.298
       191 -10.5290     38.0418     75.6071   6.6674106336e+01   5.7356032615e+01    0.3283045    0.1868326 -24.16  0.001464839    2.001    0.500
       192 -10.1117    108.0884     75.9382   4.2813073884e+01   4.6260452500e+01    0.2122793    0.2008127 -66.56 0.0005076134    1.221    0.181
       193 -11.5257    167.8162     73.4803   2.7738440408e+01   3.3165712336e+01    0.3081577     0.242188 -49.46 0.0003271161    1.299    0.230
       194  -9.4788    167.7223     69.6773   2.6712542204e+01   3.3806383355e+01    0.2181248    0.1422442  53.51 0.0002913662    1.492    0.330
       195 -10.3282     55.0576     75.0910   6.0130443039e+01   5.5464958474e+01     0.268381    0.1725442  22.91  0.001386724    1.658    0.397
       196 -10.0166     12.2942     73.3253   7.6078733950e+01   6.0001391935e+01    0.2862821   0.09135243 -51.56   0.00127538    2.232    0.552
       197 -10.1437      7.1140     73.2611   7.8078290962e+01   6.0330794768e+01    0.2777763    0.1658641 -24.17  0.001067151    1.711    0.415
       198 -10.7985      6.5819     68.0886   7.7147862965e+01   6.1458578508e+01    0.2058724    0.1815016 -78.76 0.0006964133    1.361    0.265
       199 -11.2302      2.8389     63.4053   7.7595344222e+01   6.2639508934e+01    0.4162139    0.2634813 -72.53  0.002243178    1.733    0.423
       200 -10.9970      9.9623     60.4548   7.3924249961e+01   6.2834255450e+01     0.546248    0.4990197 -15.47  0.004011725    1.218    0.179
       201 -12.9455     26.8037     37.4451   5.9267370554e+01   6.5784019945e+01    0.4610126    0.3807851  -1.77  0.001769885    1.144    0.126
       202 -10.2567      7.1525     41.1264   6.9691281323e+01   6.6763376118e+01    0.3370562    0.1991336 -36.54  0.001098929    1.317    0.241
       203 -10.8891      2.6551     52.8269   7.5087076489e+01   6.4791163518e+01    0.2870488    0.1918999 -27.11  0.001119487    1.307    0.235
       204 -11.1673      7.8278     51.8535   7.2550699516e+01   6.4682631683e+01    0.3710046    0.2842451  70.89  0.002301812    2.198    0.545
       205 -11.1775      3.0024     48.1684   7.3682361822e+01   6.5683245444e+01     0.366576    0.2806698 -19.87  0.002592948    1.191    0.160
       206  -9.1757    206.5939     73.4600   2.1090160626e+01   2.4164377462e+01     0.136828    0.1267712 -61.04 5.607542e-05    1.022    0.022
       207  -9.7624     61.0257     73.6161   5.7503957633e+01   5.4951056929e+01    0.2557449    0.1281591  23.74  0.001099026    2.335    0.572
       208 -10.6373    103.1239     69.9264   4.2367723400e+01   4.8364277118e+01    0.4457621       0.2089 -37.52  0.001263141    2.167    0.539
       209 -10.5783    105.2127     65.9126   4.0459641722e+01   4.8643962732e+01    0.3337128    0.2512573   1.12  0.001664333    1.563    0.360
       210 -10.5931    110.1160     64.4829   3.8595781506e+01   4.7866053247e+01    0.3595835    0.2971983 -86.47  0.001646773    1.688    0.407
       211  -9.7725    142.0164     71.2464   3.2573345422e+01   3.9610316216e+01    0.1938832    0.1219373  51.79 0.0007300781    1.540    0.351
       212 -10.9612     93.0446     67.8662   4.4772781705e+01   5.0710964585e+01    0.4973998    0.2032143 -33.08  0.001815177    2.800    0.643
       213 -10.7785     45.0078     70.6848   6.2614168776e+01   5.7608928835e+01    0.3386531    0.2271842 -65.54 0.0002258065    1.939    0.484
       214 -12.2781     50.6083     66.7558   5.9276176824e+01   5.7712255758e+01    0.7308547    0.2485962 -42.31  0.001609507    2.667    0.625
       215 -11.6578     46.0379     60.7464   5.9151884271e+01   5.9445741054e+01    0.5094467     0.314723 -13.83  0.000368616    1.882    0.469
       216 -11.6196     54.7057     48.8316   5.1647788194e+01   6.0450211890e+01    0.4908173    0.2602064  35.64 0.0004575537    1.923    0.480
       217 -12.3185     39.9129     50.2309   5.8129482844e+01   6.2125727259e+01    0.7285157     0.503206   6.88  0.004211226    1.461    0.315
       218 -10.4478     50.4932     43.5317   5.1365691501e+01   6.1926330299e+01    0.2787269    0.2251376 -44.28   0.00140522    1.459    0.315
       219 -10.3854    180.9930    250.0000   6.2860863853e+01  -2.4224247700e+00     0.212143    0.0601608  36.76 0.0008087845    2.987    0.665
       220 -10.4799    137.1506     69.8942   3.3307288492e+01   4.0962441463e+01    0.2073221    0.1958055 -82.75            0    1.156    0.135
       221  -9.3234    244.6939     69.2847   1.5143666408e+01   1.6704129400e+01    0.1301748   0.08591298 -65.61 0.0002756634    1.564    0.360
       222 -11.1073    122.7170     67.5370   3.6166735405e+01   4.4622678090e+01    0.2734587    0.2453882 -25.98 0.0004779755    1.139    0.122
       223 -12.2376    147.0325     65.5933   2.9779010710e+01   3.9365185308e+01    0.2850257    0.2570111 -64.55 0.0008037674    1.198    0.165
       224  -9.8240    151.5521     65.5657   2.8801991866e+01   3.8302794103e+01    0.2537317    0.1334888  54.97 4.476431e-05    1.830    0.454
       225 -10.9936    155.0727     62.8316   2.7281377159e+01   3.7896867502e+01    0.3334667     0.296036  22.70  0.001089171    1.236    0.191
       226 -10.5864    151.0135     60.7800   2.7518486865e+01   3.9177995945e+01     0.370872    0.2140574  49.21   0.00128194    1.657    0.397
       227 -10.2224     61.4917     64.9770   5.4613005233e+01   5.6570904867e+01    0.3803247    0.2032105 -32.49  0.001759341    1.895    0.472
       228 -12.5028     30.2417     63.2463   6.6280742387e+01   6.0670296316e+01    0.4562878    0.3839893 -37.39  0.001283798    1.092    0.084
       229 -11.7265    202.0362     62.5639   1.9110818424e+01   2.6860271735e+01    0.2750549    0.2198924 -35.81  0.000115283    1.283    0.221
       230  -9.9550    131.3758     65.1820   3.3259191138e+01   4.3066161914e+01    0.2011653    0.1334174 -46.05 0.0005195253    1.637    0.389
       231 -10.7956     81.3559     64.9025   4.7586112566e+01   5.3386648790e+01     0.226991    0.1855328  40.80 0.0004957172    1.298    0.230
       232 -10.5386    210.0012     63.1413   1.8121694226e+01   2.4971497619e+01    0.2100066    0.1809871 -51.78 0.0003249594    1.096    0.087
       233  -8.9731    179.6656     64.2534   2.3078328202e+01   3.1821837683e+01    0.1423108    0.1061311 -80.17 0.0003152129    1.564    0.360
       234 -11.0456     44.9452     38.2623   5.1632845193e+01   6.3528663704e+01    0.2558942    0.1758394 -39.05  0.001517938    1.467    0.318
       235  -9.3801    193.4946     62.5223   2.0379397452e+01   2.8836035359e+01    0.1384778    0.1290853 -79.33  2.37122e-05    1.001    0.001
       236  -9.1192     19.4891     61.8302   7.0309237054e+01   6.1883605670e+01      0.21869    0.1959528  57.11  0.001485488    1.555    0.357
       237 -10.7049    169.6755     58.8449   2.3369358584e+01   3.5014773273e+01    0.4310592    0.2975247  12.44  0.001940277    2.255    0.556
       238 -10.1930     90.0364     61.0809   4.3469806518e+01   5.2473750502e+01    0.2068247    0.1939167   6.46 0.0004083884    1.066    0.062
       239  -9.9457    163.3355     58.1696   2.4341634268e+01   3.6631609813e+01     0.371885    0.2297447  21.14  0.001494946    2.731    0.634
       240 -10.9991    135.9667     58.8268   3.0215341203e+01   4.3015849132e+01    0.7596615    0.4102102  75.67   0.00260362    3.547    0.718
       241 -11.8474    131.2649     49.6840   2.8435540227e+01   4.5457969605e+01    0.6579022    0.5466319  74.62  0.001458199    1.332    0.249
       242 -10.1717    130.8702     42.1162   2.6112857951e+01   4.6583816036e+01    0.3574494    0.2034415 -24.09   0.00151069    2.018    0.504
       243  -9.4527    114.8122     60.1954   3.5913264361e+01   4.7567178199e+01    0.1960202    0.1539996  26.06  0.001016793    1.304    0.233
       244 -10.2328     82.9434     60.4595   4.5562113525e+01   5.3890725430e+01    0.3154825    0.1645842  45.87 0.0009438507    2.030    0.507
       245 -11.3356     79.6029     56.8818   4.5449831740e+01   5.5100214859e+01    0.3487568    0.2557102  -9.74 0.0005769642    1.455    0.313
       246  -9.8159    127.0919     58.5717   3.2239892817e+01   4.5094320833e+01    0.2077899    0.1899114 -22.47 0.0003130251    1.136    0.120
       247 -10.3643     58.2363     58.8995   5.3813903971e+01   5.8171787793e+01    0.2939323    0.1935598  -4.15  0.001000065    1.789    0.441
       248  -9.4031     38.5643     57.9287   6.1251153743e+01   6.0853881400e+01    0.1796797   0.08549973 -30.42 0.0005171499    2.240    0.553
       249 -11.6583    115.1190     55.5509   3.4311413327e+01   4.8232216722e+01    0.4528506    0.2415448  43.05  0.001246012    1.790    0.441
       250 -10.0944     87.5108     57.4563   4.3040803552e+01   5.3562487802e+01    0.2246126    0.1712783 -18.08 0.0005430269    1.328    0.247
       251 -11.2327     89.1545     53.3190   4.1078679667e+01   5.3927240199e+01    0.5203474    0.2624645 -34.45  0.002325742    2.017    0.504
       252 -13.0271     16.4268     67.4693   7.3042963916e+01   6.0955589604e+01    0.2700861    0.2135413 -46.08   0.00178293    1.074    0.069
       253 -10.3537    119.5894     61.0524   3.4925898921e+01   4.6383335450e+01    0.2391049    0.1950445  59.18 0.0006591346    1.299    0.230
       254 -11.4241    105.2669     53.6538   3.6370863116e+01   5.0636965159e+01    0.4458304    0.3633206 -79.67  0.002086279    1.779    0.438
       255  -9.4005    187.5084     54.4853   1.9249820407e+01   3.1409825804e+01    0.1370513     0.128252 -89.31 0.0008103884    1.018    0.017
       256 -10.1384    145.2623     54.5895   2.6882877101e+01   4.1469758309e+01    0.2066054    0.1228461  46.19 0.0008259261    1.629    0.386
       257  -9.4232     62.0583     52.9394   5.0308525682e+01   5.8664481041e+01    0.1600764     0.133435 -21.16 0.0004088423    1.096    0.087
       258  -9.6445    149.0498     51.7004   2.5241010252e+01   4.0986784297e+01    0.2041496    0.1720461  51.87 0.0007370002    1.120    0.107
       259 -10.0837     82.8718     49.3084   4.1679943533e+01   5.5743068416e+01    0.4023796    0.2326321 -22.88  0.001030633    1.934    0.483
       260 -10.0375     73.5536     49.6809   4.4973606509e+01   5.7345020855e+01    0.2946061    0.1571784 -35.84  0.001053122    1.850    0.460
       261  -9.9319    182.0028     49.6859   1.8849931558e+01   3.3383589838e+01    0.1904755    0.1699306  82.59 0.0004592121    1.053    0.051
       262  -9.9380    141.0925     48.8238   2.6010718647e+01   4.3279633239e+01    0.2818083    0.1996987  82.87  0.001358406    1.781    0.439
       263  -8.8661    115.2987     49.2701   3.2181212960e+01   4.9131618131e+01    0.1406354    0.1015953  23.35 0.0001932319    1.524    0.344
       264 -10.0538     62.5081     47.7443   4.8264547534e+01   5.9467803631e+01    0.2367662    0.1685418  49.98  0.001041722    1.833    0.454
       265 -10.6542    112.8079     45.0488   3.1403322991e+01   5.0278814817e+01    0.3480366    0.2162594  27.79  0.001494079    1.853    0.460
       266 -10.0274    116.4152     39.7929   2.8710571332e+01   5.0187320164e+01     0.319308    0.2182632   7.62 0.0008659741    1.868    0.465
       267  -9.6406    104.4957     46.4928   3.4129462063e+01   5.1866521498e+01    0.1387963    0.1261307  24.93 -0.0001584594    1.009    0.009
       268 -10.3135    152.3433     45.1572   2.2663367254e+01   4.1101687091e+01    0.3463185    0.1745505  57.41  0.001132058    1.815    0.449
       269 -10.7275    141.8414     45.1474   2.4728346235e+01   4.3605522425e+01    0.3968347    0.1881143  65.71  0.001581529    2.356    0.576
       270 -10.9631    163.0759     43.6001   2.0280486863e+01   3.8731328463e+01    0.3159045    0.1714955 -47.70  0.001057019    2.011    0.503
       271 -11.1901     96.5148     41.8450   3.4757483955e+01   5.4183306278e+01    0.3346175    0.2420121  16.00  0.001779843    1.487    0.327
       272 -11.1349     73.0069     42.8394   4.2638522526e+01   5.8506250996e+01    0.2494676     0.239104  49.55 0.0002637171    1.356    0.262
       273 -10.6432     62.2682     41.0000   4.5824037437e+01   6.0574926547e+01    0.3452899    0.1962427 -42.82  0.001284859    1.936    0.483
       274 -11.7111     64.8156     36.6847   4.3206099159e+01   6.0804766890e+01    0.3636016    0.2068595  39.67  0.000194098    1.707    0.414
       275 -10.9111     44.5431     43.6472   5.3841204022e+01   6.2701525968e+01    0.3386569    0.3030389  73.08   0.00186836    1.865    0.464
       276 -10.6638    226.6714     40.5107   1.0917498132e+01   2.4432739346e+01    0.3126054    0.1845044 -56.81  0.001547165    1.598    0.374
       277 -11.4285     89.1873     41.1137   3.6685297926e+01   5.5754684423e+01    0.3280008    0.2809171 -18.34 0.0008959957    1.182    0.154
       278 -10.1708     92.9424     35.2808   3.3405228928e+01   5.5792460931e+01    0.2803176    0.1804547  15.74 0.0009096263    1.840    0.457
       279  -9.9926     83.5315    248.4910   8.2170863617e+01   1.2424868570e+01    0.2216051   0.08396752  45.98 0.0007160423    2.183    0.542
       280 -11.8792     74.6868     35.8248   3.9380725552e+01   5.9221521310e+01    0.4083998    0.3064934  33.50 0.0004331208    1.225    0.184
       281 -10.0792     73.7618     31.4017   3.7962724197e+01   5.9983950424e+01    0.2342819    0.1879659  38.34 0.0003915518    1.232    0.189
       282 -10.3519    188.6326     40.1894   1.5426153634e+01   3.3075537185e+01    0.3993107    0.1623109  47.45  0.001563107    2.865    0.651
       283 -10.8639    108.5855     40.8389   3.1059034034e+01   5.1774368015e+01    0.3730383     0.242396  68.16  0.001776301    1.980    0.495
       284 -10.3813    234.8829     39.7627   9.9191313952e+00   2.2786871423e+01    0.3776062    0.1840389  80.34   0.00180703    2.321    0.569
       285  -9.0076    170.3721     40.2835   1.8153415960e+01   3.7407906110e+01    0.1421009    0.0974021  37.85   0.00070158    1.705    0.413
       286  -9.5507    155.0021     37.8080   2.0026141432e+01   4.1411087110e+01      0.20153    0.1407851 -55.47  0.001032109    1.615    0.381
       287 -10.9434    247.9651     36.2825   7.9791346352e+00   2.0552446682e+01    0.2075872    0.1589572 -57.03 0.0002877818    1.096    0.088
       288 -10.9809    203.8262     36.7164   1.2616323606e+01   2.9988393163e+01    0.3542392    0.1942124  59.48  0.001781601    1.764    0.433
       289 -10.9684     97.3745     36.2632   3.2490521597e+01   5.4756023197e+01    0.2209025    0.2067383  34.18 0.0003504606    1.121    0.108
       290 -10.0494      1.4134     36.9001   7.1102686139e+01   6.7888673597e+01    0.1986825   0.09308404 -54.86  0.001101658    1.874    0.466
       291 -10.4794    193.8069     34.4981   1.3314528955e+01   3.2575901879e+01    0.4116665    0.1525846 -43.90  0.001425528    2.611    0.617
       292 -10.0188    129.0961     35.9442   2.4512720638e+01   4.7780458175e+01    0.2075323     0.179331  43.54 0.0004415719    1.065    0.061
       293 -10.7483      9.8882     34.6470   6.6242304125e+01   6.7739836202e+01    0.3140508    0.2742266  78.32  0.002172457    2.008    0.502
       294 -10.1860     11.0719     24.2371   6.1789006982e+01   6.9397611231e+01    0.2798486    0.1306161 -23.96  0.001212633    2.122    0.529
       295  -9.9174      7.2185     28.9929   6.5550430076e+01   6.8907281737e+01    0.2470625    0.1073171 -44.28  0.001083563    1.821    0.451
       296  -9.9259      6.9216     25.4389   6.4378240910e+01   6.9523298566e+01    0.1618884    0.1423649 -28.65  0.001233192    1.330    0.248
       297 -11.9368    240.9878     34.4485   8.2302550470e+00   2.2194543243e+01    0.2143445    0.1799603 -68.17 0.0003074751    1.031    0.031
       298  -9.4751    145.6395     35.2998   2.0982672219e+01   4.3959519699e+01    0.1735678    0.1316714 -11.08 0.0007208443    1.582    0.368
       299 -10.0676    134.6707     35.0098   2.3040947551e+01   4.6592243627e+01    0.2838891    0.1897719  79.12  0.001009921    1.811    0.448
       300 -10.3956    110.8579     34.7713   2.8364317477e+01   5.2058848242e+01    0.3486526    0.1960066  44.70   0.00158396    1.604    0.377
       301  -9.6269     34.0782     33.6941   5.4542186849e+01   6.5607168176e+01    0.1649207    0.1328821  -4.60 0.0006398195    1.056    0.053
       302  -9.7025      3.2876     33.4377   6.9064043348e+01   6.8398893627e+01    0.1692395    0.1330806 -67.85  0.000862681    1.769    0.435
       303  -9.2937    141.0074     33.6922   2.1370812964e+01   4.5254283439e+01    0.1639612    0.1145807  60.08 0.0005472044    1.302    0.232
       304  -9.4312    118.0120     33.0037   2.6025983450e+01   5.0677637403e+01    0.3864239    0.1150813  40.62  0.001162379    4.331    0.769
       305 -13.5062     12.9867     47.4703   6.8969739330e+01   6.5179131038e+01     0.570889    0.3981579  -9.52  0.001153804    1.374    0.272
       306 -10.4484     15.8001     32.1137   6.2461761718e+01   6.7708381787e+01    0.2391639    0.1563917 -18.50 0.0006935269    1.310    0.237
       307 -10.2283     19.4281     31.1892   6.0362478889e+01   6.7541239467e+01    0.1948214    0.1641194   1.78 0.0007604585    1.232    0.188
       308 -10.1735    162.9318     29.0104   1.6200479048e+01   4.0554223658e+01    0.3803064    0.2150926  -4.70  0.001604179    3.034    0.670
       309  -9.3818     49.4741     29.9605   4.6437262708e+01   6.4153095305e+01    0.1569745    0.1068476 -55.30 0.0007502025    2.549    0.608
       310 -12.0753    233.5340     27.1905   7.3992310130e+00   2.4626498914e+01    0.3834625     0.221142  89.10 0.0004525286    1.758    0.431
       311  -9.2127    119.4601     16.9527   2.0254263008e+01   5.2082570819e+01    0.1736201   0.09868888 -51.48 0.0008074332    2.408    0.585
       312 -12.4337     74.7568    239.8578   8.3073826379e+01   1.5263520159e+01    0.7034108    0.4384601 -52.95  0.004054047    1.928    0.481
       313 -11.4855    112.4944     26.8620   2.5207383870e+01   5.2626615894e+01    0.5494117    0.2981846  35.10  0.002265088    1.940    0.485
       314 -10.7760    119.1779     27.4890   2.3888893368e+01   5.1051606613e+01    0.3545374    0.2410863  57.45  0.001338147    1.344    0.256
       315 -10.0605    122.9924     26.0052   2.2556992547e+01   5.0343434127e+01    0.2300508    0.1836404 -19.29 0.0006470208    1.389    0.280
       316 -10.1895    101.4024     28.2590   2.8471328272e+01   5.4890465886e+01    0.2614323    0.1983417 -68.15   0.00089488    1.989    0.497
       317  -9.7168     12.2016     29.2362   6.3149949803e+01   6.8487988683e+01    0.1650131    0.1171966 -18.28 0.0003922487    1.129    0.114
       318  -8.6334    145.0000     27.9716   1.8881740175e+01   4.4964263448e+01    0.2106855   0.07779796 -27.62 0.0008132891    3.018    0.669
       319 -10.5025    133.3502     27.3822   2.0882753526e+01   4.7785939880e+01    0.2985081    0.1821537  52.40  0.000906912    1.441    0.306
       320  -9.3203    102.4726    243.4896   7.7844609472e+01   1.0647406667e+01    0.1262335    0.1053839  51.89 0.0002959819    1.024    0.023
       321 -10.7600     88.9163    240.7261   8.0300386279e+01   1.3129876499e+01    0.1965586    0.1659209 -57.16  0.001292745    1.395    0.283
       322  -9.5211    115.6855    240.3382   7.4757716487e+01   9.2487954270e+00    0.1316184   0.08865603  64.11 0.0007047282    1.697    0.411
       323 -10.2907     79.9961     27.1843   3.4250864786e+01   5.9356897990e+01    0.2826322    0.1819189 -24.37  0.001556286    1.604    0.377
       324 -10.3656     82.7800     21.6312   3.1191252434e+01   5.9461794955e+01    0.2781076     0.228138   4.68   0.00094504    1.166    0.143
       325 -10.3812    195.7872    238.4218   5.8169929454e+01  -2.9042282627e+00    0.2316688    0.2044754  -7.74   0.00101037    1.168    0.144
       326 -10.2813     59.4993     21.7226   3.9050903086e+01   6.3682725789e+01    0.4755159    0.1283014  38.45  0.001756793    3.558    0.719
       327 -10.4588     64.8445     19.3024   3.6082780017e+01   6.3058641822e+01    0.2240372    0.2015622  63.43  0.001475526    1.592    0.372
       328 -10.5322     59.4282     26.5904   4.1130418458e+01   6.3078837788e+01    0.3525144    0.2824302  83.70  0.001516107    2.668    0.625
       329 -10.5496     54.9499     24.4516   4.1945462139e+01   6.4074638644e+01    0.3124907    0.2069671 -52.63 0.0007204338    2.617    0.618
       330  -9.7635     71.8033     25.3983   3.6216471270e+01   6.1098083071e+01    0.2249729     0.143918  33.02  0.001253963    1.398    0.284
       331 -10.6531     69.4516     21.5920   3.5449109009e+01   6.1976397570e+01     0.315487    0.2473276  68.00  0.001396558    1.947    0.486
       332 -11.4476    197.1063     28.0138   1.1326040922e+01   3.2585290429e+01    0.4433559     0.220545  82.02   0.00167235    2.230    0.552
       333 -11.0240    176.5596     26.6952   1.3591609608e+01   3.7559600080e+01    0.2595012    0.1952121 -81.01 0.0005496139    1.352    0.260
       334  -9.6002    169.3243     27.2950   1.4768906046e+01   3.9217471492e+01    0.1341469   0.09397943  39.86  0.000283725    1.621    0.383
       335 -11.5764    216.0291     25.5565   8.7044593395e+00   2.8592127240e+01    0.4025167    0.2022354  68.89  0.001041697    1.858    0.462
       336 -10.1344     90.4099     25.6675   3.0521626621e+01   5.7481612442e+01    0.2424621    0.1536614  47.37 0.0009274669    1.420    0.296
       337 -10.7697     35.1237    237.8934   9.0650007619e+01   2.0572984255e+01    0.1905161    0.1238842  67.02  0.001140286    1.292    0.226
       338  -9.1850     18.2927    237.3420   9.3737955582e+01   2.2487880861e+01   0.09905436   0.08016758 -56.03 0.0003278143    1.655    0.396
       339 -11.9676     28.9628     19.6884   5.1046845461e+01   6.8299623529e+01    0.3712445    0.1999328  20.54 0.0004306601    1.800    0.444
       340 -11.1229      8.3631    248.7104   9.6107416879e+01   2.1308675221e+01    0.3030028    0.2246538  30.12  0.001721293    1.725    0.420
       341  -9.6813    191.3044    235.9939   5.8655841156e+01  -1.8529332774e+00    0.1747647     0.146991  -5.68 0.0008743087    1.142    0.124
       342 -10.0304     67.4503    236.0086   8.4174494286e+01   1.6993955966e+01    0.2241242    0.1676408  24.39  0.001373243    1.637    0.389
       343 -11.0683    182.9802    234.0467   5.9996222704e+01  -2.5839035594e-01    0.3397842    0.2053329  38.06  0.001246284    1.500    0.333
       344 -11.9617    185.1298    227.9340   5.8565386241e+01   3.9127001415e-01    0.7748883    0.4277763  21.49  0.003695477    1.994    0.499
       345  -9.2042    165.2923     17.2853   1.2611180579e+01   4.1248720991e+01     0.223042   0.09694821  58.41 0.0001914632    1.970    0.492
       346 -10.3655    160.0657     24.0890   1.5257898579e+01   4.1787152008e+01     0.296118    0.1795923 -40.39 0.0009822369    1.754    0.430
       347 -10.4141    161.5339     20.0982   1.3919530124e+01   4.1857838049e+01    0.2768938    0.2033372   6.21  0.001353948    1.848    0.459
       348  -9.7126     96.4392     23.0953   2.7878169692e+01   5.6522048264e+01    0.2273309    0.1679273 -74.33  0.001176156    2.248    0.555
       349 -11.3694    249.0999     20.8016   4.8229481832e+00   2.2196119582e+01    0.2321577    0.1688484 -70.25 0.0003271009    1.136    0.120
       350 -10.3887    224.4995     21.5880   7.0304774467e+00   2.7202024780e+01    0.2029089    0.1707555 -77.75 0.0002573221    1.025    0.025
       351  -9.7581    156.0158     21.7115   1.5203770562e+01   4.3008932588e+01     0.186346    0.1529822  66.60 0.0004167207    1.078    0.073
       352  -8.9915     48.2772     22.6862   4.3852851141e+01   6.5324121980e+01    0.1021525   0.09788495 -37.21 0.0002361208    1.565    0.361
       353  -9.4221    242.9753     21.7640   5.4910824254e+00   2.3314864358e+01    0.1466328   0.08861428  76.89 0.0005797381    1.581    0.368
       354 -10.5813    193.2659     20.9013   1.0046306313e+01   3.4277179767e+01    0.2212584    0.1774764  64.90  0.000255617    1.210    0.174
       355 -10.2043    193.5837     16.4658   8.9389248060e+00   3.4679361387e+01    0.2611585     0.150197  83.63   0.00117166    1.688    0.408
       356  -9.8475     31.9066    230.1842   9.0713664409e+01   2.2469160583e+01    0.1612751    0.1502359  72.43 0.0006833793    1.279    0.218
       357  -9.7539     87.1515     20.1419   2.9318768523e+01   5.8753599360e+01    0.1961537    0.1485758  26.62 0.0004283126    1.185    0.156
       358  -9.9787     50.0442     16.7453   4.0525070718e+01   6.5800512169e+01    0.2338964    0.2138713 -30.26  0.001184588    1.505    0.335
       359 -10.0914     56.7156     17.4246   3.8235450788e+01   6.4655183680e+01    0.3164191    0.1854055  11.25 0.0009742203    1.916    0.478
       360  -9.9374     59.7221    240.9961   8.6159308485e+01   1.7015961172e+01    0.1678177    0.1400573  66.32  0.001164527    1.041    0.039
       361 -11.6548     39.4469    230.2547   8.9252135453e+01   2.1607944327e+01    0.4052674    0.2024675 -70.18  0.002253962    1.934    0.483
       362  -9.5094     45.9271     20.0000   4.3649681732e+01   6.6017649972e+01    0.1828074   0.06171522  39.37 0.0005675516    2.823    0.646
       363  -9.4750     41.3609     19.2825   4.5266037869e+01   6.6761573974e+01     0.150238    0.1017636 -31.61 0.0009287745    1.500    0.334
       364 -10.2888    169.5031     17.0524   1.1979635202e+01   4.0270448556e+01    0.2325754    0.1619047 -39.71  0.001324835    1.532    0.347
       365 -10.0562     54.6247    231.7975   8.6369280589e+01   1.9480095022e+01    0.2102616     0.103485 -70.71  0.001024938    2.044    0.511
       366 -10.0277    145.2017     16.9432   1.5523577549e+01   4.6069251843e+01    0.1984761    0.1659207 -84.96 0.0007007373    1.258    0.205
       367 -10.1815    108.5891     16.3977   2.2419010380e+01   5.4581700633e+01    0.2121944    0.1782687  43.01 0.0001688124    1.021    0.020
       368  -9.2766     94.7544     17.3803   2.6166055747e+01   5.7473330113e+01    0.1835715   0.09910087  44.59   0.00074435    1.581    0.367
       369  -9.7427    215.8619     16.3278   6.6803298446e+00   2.9668608172e+01    0.3174109   0.05787941  61.20  0.001099881    4.234    0.764
       370 -10.1075     58.3002    229.1272   8.5386720999e+01   1.9560055722e+01    0.3277301    0.1280175  46.27  0.001543082    2.180    0.541
       371 -10.1490     76.7000     15.8630   3.0717003701e+01   6.1258857772e+01    0.2180119    0.1473372  36.64 0.0002214111    1.262    0.207
       372  -9.1294    119.3261    235.3513   7.3366751921e+01   9.6125504908e+00      0.12725    0.0992559  -4.49 0.0007048111    1.761    0.432
       373  -9.8949      3.6954    225.9050   9.5753179545e+01   2.6169769544e+01    0.1670173    0.1160355 -70.95  0.001027358    1.468    0.319
       374  -9.4046    123.4342    221.8104   7.0643043548e+01   1.1554637891e+01    0.1659292     0.125918 -38.92 0.0003162104    1.544    0.352
       375  -9.4506    109.6580    222.7077   7.3771514710e+01   1.3563382997e+01    0.1276064    0.1030331  -1.06 0.0007027586    1.654    0.396
       376  -9.7830     45.7042    244.5434   8.9137559480e+01   1.8054088318e+01    0.1666854   0.08425073  48.77 0.0009473909    1.620    0.383
       377  -9.9602     16.3225    222.0877   9.3160148422e+01   2.5747313242e+01    0.1623443    0.1182471  85.10 0.0005764897    1.126    0.112
       378  -9.3291    126.3566    220.6710   6.9840534492e+01   1.1304874190e+01    0.1418606   0.09766576  64.98  0.000704453    1.783    0.439
       379 -11.4460     48.4693    218.6150   8.6450484314e+01   2.2960027121e+01    0.5135937     0.235023  26.84  0.002378275    2.744    0.636
       380  -9.6212    211.8080    218.8577   5.1741576753e+01  -2.3325886242e+00    0.1603591     0.152531  12.64 0.0008462013    1.307    0.235
       381 -11.1950    160.7944    234.9988   6.4658553464e+01   3.0972359670e+00    0.3329001    0.1656886  27.84  0.001432832    2.060    0.514
       382  -9.5574    176.3105    218.7120   5.8820244630e+01   3.3774541277e+00    0.1252601     0.104219  61.94 0.0002404592    1.579    0.367
       383 -10.6009     70.0243    217.7239   8.1787393661e+01   2.0396550476e+01    0.1842215    0.1513437  54.50 0.0008935924    1.092    0.085
       384  -9.5971    136.1177    216.8512   6.7128351897e+01   1.0445229730e+01    0.2116447    0.1784736  59.98  0.001224582    1.266    0.210
       385 -10.5186     14.5319    215.3542   9.3067334619e+01   2.7319734032e+01     0.200959    0.1120236  48.17 0.0007185002    1.596    0.373
       386 -12.0988     11.5995    210.1126   9.3298468500e+01   2.8702435258e+01     0.417715      0.22951  60.48  0.001671909    1.605    0.377
       387 -12.2018      5.2543    211.2554   9.4617971925e+01   2.9038058747e+01    0.5220386    0.2083233 -78.94  0.002723134    2.147    0.534
       388 -11.2831      3.4802    205.4834   9.4610934247e+01   3.0413591501e+01    0.2829801    0.2345942  41.94  0.002097479    1.391    0.281
       389 -10.6857     30.9459    234.8325   9.1225806117e+01   2.1642692630e+01    0.3436266     0.172589 -80.16  0.001585001    1.891    0.471
       390 -11.1019     29.3851    215.3172   9.0099967041e+01   2.5823524392e+01     0.224694    0.2129679  65.00  0.001271793    1.285    0.222
       391  -9.5888    110.3852    211.8436   7.2110589983e+01   1.5666826030e+01    0.1869405    0.1227558 -45.36 0.0009444463    1.736    0.424
       392  -9.8317    216.9932    209.4601   4.9051591125e+01  -1.6507400790e+00    0.2096407    0.1565537 -27.76 0.0009335062    1.280    0.219
       393  -9.4486     73.0481    208.4848   8.0079163831e+01   2.1971277954e+01    0.1753972    0.1177104   3.38 0.0008094658    2.673    0.626
       394  -9.5059    201.6931    207.3457   5.1634632989e+01   1.1388896011e+00    0.1224899    0.1099994  84.90 0.0006232992    1.697    0.411
       395 -11.7904     19.8075    202.3632   9.1071085175e+01   2.9591520401e+01    0.7138466    0.1477099 -62.11  0.002712759    3.871    0.742
       396  -9.9470    147.9887    205.8465   6.2718982343e+01   1.0586794601e+01    0.2701432    0.1935359  16.03   0.00135401    1.607    0.378
       397 -10.4462     28.0562    205.3127   8.9574869507e+01   2.8117544806e+01    0.1672509    0.1338985  68.29 0.0006050279    1.083    0.077
       398  -9.7767     67.3195    203.1347   8.0741587905e+01   2.3929572318e+01     0.206618    0.1686773  34.85 0.0005804379    1.310    0.237
       399 -10.5566    175.3038    202.0531   5.6092159574e+01   6.5478018315e+00    0.2585965    0.1923756  31.93 0.0004364481    1.255    0.203
       400  -9.5081    185.5216    200.9701   5.3741240099e+01   4.9728840274e+00    0.1964426    0.1123122 -19.21 0.0008094964    2.484    0.597
       401  -9.8529     41.2734    198.4877   8.6098911847e+01   2.8194780287e+01    0.3328505    0.1072888 -76.31  0.001219472    3.549    0.718
       402  -9.9076    134.9533    196.4465   6.4065137692e+01   1.4772667025e+01     0.206637    0.1866658 -48.57 0.0005376278    1.174    0.149
       403  -9.1962     56.4781    197.4838   8.2562617708e+01   2.6605596321e+01    0.1284532     0.114348  81.98 0.0003127331    1.038    0.036
       404  -9.2386    215.4855    194.4669   4.6512418471e+01   1.0460930479e+00    0.1355493    0.1169967  -3.06 0.0001943999    1.003    0.003
       405 -11.9628     15.5917    192.0101   9.1158317794e+01   3.2277053856e+01    0.3639613    0.3373541  88.99  0.001851811    1.218    0.179
       406  -9.6451    186.6131    193.2128   5.2046398013e+01   6.1996083369e+00    0.2118101    0.1366709 -40.80 0.0005853056    1.579    0.367
       407 -10.4915    187.6329    189.6870   5.1150963689e+01   6.6715705365e+00    0.2782098    0.1776033   2.26  0.001169651    2.258    0.557
