#   1 NUMBER                 Running object number                                     
#   2 MAG_AUTO               Kron-like elliptical aperture magnitude                    [mag]
#   3 X_IMAGE                Object position along x                                    [pixel]
#   4 Y_IMAGE                Object position along y                                    [pixel]
#   5 X_WORLD                Barycenter position along world x axis                     [deg]
#   6 Y_WORLD                Barycenter position along world y axis                     [deg]
#   7 A_WORLD                Profile RMS along major axis (world units)                 [deg]
#   8 B_WORLD                Profile RMS along minor axis (world units)                 [deg]
#   9 THETA_WORLD            Position angle (CCW/world-x)                               [deg]
#  10 FWHM_WORLD             FWHM assuming a gaussian core                              [deg]
#  11 ELONGATION             A_IMAGE/B_IMAGE                                           
#  12 ELLIPTICITY            1 - B_IMAGE/A_IMAGE                                       
         1  -7.8969    112.6531     16.8083   5.5518421220e+01   5.4789879321e+01    0.1755943    0.1207437 -33.86 0.0002553228    1.592    0.372
         2  -7.8878     83.4111     11.2218   6.1046533936e+01   6.1728071219e+01    0.1671312    0.1152972 -32.05 0.0005521448    1.599    0.375
         3  -8.3240     55.7827     10.1529   7.0265363756e+01   6.6916655060e+01    0.1731338    0.1548346 -12.36 0.0007095413    1.287    0.223
         4  -7.9414     47.5093      9.9980   7.3653216090e+01   6.8231380626e+01    0.1552129   0.09842716 -48.21   0.00081024    2.536    0.606
         5  -7.8325     27.8362      9.8763   8.2940256771e+01   7.0851557816e+01    0.1458507    0.1222524 -22.55 0.0004829644    1.304    0.233
         6  -7.9178     90.5507      9.0267   5.7988608392e+01   6.0470707759e+01    0.1681128    0.1002728 -47.05 0.0005236709    2.361    0.576
         7  -7.7285    101.4865      8.4870   5.4880274726e+01   5.8146196612e+01    0.1298913    0.1173854  38.93 -4.057607e-05    1.074    0.069
         8  -8.3174      5.9900      8.4946   9.4327610685e+01   7.3104322756e+01     0.130712   0.08708355  41.47 0.0008102985    2.525    0.604
         9  -8.4324     33.3632      5.3445   7.7791871703e+01   7.0786176804e+01    0.2079117    0.1274047 -46.54  0.001151702    2.475    0.596
        10  -7.3644    124.3254      5.6780   4.8797746924e+01   5.3088120982e+01    0.1327515   0.09914363 -68.14 0.0007047527    1.684    0.406
        11  -8.2598     79.3152      4.3904   5.9177010105e+01   6.3219887764e+01     0.193247     0.137833 -37.28  0.001121337    1.706    0.414
        12  -7.5396     44.6682      3.3140   7.1424018895e+01   6.9447682293e+01    0.1011325   0.09583621 -41.94 0.0007045323    1.680    0.405
        13  -7.8502     15.6444      3.2851   8.6113481439e+01   7.3065409949e+01   0.09235889   0.08745309   8.08 0.0004772566    1.669    0.401
        14  -8.3335     62.2471      1.4072   6.3391362463e+01   6.6739544274e+01    0.1548603    0.1116618  53.91 0.0005505623    1.622    0.383
        15  -7.4435     39.2779      1.6303   7.2952486008e+01   7.0429093605e+01    0.1030144    0.0891029 -37.12 0.0007009291    1.686    0.407
        16  -8.4950    201.9528    243.4951   9.2886724721e+01  -4.5297223162e+00     0.189882    0.1676239 -51.20 0.0008162119    1.644    0.392
        17  -9.4028    248.0049    234.6606   8.3241324361e+01  -1.0056713598e+01    0.2851874    0.1952443 -33.96  0.001474499    1.714    0.417
        18  -9.5216    246.5597    228.8132   8.2497843826e+01  -9.1553365568e+00    0.4080248    0.1851822 -30.75  0.001567605    2.179    0.541
        19  -9.6438    248.5977    242.4557   8.4430679238e+01  -1.1039287583e+01    0.3246973     0.180344 -33.56  0.001960902    1.973    0.493
        20  -9.3800    210.9856    246.5021   9.1691314811e+01  -6.2667139501e+00    0.4126046    0.2689063 -62.18  0.002007083    3.926    0.745
        21  -9.3605    213.3972    242.4094   9.0620686661e+01  -6.1009147348e+00     0.302817     0.201469  11.85 0.0008101478    1.432    0.302
        22  -8.0111    191.9059    249.9468   9.5700042862e+01  -3.8645404973e+00    0.2061847    0.1099695  52.72  0.001004251    2.618    0.618
        23  -8.2538    183.7606    250.4237   9.7279018881e+01  -2.6888208352e+00    0.1747228   0.09363431  29.84 0.0007382873    1.628    0.386
        24  -8.5104    107.7582    250.6505   1.1164422073e+02   8.9722826693e+00    0.2133079   0.09077191  44.88 0.0002545692    1.834    0.455
        25  -9.1934    103.7650    246.8782   1.1201480275e+02   1.0199979200e+01      0.39136    0.2119391 -85.35  0.001955158    2.828    0.646
        26  -8.6024     94.1028    249.4683   1.1407628427e+02   1.1161754083e+01    0.3045021     0.126009  61.68  0.001226437    3.203    0.688
        27  -7.3388     86.3000    250.6631   1.1562437064e+02   1.2060565026e+01     0.122528   0.07057387  64.48 0.0002920199    1.660    0.398
        28  -8.8296    168.9589    243.3861   9.9087999887e+01   6.1884252862e-01    0.1966406    0.1732716 -85.19 0.0006857612    1.585    0.369
        29  -8.7685    139.3102    243.4303   1.0481056011e+02   5.3205618993e+00    0.2352859    0.1724407 -59.11   0.00113352    1.691    0.408
        30  -8.8125    135.9577    239.1433   1.0492833578e+02   6.5547790620e+00     0.281229    0.1582852  57.64  0.001203154    1.989    0.497
        31  -9.8495     78.1014    242.2489   1.1640687638e+02   1.4684319927e+01    0.3757268     0.265708 -66.19  0.002210095    1.615    0.381
        32  -7.7449     34.2832    244.6421   1.2445848460e+02   1.9756973962e+01    0.1181457   0.05870911  66.58  0.000498009    1.671    0.401
        33  -8.6806    194.9877    243.0021   9.4105845710e+01  -3.4007246523e+00    0.2208053     0.147283  24.26 0.0003732324    1.297    0.229
        34  -8.7657    193.8377    239.6293   9.3811515810e+01  -2.7583812854e+00     0.185338    0.1520422  44.06 0.0003896651    1.342    0.255
        35  -7.9470     49.5240    243.0524   1.2169073075e+02   1.8251702683e+01     0.165671   0.07261778  76.44 0.0008094797    2.647    0.622
        36  -9.2614    183.1713    240.3353   9.5936041732e+01  -1.1856621061e+00    0.3646598    0.2453016  64.74  0.001838646    2.547    0.607
        37  -9.2381    160.1131    240.4133   1.0038106259e+02   2.4803653375e+00    0.2996244    0.2210888 -83.42  0.001077933    2.213    0.548
        38  -8.0440    153.4381    241.9701   1.0188547260e+02   3.3069248967e+00    0.1572027    0.1247777 -52.18 0.0005866567    1.558    0.358
        39  -8.2405     88.1839    242.1814   1.1450462525e+02   1.3284935752e+01    0.1664144    0.1140787  69.18 0.0007101129    1.364    0.267
        40  -8.5034    248.4803    250.0165   8.5667608899e+01  -1.1865359482e+01    0.2809108    0.1452193   7.28  0.001309428    2.210    0.547
        41  -9.4138    230.8406    237.4450   8.6691910591e+01  -8.0099783456e+00    0.3326797    0.2460955  39.90  0.001922785    1.544    0.352
        42  -8.4095    129.1779    238.7795   1.0621290991e+02   7.6913545866e+00    0.2114037    0.1158649  66.77 0.0009494434    2.819    0.645
        43  -9.5479    216.9922    235.5171   8.8868802851e+01  -5.7416764268e+00    0.2941335    0.2475422  74.23  0.001817869    2.250    0.555
        44  -9.2809    213.7496    231.8820   8.8871839261e+01  -4.7680971349e+00    0.2769169    0.2116517  55.97  0.001037713    1.944    0.486
        45  -7.8155    209.2619    238.6407   9.0785789425e+01  -4.9915111324e+00    0.1031446   0.09550092  62.12 0.0005291753    1.629    0.386
        46  -8.4898     13.8135    238.3212   1.2760537391e+02   2.3118072936e+01    0.2050528   0.05689754  43.97  0.001038493    2.548    0.608
        47  -8.1671     25.1456    236.4360   1.2557388015e+02   2.2284648154e+01    0.2130643   0.09055963  76.88  0.001139195    2.279    0.561
        48  -8.8542    203.3478    235.0090   9.1308814841e+01  -3.5953658842e+00    0.2514498    0.2041882 -71.06   0.00102748    2.224    0.550
        49  -9.7402    175.5778    233.3176   9.6353787814e+01   1.0716550920e+00    0.4249839     0.263604 -60.42  0.002195621    2.545    0.607
        50  -7.9951    170.2186    235.9352   9.7783777462e+01   1.5406339351e+00    0.1426577    0.1045119 -44.55 0.0006555895    1.643    0.391
        51  -9.5323    108.9661    234.7718   1.0972281781e+02   1.1542574185e+01    0.4008554    0.2135968  63.48   0.00127979    2.242    0.554
        52  -7.9172     57.9835    237.0000   1.1971855778e+02   1.8318800775e+01    0.1852375   0.05577498  37.51 0.0008030001    2.946    0.661
        53  -8.8696    152.7316    235.1352   1.0109925440e+02   4.5103005142e+00    0.1797795    0.1549672  81.87 0.0007003445    1.450    0.311
        54  -8.5311     99.8198    234.5787   1.1150197353e+02   1.2962205033e+01    0.2359895    0.1480443  82.69  0.001293308    1.958    0.489
        55  -9.0816     78.7588    234.6118   1.1559893603e+02   1.5998783035e+01    0.2303143    0.1454181  88.06 0.0009935057    1.689    0.408
        56  -9.1139      8.1645    234.8645   1.2839366964e+02   2.4322208665e+01    0.1374396    0.1075001 -84.11  0.001087332    1.372    0.271
        57  -8.3171    122.9510    234.0154   1.0686316178e+02   9.4982065820e+00    0.2025939    0.1330888  66.18 0.0006206337    1.728    0.421
        58  -9.3750     68.4172    232.1399   1.1736140611e+02   1.7876826228e+01    0.4924844    0.2306508  79.63  0.002243777    2.955    0.662
        59  -8.4293    194.6029    232.6649   9.2588089461e+01  -1.8930863041e+00     0.214722    0.1704726  66.67 0.0006511431    1.961    0.490
        60  -9.0273    141.6263    231.1485   1.0276471115e+02   6.9871220127e+00    0.5795633    0.2313725  56.28  0.001944495    4.439    0.775
        61  -8.6546    132.8074    232.7226   1.0473666914e+02   8.1489846223e+00    0.2217965    0.1518107  78.00  0.001038129    2.016    0.504
        62  -8.5459     92.5108    232.2524   1.1269478262e+02   1.4474138355e+01    0.2650061    0.1460126  61.37  0.001400474    1.808    0.447
        63  -9.2549    186.5200    230.7923   9.3844241666e+01  -3.2260033337e-01    0.2972887    0.2386567 -79.06  0.001222631    2.115    0.527
        64  -7.9848    157.6925    232.3237   9.9724325028e+01   4.1552274468e+00    0.1244938   0.09247699  63.64 0.0003495319    1.647    0.393
        65  -8.7580    236.1053    230.8293   8.4661782809e+01  -7.9361521339e+00    0.2027511    0.1819777 -19.90 0.0008324328    1.442    0.306
        66  -8.8325      1.5838    230.8842   1.2932259045e+02   2.5695603276e+01    0.2008548   0.09004618  80.07 0.0008054251    1.820    0.451
        67  -8.5189    206.8275    230.1667   8.9878263331e+01  -3.4644204386e+00    0.2494472     0.152991  28.89 0.0009224036    1.399    0.285
        68  -8.9050    206.3898    226.2623   8.9318061062e+01  -2.8448596203e+00    0.2375264    0.1702453 -44.99 0.0007703155    1.775    0.437
        69  -9.0975    151.4042    229.1888   1.0053303142e+02   5.7095934278e+00    0.2771523    0.2046589 -78.50  0.001282076    1.964    0.491
        70  -9.3504    148.7875    224.6652   1.0041565210e+02   6.9151602458e+00    0.3102923    0.2336029  82.05  0.001059699    1.859    0.462
        71  -7.9016    229.6253    228.8316   8.5475787700e+01  -6.7425467451e+00    0.1483721    0.1083722 -36.33 0.0008591785    1.636    0.389
        72  -8.5816    222.4137    227.6371   8.6577187927e+01  -5.5116336032e+00    0.3238925    0.1686458  17.15  0.001560673    2.282    0.562
        73  -8.5973    162.3030    227.9234   9.8167801104e+01   4.1099197065e+00    0.2924212    0.1772017  57.31   0.00107375    2.055    0.513
        74  -8.7302    127.9377    227.2315   1.0500869279e+02   9.9047376650e+00    0.2983355    0.1867017  64.60  0.001077581    1.911    0.477
        75  -8.3473    120.0618    228.0133   1.0670552024e+02   1.1030532141e+01    0.2055631    0.1355951  66.67  0.000692257    1.708    0.415
        76  -9.1078      8.1893    228.1597   1.2808112533e+02   2.5585759985e+01    0.1603825   0.08886021  68.30  0.001070643    1.361    0.265
        77  -7.9277     49.3985    227.1589   1.2057446914e+02   2.1275993784e+01    0.1645095   0.09141892  86.14 0.0009414057    1.750    0.428
        78  -8.5039    200.0178    226.3064   9.0533461138e+01  -1.8365357129e+00    0.1753762    0.1441365  24.50 0.0004931007    1.051    0.049
        79  -9.0018     94.2977    224.6077   1.1152742165e+02   1.5658355035e+01    0.4026963    0.1952059  63.63  0.001545135    2.550    0.608
        80  -8.9205    216.4483    223.6357   8.6995696188e+01  -4.0518028709e+00    0.2390885    0.2221532 -72.86 0.0009810716    1.728    0.421
        81  -7.5575    189.0698    226.0000   9.2590830142e+01  -1.6884379692e-02    0.2122742    0.0631594  39.47 0.0007956958    2.896    0.655
        82  -8.7745    180.4644    224.3998   9.4019249134e+01   1.6500807893e+00    0.2188645     0.189174  32.78 0.0005521001    1.086    0.079
        83  -8.9171    104.7112    223.6799   1.0930500039e+02   1.4252586858e+01    0.3345593    0.2076521  84.79  0.001681973    2.120    0.528
        84  -8.5308    172.9853    223.2740   9.5325475923e+01   3.0799681767e+00    0.2103277    0.1790833  80.21 0.0006964163    1.629    0.386
        85  -7.9574    113.8350    224.1346   1.0749355189e+02   1.2737150619e+01    0.1966116    0.1496346  62.00 0.0005423336    1.233    0.189
        86  -7.9680     59.9958    224.1537   1.1830223394e+02   2.0534834240e+01    0.2180359   0.09712213  59.38   0.00107115    2.131    0.531
        87  -7.8022     37.7385    224.3738   1.2256313955e+02   2.3205234522e+01    0.1230239   0.06535189  69.83 0.0004936479    1.660    0.398
        88  -7.6687    233.3067    223.3391   8.3877250717e+01  -6.5667999364e+00    0.1284192   0.08008239   4.03 0.0007042005    1.680    0.405
        89  -9.3542    225.4773    222.0151   8.5058867694e+01  -5.2167820683e+00    0.2443443    0.2162203 -29.71 0.0008753064    1.422    0.297
        90  -9.3890    192.5512    221.5054   9.1180613939e+01   9.5240598610e-02     0.310357    0.2573648  82.18  0.001033501    1.981    0.495
        91  -8.3905    140.8161    223.1140   1.0182233459e+02   8.5197868330e+00     0.205265    0.1579107  62.37  0.001198803    1.389    0.280
        92  -8.8836    239.0342    221.5770   8.2555020838e+01  -7.1751463676e+00    0.2072622    0.1882178 -46.46 0.0008893167    1.723    0.420
        93  -8.5260    202.7753    220.4728   8.9034165219e+01  -1.4235388005e+00    0.2477435    0.1698701 -31.71  0.001274703    1.565    0.361
        94  -9.0195    158.8531    220.5694   9.7758475155e+01   5.9207628697e+00    0.2310222    0.2042825  73.78 0.0006606016    1.354    0.261
        95  -8.4210     73.4884    221.4521   1.1539361998e+02   1.9269173761e+01    0.2895906    0.1394171  66.37  0.001352152    2.391    0.582
        96  -9.4521      7.3829    221.8797   1.2792109872e+02   2.6875469554e+01    0.2900544   0.08916382  55.89  0.001462398    2.550    0.608
        97  -8.6390     82.7708    220.7996   1.1345691402e+02   1.8091846087e+01    0.2373606    0.1482857  78.41  0.001267568    1.731    0.422
        98  -8.1359     27.4858    220.9822   1.2424540960e+02   2.5017270128e+01    0.1706121   0.09338906 -82.55  0.001041302    1.617    0.381
        99  -9.2250    120.2029    219.0710   1.0553386502e+02   1.2668132314e+01    0.4176522    0.2228341  64.53  0.001574672    2.630    0.620
       100  -8.3447    209.9683    219.1848   8.7446564757e+01  -2.3948588261e+00    0.1774675    0.1616318  26.95 0.0005376866    1.251    0.201
       101  -7.8841    179.4570    217.9470   9.3178449979e+01   2.8506171357e+00    0.1619975    0.1184937 -76.76  0.000807862    2.448    0.592
       102  -9.3245    133.2015    216.5383   1.0247121514e+02   1.0992633492e+01    0.4887285    0.2763361  69.54  0.002008263    3.070    0.674
       103  -8.4962     62.0071    217.4552   1.1731887123e+02   2.1615186577e+01    0.2854715    0.1375875  68.34  0.001367072    2.301    0.565
       104  -8.9643     51.4504    217.2527   1.1939698957e+02   2.2998882756e+01     0.321032    0.1905235  72.12  0.001127553    1.538    0.350
       105  -7.7989     55.8554    217.1993   1.1852200206e+02   2.2458736984e+01    0.1398419    0.1323191  78.17            0    1.325    0.246
       106  -8.7036    169.4574    216.3317   9.4933416517e+01   4.8278958985e+00    0.2557567     0.197842  77.68 0.0007519671    1.936    0.483
       107  -8.6978    143.0013    216.6748   1.0044276661e+02   9.3089664713e+00    0.2706015    0.1912354  79.47  0.001125851    2.042    0.510
       108  -8.8351    249.5207    218.9418   8.0268116467e+01  -8.3368162220e+00    0.2042449    0.1573942  37.72  0.001110618    1.560    0.359
       109  -8.8232    232.3609    214.9156   8.2564246121e+01  -5.2928162455e+00    0.2391744    0.2055491 -30.57 0.0009308684    1.414    0.293
       110  -8.5326    185.6392    214.4415   9.1360928725e+01   2.3667985714e+00    0.2279914    0.1974784  87.31 0.0008941201    1.699    0.411
       111  -8.3652    154.5835    215.3147   9.7828637383e+01   7.5676564208e+00    0.1928322    0.1496742  71.20 0.0006863551    1.637    0.389
       112  -8.8999     93.3445    214.1700   1.1054534986e+02   1.7858115989e+01    0.3808531    0.1789806  60.02   0.00145383    2.471    0.595
       113  -7.8831     41.3630    215.6679   1.2124542511e+02   2.4532940780e+01     0.132696   0.06666905  64.83  0.000703786    1.811    0.448
       114  -9.4834     73.1994    211.9724   1.1450886523e+02   2.1230328372e+01    0.6639306    0.2320527  58.08  0.002396513    3.762    0.734
       115  -9.4033    213.7455    211.9237   8.5461282208e+01  -1.9364358862e+00    0.3030784    0.2842194  87.94 0.0005904473    1.634    0.388
       116  -8.6156    161.8506    212.4683   9.5872966356e+01   6.8110392849e+00    0.2175884    0.1882411 -84.11 0.0006933615    1.492    0.330
       117  -7.8299    106.4277    213.1566   1.0766360178e+02   1.6033585256e+01    0.1746631    0.1193744 -84.43 0.0008830018    1.719    0.418
       118  -7.2838    242.6687    212.2649   8.0257857902e+01  -6.4775104990e+00     0.104093   0.09704321  40.73  0.000423791    1.577    0.366
       119  -8.1818    224.8165    212.3545   8.3476453754e+01  -3.7685716198e+00    0.1682874    0.1437435 -11.07 0.0004793699    1.163    0.140
       120  -8.8825    204.3465    210.9538   8.7083730739e+01  -2.4183482786e-01    0.2519016     0.211294 -47.77 0.0006778275    1.525    0.344
       121  -7.5843    124.6574    212.6935   1.0373222900e+02   1.3153733195e+01    0.1285385    0.1037497   4.21 0.0003857709    1.689    0.408
       122  -9.1727      7.9944    211.9958   1.2731253985e+02   2.8778324491e+01    0.2297975   0.09672165  71.40  0.001077061    2.101    0.524
       123  -8.5702      5.4206    206.7797   1.2751222511e+02   3.0073326756e+01    0.3430649   0.08940873 -80.76  0.001473613    3.352    0.702
       124  -8.3386    192.2639    210.5946   8.9384379094e+01   1.8563715343e+00    0.2163484    0.1623766 -51.56 0.0006572672    1.699    0.411
       125  -9.3628    175.3005    209.7846   9.2660869094e+01   4.9274643375e+00    0.3966345    0.2877767  74.29  0.001496375    2.283    0.562
       126  -8.9005    147.9097    210.5673   9.8487775904e+01   9.5831762903e+00    0.3062437    0.2081471  68.61  0.001263659    2.007    0.502
       127  -9.1120    116.1773    210.3342   1.0521538635e+02   1.5019840305e+01    0.3133648    0.2107989  80.25 0.0009171188    1.903    0.475
       128  -8.5856     85.6552    209.5906   1.1163787256e+02   1.9941134572e+01    0.3304093    0.1627404  65.61   0.00142971    2.566    0.610
       129  -7.9576     32.0006    210.1912   1.2266550028e+02   2.6717081207e+01    0.1779373   0.09817035  77.20 0.0005814987    1.619    0.382
       130  -9.2600    236.5871    207.7682   8.0511726157e+01  -4.9478086882e+00    0.4223077    0.2129278 -29.72  0.001780591    1.944    0.485
       131  -8.3894    139.1130    208.1722   9.9987626895e+01   1.1560819902e+01    0.2403566    0.1710985  84.79 0.0006975967    2.004    0.501
       132  -7.8161     46.3390    209.6421   1.1978431722e+02   2.5188944636e+01    0.1353437   0.07061724  66.79 0.0007038803    1.816    0.449
       133  -9.4140    246.3214    207.4236   7.8736965564e+01  -6.3649643856e+00    0.2583142    0.1851432 -27.80 0.0006101071    1.366    0.268
       134  -8.0756    156.5096    207.9704   9.6261318953e+01   8.5527323834e+00    0.1834949    0.1367865 -51.97 0.0004755114    1.536    0.349
       135  -9.6509    124.2404    206.2093   1.0289775183e+02   1.4493417264e+01    0.2964565    0.2011999  69.66   0.00149936    1.774    0.436
       136  -9.3503     99.5821    206.4902   1.0828045380e+02   1.8464386830e+01    0.3992934    0.2344905  77.41  0.001591769    2.313    0.568
       137  -8.5687     56.5537    205.4127   1.1732183768e+02   2.4819614895e+01    0.3376976    0.1310131  59.66  0.001402035    2.895    0.655
       138  -8.3746     11.5353    206.5360   1.2635589818e+02   2.9558201724e+01     0.114807   0.08320986  76.14 0.0002577858    1.017    0.017
       139  -9.2440    194.7973    203.5485   8.7631287021e+01   2.5659632033e+00    0.3212863    0.2992505 -67.81    0.0013051    1.434    0.303
       140  -9.2114    192.4225    197.5496   8.7010078832e+01   3.9872164876e+00    0.3625187    0.2894536  80.71  0.001489089    2.040    0.510
       141  -8.8629    183.9222    204.2190   8.9939325280e+01   4.3613823898e+00    0.3145415    0.2085055  60.68   0.00111812    2.168    0.539
       142  -8.7632    131.3470    204.2598   1.0106613301e+02   1.3663763331e+01    0.3214941    0.2019667  77.03 0.0009564413    2.552    0.608
       143  -7.9195    109.0301    205.3526   1.0608140929e+02   1.7190716491e+01    0.1917021    0.1530542  56.15  0.000622494    1.116    0.104
       144  -9.4213    250.1310    202.0193   7.7076351818e+01  -6.1937420805e+00    0.3843954    0.1680482 -36.40  0.001294364    2.237    0.553
       145 -10.0085    246.0059    194.1733   7.6297607121e+01  -4.4745570629e+00     0.384433    0.2739127 -60.79   0.00193264    2.851    0.649
       146  -9.2450    242.9706    200.7987   7.8086682614e+01  -4.9477059724e+00    0.2916669    0.1809641 -32.86 0.0008392766    1.573    0.364
       147  -8.9523    140.3845    201.0190   9.8594013414e+01   1.2719530534e+01    0.3532224    0.2326602 -75.29  0.001199918    2.185    0.542
       148  -8.4274     79.8793    201.4390   1.1193827040e+02   2.2499944710e+01    0.2975002    0.1407014  62.87  0.001256125    2.573    0.611
       149  -8.2302     48.0519    202.0294   1.1877985371e+02   2.6594229532e+01    0.2279588    0.1055083  79.91  0.000830617    2.618    0.618
       150  -7.7341    221.7283    201.3761   8.2035691546e+01  -1.6602499276e+00    0.1162631    0.1055554 -68.11 0.0006186595    1.687    0.407
       151  -9.3219    237.0758    198.7348   7.8738273482e+01  -3.7391244626e+00    0.3170703    0.1697767 -37.05  0.001016629    1.884    0.469
       152  -9.4281    149.6274    198.7486   9.6211843204e+01   1.1509265841e+01    0.3965729    0.2789564  82.71  0.001153368    2.227    0.551
       153  -8.9002    123.9835    199.2530   1.0192148925e+02   1.5937833434e+01     0.324211    0.2156929 -82.91  0.001217627    2.046    0.511
       154  -9.3604    112.8618    198.6015   1.0429339152e+02   1.7955713092e+01    0.4488547    0.2658774  70.68  0.001543057    2.334    0.571
       155  -9.1255     88.7408    198.5225   1.0964145971e+02   2.1814641237e+01    0.4125884    0.2501848 -88.66  0.001763394    1.985    0.496
       156  -8.3973    176.9786    199.0077   9.0438750649e+01   6.5079194132e+00    0.2046642    0.1690934  77.76 0.0005434413    1.689    0.408
       157  -8.4023    202.3268    197.9918   8.5119632705e+01   2.1649002960e+00    0.2226942    0.1875878  59.55  0.000729133    1.562    0.360
       158  -9.3593     61.4420    196.9866   1.1545058169e+02   2.6004815758e+01    0.3942676    0.1952847  72.64  0.001387613    2.485    0.598
       159  -8.9227     12.8943    197.7873   1.2557261837e+02   3.1256737567e+01     0.236449    0.1050909  72.12  0.001235001    2.088    0.521
       160  -8.3319    209.2305    196.7855   8.3546027583e+01   1.1615504687e+00    0.2117172    0.1586962 -32.77 0.0005648953    1.370    0.270
       161  -8.6347    133.1303    196.2119   9.9418513571e+01   1.4960889318e+01    0.2504424    0.1764366  87.21 0.0007456212    1.985    0.496
       162  -8.0228     53.7242    196.9623   1.1711065595e+02   2.6995741270e+01    0.2456592   0.09043439  61.44 0.0008985538    3.616    0.723
       163  -7.9087     29.4763    197.5133   1.2223495398e+02   2.9666320018e+01    0.1236202   0.09072963  74.83 0.0001588812    1.084    0.077
       164  -8.6707    215.8071    195.5338   8.2047071156e+01   2.3299019882e-01    0.2366837    0.1692946 -51.62 0.0008025829    1.883    0.469
       165  -8.5741    224.3050    193.9345   8.0144288631e+01  -9.5094843535e-01    0.2566003    0.1635378 -43.34  0.001234036    1.795    0.443
       166  -8.8755    185.2838    194.4885   8.7896053832e+01   5.8019646723e+00     0.324536    0.2092088 -42.40   0.00137466    1.670    0.401
       167  -9.1369    161.0730    194.3458   9.2975511282e+01   1.0267649430e+01    0.3275212    0.2404875  77.99  0.001046979    2.050    0.512
       168  -8.9574     43.9748    193.5475   1.1887421634e+02   2.8920139082e+01    0.4157226    0.1788655  66.69   0.00180626    2.726    0.633
       169  -8.1034    230.8223    194.1899   7.8996170020e+01  -2.0659019915e+00    0.1811812    0.1342549  -1.38 0.0004857838    1.284    0.221
       170  -8.7144     77.0452    193.9547   1.1167808735e+02   2.4532339392e+01    0.2392805    0.1831945  76.28 0.0006827866    1.209    0.173
       171  -9.6485    163.6962    203.1187   9.3939665116e+01   8.1593240429e+00    0.3907726    0.2470001  59.59 0.0008982645    2.053    0.513
       172  -8.0041    198.9490    191.9696   8.4650866744e+01   3.7675124056e+00    0.1949137    0.1718874 -86.96 0.0005514657    1.655    0.396
       173  -8.3207    178.9180    192.0411   8.8761750241e+01   7.4049763421e+00    0.2048617    0.1869804  62.78 0.0004885762    1.287    0.223
       174  -8.6037    172.5697    191.9433   9.0081396044e+01   8.5959205289e+00    0.2370693    0.2150315  82.73 0.0009751349    1.366    0.268
       175  -9.1979    139.5822    190.8562   9.7095102951e+01   1.4892168169e+01    0.3768647    0.2629337  80.50  0.001128283    2.088    0.521
       176  -9.4238    129.1137    189.6899   9.9260040529e+01   1.7016859697e+01    0.4596912    0.2443959 -53.11  0.002058625    2.012    0.503
       177 -10.4762     92.1910    188.8276   1.0758599485e+02   2.3401167398e+01     0.951313    0.2901034  48.97  0.003235786    3.432    0.709
       178  -8.9513     21.1231    191.2820   1.2348319926e+02   3.1865575596e+01    0.2737218    0.0837249  54.20  0.001167826    3.079    0.675
       179  -8.8904      6.6150    190.4549   1.2636297588e+02   3.3384266654e+01    0.2763299   0.07902963 -73.21   0.00125656    2.758    0.637
       180  -9.0346    216.6067    188.1924   8.0474848616e+01   1.2688461056e+00      0.34234    0.2136591 -42.52  0.001143645    1.744    0.427
       181  -8.3003    148.3241    189.4007   9.4892935416e+01   1.3584338167e+01    0.2211317    0.1710349 -78.81 0.0005692181    1.674    0.403
       182  -8.2228    237.1547    188.7166   7.6793031739e+01  -2.2737043366e+00    0.2161589    0.1582955 -33.78 0.0006145198    1.378    0.274
       183  -8.1712    209.9942    188.8498   8.1873931578e+01   2.3217003180e+00     0.190641    0.1460917 -50.68  0.001030977    1.638    0.390
       184  -8.7819    191.3188    187.6708   8.5365620499e+01   5.9002596323e+00    0.3054837    0.2323506 -74.53  0.001221356    2.156    0.536
       185  -9.2282    155.9781    187.5788   9.2872401676e+01   1.2523328503e+01     0.355555    0.2252077 -60.28  0.000905267    1.969    0.492
       186  -9.0774    121.6879    188.3725   1.0073834018e+02   1.8606690952e+01    0.2880438    0.2050326 -69.22  0.000866243    1.573    0.364
       187  -9.1847    120.0000    184.9970   1.0057965285e+02   1.9626924390e+01    0.3816152    0.1917789 -58.44 0.0008297497    2.150    0.535
       188  -9.1976     54.9420    187.2262   1.1585483696e+02   2.9002653811e+01    0.4444983    0.2069631  68.81  0.001712479    2.701    0.630
       189  -8.9164     34.2395    188.3311   1.2049523382e+02   3.1165341256e+01    0.3206979    0.1645831  78.64  0.001008994    1.961    0.490
       190  -9.0010    209.8882    202.0786   8.4408714609e+01   2.0786212275e-01    0.3523202    0.2169053  41.94  0.001296769    1.606    0.377
       191  -7.8381    230.5039    187.5110   7.7753706542e+01  -9.9461938214e-01    0.1309144    0.1159268  -1.62 0.0001658444    1.091    0.083
       192  -8.6403    164.8953    187.0305   9.0819720871e+01   1.0956815149e+01    0.2176541    0.1893938  74.55  0.000748187    1.385    0.278
       193  -9.2887    109.5958    186.1947   1.0318156208e+02   2.1156904227e+01    0.3838774    0.2496882  73.21  0.001147428    1.937    0.484
       194  -9.4063    248.5944    185.7086   7.4205502983e+01  -3.6542327025e+00    0.3028793    0.2172553  19.67  0.001527757    1.334    0.250
       195  -8.9870    210.1601    184.3356   8.0952780118e+01   3.0435000207e+00    0.2429738    0.1894584 -37.54 0.0004312622    1.344    0.256
       196  -8.4744    202.8012    184.5747   8.2445688251e+01   4.3339401450e+00    0.2503379    0.1824353 -55.23 0.0007988006    1.807    0.446
       197  -8.6753    182.9303    184.6960   8.6525290573e+01   7.9987625004e+00     0.259622    0.2050718 -49.14 0.0006977129    1.426    0.299
       198  -9.1301     66.7969    184.4117   1.1285317206e+02   2.8095887783e+01    0.4192457    0.2394604  65.52  0.001235688    1.860    0.462
       199  -7.9727     12.3232    185.6346   1.2489881892e+02   3.3923099777e+01    0.1299579   0.06527449  68.16 0.0007038837    1.792    0.442
       200  -8.1264    224.0227    183.7201   7.8194507125e+01   7.0240716607e-01    0.1827036    0.1572994  14.50 0.0003861536    1.078    0.072
       201  -8.7395    196.8904    183.4970   8.3416627473e+01   5.6074234300e+00    0.2657936    0.1841889 -56.14 0.0008239752    1.920    0.479
       202  -9.1067    174.2930    183.0292   8.8032730631e+01   9.9441003782e+00    0.4352407    0.2445483 -48.73  0.001065574    1.969    0.492
       203  -9.0393     44.3575    182.3500   1.1772162937e+02   3.1379387904e+01    0.3490486    0.1824843  72.57  0.001141776    2.059    0.514
       204  -8.0557      1.7438    183.6268   1.2693051643e+02   3.5264222086e+01    0.1507323    0.0844226  49.47 0.0009390732    1.649    0.394
       205  -9.2251    147.5182    180.7520   9.3514754726e+01   1.5493373149e+01    0.3593572    0.2784241 -86.05   0.00111526    1.707    0.414
       206  -7.8362     83.3134    182.6291   1.0879465025e+02   2.6147936299e+01    0.1482432   0.09391313  72.62 0.0007034771    1.779    0.438
       207  -9.5988     25.5624    178.8413   1.2156861231e+02   3.4186244659e+01    0.6209007    0.2325917  78.73  0.002282957    3.940    0.746
       208  -7.7483    240.3682    180.1531   7.4525268556e+01  -1.5007196422e+00    0.1823003    0.1124662 -40.86 0.0009407963    1.706    0.414
       209  -8.7280    137.6740    179.4593   9.5532842432e+01   1.7612778790e+01    0.3462067    0.2271742  72.22  0.001227027    2.232    0.552
       210  -9.3784    191.5589    178.4587   8.3498741181e+01   7.5090244059e+00    0.3061105    0.2485477  62.26 0.0005883902    1.556    0.357
       211  -8.2656    169.3226    178.4659   8.8219797577e+01   1.1775999577e+01    0.2346191    0.1788372 -69.67 0.0008348805    1.762    0.433
       212  -9.1746     35.8230    176.5722   1.1907830256e+02   3.3647522045e+01    0.5521654    0.2133868  83.48  0.001899698    4.273    0.766
       213  -9.5373    248.4776    176.4475   7.2378807884e+01  -2.2620473711e+00    0.4192824    0.2687234 -48.85  0.001853228    2.056    0.514
       214  -8.5745    250.5186    172.8898   7.1313219357e+01  -2.0555426736e+00    0.1881589    0.1634515 -23.78 0.0005298154    1.184    0.155
       215  -8.5589    231.1526    177.3237   7.5595991724e+01   4.9447771487e-01    0.2425249    0.1779808 -37.70 0.0005752022    1.396    0.284
       216  -8.4215    217.6458    177.3680   7.8110599365e+01   2.8653015574e+00    0.2299792    0.1595837 -43.83  0.000653971    1.577    0.366
       217  -8.7195    205.0296    177.7885   8.0642441696e+01   5.0988827047e+00    0.2365824    0.1795774 -52.65 0.0006619195    1.623    0.384
       218  -8.7046    129.0890    177.2354   9.7133924489e+01   1.9678929421e+01    0.3311868    0.2224631  89.40  0.001041158    2.236    0.553
       219  -9.2508    183.1497    175.7964   8.4716224573e+01   9.6140969738e+00    0.4225829    0.2288555 -43.16 0.0007324172    1.917    0.478
       220  -8.0224     97.5313    177.5107   1.0468349874e+02   2.5096470228e+01    0.1387229     0.129342  76.55 0.0001978405    1.046    0.044
       221  -8.9291     89.0022    176.8900   1.0663323456e+02   2.6592850204e+01    0.2902968    0.1982662  80.10  0.000997392    1.654    0.395
       222  -9.2630     59.0081    176.0081   1.1365835005e+02   3.1053434901e+01    0.4303116     0.201149  63.33   0.00136717    2.636    0.621
       223  -9.5409     56.1846    171.5779   1.1379500347e+02   3.2444971610e+01    0.4918607    0.2404023  78.31  0.001970804    2.914    0.657
       224  -8.9631     12.9316    176.7727   1.2414665317e+02   3.5827074540e+01    0.2967735    0.1193037  64.81  0.001143821    2.581    0.613
       225  -7.8502    211.5413    176.4727   7.9098602883e+01   4.1250963419e+00    0.1389709    0.1258096   1.02 0.0001351664    1.030    0.029
       226  -9.1925    158.9119    175.0921   8.9863926821e+01   1.4467728004e+01    0.3908872    0.2832834  81.38  0.001239457    2.129    0.530
       227  -9.4382    104.3652    174.7657   1.0260621013e+02   2.4592559261e+01    0.5167582    0.2819411  68.34  0.001753095    2.846    0.649
       228 -10.6718     76.0721    169.5847   1.0870839332e+02   3.0233750181e+01     1.437265    0.4962412 -69.00  0.004951423    3.385    0.705
       229  -7.9628    224.4033    174.2661   7.6206480049e+01   2.1711424905e+00    0.1800463    0.1234343 -41.72 0.0004737785    1.537    0.349
       230  -9.2242    175.7335    172.3481   8.5602558964e+01   1.1721568601e+01    0.3487093    0.2373479 -46.78 0.0007403864    1.558    0.358
       231  -8.3025    142.9633    172.7490   9.3058730878e+01   1.8040633985e+01    0.2516235    0.1932882 -72.74 0.0006418071    1.571    0.363
       232  -8.8151    134.8143    171.9265   9.4814553249e+01   1.9768865047e+01    0.2650847    0.2036164 -81.29 0.0007725112    1.601    0.375
       233  -9.5206    121.3682    170.5332   9.7770958055e+01   2.2571185316e+01    0.3859903    0.2730995 -85.18  0.001073994    1.823    0.451
       234  -9.1698     44.9378    170.8398   1.1638172475e+02   3.3965284186e+01    0.3929976    0.2052882  84.47  0.001296548    2.144    0.534
       235  -8.3861    205.8293    170.4783   7.8975692093e+01   6.2347191072e+00    0.2668575     0.180159 -53.46  0.000755631    1.870    0.465
       236  -8.3283    198.4852    170.5082   8.0451533507e+01   7.6323234860e+00    0.2268196    0.1957717 -87.86 0.0005708196    1.635    0.389
       237  -8.3150    237.3031    169.7205   7.2934103374e+01   6.4677763795e-01    0.2450389    0.1451346 -42.30 0.0008455316    1.758    0.431
       238  -8.7193    230.6137    170.0888   7.4204254167e+01   1.7549306306e+00    0.2000176    0.1585324 -19.79  0.001138557    1.147    0.128
       239  -8.5838    149.8262    169.6010   9.0853931766e+01   1.7379953291e+01    0.2750916    0.1964588 -70.56 0.0006759923    1.820    0.450
       240  -7.8951    244.4122    169.2168   7.1595292353e+01  -4.8437328071e-01    0.1753684    0.1146475 -40.50 0.0003854426    1.560    0.359
       241  -8.2832    218.8962    168.5222   7.6040561123e+01   4.1309036724e+00    0.2077306    0.1736113 -26.04  0.000488752    1.137    0.121
       242  -9.1148    166.9352    168.6336   8.6774118345e+01   1.4199324217e+01     0.311363    0.2497199  63.65 0.0009175101    1.463    0.316
       243  -8.8222    111.7035    167.5009   9.9583486240e+01   2.4990647084e+01    0.3873346    0.2475344  86.17  0.001057059    2.338    0.572
       244  -8.6055     88.5964    168.7382   1.0549590805e+02   2.8550004905e+01    0.2549224    0.1663509 -75.27 0.0008247733    1.608    0.378
       245  -7.7264    211.4616    168.4749   7.7452372867e+01   5.5238463671e+00     0.139867    0.1298579  -4.60 5.270294e-05    1.062    0.059
       246  -8.7062    191.9339    166.7138   8.0995528732e+01   9.6090882426e+00    0.2666027    0.2051405 -46.08 0.0006268009    1.387    0.279
       247  -8.5790    185.1490    166.7224   8.2418437600e+01   1.0949381045e+01    0.2460784    0.1976451 -52.65 0.0006406548    1.402    0.287
       248 -10.1222     95.0441    162.8371   1.0292664708e+02   2.8909839811e+01    0.9104105    0.5004691  80.60  0.003148085    3.526    0.716
       249  -9.2343     20.5747    166.2269   1.2160210049e+02   3.7538344553e+01    0.3722746    0.1623754  62.24  0.001321099    2.447    0.591
       250  -9.9594    136.9422    164.6243   9.2903715498e+01   2.0963178955e+01    0.7023351    0.3020345  55.32  0.002263074    3.334    0.700
       251  -7.8405    250.7050    165.3327   6.9730411693e+01  -9.3255823847e-01    0.1225238    0.1014013 -54.84 0.0007026627    1.639    0.390
       252  -8.2643    233.9060    165.1272   7.2574854088e+01   1.9820637618e+00    0.1973388    0.1781165 -36.54 0.0005837791    1.248    0.199
       253  -8.6547    159.5542    164.5455   8.7594164232e+01   1.6513315168e+01    0.3087034    0.2214604  84.32 0.0009970523    2.227    0.551
       254  -9.5745     33.9511    163.6785   1.1822246467e+02   3.6837351374e+01    0.5637503    0.1918243  53.60  0.002206217    3.346    0.701
       255  -7.7868    240.3858    164.2285   7.1249434642e+01   9.9098370932e-01    0.1873219    0.1153371 -42.06 0.0009220184    1.662    0.398
       256  -8.4356    213.1208    163.7141   7.6120314254e+01   6.0451957991e+00     0.236624    0.1839636 -45.50 0.0007997453    1.399    0.285
       257  -8.6507    245.9066    163.0608   7.0060784221e+01   2.2751259567e-01    0.1921648    0.1711367 -41.35  0.000578685    1.321    0.243
       258  -8.3724    204.9609    162.7909   7.7515618101e+01   7.7804936319e+00    0.2484733     0.177829 -50.06  0.000556881    1.593    0.372
       259  -9.0070     60.4846    161.0754   1.1139024331e+02   3.4390502889e+01     0.361798    0.2673822 -80.29  0.001573661    1.232    0.188
       260  -9.4235      3.2832    162.4759   1.2521865114e+02   3.9831910315e+01    0.3764293    0.1535999  58.45  0.001869995    2.442    0.590
       261  -8.8279    152.2010    161.4582   8.8649891265e+01   1.8641138042e+01    0.3233226    0.2343525  74.97  0.001005013    1.931    0.482
       262  -9.0536    177.5163    160.7445   8.2782293415e+01   1.3652783453e+01    0.3208966    0.2499016  78.35 0.0009807396    1.824    0.452
       263  -7.8948    242.2746    160.3031   7.0097047355e+01   1.2916602552e+00    0.1350649   0.09544008  -2.93 0.0001781107    1.540    0.351
       264  -8.2266    245.2326    158.9729   6.9313824903e+01   9.9082753721e-01     0.254227     0.149727 -20.03 0.0004138793    1.781    0.439
       265  -9.7593    250.1719    157.8038   6.8244649623e+01   3.2884833681e-01     0.340646    0.1910758 -37.07 0.0008060793    1.616    0.381
       266  -8.6730    246.5748    155.5114   6.8354221073e+01   1.3104204003e+00     0.221242    0.1522648 -23.56 0.0005340548    1.322    0.244
       267  -8.6116    227.4902    159.3723   7.2501156491e+01   4.0991551945e+00    0.2760345    0.2073065 -62.40 0.0009100548    1.950    0.487
       268  -9.7900    106.0702    157.8244   9.9242432321e+01   2.8230203475e+01    0.6024587    0.4395701 -73.00  0.001631784    1.466    0.318
       269  -8.3857    237.1239    159.1623   7.0743199027e+01   2.3849962981e+00    0.1822511    0.1583942 -46.92 0.0008365205    1.350    0.259
       270  -9.2383    167.5023    157.4634   8.4289442296e+01   1.6367447456e+01    0.3637499    0.2617465 -62.77 0.0008970152    1.724    0.420
       271  -8.6117    128.0668    158.7529   9.3897793495e+01   2.3983868083e+01    0.3197932    0.2263385 -89.19  0.001018811    1.974    0.493
       272  -8.4442    196.7398    158.0452   7.8137900649e+01   1.0282686645e+01    0.2183505    0.1955917 -53.37 0.0006298686    1.262    0.208
       273  -8.1406    188.4321    158.0273   7.9855177864e+01   1.1964889266e+01    0.2188671    0.1426841 -41.51 0.0004897864    1.539    0.350
       274  -8.2654    217.9887    156.4963   7.3631524588e+01   6.3839891011e+00    0.2715818    0.1826043 -49.04 0.0006464148    1.685    0.407
       275  -8.6141    157.5508    156.3481   8.6322377375e+01   1.8645472359e+01    0.3042667     0.233499 -84.08 0.0008493775    1.807    0.447
       276  -9.3365    119.5487    155.3080   9.5339250251e+01   2.6383299138e+01    0.4403875    0.2919943 -78.49  0.001406063    2.024    0.506
       277  -9.5080     82.0357    155.3035   1.0499551960e+02   3.2761121117e+01    0.5395086    0.3092227  72.43  0.001607883    2.515    0.602
       278  -9.4624     50.1058    155.7638   1.1330536503e+02   3.6947047524e+01    0.4405695    0.2120934  61.26  0.001705203    2.549    0.608
       279  -8.1440    237.2284    150.4261   6.8839931361e+01   3.8082083705e+00    0.1646978    0.1357754  55.48 0.0003195324    1.509    0.337
       280  -8.6113    242.7532    155.0219   6.8890933841e+01   2.0591597888e+00    0.1928023     0.153816 -28.63 0.0004274869    1.129    0.114
       281  -8.1810    239.7153    153.3217   6.9041822443e+01   2.8781849694e+00    0.2002531    0.1874667 -33.72 0.0004795177    1.207    0.172
       282  -7.9162    204.9789    155.2629   7.5869185669e+01   9.1518167467e+00    0.2022894    0.1545812 -56.58 0.0006098531    1.597    0.374
       283  -8.4402    144.3749    154.9679   8.9139978403e+01   2.1625531734e+01     0.275453    0.2091974  69.90 0.0007172329    1.613    0.380
       284  -9.7295    132.8354    153.0083   9.1544580557e+01   2.4363105486e+01    0.5761243     0.407615 -71.17  0.002578918    1.729    0.422
       285  -9.4310    133.3473    148.3262   9.0422563547e+01   2.5325543170e+01    0.4062885    0.2841615 -39.13  0.001856174    1.536    0.349
       286  -9.6095     67.9576    153.8222   1.0842665887e+02   3.5149680849e+01    0.4322406    0.2620521  73.97  0.001213523    2.037    0.509
       287  -7.9873    232.7549    153.9328   7.0382572406e+01   4.0443685162e+00    0.2135756     0.150965 -56.57 0.0007607635    1.904    0.475
       288  -8.9101    152.0374    152.3208   8.6740471233e+01   2.0643227711e+01    0.4083577     0.213752 -41.27  0.001337453    2.003    0.501
       289  -8.4312      8.7754    153.3968   1.2324645036e+02   4.1495684602e+01    0.1364753    0.1188195  -0.27 0.0009513772    1.643    0.391
       290  -8.2579    182.4812    151.4471   7.9659372912e+01   1.4481247768e+01    0.2625045     0.139927 -52.74 0.0007284294    2.249    0.555
       291  -8.7394     98.5120    150.8588   9.9898742011e+01   3.1186797867e+01     0.334119    0.2236295 -89.06  0.001154738    1.954    0.488
       292  -9.7349     29.2503    150.7095   1.1797785503e+02   4.0376461501e+01    0.4851733    0.2166899  70.43  0.001990668    3.023    0.669
       293  -8.6298     19.9071    152.6265   1.2049699937e+02   4.0768983773e+01    0.1661774   0.09699602  48.12 0.0006963021    1.748    0.428
       294  -8.7486      2.8812    150.8897   1.2443417073e+02   4.2508642235e+01    0.2713552    0.1224966  85.40  0.001118414    2.082    0.520
       295  -9.5916    248.8911    149.4328   6.6671749911e+01   1.8789483267e+00    0.3617306     0.174344 -35.06 0.0007397459    1.832    0.454
       296  -8.8574    189.4869    150.4558   7.7948593646e+01   1.3218007782e+01     0.302452    0.2326912 -65.17 0.0007420802    1.685    0.407
       297  -8.3297    162.4867    150.5333   8.3905447404e+01   1.8856061510e+01    0.2548094     0.146265 -55.83 0.0006558794    2.059    0.514
       298  -8.7632    243.0880    149.9095   6.7733229086e+01   2.8310213316e+00    0.2465262    0.1738143 -33.60  0.000835984    1.274    0.215
       299  -8.4180    212.9740    149.9755   7.3138259769e+01   8.5246078718e+00    0.2197847    0.2017409 -23.23 0.0004602689    1.056    0.053
       300  -9.9296     39.7205    147.5601   1.1491998104e+02   4.0086341374e+01    0.5974572    0.3052141  72.60  0.002216101    2.519    0.603
       301  -8.4431    198.8216    149.0352   7.5705914517e+01   1.1561048869e+01    0.2197388     0.198848 -66.82 0.0006148752    1.314    0.239
       302  -9.9184     89.1444    146.1748   1.0151077362e+02   3.3863787048e+01    0.6776594    0.3808796  88.86  0.002387879    3.267    0.694
       303  -8.6941    233.4820    147.5509   6.8857554498e+01   4.9848379953e+00     0.288248    0.1267855 -36.15 0.0008072453    2.080    0.519
       304  -9.9647    139.5862    145.5177   8.8255809106e+01   2.4702924452e+01    0.6075266    0.3885919  79.61  0.001165101    2.919    0.657
       305 -10.2829    106.6683    144.2018   9.6440346345e+01   3.1359591356e+01    0.8024492    0.5103835 -89.50  0.002165216    2.476    0.596
       306  -8.9176     78.2087    147.1442   1.0462291217e+02   3.5316679904e+01     0.323559    0.1978377  79.27    0.0011337    2.259    0.557
       307  -9.2103     57.0477    135.5126   1.0846907641e+02   4.1056363083e+01    0.3439937    0.2276764   1.68  0.001604986    2.449    0.592
       308 -10.2686     54.9263    144.9419   1.1053179103e+02   3.9000395607e+01     0.821112    0.3887394  71.21  0.002835664    3.871    0.742
       309  -8.6800     51.4771    138.4731   1.1049129291e+02   4.0998369232e+01    0.2469581    0.1935327 -48.42 0.0009254668    1.340    0.254
       310  -8.2735    223.2902    146.9750   7.0543571185e+01   7.0302622127e+00    0.2022375    0.1712842 -28.55 0.0004407229    1.093    0.085
       311 -10.2962    148.9434    144.8971   8.5829587182e+01   2.2907832271e+01    0.6129436    0.4059232 -79.16  0.001567337    2.542    0.607
       312  -8.8938    150.7070    136.4179   8.3438919747e+01   2.4400897831e+01    0.4976806    0.3082504  13.43  0.001707228    3.087    0.676
       313  -9.4527     13.4020    146.0821   1.2146584481e+02   4.2846225981e+01    0.3368803    0.1875613  74.62  0.001322068    1.797    0.443
       314  -7.8474    206.7664    146.3907   7.3527157399e+01   1.0429242291e+01    0.1969394    0.1778374 -36.17 0.0006979366    1.112    0.101
       315  -8.3065    175.4271    146.2767   8.0021563328e+01   1.7009818681e+01    0.2461898    0.1908121  70.44  0.000761349    1.657    0.396
       316  -8.8844    240.4681    145.4631   6.7203106440e+01   4.0381659996e+00    0.2218229    0.1876063 -22.32 0.0006352865    1.039    0.038
       317  -9.1161    242.6853    143.3274   6.6364168842e+01   3.9847665347e+00    0.4710431    0.1947124 -26.95  0.001738806    2.844    0.648
       318  -8.8944    165.5306    144.2568   8.1781854310e+01   1.9537830323e+01    0.2966861      0.25108  76.78 0.0006166454    1.424    0.298
       319  -9.9322    125.2345    142.8584   9.1294170055e+01   2.8186809197e+01    0.5955662    0.3931657 -88.27  0.001524277    2.490    0.598
       320 -10.8031     69.1442    139.7967   1.0582070517e+02   3.8417476500e+01     1.013058    0.3909946 -60.49  0.003387215    2.325    0.570
       321  -8.8864    246.9919    143.8548   6.5773159593e+01   3.1169316977e+00     0.239914    0.1705477 -31.98 0.0005737514    1.237    0.191
       322  -7.7600    194.3804    144.1470   7.5491918576e+01   1.3419523945e+01    0.2094943    0.1357356 -50.65 0.0004047237    1.698    0.411
       323  -9.4292      2.7421    141.7012   1.2370845131e+02   4.4645749649e+01    0.3875948    0.1638703  71.80  0.001506773    2.739    0.635
       324  -7.6331    230.5198    142.5182   6.8255332486e+01   6.4055817152e+00    0.1428057    0.1267322 -16.40 3.078124e-05    1.019    0.019
       325  -8.3457    182.0890    141.7782   7.7525441930e+01   1.6499075183e+01     0.259995     0.203888 -52.84 0.0005505026    1.373    0.272
       326  -8.2096    250.4857    140.9955   6.4588685443e+01   2.9543721787e+00    0.2055187    0.1179484 -35.76 0.0005029218    1.525    0.344
       327  -9.9534     23.5767    138.3489   1.1803577056e+02   4.3851960091e+01     0.508747    0.2409125  67.09  0.002140454    2.678    0.627
       328  -8.5747    172.0826    138.3272   7.8909728484e+01   1.9366362807e+01    0.2681884     0.213055 -69.61 0.0005769384    1.560    0.359
       329  -7.8965    218.5188    138.5382   6.9502211259e+01   9.4728461850e+00    0.1450193    0.1341858 -23.48 4.311099e-05    1.035    0.034
       330  -8.3804    207.5011    138.0874   7.1471484916e+01   1.1818952741e+01    0.2274784    0.2042044 -64.92 0.0008216675    1.300    0.231
       331  -8.5762    197.5161    137.5801   7.3321449231e+01   1.4020694916e+01     0.282513    0.2313071 -56.84 0.0007775933    1.375    0.273
       332  -7.9254     80.3332    138.2868   1.0244300425e+02   3.7166712680e+01    0.1417221    0.1114286 -25.97 0.0004335912    1.623    0.384
       333  -9.3997     39.0790    136.1421   1.1356584406e+02   4.2929585926e+01    0.2968674    0.1869179 -87.58 0.0007239939    1.582    0.368
       334  -8.9454    248.2977    135.3546   6.3698319558e+01   4.2664239124e+00    0.2751861    0.1955067 -40.23 0.0007851464    1.304    0.233
       335  -8.4242    246.8672    130.3016   6.2802204056e+01   5.3603353276e+00    0.2418551    0.1630132 -41.16 0.0007402126    1.366    0.268
       336  -8.1900    162.6017    136.3802   8.0608081167e+01   2.1838762041e+01    0.2258972    0.1851445 -85.25  0.000670518    1.553    0.356
       337 -10.3393    132.9510    132.0029   8.6828702529e+01   2.9136609469e+01     0.720679    0.4835392  89.09  0.001703016    2.565    0.610
       338 -10.3613     83.4161    132.9347   1.0054011686e+02   3.8004756147e+01    0.5770964    0.3411141 -72.91  0.001430239    1.956    0.489
       339  -7.7180    237.5771    133.7926   6.5087845177e+01   6.5379260900e+00    0.1995593    0.1192632 -44.73 0.0007513028    1.650    0.394
       340  -7.7254    231.4779    134.4100   6.6256931770e+01   7.6164191279e+00    0.1408312    0.1280072 -21.47 2.658071e-05    1.019    0.019
       341  -8.4666    179.5244    134.0338   7.6240250242e+01   1.8620975735e+01    0.2638772    0.2088097 -73.89 0.0008159821    1.642    0.391
       342  -9.0292    112.6530    133.1547   9.2466052830e+01   3.2891716464e+01    0.3229133    0.2437554 -86.80 0.0007833195    1.663    0.399
       343  -9.3798    143.0070    131.8477   8.4240277993e+01   2.7059955888e+01    0.3435833    0.2637449 -71.07  0.000724944    1.574    0.365
       344 -10.5138     98.1067    129.6651   9.5706199665e+01   3.6372845836e+01    0.9313833    0.2957082 -54.26  0.002588512    3.017    0.669
       345  -8.8672    250.7276    130.1750   6.2173053021e+01   4.6654628812e+00    0.4137024    0.1118929 -33.23  0.001310174    3.655    0.726
       346  -9.5007    152.8967    129.0465   8.1127736596e+01   2.5540610834e+01    0.4880943    0.2754668 -57.60 0.0009400118    2.166    0.538
       347 -10.3354     12.6586    128.7755   1.1986916599e+02   4.7003983782e+01     0.581407    0.2751365  82.99  0.002448259    2.430    0.589
       348  -8.3090      1.9488    130.7623   1.2292423330e+02   4.7251215149e+01    0.2001793    0.1054323  60.25  0.001083266    2.050    0.512
       349  -7.7809    220.5940    129.8235   6.7103145836e+01   1.0611045981e+01    0.2040325     0.127766 -45.72 0.0007169752    1.595    0.373
       350  -8.0589    204.4939    130.5105   7.0263199979e+01   1.3872467183e+01    0.1496045    0.1417968 -31.04 0.0008102275    1.041    0.039
       351  -7.8896    192.8145    130.5384   7.2593167701e+01   1.6399410050e+01    0.2030156    0.1496494  62.25 0.0006115832    1.612    0.380
       352  -9.2733    168.2965    129.4935   7.7627544339e+01   2.2040582197e+01    0.3177161    0.2542324 -72.53 0.0007353568    1.548    0.354
       353  -8.7276    161.4040    130.1754   7.9383940177e+01   2.3424644698e+01    0.2272423    0.1469551 -53.79 0.0009477127    1.683    0.406
       354  -9.9306     72.9118    129.0910   1.0278775711e+02   4.0523348524e+01    0.4326508     0.292362  82.05   0.00139532    1.904    0.475
       355  -8.0462    211.4401    129.1691   6.8622323672e+01   1.2641843454e+01    0.2155989    0.1305402 -49.16  0.000763947    1.763    0.433
       356 -10.6768     45.1351    124.0438   1.0999541442e+02   4.5257845105e+01     1.039532    0.5199872  75.09  0.003760629    3.712    0.731
       357  -9.9788    118.2397    125.3538   8.9135308487e+01   3.3652670512e+01    0.6656459    0.4262117  74.36  0.001703325    2.598    0.615
       358 -10.3532     59.9472    125.0356   1.0580484001e+02   4.3275803224e+01    0.7296621    0.4176059  79.80  0.002500579    2.785    0.641
       359  -8.6948     58.7801    115.7017   1.0436443004e+02   4.5715601632e+01    0.3569139    0.2133353 -22.73  0.001495526    2.703    0.630
       360  -8.9078    179.3317    124.8160   7.4019232008e+01   2.0532699273e+01    0.2827708    0.2403744 -89.49  0.000704387    1.446    0.308
       361  -8.8876    144.9005    124.9808   8.2081734465e+01   2.8180956545e+01    0.2345211     0.229854 -81.91 0.0005104416    1.039    0.038
       362 -10.3259     28.2529    122.1992   1.1464926388e+02   4.7351396477e+01    0.7209574    0.3376137  79.40     0.002746    3.514    0.715
       363  -9.1619    201.5293    122.8878   6.8991952382e+01   1.5955386145e+01    0.3633699    0.2694316  25.63 0.0007168772    1.581    0.367
       364  -8.7467     84.8373    122.8144   9.8017168122e+01   4.0254510856e+01    0.4535341    0.2844244   4.39  0.001733123    3.009    0.668
       365  -7.8523    188.5797    123.8284   7.1817932801e+01   1.8652149369e+01    0.2143957    0.1409782 -50.49 0.0004290178    1.610    0.379
       366  -8.5310    172.0583    121.6459   7.4817151733e+01   2.2824468748e+01    0.2628699    0.2115853 -54.90 0.0005289665    1.313    0.238
       367  -9.4111    158.3186    121.2587   7.7875513480e+01   2.6016328310e+01    0.3781115    0.2664465 -65.06  0.001078723    1.787    0.440
       368 -10.3755    130.8982    118.2408   8.3970626763e+01   3.2700770379e+01    0.6477549    0.4430889 -69.71  0.002061067    1.930    0.482
       369 -10.3623    133.5397    109.2095   8.0899326671e+01   3.4152520995e+01    0.7185069    0.3360777 -50.37  0.002308344    2.238    0.553
       370  -9.8280    141.5933    118.6489   8.1305993338e+01   3.0305001124e+01    0.4537858    0.3097979 -68.40  0.001207371    1.950    0.487
       371  -8.6805    120.8312    119.0005   8.6867955579e+01   3.4612434465e+01     0.344294     0.169043  25.80  0.001041761    3.676    0.728
       372  -9.8165      2.9764    117.2397   1.2127056052e+02   5.0365068507e+01    0.5125703    0.2446382  75.64   0.00244951    2.518    0.603
       373  -7.7711    231.4841    117.4982   6.2340970108e+01   1.0537620195e+01    0.1444233    0.1296017 -38.21 0.0004329169    1.051    0.048
       374  -9.9535    109.3570    114.2420   8.8869467625e+01   3.7984759650e+01    0.5967083    0.3817144 -74.95  0.001584919    2.346    0.574
       375  -9.2120    109.3799    108.0202   8.7255212130e+01   3.9423478142e+01    0.4061341    0.2627431   9.13   0.00151527    2.723    0.633
       376  -8.3599    185.5424    115.9746   7.0468541812e+01   2.0886245576e+01    0.2391001    0.1482775 -41.69 0.0005881425    1.562    0.360
       377  -7.9404    249.9994    115.4243   5.8981638844e+01   7.2100758495e+00    0.1895792    0.1367114  50.62  0.001021499    1.593    0.372
       378  -8.0431    192.9988    115.2908   6.8776907002e+01   1.9316194650e+01    0.2076676    0.2019244 -40.19  0.000455537    1.028    0.027
       379  -7.7576    153.3050    115.6596   7.7625876755e+01   2.8345139729e+01    0.1626952    0.1270077 -81.19  0.000704088    1.680    0.405
       380 -10.1005     92.8660    112.7836   9.3322849116e+01   4.1340755886e+01    0.5446566    0.3663397 -75.13  0.001377008    1.916    0.478
       381  -8.9382     92.8534    104.9926   9.1370761633e+01   4.3183571806e+01    0.3783368    0.2428064 -17.62  0.001492147    2.505    0.601
       382 -10.0192     79.0050    112.6101   9.7476873153e+01   4.3645135188e+01    0.6222594    0.3985281 -84.15  0.002036202    2.295    0.564
       383  -8.7324     78.3188    105.3525   9.5968692909e+01   4.5491488991e+01    0.3117204    0.2157529  -7.56 0.0009394567    2.157    0.536
       384  -7.7649    167.4130    114.4835   7.4014833001e+01   2.5363390663e+01    0.1566809    0.1515911 -43.26 0.0001370157    1.022    0.022
       385 -10.0845    121.7557    112.1920   8.4866542867e+01   3.5985192800e+01    0.5303658    0.3524072 -61.42  0.001168299    1.726    0.421
       386 -10.4159    119.2684    105.4690   8.3760121788e+01   3.8019087900e+01    0.6633579    0.5044705  83.64  0.002946331    1.819    0.450
       387 -10.3872    108.9060     98.7675   8.4878749377e+01   4.1618650938e+01    0.6414459     0.548388 -73.41  0.001660107    1.331    0.249
       388  -8.9273    107.3966     92.7985   8.3623990589e+01   4.3240409940e+01    0.4440574    0.3292516  14.84  0.001945645    1.706    0.414
       389  -8.6297     26.9918    113.5421   1.1373801030e+02   4.9555000627e+01    0.1641601    0.1307304  21.78 0.0008128536    1.543    0.352
       390 -10.1803     14.5106    111.5412   1.1721672367e+02   5.0985177256e+01    0.4273781    0.2302304  65.93  0.001601867    2.361    0.576
       391 -10.2893    248.3416    108.0409   5.7546950454e+01   8.7378693069e+00    0.3826836    0.3440769 -49.91  0.002318285    1.119    0.106
       392  -8.2698    174.8289    112.0818   7.1738818002e+01   2.4134624104e+01    0.2417997    0.2065736 -64.44 0.0005432611    1.286    0.222
       393  -8.4733    159.2423    111.8261   7.5198384821e+01   2.7799951145e+01    0.2874764    0.2311832 -71.58  0.000508173    1.492    0.330
       394  -9.9930     66.1461    110.4593   1.0097956277e+02   4.6030266349e+01    0.4102473    0.2918379 -86.64  0.001371879    1.727    0.421
       395  -9.0075     66.9943    105.5096   9.9599271640e+01   4.7108769612e+01     0.262123    0.1918945   3.78  0.001238517    1.810    0.447
       396  -9.3282     42.8461    109.6261   1.0815586662e+02   4.9022319137e+01    0.3235662     0.178679  10.89  0.001464385    2.670    0.626
       397  -8.1853    189.2496    108.2122   6.7711721618e+01   2.1539520267e+01     0.214542    0.1763373 -64.52 0.0005390225    1.364    0.267
       398  -9.1850    139.9316    104.7820   7.8029372186e+01   3.3701644689e+01    0.3886807    0.2836895 -79.37 0.0008064107    1.964    0.491
       399 -10.5709     45.6332    102.4227   1.0584972301e+02   5.0468784605e+01    0.7446139    0.4234794  72.70  0.003028106    3.100    0.677
       400 -10.6671     22.9166    102.6990   1.1328217748e+02   5.2484913383e+01    0.7116232    0.3796234  74.08  0.002880062    2.839    0.648
       401  -8.4348    166.6587    104.3207   7.1475671634e+01   2.7611656266e+01    0.2825631    0.1800839 -49.42 0.0005946211    1.624    0.384
       402  -9.5426    150.5536    103.1844   7.4932273554e+01   3.1615161817e+01    0.5014635    0.3020926 -59.31  0.001157481    2.124    0.529
       403  -9.0801    249.8743    102.8842   5.6150953671e+01   9.2742320557e+00    0.2734171    0.1649058 -39.97  0.001359868    1.432    0.301
       404  -9.1966      6.6440    102.8611   1.1844020614e+02   5.3535480247e+01    0.2800252    0.1705015  61.40   0.00122713    1.972    0.493
       405  -7.8256    175.4494    102.2444   6.8987736800e+01   2.5942968562e+01    0.2184086     0.144621 -50.53 0.0005300543    1.576    0.366
       406  -8.0728    246.6641    101.6961   5.6332427843e+01   1.0105778215e+01     0.136155    0.1055994   5.69 0.0007038519    1.666    0.400
       407  -8.5370    159.7710    100.9818   7.2131524693e+01   2.9912149396e+01    0.2949909    0.2129087 -57.18 0.0007364703    1.542    0.352
       408  -9.3146     81.9505     99.7850   9.3418759280e+01   4.6232891614e+01    0.3944857    0.2676963 -77.51  0.001022129    2.026    0.506
       409  -9.6085     95.0715     96.8195   8.8505032037e+01   4.4676559606e+01    0.4265612    0.2449903 -58.28 0.0006940489    1.912    0.477
       410 -10.1392     63.7385     95.7199   9.8329285051e+01   4.9879413864e+01    0.5644548    0.3656613  87.01  0.001726557    2.618    0.618
       411  -9.4881     71.3199    120.2876   1.0148895538e+02   4.2913442002e+01    0.4000621    0.2640141  71.45  0.001248959    2.056    0.514
       412  -8.7528    150.8849     95.6819   7.2743474038e+01   3.3082558291e+01    0.2589788    0.1994189  25.84  0.001170003    1.517    0.341
       413 -10.0064    128.3412    102.1812   8.0357991819e+01   3.6825936708e+01    0.3357873    0.2896353 -82.06 0.0007938173    1.356    0.263
       414  -8.1179    176.5015     93.4142   6.6354636845e+01   2.7394382765e+01    0.3130043    0.2072441 -56.81 0.0008449138    1.732    0.423
       415  -8.2790    164.8651     94.1383   6.9062254810e+01   3.0060930363e+01    0.2421523    0.2093827 -68.39  0.000450571    1.268    0.212
       416 -10.6067    123.9806     91.2857   7.8420723721e+01   4.0113905899e+01    0.5704612    0.4847571  11.29  0.001322266    1.336    0.251
       417  -9.2870    138.9574     92.3635   7.4751098883e+01   3.6535779809e+01    0.3765238     0.280934 -84.72 0.0008982744    1.923    0.480
       418  -8.7818     46.3827     92.4174   1.0343386689e+02   5.2767351174e+01    0.3602239    0.2170631  15.17  0.001774267    2.117    0.528
       419  -9.5310      5.4035     92.4413   1.1736483438e+02   5.6036500039e+01    0.3260171    0.1887255  60.78  0.001380784    2.241    0.554
       420  -7.9237    157.6422     91.7843   7.0032495626e+01   3.2256587046e+01    0.2231245    0.1424227 -48.39 0.0004034045    1.615    0.381
       421  -9.6762     34.8860     90.0829   1.0690184786e+02   5.4467724162e+01    0.4407595    0.2562729 -86.71  0.001546331    2.448    0.592
       422  -9.1843     23.0245     90.2659   1.1105208512e+02   5.5414707083e+01    0.2905984    0.2248557   2.32   0.00128002    1.585    0.369
       423  -8.0898    150.8955     89.1523   7.0856100192e+01   3.4387122415e+01    0.2425738    0.2098086 -69.58  0.000556982    1.289    0.224
       424 -10.1162     86.4475     86.0124   8.8168451286e+01   4.8619077299e+01    0.6325161    0.4163376 -60.28  0.001700535    1.716    0.417
       425  -8.7489     64.7161     87.8033   9.5966316661e+01   5.1583067450e+01    0.3852503    0.2087701  12.72  0.001513036    2.997    0.666
       426  -9.8773     48.5099     84.3136   1.0074770638e+02   5.4414153249e+01    0.4872282    0.3242524  79.46  0.001873132    2.507    0.601
       427  -9.7788    104.6574     83.0991   8.1551095299e+01   4.5869425936e+01    0.4617898    0.3443426 -79.57  0.001139459    1.995    0.499
       428  -8.6233    105.2415     77.1724   7.9518914649e+01   4.6978602222e+01    0.3477718    0.2316115   4.52  0.001401626    2.358    0.576
       429  -8.4207    158.0378     84.0235   6.7690290818e+01   3.3660104160e+01     0.243924      0.18817 -71.89 0.0004136053    1.603    0.376
       430  -9.0540    140.9210     83.0986   7.1496229614e+01   3.7937390128e+01    0.3538793    0.2119291 -50.96 0.0006505651    1.834    0.455
       431  -7.6508    185.4448     82.5085   6.1555406189e+01   2.7222844656e+01    0.1527556    0.1465857 -57.55 0.0001087526    1.012    0.012
       432  -8.1667     35.5019     82.4627   1.0498957657e+02   5.6177993539e+01    0.1329318    0.1095357 -48.63 7.984383e-05    1.026    0.025
       433  -9.5674     24.6015     80.5485   1.0853633024e+02   5.7543177594e+01    0.4124213    0.2417238 -88.29  0.001347307    2.424    0.587
       434  -9.6345      9.7427     80.9915   1.1400340655e+02   5.8433289590e+01    0.3118984    0.1880832  64.12  0.001290422    2.337    0.572
       435  -8.4609    150.2610     80.6097   6.8473539254e+01   3.6190017883e+01    0.2905012    0.1805451 -48.34 0.0006389389    1.690    0.408
       436  -9.5631    119.2534     80.1093   7.6342535019e+01   4.3445610514e+01    0.4088387    0.2555013 -54.32 0.0009990617    1.847    0.459
       437  -8.8532     74.4663     80.3214   9.0502129471e+01   5.1831368874e+01    0.3304187    0.2194795 -64.65  0.001009414    1.835    0.455
       438  -8.1233    166.8221     79.8036   6.4528680801e+01   3.2292546717e+01    0.2100091    0.1773991 -64.54 0.0003674712    1.279    0.218
       439  -7.6344    174.7126     78.3332   6.2476022512e+01   3.0607592692e+01    0.1593322    0.1179975 -68.29  0.000433639    1.624    0.384
       440  -9.2018    128.1641     75.5946   7.2470404654e+01   4.2347425286e+01    0.3276651    0.2495846 -56.71 0.0007403547    1.487    0.328
       441  -9.8629     63.5023     74.0005   9.2485571755e+01   5.4824027682e+01    0.6169728     0.296096 -61.96  0.002371354    2.818    0.645
       442  -8.8465     63.7748     64.5097   8.9406446243e+01   5.6781014695e+01    0.5674311    0.2687316 -26.60  0.002039354    3.308    0.698
       443  -7.7745    156.9935     76.6844   6.5746782358e+01   3.5279735398e+01    0.1905076    0.1418713  53.37 0.0007322136    1.341    0.254
       444  -8.3752    140.4432     75.4487   6.9265436653e+01   3.9513152350e+01    0.2619026    0.2057994 -75.63 0.0005834675    1.631    0.387
       445  -8.2800    203.0241     74.7616   5.6339897386e+01   2.4277835702e+01    0.2162921    0.1672158  -7.94  0.001036135    1.645    0.392
       446  -9.0447    115.6806     72.6069   7.4963768622e+01   4.5698788645e+01    0.4282477    0.1849671 -44.05  0.001229192    2.336    0.572
       447  -9.6017     82.4599     72.7584   8.5432615991e+01   5.2140190138e+01    0.4481677    0.2845113 -59.08  0.001271517    1.919    0.479
       448  -8.1545    163.4438     73.2453   6.3312930392e+01   3.4303902776e+01    0.2170787    0.1413214 -48.06 0.0006467276    1.595    0.373
       449  -8.2858    151.5078     73.0995   6.5900876522e+01   3.7273726716e+01    0.2377577    0.1522122 -36.97 0.0007099577    1.566    0.362
       450  -9.1442    105.8778     72.0139   7.7658001322e+01   4.7879889204e+01    0.3465497    0.2030059 -51.89 0.0008045909    1.937    0.484
       451  -9.4428     95.1627     70.2938   8.0430879172e+01   5.0340917859e+01    0.7182049    0.2571361 -45.27   0.00190597    2.761    0.638
       452  -8.3564     42.6967     72.7369   9.9863399205e+01   5.7654593937e+01    0.2525236    0.1535989 -76.93  0.000821058    2.443    0.591
       453  -9.0226     28.8989     70.8298   1.0466700506e+02   5.9386346866e+01    0.5046706    0.2140425 -24.09  0.001808239    4.276    0.766
       454  -7.9439    175.4417     72.5319   6.0662352088e+01   3.1441157880e+01    0.1509459    0.1477198 -68.54 8.264838e-05    1.008    0.008
       455  -9.5409     51.5033     69.7717   9.5673292822e+01   5.7301518318e+01    0.4636479    0.2617795 -69.61  0.001558033    2.671    0.626
       456  -9.0934     16.6513     70.3119   1.0929201930e+02   6.0418413915e+01    0.2581497    0.1837922 -81.99  0.001328094    1.595    0.373
       457  -7.8429    156.9911     69.9573   6.3710959246e+01   3.6481334662e+01    0.1875489    0.1744654 -37.24 0.0004766399    1.083    0.077
       458  -8.9372    147.1004     68.1330   6.5376384379e+01   3.9234514887e+01    0.3751864    0.2051793 -39.87 0.0006312374    1.830    0.453
       459  -8.5967    138.4315     66.1924   6.6827491976e+01   4.1673466380e+01    0.2930663    0.2246515 -69.53 0.0008018588    1.663    0.399
       460  -8.6610    121.8752     66.2916   7.1149033895e+01   4.5513734651e+01    0.3363167    0.2021953 -51.95  0.001026886    1.967    0.492
       461  -7.5443    178.0092     65.4886   5.8135828770e+01   3.1981969458e+01    0.2125302    0.1190296  36.58 0.0007583577    2.337    0.572
       462  -8.8354     37.3324     64.4542   9.9636968440e+01   6.0003317218e+01    0.2530323    0.1949129  71.10 0.0009993658    1.973    0.493
       463  -9.0592    110.0864     63.7251   7.3624612911e+01   4.8572203432e+01    0.2894284     0.234683 -58.81  0.000716737    1.464    0.317
       464  -7.9030    158.4381     61.9575   6.0943992694e+01   3.7478588408e+01    0.2221891    0.1470345 -37.62 0.0003699314    1.520    0.342
       465  -9.1327     97.6501     60.6464   7.6348731653e+01   5.1701749901e+01    0.2922593     0.244669  51.00  0.001024694    1.318    0.241
       466  -9.4938     73.3401     59.7060   8.4263874264e+01   5.6274982019e+01    0.4934043    0.2609535 -41.37  0.002248995    1.756    0.430
       467  -8.2229     73.5170     53.4436   8.1962449806e+01   5.7429256529e+01    0.4663029    0.2264253 -22.07  0.001640402    3.439    0.709
       468  -7.9689    164.3087     60.3125   5.9238159084e+01   3.6272233405e+01    0.1538599    0.1172214  22.85 0.0003957665    1.625    0.384
       469  -8.0521    147.0000     59.0920   6.2526700450e+01   4.0794158743e+01    0.2429186    0.0865071 -34.06 0.0006103246    2.869    0.651
       470  -7.9892     88.8587     59.3645   7.8750404029e+01   5.3632586629e+01    0.1970872    0.1736905 -41.38 0.0006871256    1.185    0.156
       471  -9.8481     23.4041     56.4537   1.0307634261e+02   6.2932002922e+01    0.4199159    0.2710231 -87.57  0.002096003    2.679    0.627
       472  -8.2765    130.9300     57.9769   6.5985756028e+01   4.4869561398e+01    0.2348452    0.1816095 -68.71  0.000612452    1.667    0.400
       473  -9.4870      7.2887     57.1233   1.1003896338e+02   6.3844294955e+01    0.2691524    0.1824878 -83.20 0.0009330598    1.788    0.441
       474  -9.1599    119.1443     55.4244   6.8193362334e+01   4.8029242500e+01    0.4403723    0.2111947 -45.70  0.001556621    2.345    0.573
       475  -8.2402    140.0382     56.0657   6.3138732641e+01   4.2994152704e+01    0.2382862    0.1795942 -67.58 0.0006027102    1.682    0.405
       476  -9.3824     54.0694     55.0962   8.9974128671e+01   6.0002757301e+01    0.3315887    0.2361925 -66.84  0.001121801    1.997    0.499
       477  -8.7417     44.0633     55.3845   9.4113991476e+01   6.1172076403e+01    0.2744622    0.1683068 -57.50  0.001088866    1.747    0.428
       478  -8.3563    105.9680     53.5048   7.1255237963e+01   5.1249910445e+01    0.2636493    0.1988978 -52.70 0.0007542695    1.570    0.363
       479  -9.4435     92.5045     50.7852   7.4436295695e+01   5.4464617682e+01    0.3876736     0.244551 -52.43 0.0009941719    2.019    0.505
       480  -8.2202    144.6299     48.8309   5.9712202762e+01   4.2991825440e+01    0.2104662    0.1320319 -43.51 0.0006653239    1.682    0.405
       481  -8.2163    129.9657     49.0102   6.3168503265e+01   4.6536836268e+01    0.2292549     0.178365 -69.93 0.0006077384    1.664    0.399
       482  -8.5991    120.9399     47.6796   6.4986188168e+01   4.8862495185e+01    0.2370963    0.2031091 -26.63 0.0004796273    1.189    0.159
       483  -8.1601    112.2811     47.0513   6.7096679447e+01   5.0925009331e+01    0.2014698    0.1800121 -32.00 0.0005464547    1.160    0.138
       484  -8.7429     82.0250     46.5260   7.6337574214e+01   5.7170157259e+01    0.2407039    0.1868205 -48.49 0.0006142791    1.496    0.331
       485  -8.4390     45.0205     44.8188   9.0021466770e+01   6.3109226635e+01    0.2235392    0.1605574 -40.26 0.0006242235    1.240    0.193
       486  -8.9712     16.7982     44.8836   1.0256557802e+02   6.5791810403e+01    0.2035135    0.1535044 -70.64 0.0007048509    1.611    0.379
       487  -8.8388    132.9969     43.7006   6.0606858323e+01   4.6600819141e+01    0.2592101    0.1947415 -59.54 0.0006114535    1.623    0.384
       488  -8.8526     58.4074     42.8776   8.3742271107e+01   6.1679013252e+01    0.2980556    0.2039564 -48.59  0.001030667    1.620    0.383
       489  -8.7197     93.0318     42.2730   7.1033232122e+01   5.5750342745e+01     0.256069    0.1963851 -15.01  0.000632961    1.311    0.237
       490  -9.2274     69.5632     41.5778   7.8896001122e+01   6.0167826274e+01    0.3404309    0.2309578 -53.65  0.001049378    1.970    0.492
       491  -9.3803      5.2777     42.2397   1.0708762591e+02   6.7031455694e+01    0.2757173    0.1851467 -78.34  0.001404151    1.920    0.479
       492  -8.4886    105.9759     41.4593   6.6804036585e+01   5.3165896158e+01    0.2558041    0.1899931 -46.88 0.0006150522    1.552    0.356
       493  -7.4043    140.3029     41.6224   5.8247837392e+01   4.5109523750e+01    0.1531978    0.1107115 -65.72  0.000702684    1.769    0.435
       494  -8.5073     36.8941     40.8217   9.2075475588e+01   6.4781572451e+01    0.2115689    0.1692956 -49.03 0.0004463375    1.350    0.259
       495  -8.4068     95.4437     38.1815   6.8678670401e+01   5.5881647634e+01    0.2445067     0.198669 -56.88  0.001317725    1.607    0.378
       496  -8.0033     80.8024     36.8293   7.2925292805e+01   5.8952840631e+01    0.1735454     0.159979 -46.12 0.0003959437    1.341    0.254
       497  -9.2990     26.0107     35.4415   9.5063661508e+01   6.6860573578e+01    0.2729184    0.2070865 -59.40 0.0008584689    1.619    0.382
       498  -7.6549    133.4023     36.1638   5.7891371103e+01   4.7549421741e+01    0.1978389      0.13024 -41.82 0.0007919793    1.639    0.390
       499  -8.0322    125.9708     35.6995   5.9437025804e+01   4.9404484239e+01    0.1991733     0.172084  49.01 0.0002601735    1.091    0.083
       500  -8.5736    111.7822     34.8437   6.2689271199e+01   5.2820206985e+01    0.2531689    0.1852828 -49.39 0.0007126907    1.642    0.391
       501  -8.2873    119.2980     33.4505   6.0234363715e+01   5.1278376310e+01    0.2272445    0.1616892 -50.59 0.0004058009    1.695    0.410
       502  -7.5235    104.3289     34.6612   6.4668544043e+01   5.4500685791e+01    0.1377433    0.1116464 -70.55 0.0007051812    1.735    0.424
       503  -7.8142     88.7777     34.5714   6.9342783548e+01   5.7755773024e+01    0.1770296    0.1306128  56.38 0.0006295223    1.588    0.370
       504  -8.9189     48.4419     33.1089   8.3939041347e+01   6.4739467194e+01    0.2673967    0.1840849 -37.39 0.0008515044    1.356    0.262
       505  -8.4313     60.6878     32.5700   7.8626082816e+01   6.3050887853e+01    0.1938304    0.1521365 -49.33 0.0005691649    1.636    0.389
       506  -8.4825     72.0785     31.3153   7.3734017975e+01   6.1354353844e+01    0.2131677    0.1788126 -52.04 0.0006094768    1.600    0.375
       507  -7.7567    139.2844     31.6427   5.5060922128e+01   4.6686795109e+01    0.1456666     0.107337 -63.94 0.0007019955    1.672    0.402
       508  -8.8921     12.9667     30.3853   9.9561321110e+01   6.8848279188e+01    0.2345752    0.1526392 -63.88  0.001108103    1.898    0.473
       509  -8.4621    101.7398     29.7241   6.3462496049e+01   5.5725842112e+01     0.176369    0.1647018 -78.82  0.001042136    1.350    0.260
       510  -7.6716     42.2895     29.6973   8.5207561849e+01   6.6099873123e+01    0.1058048   0.09978898 -58.38 0.0002400719    1.566    0.362
       511  -8.7731     81.5292     27.5227   6.8799761390e+01   6.0154379037e+01    0.2549998    0.1982583 -71.34 0.0007643544    2.239    0.553
       512  -8.8132      3.6760     27.7023   1.0334849279e+02   6.9930154530e+01     0.188968    0.1550603  82.47 0.0009108554    2.001    0.500
       513  -8.7485     91.6499     26.2629   6.5025680644e+01   5.8306326075e+01    0.2865723    0.2091959 -50.56 0.0008770161    1.813    0.449
       514  -7.3502    164.4744     23.3850   4.7835666813e+01   4.1315123298e+01     0.140015    0.1252684  74.81  8.63076e-05    1.029    0.029
       515  -8.1092    104.6241     23.2936   6.0102803695e+01   5.5890301030e+01    0.1971242    0.1591188 -65.70 0.0006666156    1.693    0.409
       516  -8.7958     63.5560     21.0372   7.2399010685e+01   6.4261639908e+01    0.2706277    0.1983926 -49.67 0.0009269176    1.953    0.488
       517  -8.8364     48.3370     21.9649   7.9083871262e+01   6.6494230885e+01    0.2071151    0.1833273  -7.35 0.0006034369    1.199    0.166
       518  -7.6631    120.6899     21.3386   5.5387801132e+01   5.2418928142e+01    0.1373685    0.1058502 -66.49  0.000704449    1.687    0.407
       519  -7.9682     19.5230     21.4975   9.2702328888e+01   6.9895262640e+01    0.1176176   0.09143986 -23.73 8.976363e-05    1.042    0.040
       520  -8.8205    131.9590     19.6152   5.2348900368e+01   4.9890367102e+01    0.2327247      0.19532 -31.00 0.0003764933    1.295    0.228
       521  -8.7347     74.0214     19.5179   6.7863439829e+01   6.2606403613e+01    0.2300393    0.1694309 -40.46 0.0006668976    1.633    0.388
       522  -8.0079     87.9871     17.6944   6.2506142022e+01   6.0094144593e+01    0.1810783    0.1543543  31.71 0.0004368763    1.069    0.064
       523  -7.8805     38.8751     18.5977   8.1792444226e+01   6.8261919316e+01    0.1487111    0.1084263  36.75 0.0006712633    1.648    0.393
       524  -9.1461    175.7529    247.7887   9.8410473236e+01  -1.0867876655e+00    0.2864502    0.2287113  72.61  0.001233592    1.876    0.467
       525  -7.7164      1.3656     16.6869   1.0053042175e+02   7.2041983281e+01   0.09321294   0.08667567  66.00 0.0007039001    1.764    0.433
       526  -7.9269     97.0018     15.2894   5.8885408582e+01   5.8457103149e+01    0.1820253    0.1619363  27.85 0.0004744162    1.034    0.033
       527  -7.8453      7.6703     15.3347   9.6436566246e+01   7.1869726052e+01   0.09351775   0.08962225 -86.08 0.0007052066    1.726    0.421
       528  -7.9908     17.0458     14.3150   9.0815077179e+01   7.1286477723e+01    0.1546801    0.1219302  -9.72 0.0005235771    1.119    0.106
       529  -8.0789     30.2242     16.1944   8.4837670315e+01   6.9660338555e+01    0.1475454    0.1297257 -26.56 0.0006238311    1.369    0.269
       530  -8.7237    156.0851    247.9609   1.0216379289e+02   1.9680518289e+00    0.2080474    0.1787835 -69.66 0.0006704973    1.534    0.348
       531  -8.3571    113.1327    248.6208   1.1042347476e+02   8.5096946943e+00    0.2056082    0.1274003 -81.22 0.0008717337    2.185    0.542
       532  -9.2436    243.0854    246.4185   8.6011225897e+01  -1.0758838792e+01    0.3946969    0.1745076 -23.46  0.002047672    2.485    0.598
       533  -8.8525    232.6272    247.4167   8.7978556534e+01  -9.4588423053e+00    0.1781259    0.1696779 -23.56 0.0006725784    1.649    0.393
       534 -10.1083    223.9713    244.3262   8.9018147832e+01  -7.8769470370e+00    0.4259286    0.2326968 -45.03  0.002337761    2.649    0.622
       535  -8.5676    218.4936    247.5836   9.0504203604e+01  -7.4917507947e+00    0.2042929    0.1107095 -34.74  0.001000128    2.086    0.521
       536  -8.3550    203.2609    248.6255   9.3418704128e+01  -5.3957985092e+00    0.1755956   0.09037551  29.82 0.0009526589    1.643    0.391
       537  -8.8415    132.0625    247.7293   1.0672346578e+02   5.7624223670e+00    0.1873338     0.153595  73.97 0.0005666083    1.369    0.269
       538  -8.8744    147.2775    246.3945   1.0364691246e+02   3.5936524301e+00    0.2951066    0.1993225  80.24  0.001581376    2.466    0.595
       539  -8.6609    147.2893    241.0847   1.0296304881e+02   4.4295187447e+00    0.3520146    0.2293593  74.92  0.001793389    2.543    0.607
       540  -9.1466    120.3487    245.6075   1.0872238468e+02   7.9173880495e+00    0.3325871    0.1918749  68.10  0.001706955    2.310    0.567
       541  -8.4804     67.8480    245.6627   1.1858096912e+02   1.5449804535e+01    0.2085798     0.119537  89.81  0.001241465    1.865    0.464
       542  -9.1375      9.7994    244.2982   1.2853940839e+02   2.2429879502e+01    0.2500088   0.09611633  80.19  0.001373856    2.402    0.584
