#   1 NUMBER                 Running object number                                     
#   2 MAG_AUTO               Kron-like elliptical aperture magnitude                    [mag]
#   3 X_IMAGE                Object position along x                                    [pixel]
#   4 Y_IMAGE                Object position along y                                    [pixel]
#   5 X_WORLD                Barycenter position along world x axis                     [deg]
#   6 Y_WORLD                Barycenter position along world y axis                     [deg]
#   7 A_WORLD                Profile RMS along major axis (world units)                 [deg]
#   8 B_WORLD                Profile RMS along minor axis (world units)                 [deg]
#   9 THETA_WORLD            Position angle (CCW/world-x)                               [deg]
#  10 FWHM_WORLD             FWHM assuming a gaussian core                              [deg]
#  11 ELONGATION             A_IMAGE/B_IMAGE                                           
#  12 ELLIPTICITY            1 - B_IMAGE/A_IMAGE                                       
         1 -10.0426     80.0549     19.2990   4.5663683547e+01   6.0083630740e+01     0.327667     0.265806  48.28  0.002013674    1.446    0.308
         2 -12.5733     77.0707     30.2891   5.1064328846e+01   5.9061376594e+01     1.603756    0.7336553 -41.64  0.007286621    2.270    0.559
         3 -11.5920     69.9425     11.9422   4.5848374619e+01   6.2748034093e+01    0.2832248    0.2568998 -17.29 0.0005913029    1.279    0.218
         4 -11.0777     89.6924     27.9642   4.6155096622e+01   5.7167255046e+01    0.5027562    0.3003398 -34.28  0.002582954    1.646    0.393
         5 -11.1943     62.7840     24.2994   5.3583192321e+01   6.2205374509e+01    0.7622186    0.3957184 -45.93  0.003332835    2.300    0.565
         6 -11.2051    113.5314     34.2712   4.1806727497e+01   5.1513199772e+01    0.5848569    0.4920149   2.40  0.003329734    1.161    0.139
         7 -11.6055     62.5767     16.9427   5.0582328716e+01   6.3277547868e+01    0.8333027    0.3053426  41.02 0.0004257418    2.792    0.642
         8  -9.6729     39.9040     21.2052   6.1055963618e+01   6.5689669123e+01    0.4022439    0.3108774  52.11  0.002553687    2.126    0.530
         9 -11.0206     18.6222     27.9167   7.2404786856e+01   6.6622181382e+01    0.4179543    0.2261568 -54.35  0.001025742    1.754    0.430
        10  -9.5553     15.8595      9.0356   6.6438531086e+01   6.9955589792e+01    0.2218117    0.1734636  -3.14  0.001685529    1.234    0.190
        11 -11.1302      7.1890     16.5343   7.3389140820e+01   6.9398559532e+01     0.531246    0.2862044  -4.68   0.00283015    2.172    0.540
        12 -10.8367    132.9501     21.4660   3.2530269626e+01   4.8769310691e+01    0.3845548    0.3544745  87.79  0.001236908    1.258    0.205
        13 -12.4187    105.0733     20.9439   3.9022934226e+01   5.5046062117e+01    0.3413065    0.2741317  -3.32 0.0004812406    1.204    0.169
        14 -10.6145    152.0221     18.0481   2.7578008582e+01   4.4526670471e+01    0.5373857    0.2345496 -18.94 0.0003044117    2.707    0.631
        15 -10.5543    237.8520     17.8198   1.5987708678e+01   2.3100812516e+01    0.3428636    0.2522373   4.46  0.001143812    1.922    0.480
        16 -11.0701    182.2083     18.4578   2.2803101800e+01   3.6844540508e+01    0.3919927    0.2488452  46.39  0.001470716    1.576    0.365
        17 -10.8869    175.0622     11.9906   2.1907918518e+01   3.9353157524e+01    0.6755565      0.47792  -5.08  0.003471731    1.704    0.413
        18 -10.0434     16.2812     17.2093   6.9541062609e+01   6.8623799148e+01    0.3020823    0.1965332  -5.98  0.002044721    1.562    0.360
        19  -9.8412    210.2234     13.2444   1.7749157134e+01   3.0316965541e+01    0.3466133    0.2096359  -5.59  0.001588346    2.344    0.573
        20 -10.1448    191.1054      8.8035   1.8814507970e+01   3.5593750447e+01    0.5559697    0.3010443 -38.59  0.002624545    1.883    0.469
        21 -11.1170    195.5672      3.6357   1.6839199098e+01   3.4972978601e+01    0.4443717    0.2308681  57.37   0.00026277    1.754    0.430
        22 -10.4910    211.9193      8.4151   1.6298839007e+01   3.0404921255e+01    0.3836721    0.2747959 -26.43    0.0012833    1.514    0.339
        23 -11.0483    206.9411      2.7355   1.5345291972e+01   3.2211103098e+01    0.5546919    0.2986204 -64.07  0.001291265    2.149    0.535
        24 -10.3030    145.3680     12.8827   2.7058956184e+01   4.6713012999e+01    0.4136106    0.2015921  63.41  0.001792741    1.945    0.486
        25  -9.8488    117.3097     15.2710   3.3776616773e+01   5.3057973976e+01    0.2538677    0.2239789 -10.27 0.0008768801    1.154    0.133
        26 -10.1890    243.7490     13.8658   1.4497166158e+01   2.2173327215e+01    0.2915597    0.1741492  44.90  0.001460429    2.094    0.523
        27 -10.0955    126.0471     12.3435   3.0717847889e+01   5.1380889232e+01    0.4308869    0.3006951 -51.28  0.001145374    1.831    0.454
        28  -9.9365     31.1824     12.5269   6.1068810956e+01   6.7972566359e+01     0.264334    0.2415338 -39.06  0.001257326    1.531    0.347
        29  -9.7243    200.3318     12.0289   1.8578312447e+01   3.2927258723e+01    0.3169106     0.171055 -29.83  0.001483347    1.913    0.477
        30  -9.4635     98.8909      5.8698   3.4616088020e+01   5.7995871694e+01    0.2686859    0.1481786  36.86  0.001350597    1.673    0.402
        31 -10.4875    101.6931     11.1766   3.6047488717e+01   5.6868492882e+01    0.3826281    0.2445043  47.03 0.0008613885    1.444    0.307
        32  -8.6571    103.5080      7.5152   3.4105234819e+01   5.6868091508e+01    0.1322889    0.1142351  23.74 0.0008104394    1.005    0.005
        33 -10.4003    107.7553      7.4422   3.3025034028e+01   5.5969567927e+01    0.4966647    0.1969025  47.37  0.001994871    2.173    0.540
        34  -9.4274    106.5684      3.2416   3.1634677212e+01   5.6627627109e+01    0.4186738    0.2051065  24.57  0.001805408    2.490    0.598
        35  -9.4214     96.9737     12.7551   3.7949588138e+01   5.7662894856e+01    0.2178008    0.1884053  10.03 0.0004344599    1.036    0.034
        36  -8.6038     97.4793      9.5560   3.6504058282e+01   5.7907734318e+01    0.2023221    0.1219579 -20.97 0.0002118043    1.659    0.397
        37  -9.9240     91.9596      8.8917   3.7741790904e+01   5.9084512668e+01    0.4039921    0.1915281  41.03  0.001922796    1.927    0.481
        38  -9.0350     87.8364      6.6288   3.7953470215e+01   6.0128171593e+01    0.2241318    0.1770103  -6.05  0.001052458    1.182    0.154
        39 -10.1052     55.1564      9.2042   4.9890441707e+01   6.5401264256e+01    0.3527068    0.2711611  62.84  0.002018896    2.368    0.578
        40 -12.1707    160.1384      2.0139   2.1012239245e+01   4.4076933499e+01    0.4579987    0.4063029 -51.85   0.00276532    1.243    0.195
        41 -11.4939    156.0276      3.5315   2.2129176130e+01   4.4969867282e+01    0.6279339    0.1949785  56.52 0.0002086517    2.542    0.607
        42 -11.2734    132.9967     12.7087   2.9396195842e+01   4.9714617448e+01    0.2480825    0.2389421   6.08 0.0002869528    1.104    0.094
        43 -10.0357     45.7152      5.3174   5.1751260092e+01   6.7217493074e+01    0.4083293    0.1781029 -24.06  0.002024296    2.262    0.558
        44 -10.2442      7.9093      9.1999   7.0243721190e+01   7.0546277544e+01    0.1827976    0.1298171   6.73 0.0008464297    1.482    0.325
        45 -10.8442     79.3603      4.4210   3.9501998962e+01   6.1954199015e+01     0.284697    0.1866513 -19.38 0.0008904656    1.460    0.315
        46 -11.3709     75.3310      2.0906   3.9706195586e+01   6.2925464546e+01    0.6326568    0.4425517  11.18  0.003845135    1.313    0.238
        47  -9.2257      2.4838      6.4924   7.1765813215e+01   7.1342803146e+01    0.2396614    0.1303902 -50.56  0.001210634    1.683    0.406
        48  -9.4698      4.7778      2.3405   6.8899464851e+01   7.1831832675e+01     0.280404    0.1407908 -10.70  0.001588602    2.279    0.561
        49  -9.6758    138.6641      6.8594   2.6220156936e+01   4.8933128654e+01     0.266622    0.1763506  57.47 0.0007938491    1.357    0.263
        50 -10.5377    136.0891      2.7735   2.5258492419e+01   4.9923918074e+01    0.3447728     0.271768 -67.89  0.001239666    1.590    0.371
        51  -9.6827     24.5305      6.9955   6.1570454209e+01   6.9465740288e+01    0.2128218    0.1507259 -50.51  0.000952815    1.930    0.482
        52 -10.6654     20.9593      5.6273   6.2586461824e+01   7.0009617853e+01    0.2141389    0.1915648  12.16 0.0004678656    1.481    0.325
        53  -9.1040    170.5978      6.0841   2.0754866066e+01   4.1067751675e+01      0.28491    0.1372627  50.81 0.0007245568    1.898    0.473
        54 -10.4765    237.5400      3.9421   1.2731571340e+01   2.4686504007e+01    0.4289379    0.2176402  57.88  0.001502638    1.990    0.497
        55  -9.8152    232.1093      2.8301   1.2942992098e+01   2.6078980452e+01     0.268477    0.1866663 -66.91 0.0007135135    1.373    0.271
        56 -10.0570     38.4992      4.4542   5.4299730517e+01   6.8258535333e+01    0.4024653     0.203717  -5.79  0.001822773    2.858    0.650
        57  -8.8571     42.3116      1.2645   5.1197317726e+01   6.8173826254e+01    0.1167396   0.09320744  -5.78 0.0002244653    1.082    0.076
        58 -11.0218    218.4201      3.0426   1.4263495160e+01   2.9351273742e+01    0.3290302    0.2577524  70.49 0.0007453685    1.197    0.165
        59  -9.7022    181.6833      2.4166   1.8171194921e+01   3.8599051826e+01    0.6159106    0.2969976  80.72  0.002584571    2.278    0.561
        60 -10.5501     30.4644      2.6541   5.6908037668e+01   6.9442070577e+01    0.2522773    0.2267347 -55.08  0.001840995    1.935    0.483
        61  -9.8742     14.0626      3.2155   6.4745863543e+01   7.0979506398e+01    0.3433383    0.2348539   9.97   0.00250573    1.471    0.320
        62  -9.3834     91.4834      2.2281   3.5056780796e+01   5.9852566265e+01    0.2588665    0.2063058 -76.10  0.001043634    2.053    0.513
        63  -9.9284    115.7317      2.0105   2.9057273262e+01   5.4723669823e+01    0.2184302    0.1657351  44.11 0.0003022935    1.153    0.133
        64 -10.5070    249.9159      1.6025   1.1186339659e+01   2.2088260270e+01    0.2045523    0.1502094 -89.59 0.0003761185    1.257    0.205
        65  -8.0759     50.3571      2.2881   4.8497439183e+01   6.6943131465e+01     0.123928   0.07559247   8.21 0.0007024661    1.680    0.405
        66  -9.7480     23.0854      1.3810   5.9640363201e+01   7.0400088362e+01     0.153975   0.09645929  26.87 0.0007742111    1.727    0.421
        67  -8.1520     75.9965    134.0000   7.9576302343e+01   3.8331581839e+01    0.2004522   0.07497671  36.74 0.0007945205    2.888    0.654
        68 -10.7016    201.3136    249.5301   7.2026892962e+01  -3.3307458566e+00    0.3062042    0.1884458  37.58  0.001445341    1.243    0.195
        69 -10.5651     41.4031    129.4045   8.7421856676e+01   4.3569327975e+01     0.222092    0.1868894 -80.38 0.0002227989    1.025    0.025
        70  -9.5212     33.7096    126.9452   8.8975655738e+01   4.4875216272e+01    0.2263217    0.1660527 -68.86   0.00147046    1.127    0.112
        71  -9.1495     12.7373    126.4428   9.3986879992e+01   4.6766935635e+01    0.2055818    0.1223934 -74.95 0.0005677014    1.312    0.238
        72  -9.6317    241.5083    124.1553   4.1303173787e+01   7.0628592040e+00    0.2207298    0.2004366 -63.60 0.0007817697    1.329    0.248
        73  -9.2641     38.8247    123.8299   8.7262783024e+01   4.5065101016e+01    0.1906011    0.1467393 -58.27 0.0008635895    1.207    0.171
        74  -8.5839    249.3130    123.3552   3.9859472496e+01   5.6002776709e+00    0.1457615    0.1019266   6.78 0.0007044639    1.736    0.424
        75 -10.3005      6.6537    120.9388   9.4834449499e+01   4.8386671739e+01    0.3488765    0.1675255  49.55  0.002005379    2.345    0.574
        76 -10.8469     28.7426    118.2088   8.9015775632e+01   4.7254342116e+01    0.4966441    0.2541238 -87.47  0.002460412    2.281    0.562
        77 -11.4199     21.4274    118.5898   9.0920527817e+01   4.7791154315e+01    0.5191225    0.3078478 -78.14  0.001721134    1.441    0.306
        78 -10.7420     21.0762    108.8325   8.9681077132e+01   4.9950721614e+01    0.3607065    0.2056154 -60.29    0.0012596    1.402    0.287
        79  -9.7972    221.2124    119.5859   4.3701198823e+01   1.2117407836e+01    0.2873531    0.2522366  37.26 0.0007038401    1.146    0.127
        80  -9.9064     45.7874    119.9003   8.4883141116e+01   4.5219505105e+01    0.2255705    0.1757661  55.41  0.001430409    1.402    0.287
        81  -9.4010     93.6415    119.1511   7.2214749106e+01   3.8966508644e+01    0.2371557    0.2004271  29.02 0.0008370051    1.344    0.256
        82 -10.8140     10.7219    114.0233   9.3038284498e+01   4.9592651709e+01    0.4001863    0.2948069 -77.87  0.002824195    1.072    0.068
        83  -9.1651     80.6429    115.7970   7.4934019766e+01   4.1724012924e+01    0.2094672    0.1845911  29.41  0.001157532    1.295    0.228
        84 -10.4675     35.2437    115.2137   8.6896091103e+01   4.7320475214e+01      0.34273    0.1852947  48.73  0.001860407    2.127    0.530
        85 -10.2080     16.0305    132.7357   9.3905120868e+01   4.5156456730e+01    0.4428164   0.08866324 -64.21  0.001458288    3.269    0.694
        86  -8.1248    140.6677    111.6924   5.8580458843e+01   3.1688122863e+01    0.1532643    0.1204533   4.41 0.0004190919    1.667    0.400
        87 -11.4200     37.0791    109.8861   8.5566801252e+01   4.8324363826e+01    0.3170364      0.19423 -66.03 0.0005688299    1.353    0.261
        88 -11.1142     32.5158    105.6632   8.6116621415e+01   4.9680807054e+01    0.3432549    0.2346807 -47.96  0.001327445    1.403    0.287
        89  -8.5989    123.8417    109.9513   6.2298659791e+01   3.5510432993e+01    0.2120026    0.1659933  19.52  0.001033038    1.556    0.357
        90  -9.7319     89.8810    108.1704   7.0796851334e+01   4.1994327447e+01    0.2757462    0.2076185 -76.63  0.001071595    1.524    0.344
        91  -8.6222    116.3333    108.2911   6.3807379162e+01   3.7322970249e+01    0.1454942    0.1163026  -3.69 0.0007021589    1.632    0.387
        92  -9.7876     51.0958     99.5275   7.9789060831e+01   4.9166044850e+01    0.5298492    0.2265571 -38.95  0.002147099    3.073    0.675
        93  -9.8669     51.8225    104.9155   8.0636291475e+01   4.7893160644e+01    0.2399226    0.1795034 -48.93 0.0009371107    1.243    0.196
        94 -10.3682     53.1577     90.1402   7.7212459652e+01   5.0988622119e+01    0.4835604    0.1857111 -56.82  0.002094336    2.208    0.547
        95 -10.3991     57.4093     88.1791   7.5492735428e+01   5.0915439444e+01     0.425439    0.2735363 -65.12  0.002285334    1.544    0.352
        96 -10.0748     55.6253    104.2963   7.9451509814e+01   4.7593944946e+01    0.3308483    0.2569199 -44.45  0.001804714    1.264    0.209
        97  -9.6555     57.5915    100.2092   7.8069020231e+01   4.8265293243e+01    0.3278159    0.1480285 -56.22 0.0008861637    1.880    0.468
        98  -8.9207     93.9100    105.4858   6.9080407402e+01   4.1927363785e+01    0.1949473    0.1392782  41.70 0.0003143761    1.492    0.330
        99  -9.5863    141.5762    103.2959   5.6200697800e+01   3.3201504077e+01    0.2837253    0.2443395 -68.48 0.0008825994    1.297    0.229
       100  -9.5693     71.1655    102.3785   7.4677525409e+01   4.6046761897e+01    0.3274119    0.1720179 -48.32  0.001551372    1.733    0.423
       101  -9.7567     26.0806    110.7373   8.8634222719e+01   4.9125998904e+01    0.1709588    0.1380986  88.37 0.0007942124    1.203    0.169
       102  -8.4836    112.4978    101.0209   6.2982208566e+01   3.9594122800e+01    0.2162911    0.1219894 -27.04 0.0008103565    2.651    0.623
       103  -9.8265    104.4889     99.9117   6.4843159965e+01   4.1305498555e+01     0.301042    0.1977335  21.78   0.00134942    2.063    0.515
       104  -9.1107      4.9417    110.6864   9.4097005596e+01   5.0698025653e+01    0.1926749    0.1182427 -54.96 0.0008087259    1.460    0.315
       105 -10.4717    117.6337     98.0836   6.0863675911e+01   3.9222886509e+01    0.2438691     0.233666  20.74 0.0002866024    1.083    0.076
       106 -10.4183      2.3289     86.9352   9.1695033081e+01   5.5921935620e+01    0.6960949    0.1919069 -68.09   0.00251177    2.656    0.623
       107  -9.3271      9.7196     98.6165   9.1290182536e+01   5.2983021363e+01    0.1644349    0.1553416  46.38 0.0002888317    1.340    0.254
       108  -9.5271      6.0065     97.9990   9.2217752947e+01   5.3351001967e+01     0.404022    0.1496798 -69.45  0.002047265    2.051    0.512
       109  -9.2755    243.7684     98.0184   3.4790866308e+01   1.0650906253e+01    0.1950257    0.1101971 -33.01 0.0004157463    1.643    0.391
       110  -9.3735    126.1519     97.2399   5.8429978999e+01   3.7690124030e+01    0.2738343    0.2245621 -58.07   0.00121362    1.289    0.224
       111  -8.9192     94.4906     96.9751   6.6845852410e+01   4.3671514005e+01    0.1982025    0.1691522 -47.01 0.0004636102    1.095    0.086
       112  -8.8892     91.2692     94.5752   6.7142257667e+01   4.4720403922e+01    0.2540348    0.1633974 -52.89  0.000887364    1.475    0.322
       113  -8.7987    141.6054     95.7643   5.4173503995e+01   3.4699808762e+01    0.2110088    0.1410314 -51.19 0.0004120625    1.588    0.370
       114  -9.4263     82.0800     95.5824   7.0003066185e+01   4.5957125452e+01    0.2667385    0.1678138  57.20  0.001211781    2.064    0.516
       115  -9.0291     62.9820     96.1705   7.5650334296e+01   4.8489613708e+01    0.2114692     0.145041  45.09 0.0008470571    1.663    0.399
       116  -8.7727     27.8804     95.8481   8.5766436370e+01   5.2234554312e+01     0.155489    0.1228216 -85.42 0.0003921519    1.269    0.212
       117 -10.8196     24.9137     87.3939   8.5131337282e+01   5.4308406175e+01    0.7772024    0.3500016 -58.62  0.003599988    1.699    0.411
       118  -8.8583     19.6712     80.5384   8.5453395236e+01   5.6174122676e+01    0.2348685    0.1628878 -47.51  0.001543244    1.255    0.203
       119  -9.9194     13.6834     93.2899   8.9401599412e+01   5.3864830783e+01    0.4307076     0.159475 -73.81  0.001951165    2.604    0.616
       120 -10.7390     18.0368     90.8525   8.7761254342e+01   5.4084268059e+01    0.2071072    0.1855617 -44.75 0.0003113521    1.219    0.180
       121  -8.9145    165.8621     94.8810   4.8322283749e+01   2.9330913744e+01    0.2319943      0.20545   7.58 0.0004359521    1.231    0.188
       122  -9.8132     31.5158     93.6820   8.4331826843e+01   5.2395095919e+01    0.3011681    0.1915461 -70.43   0.00147907    1.400    0.286
       123  -9.3575     33.7666     90.6201   8.3098626656e+01   5.2861108523e+01     0.206598    0.1579064  59.32 0.0009097243    1.589    0.371
       124  -9.5021     47.9305     93.0702   7.9394113832e+01   5.0929786832e+01    0.3422834    0.1877892 -74.91  0.001623534    2.220    0.549
       125  -9.6504     38.7775     91.0051   8.1685960988e+01   5.2311292737e+01     0.287203    0.1510662 -38.04  0.001439221    2.124    0.529
       126 -10.4447     43.4366     89.3948   7.9966865375e+01   5.2200317203e+01    0.2919714    0.2443771  -8.81  0.001744865    1.443    0.307
       127  -9.8534    107.9546     90.6915   6.1477187360e+01   4.2608380841e+01    0.2584645    0.2008424 -43.52 0.0005837387    1.228    0.186
       128  -9.8442    110.4097     86.7479   5.9717667547e+01   4.2953609145e+01    0.4772431    0.3111785 -57.32  0.002192533    1.732    0.423
       129  -9.8990     70.1309     85.8782   7.1104740738e+01   4.9771984444e+01    0.2681057    0.2147136 -52.64  0.001064371    1.125    0.111
       130  -9.3917     59.2946     72.8809   7.1099221270e+01   5.3919686241e+01    0.2131371    0.1788764 -29.89  0.000371655    1.141    0.123
       131  -8.9154     65.9673     90.0725   7.3374062679e+01   4.9431408794e+01    0.2875709    0.1607377 -40.15 0.0009687932    1.804    0.446
       132 -10.2945     65.1208     86.2022   7.2695089151e+01   5.0374510010e+01    0.3693382    0.2763286 -23.95  0.001907338    1.532    0.347
       133 -11.1400     72.5629     79.8776   6.8813286461e+01   5.0697838413e+01    0.5077824    0.4333453  35.48  0.002044655    1.306    0.234
       134 -10.8082     66.9775     74.7277   6.9157392372e+01   5.2540322712e+01    0.5281534    0.2477706  33.85 0.0009964304    2.408    0.585
       135  -8.7946     98.3447     89.5089   6.3823932798e+01   4.4591949415e+01     0.247479    0.1263504 -46.98 0.0006426294    1.839    0.456
       136  -9.4157     86.0082     88.9465   6.7200041151e+01   4.6768006711e+01    0.2162457    0.2007515 -42.59  0.001295246    1.013    0.012
       137 -10.6512    155.0230     83.8239   4.7655997902e+01   3.3932138968e+01    0.7651071    0.3128217 -34.04 0.0003201177    2.623    0.619
       138  -9.5541    150.6744     79.8812   4.7515201554e+01   3.5671983531e+01    0.3591106    0.2243184  45.40  0.001094486    1.597    0.374
       139 -10.6887    123.8219     86.3954   5.6035037141e+01   4.0356432662e+01    0.7247062    0.2496722  43.00  0.002415898    3.027    0.670
       140 -10.0085    117.1567     83.1517   5.6868251212e+01   4.2355561650e+01    0.2557009    0.2166672  66.53 0.0007222304    1.376    0.273
       141  -8.6202     16.6226     85.8133   8.7326595339e+01   5.5266476904e+01     0.171069    0.0931182 -76.31 0.0007629569    1.777    0.437
       142 -10.5194    142.9926     82.8166   5.0187914714e+01   3.6891944343e+01    0.4815466    0.4218449  22.77  0.000923718    1.201    0.167
       143 -10.5256     79.8532     83.0192   6.7447928344e+01   4.8970819692e+01    0.5460308    0.3674133   8.23  0.001920978    2.163    0.538
       144  -9.6523     46.2213     84.7201   7.8114239100e+01   5.2921834694e+01    0.2110349    0.1846554 -74.62  0.001392487    1.188    0.158
       145 -10.2437     52.0332     82.1062   7.5718944438e+01   5.2846081266e+01    0.3797249    0.2274847 -38.98  0.001737978    1.640    0.390
       146 -10.2150     52.4896     76.6741   7.4255493567e+01   5.3943843304e+01    0.2850817    0.2426196 -51.81  0.001087484    1.053    0.050
       147 -10.3894     40.3723     81.0996   7.9123690373e+01   5.4292421681e+01    0.4971028    0.2939527 -11.28  0.002234793    2.738    0.635
       148  -8.9134     60.3882     82.3084   7.3181887595e+01   5.1808976524e+01    0.1839412     0.113746 -61.13   0.00094598    1.586    0.369
       149  -9.3136     92.4189     79.9938   6.2898275135e+01   4.7577001004e+01    0.3497292    0.2191506 -20.57  0.001044394    2.236    0.553
       150 -10.5990    166.8737     77.9842   4.3357564716e+01   3.2154081581e+01     0.366981    0.2893097   7.96 0.0002630752    1.542    0.351
       151  -9.6973    166.5177     68.4700   4.0650473249e+01   3.3868881037e+01    0.3045002    0.2867275   8.13 0.0008390204    1.088    0.081
       152 -10.1910    169.4952     74.0817   4.1675271400e+01   3.2190754875e+01    0.4364963      0.26989 -34.04 0.0006175741    1.632    0.387
       153 -10.0328    166.4207     72.5032   4.1859639326e+01   3.3211930664e+01    0.3019647    0.2729391 -14.14 0.0005945786    1.147    0.128
       154  -9.0812      3.9060     79.3001   9.0060348842e+01   5.7444559888e+01    0.1837885    0.1211842 -72.42 0.0004145477    1.253    0.202
       155  -9.5501    107.4080     79.0895   5.8354087462e+01   4.5062510400e+01    0.3837766    0.1877188  26.27  0.001291949    3.554    0.719
       156  -9.5800    119.9887     77.6272   5.4491157374e+01   4.2859650694e+01    0.3170576    0.1915201 -65.66  0.001194472    2.819    0.645
       157  -8.9820    135.9648     76.7049   5.0105835687e+01   3.9611028442e+01    0.2007193    0.1976138   9.92 0.0005144378    1.027    0.027
       158  -9.1026    100.8357     76.2243   5.9369789999e+01   4.6852303265e+01    0.3985598    0.2452959   4.25  0.001041529    3.240    0.691
       159  -9.2130    145.1884     75.9686   4.7647267282e+01   3.7656234072e+01    0.2364649    0.1984434   0.03 0.0008044838    1.340    0.254
       160  -9.8601     29.0952     74.7676   8.1314128976e+01   5.6659456220e+01    0.2965973    0.1606216 -49.33  0.001052034    1.491    0.329
       161 -10.4872     14.8580     64.9434   8.3889219628e+01   5.9770242204e+01    0.4722757     0.230692 -12.16  0.002297149    3.393    0.705
       162  -9.4986     19.3299     72.9547   8.4081202104e+01   5.7799407028e+01    0.4030124    0.2323037 -69.41  0.002355783    1.590    0.371
       163  -9.8138     30.6529     58.3389   7.6871860994e+01   5.9905648553e+01    0.2558053    0.2203028 -69.91  0.001785401    1.313    0.238
       164  -9.2901     26.8609     63.0980   7.9386981256e+01   5.9263241971e+01    0.2285282    0.1555779 -63.46 0.0009497547    1.360    0.265
       165 -10.7797     29.6446     68.0736   7.9626796433e+01   5.8010298513e+01    0.4185096    0.3011749  18.70  0.001191062    1.687    0.407
       166 -10.4588     21.5956     66.8381   8.2038316914e+01   5.8905951927e+01    0.6802576    0.2983525 -65.54  0.002958548    2.118    0.528
       167  -9.7273     35.3049     54.7494   7.4247333629e+01   6.0195972491e+01    0.4198942    0.2343194 -44.79  0.002389262    1.445    0.308
       168  -9.7180     29.8530     52.3912   7.5554272745e+01   6.1152052340e+01    0.4048291    0.1738927  26.03  0.002063106    2.749    0.636
       169  -9.8918     22.4532     59.5359   8.0051660697e+01   6.0332931857e+01    0.3416879    0.1872281 -68.30  0.001348639    1.918    0.479
       170 -10.8499     25.0159     55.1953   7.8054573667e+01   6.1002815270e+01    0.4780264    0.2059419 -62.70  0.002117824    2.322    0.569
       171 -11.4452     20.4130     53.4565   7.9264766905e+01   6.1701602747e+01    0.3035903    0.2450638 -27.37   0.00111977    1.214    0.176
       172  -9.9816    109.4514     73.9209   5.6246128534e+01   4.5679822547e+01    0.3259082    0.2680731  73.29 0.0008054829    1.568    0.362
       173 -10.8765     88.8722     73.5839   6.2095605872e+01   4.9464840157e+01    0.5751817    0.3600477 -32.99  0.001980499    1.631    0.387
       174 -10.2728     94.8357     71.8953   5.9821201290e+01   4.8777288454e+01    0.2806475    0.2793814 -38.86 0.0005659197    1.123    0.109
       175  -9.6275     93.0006     67.0192   5.8873714046e+01   5.0042008393e+01    0.3343315    0.1924856 -48.01  0.001072145    1.730    0.422
       176  -9.2498    179.5313     74.4638   3.9748409647e+01   2.9656931084e+01    0.2879708    0.1281824  44.67 0.0007152216    2.352    0.575
       177  -9.4728    151.9782     73.1181   4.5214790954e+01   3.6580278901e+01    0.2226365    0.2119994  27.08  0.000276663    1.037    0.036
       178 -10.8007    144.2014     70.2670   4.6161345407e+01   3.8904120240e+01    0.6204654    0.4652502  57.42  0.003001746    1.402    0.287
       179  -9.8427    147.6440     66.1331   4.4088848837e+01   3.8816256181e+01    0.4174174    0.2395217  57.25  0.001745644    1.845    0.458
       180 -11.0089     52.3267     68.9150   7.2299203889e+01   5.5571201790e+01    0.4305485    0.3311003 -68.78  0.002580456    1.474    0.322
       181  -9.5331    218.7914     69.9712   3.1612429474e+01   2.0713241092e+01    0.2292574    0.2053842  62.85 0.0003304456    1.143    0.125
       182  -8.9187    102.4648     69.9646   5.7013017973e+01   4.7768937772e+01    0.3842337    0.1978979 -25.92  0.001454647    2.701    0.630
       183  -8.5779    106.4922     66.4627   5.4771895861e+01   4.7664308701e+01    0.2439214    0.1402074  42.51 0.0008321858    1.797    0.444
       184  -8.5666      6.6828     70.7360   8.7723185388e+01   5.9077299972e+01    0.1124516   0.06595488 -42.29 0.0001906982    1.548    0.354
       185  -9.7919    173.2647     68.5677   3.9296456646e+01   3.2188383251e+01    0.3146524    0.2512493 -71.89  0.001204083    1.518    0.341
       186  -8.9266    157.4413     68.5394   4.2615951733e+01   3.6067680028e+01    0.2692185    0.1493585 -21.33 0.0009395618    2.305    0.566
       187  -9.1904     64.1684     69.2287   6.8525624192e+01   5.4038911857e+01    0.2024765    0.1652301 -25.97  0.001221147    1.192    0.161
       188  -9.0303     45.1611     69.2269   7.4746055313e+01   5.6298808050e+01      0.16434     0.136815 -72.45 0.0008476722    1.350    0.259
       189 -10.6678      2.9129     42.8809   8.3121353540e+01   6.4873578161e+01    0.6509741    0.3427081 -34.65  0.003770279    1.720    0.419
       190 -11.0140      2.3619     66.5368   8.8352782160e+01   6.0180909883e+01    0.3490783    0.1488475 -57.47  0.001449147    1.649    0.394
       191 -11.5920      8.2850     50.9241   8.3053258618e+01   6.3005809023e+01    0.5492233     0.342963 -41.07  0.002986854    1.325    0.245
       192 -11.4308      5.5161     60.9581   8.6224735737e+01   6.1151795123e+01    0.3875256    0.3739749   3.38   0.00204316    1.334    0.250
       193 -11.9532     13.5683     36.4044   7.7183397402e+01   6.5458412553e+01    0.4141142    0.2300807 -50.21 0.0001421941    1.379    0.275
       194 -11.0738      7.6100     35.6693   7.9365663953e+01   6.5976480950e+01    0.3735902    0.1995266 -52.30  0.001711183    1.410    0.291
       195 -11.0547      9.5793     31.7622   7.7414986496e+01   6.6574957769e+01    0.2507966     0.216775  -5.13   0.00109388    1.316    0.240
       196 -10.3279      4.4954     31.9748   7.9577395496e+01   6.6842152954e+01    0.4555638    0.1432475 -50.28  0.002012998    2.120    0.528
       197  -9.0162    120.1705     67.7025   5.1405344198e+01   4.4681529646e+01    0.2282388    0.1950371  69.62   0.00119694    1.402    0.287
       198  -8.5770    190.6049     67.1849   3.5588337299e+01   2.8091312582e+01    0.2049111    0.1459403 -18.00 0.0004595809    1.598    0.374
       199 -10.5865     76.1893     65.6355   6.3624938460e+01   5.3049636664e+01    0.3585083    0.3102227  24.20  0.001555324    1.241    0.194
       200  -9.7371     77.3051     61.6865   6.2052293003e+01   5.3642531916e+01    0.2950596     0.245931  68.16  0.001217517    1.657    0.397
       201  -9.0184    197.4960     66.1543   3.4079853737e+01   2.6533569363e+01    0.2176016    0.1467462 -32.19 0.0008690771    1.486    0.327
       202 -11.3855    135.0985     63.6169   4.6291638435e+01   4.2149556861e+01    0.7210798      0.45312 -58.64  0.002667605    2.208    0.547
       203  -9.2255    136.2511     56.4968   4.3730782663e+01   4.3082186344e+01    0.2695573     0.202846 -32.06 0.0007228943    1.332    0.249
       204  -9.6156     83.5852     64.8141   6.1054592157e+01   5.2050704648e+01    0.2475809    0.2210093 -55.52 0.0002826669    1.236    0.191
       205  -9.3791     82.5410     61.4895   6.0336013595e+01   5.2853331265e+01    0.2769778    0.1940678  -6.86 0.0005838331    1.800    0.445
       206  -9.7604    165.8582     63.9844   3.9450368212e+01   3.4770691293e+01    0.2448775    0.2108527  51.04  0.000299375    1.141    0.123
       207  -9.9533     97.8613     63.8882   5.6446604891e+01   4.9764551725e+01    0.3632076    0.2180828 -52.61 0.0003378224    1.908    0.476
       208  -9.2566     94.4995     59.4999   5.6028039818e+01   5.1181446760e+01    0.2763463    0.2143923  -8.87  0.001071397    1.404    0.288
       209  -8.8080     47.6292     63.7410   7.2460139580e+01   5.7150588722e+01    0.1749003    0.1067684 -59.98 0.0005625772    1.653    0.395
       210  -9.1421    193.7461     62.6018   3.3739738504e+01   2.8021240270e+01    0.2292609    0.1995773 -14.02 0.0006060316    1.232    0.188
       211  -9.7969     65.1620     61.9538   6.6073931883e+01   5.5351581981e+01    0.2575907    0.2230744 -14.99  0.001114536    1.133    0.117
       212 -10.3454     54.4655     63.0336   6.9955404702e+01   5.6506867904e+01    0.3037884    0.2682647  27.84  0.001630851    1.304    0.233
       213 -11.9713     55.9904     56.9667   6.7641721969e+01   5.7510990060e+01    0.3949452    0.2965401   3.59 0.0003900362    1.515    0.340
       214 -10.1082    155.2617     61.4516   4.0933351788e+01   3.7776129800e+01    0.2815207    0.2606078  17.36 0.0003166371    1.093    0.085
       215  -9.5671     70.7233     60.8819   6.3922193749e+01   5.4779307754e+01     0.296365    0.2174617 -46.40  0.001090181    1.272    0.214
       216  -8.8021     43.5692     61.7183   7.3287493204e+01   5.7992128730e+01    0.1610095    0.1062841 -57.14 0.0006526886    1.416    0.294
       217  -8.5276    176.4290     60.9462   3.6436555126e+01   3.2626082793e+01      0.22299    0.1150942 -53.17 0.0008059013    2.537    0.606
       218  -8.8285    213.0199     59.9826   2.9864966257e+01   2.3619182649e+01     0.173387    0.1609671 -40.64 0.0009599506    1.061    0.058
       219  -9.4221    166.5343     60.0028   3.8112919692e+01   3.5243095485e+01    0.2278365    0.1493115 -31.16 0.0006472162    1.560    0.359
       220  -9.3615    142.5508     58.6527   4.2928226242e+01   4.1266792498e+01    0.2986961    0.1081191  41.55 0.0009458861    3.169    0.684
       221  -9.3758    226.1068     55.7675   2.6850070005e+01   2.1043258210e+01    0.2822083    0.1750069 -44.86 0.0009633744    1.566    0.361
       222  -8.9943    125.1824     56.9981   4.6650833050e+01   4.5483047244e+01    0.2403342    0.1623885 -57.94  0.001071808    1.966    0.491
       223  -9.7294      5.9598     55.4821   8.4920594387e+01   6.2232035956e+01    0.2259813    0.1773433  47.42 0.0009099881    1.721    0.419
       224  -9.2053    116.4715     55.9915   4.8609282185e+01   4.7517937462e+01     0.264787    0.2115987  70.49  0.001350754    1.609    0.378
       225 -10.2375     82.9567     55.2091   5.8164287202e+01   5.3949033421e+01    0.3960241    0.2683975 -18.56  0.001233368    1.645    0.392
       226  -9.8072     95.2544     52.0060   5.3293459264e+01   5.2374420380e+01    0.5069899    0.3247445   4.22  0.002233582    2.289    0.563
       227  -9.9028     96.9870     48.5029   5.1564497276e+01   5.2648304284e+01    0.2560737    0.1834997 -22.38 0.0004538153    1.388    0.280
       228 -10.6271     70.2875     52.0700   6.1232293498e+01   5.6495650728e+01     1.087849    0.6424888 -58.26  0.005122454    2.300    0.565
       229 -10.0121     62.4534     53.2009   6.4246574781e+01   5.7390752383e+01    0.5994525    0.4156689  81.19  0.002045952    3.585    0.721
       230 -10.3330     48.6260     46.6923   6.6991931301e+01   6.0334525284e+01     1.036237     0.376511  22.97  0.003851339    4.466    0.776
       231 -12.7062     61.7564     44.4600   6.1557957869e+01   5.9074935645e+01    0.2755544     0.248503  -7.63 0.0003387292    1.109    0.099
       232 -11.1269     57.5865     45.4912   6.3380647139e+01   5.9448893148e+01    0.2344619    0.1730054 -39.36 6.856492e-05    1.198    0.165
       233  -9.3616    192.1343     53.1542   3.1340822357e+01   2.9844637403e+01    0.2561331    0.2141002 -28.20 0.0009307198    1.231    0.187
       234  -9.4817     43.0858     53.2231   7.1024915203e+01   5.9715319144e+01    0.2728549    0.1828601 -62.53  0.001124703    1.701    0.412
       235  -8.2172    180.3219     53.3313   3.3462480926e+01   3.2808173069e+01    0.1572956    0.1131563  24.51 0.0002766685    1.698    0.411
       236  -9.6812    123.0456     52.3718   4.5665088329e+01   4.6714080122e+01    0.2954186     0.195838 -37.43 0.0009819816    1.509    0.337
       237  -8.8974    183.5310     52.0375   3.2506134176e+01   3.2186596089e+01    0.2103619    0.1470526 -30.34 0.0003403596    1.466    0.318
       238  -9.5070    145.8773     52.1620   4.0084978879e+01   4.1515651997e+01    0.2218518     0.204482 -73.50 0.0005140233    1.233    0.189
       239 -10.8649    110.9967     51.7963   4.8688576292e+01   4.9354658111e+01    0.2581863    0.2241402  20.19  0.001446683    1.131    0.116
       240  -8.8737    198.3520     49.9744   2.9421279495e+01   2.8730939495e+01    0.4741093    0.1912817  71.11  0.001515993    3.451    0.710
       241  -9.7685    174.8167     48.7475   3.3105586706e+01   3.4872490708e+01    0.5716754    0.2980732  35.37   0.00216335    2.475    0.596
       242 -10.4784    128.4376     48.3654   4.2951110829e+01   4.6156582347e+01    0.3315293    0.2896678  27.30 0.0006150765    1.112    0.101
       243 -10.4140    143.7097     41.0117   3.6913441312e+01   4.3689501071e+01    0.4311028     0.237978  43.89 0.0007988331    1.773    0.436
       244  -9.4027    148.7752     38.4003   3.4963384503e+01   4.2826088955e+01    0.2302754    0.1914609 -38.02 0.0006614547    1.265    0.209
       245 -10.0354    141.0372     48.1331   3.9870668909e+01   4.3283576755e+01    0.4796922    0.2279104 -30.72  0.001790519    2.164    0.538
       246  -9.7400    136.9839     49.4514   4.1247824400e+01   4.4032434818e+01    0.3052005    0.2507375  66.27 0.0004654823    1.354    0.262
       247  -9.2774    133.5143     49.0081   4.1926988060e+01   4.4902825760e+01    0.2436033    0.2081722 -82.17 0.0006027104    1.485    0.327
       248  -9.9620     87.1559     48.8454   5.4678275481e+01   5.4363478681e+01    0.3227749    0.2449148  42.82  0.001192083    1.432    0.302
       249 -10.1565    150.7368     45.3695   3.6825539554e+01   4.1363581141e+01    0.5910147     0.214274 -43.34  0.001976177    3.152    0.683
       250 -10.3160    115.7243    248.2190   8.6432079267e+01   1.0356548053e+01    0.2122729     0.188655  70.33  0.001034006    1.210    0.174
       251  -8.2535     57.2138    249.2531   9.6008670511e+01   1.8233608300e+01   0.07983897   0.06975303  78.38 0.0006592122    1.376    0.273
       252  -8.6267    219.1866    245.6284   6.8462814104e+01  -5.6898778521e+00    0.1687267   0.08210923  33.37 0.0008807878    1.679    0.404
       253 -10.4843     86.9012     37.4681   5.0652303377e+01   5.6271599459e+01    0.6333858    0.4586166 -77.54  0.002892454    2.962    0.662
       254  -9.5369    158.4809    244.0433   7.8646138807e+01   4.2579305654e+00    0.1403656    0.1180452 -45.44 0.0004789813    1.528    0.345
       255 -10.3685     85.8941     22.1624   4.5007278696e+01   5.8656695033e+01    0.2922386    0.2174802  55.02 0.0006421713    1.640    0.390
       256  -9.4339     90.2950     20.8939   4.3163345606e+01   5.7999272719e+01     0.182368    0.1682301  -6.63 0.0003670856    1.154    0.133
       257 -10.2500     87.1196     42.4410   5.2413456737e+01   5.5441109312e+01    0.4375722    0.2546131  43.61  0.001878257    1.809    0.447
       258  -9.9498     83.5356     41.0841   5.3050436389e+01   5.6284329314e+01    0.2684334    0.1990387  -1.97  0.001054979    1.435    0.303
       259  -9.3616     32.0433     47.3959   7.3311625669e+01   6.1921412267e+01    0.1978278    0.1252159 -41.91 0.0009102426    1.264    0.209
       260  -8.6569     22.5540     48.4484   7.7149643310e+01   6.2520417868e+01    0.1693133    0.1020064  36.84  0.001017702    2.137    0.532
       261  -9.2072    235.0024     47.1036   2.3484012776e+01   2.0121516459e+01    0.2061992    0.1855035 -64.39 0.0004450069    1.058    0.055
       262 -10.6167    115.2093     45.0275   4.5206191096e+01   4.9566461908e+01    0.3649434    0.3086505 -41.82 0.0008811211    1.274    0.215
       263  -9.0476     38.9169     47.0152   7.0646972451e+01   6.1330927802e+01    0.1800999    0.1454846 -36.48 0.0004470013    1.021    0.020
       264  -9.8476     17.1346     46.6083   7.8679115741e+01   6.3278392581e+01     0.250651    0.1577553 -46.28 0.0008304894    1.211    0.174
       265  -9.5527    184.8905     45.2279   3.0275987768e+01   3.2814528400e+01    0.3912351    0.2370643   4.08  0.001506053    2.729    0.634
       266  -9.3165    245.2570     44.5352   2.1626856382e+01   1.8076378085e+01    0.2410502    0.1872698  73.49 0.0006564826    1.327    0.246
       267  -9.1290    249.0260     42.9988   2.0832963896e+01   1.7418769881e+01    0.2005458    0.1594532  23.68 0.0004806128    1.637    0.389
       268  -8.5055    164.9881     46.0000   3.4126214617e+01   3.7744446525e+01    0.2479117   0.08216116  58.47 0.0007994468    2.922    0.658
       269  -9.9015    123.0476     44.9835   4.3149522841e+01   4.7878319775e+01    0.4796261    0.1918831  46.14  0.001821106    2.412    0.585
       270  -9.6818    108.3920     43.3940   4.6484277616e+01   5.1238554159e+01    0.4817178    0.2141046  31.86   0.00172029    3.139    0.681
       271 -10.3959    103.8264     41.7064   4.7161881353e+01   5.2421034494e+01    0.6292821    0.3057454  42.57  0.002738445    2.045    0.511
       272  -9.5215    200.9756     43.0164   2.7069569595e+01   2.9033073878e+01    0.3258156    0.1915792  54.08  0.001182381    1.651    0.394
       273 -10.1419    203.3145     39.0656   2.5628111861e+01   2.8969353156e+01    0.2504615    0.2280235 -88.14 0.0003610729    1.082    0.076
       274  -9.2746     28.0225     42.5479   7.3366511515e+01   6.3195172103e+01    0.1830956    0.1530979  -6.19  0.001137286    1.261    0.207
       275  -8.4669     31.2017     40.0646   7.1364323013e+01   6.3370587976e+01    0.1957842    0.1244656 -41.14 0.0002281566    1.250    0.200
       276 -10.0521    227.9862     39.9097   2.2543834587e+01   2.2753059344e+01    0.5379659    0.3257988  35.82  0.002423346    2.205    0.546
       277  -8.6835    222.9844     39.9677   2.3189246219e+01   2.3959580152e+01    0.2020875    0.1833127 -62.67 0.0007405635    1.052    0.050
       278  -9.1620    215.4062     41.2809   2.4532731865e+01   2.5650779826e+01    0.3046907    0.1772813 -69.05  0.001259057    2.310    0.567
       279  -9.3732      1.6175    244.0243   1.0397663006e+02   2.5128993232e+01    0.1340465   0.08369117  79.53 0.0004592247    1.139    0.122
       280  -9.6283     23.9367     39.2798   7.3943639674e+01   6.4148332963e+01    0.3696948    0.1808539 -24.22  0.001250617    2.490    0.598
       281 -11.4508    238.5725     37.6264   2.0713849244e+01   2.0528054778e+01    0.3047853    0.2565929 -61.54 0.0001638308    1.121    0.108
       282  -8.8955    242.4438     34.5219   1.9527761956e+01   2.0018933253e+01    0.1922254    0.1628385  24.76 0.0007978576    1.476    0.323
       283  -9.4405    166.5380     36.8500   3.0980397858e+01   3.8614737028e+01    0.3568185    0.2390234  15.32  0.001305822    1.985    0.496
       284  -8.9798    158.7495     38.9545   3.3123067199e+01   4.0288347535e+01    0.2420518     0.161777 -60.12 0.0007333521    1.936    0.484
       285  -9.1073    129.4900     39.4884   3.9657127039e+01   4.7242517946e+01    0.6588884    0.1996973  54.10  0.002175584    3.204    0.688
       286  -9.4306    130.9329     36.1149   3.8143712926e+01   4.7384075370e+01    0.3023032    0.2490415  72.35  0.001319471    1.419    0.295
       287  -9.4231     94.1286     38.3160   4.8755076114e+01   5.4819509374e+01    0.2236205     0.167469 -18.07 0.0002858064    1.292    0.226
       288  -9.9414     98.1366     35.1715   4.6401123613e+01   5.4527384051e+01    0.3265698    0.2195077  52.96  0.001132948    1.673    0.402
       289  -8.2232     50.3487     39.6668   6.3982433496e+01   6.1395159558e+01    0.1134064   0.09896074 -82.12 0.0007048254    1.773    0.436
       290  -8.4935     40.4342     39.4202   6.7611731447e+01   6.2569838760e+01    0.1226766   0.09574728 -27.65 0.0002613343    1.062    0.058
       291  -9.1121    187.2362     37.1355   2.7523539627e+01   3.3308827415e+01    0.4113033    0.2214211 -77.59  0.001387412    3.539    0.717
       292  -9.3970    177.8649     37.2646   2.9105378502e+01   3.5683664827e+01    0.2785519    0.2132679 -81.37 0.0008965665    1.537    0.350
       293  -8.5942    174.8354     41.8299   3.1012031334e+01   3.5841942877e+01    0.1917087    0.1662778 -69.03  0.001011476    1.260    0.206
       294  -9.4986    153.7323     37.0743   3.3512372533e+01   4.1787952495e+01    0.2258532    0.1981313  78.17 0.0004420121    1.236    0.191
       295 -10.4230    139.9973     34.3658   3.5488896233e+01   4.5490725013e+01    0.4716446    0.2045891 -28.23  0.001306605    2.396    0.583
       296 -10.0137    142.5812     30.2324   3.3528346942e+01   4.5407066633e+01    0.2740915    0.2106433   3.41 0.0007909508    1.452    0.311
       297 -10.1114    146.3437     29.0056   3.2336079084e+01   4.4647567709e+01    0.2896227    0.2531859  66.21 0.0003962414    1.175    0.149
       298  -9.0798     45.9488     42.7718   6.6674265763e+01   6.1358852668e+01    0.2544207    0.1163486 -30.70  0.001154192    2.422    0.587
       299 -11.8744    107.3708     30.1365   4.1918452453e+01   5.3382142762e+01    0.5569594    0.3759221   7.27  0.002764258    1.737    0.424
       300  -8.7047     43.9603    244.0000   9.7720240762e+01   2.0674377024e+01     0.156324   0.04692728  40.99 0.0007957793    2.896    0.655
       301  -9.8247    119.0034     31.2850   3.9315389073e+01   5.0733982809e+01    0.2684095     0.253305  -8.71 0.0007446583    1.096    0.087
       302  -9.2260     56.6544     36.0536   6.0369821901e+01   6.1212781141e+01    0.1796874    0.1510623 -12.83 0.0003977664    1.050    0.047
       303  -9.5468     51.2954     32.8229   6.1147467094e+01   6.2447399086e+01     0.281002    0.1705169  29.11  0.000906373    1.779    0.438
       304  -9.0678     55.5647     32.2032   5.9327345951e+01   6.1995209404e+01     0.215137    0.1084388 -41.98 0.0008506027    1.815    0.449
       305  -9.5314    223.6659     33.9758   2.1559327815e+01   2.4563953494e+01    0.3357359    0.2379945  65.04  0.001761399    1.386    0.278
       306  -9.6590     60.8531     34.6320   5.8324413874e+01   6.0874740945e+01    0.2203167    0.1562039 -38.80 0.0002125471    1.326    0.246
       307  -9.3844    244.5450    242.2278   6.3749608548e+01  -9.1764393648e+00    0.1406217     0.093353  -4.01 0.0004254982    1.535    0.348
       308  -8.6760     46.9241     34.4843   6.3409403909e+01   6.2703273828e+01    0.1972029    0.1153689  34.91 0.0006443898    1.947    0.487
       309  -8.7684     43.5073     32.5183   6.3997244754e+01   6.3435566412e+01    0.1994247    0.1403879 -41.43 0.0009268576    1.287    0.223
       310  -8.7356    189.8809     32.6449   2.5808016874e+01   3.3209212337e+01    0.2016299    0.1660971 -73.68  0.001065821    1.300    0.231
       311  -9.3898    190.0630     28.8977   2.4698947320e+01   3.3626478691e+01    0.3057404    0.2315134  85.44  0.001569264    1.394    0.283
       312  -9.7782    158.5245     32.4272   3.1072454539e+01   4.1204039421e+01    0.2943812    0.2411957 -71.77 0.0006836529    1.440    0.306
       313  -8.7752     31.0179     33.5920   6.9284341753e+01   6.4553443908e+01    0.1509624    0.1089475  16.95            0    1.538    0.350
       314 -10.0875    233.8331     30.7144   1.9548241389e+01   2.2519524983e+01    0.3546556    0.2213062  54.68 0.0007804163    1.664    0.399
       315  -9.6486    133.3416     31.4827   3.5973765142e+01   4.7444671927e+01    0.2443334    0.1955049  54.11 0.0006405602    1.225    0.184
       316  -9.4305     23.9864     31.4612   7.1391536730e+01   6.5560623214e+01    0.2190839     0.167937  22.17  0.001008038    1.540    0.351
       317 -10.2977    248.3452     30.2871   1.7898796989e+01   1.9187911006e+01    0.2647026    0.2414324 -19.61 0.0008127492    1.245    0.197
       318  -9.0077     34.8396     41.3610   7.0385115023e+01   6.2787543535e+01    0.2125165    0.1341693  17.00  0.001259137    1.824    0.452
       319  -8.8357    178.7227     30.5837   2.6953483944e+01   3.6317609528e+01    0.1937212     0.135847  76.74 0.0004969308    1.509    0.337
       320  -9.0877    146.0462     34.0358   3.4085008996e+01   4.4076377181e+01    0.2573635    0.1617715  88.52  0.001028993    2.612    0.617
       321 -11.1204     36.6134     26.8845   6.4613466167e+01   6.5140049468e+01    0.5724676    0.3052751  24.24 0.0009584244    2.090    0.522
       322  -9.3472    145.9879    242.0199   8.0570369067e+01   6.5596573383e+00    0.1462099    0.1112988  47.92 0.0004172791    1.029    0.028
       323  -8.3879     38.4856     16.5504   5.9709252233e+01   6.6564151794e+01    0.1183193   0.09247828 -16.50 0.0001092864    1.006    0.006
       324  -9.8094    189.3221    240.5518   7.2828066216e+01  -3.1372200655e-01    0.2308178   0.09322873  45.96   0.00112328    2.065    0.516
       325  -8.8067     18.0185     21.9465   7.0551753074e+01   6.7697163581e+01    0.1328144   0.09921493 -31.35 0.0003128426    1.006    0.006
       326  -8.4652    128.6631     29.6909   3.6413866927e+01   4.8763716300e+01    0.1513917    0.1002445  25.19 0.0004564176    1.681    0.405
       327 -10.0504    221.6971     26.3161   1.9827330106e+01   2.5988832657e+01    0.3995802    0.2437506 -58.32  0.001419691    1.746    0.427
       328  -9.4378    220.6073     13.7755   1.6748041833e+01   2.7694191380e+01    0.1995103    0.1784682  63.13 0.0005564938    1.154    0.134
       329  -9.7387    221.2614     21.3737   1.8611035349e+01   2.6678476836e+01    0.3027334    0.2273851  74.38 0.0008972258    1.275    0.216
       330 -10.1603    217.3008     17.5442   1.8072483964e+01   2.8089098266e+01    0.2943078    0.2452319 -61.46  0.000548061    1.157    0.136
       331  -8.7971    211.6545     26.6954   2.1143059318e+01   2.8428561750e+01    0.1877936    0.1214458 -38.93 0.0009251357    1.523    0.343
       332  -9.2326     82.8938     25.9886   4.7481917235e+01   5.8679097037e+01    0.1856605    0.1654519  -0.20 0.0003066676    1.072    0.067
       333  -8.8757     48.6716     26.7428   5.9809685341e+01   6.3765846245e+01    0.1486124    0.1096077  34.09 0.0005374905    1.566    0.362
       334  -9.0849     45.6745     26.3200   6.0803252602e+01   6.4202357167e+01    0.3355686    0.1556588 -45.36  0.001687944    2.095    0.523
       335  -9.5650    248.2290    239.3934   6.2703492221e+01  -9.4302932674e+00    0.1553811   0.09010921  42.67 0.0007950114    1.661    0.398
       336 -10.3454      1.8893     24.4655   7.8424953028e+01   6.8346961832e+01    0.3052371    0.1279347 -48.21  0.001200851    1.668    0.400
       337  -9.3802      5.2358     20.9915   7.5828810256e+01   6.8762564599e+01    0.1788645    0.1047418 -34.97 0.0005215771    1.319    0.242
       338  -9.2888    221.4698    237.4836   6.6855220099e+01  -5.1320703430e+00    0.1189041   0.09078502  26.03 0.0001491622    1.019    0.018
       339 -10.2591    172.3411     22.9380   2.5662603758e+01   3.8859116404e+01    0.5136355    0.2912015  48.30  0.002338407    1.692    0.409
       340  -9.4117    188.8732     23.1145   2.3202957196e+01   3.4616697300e+01    0.3338395    0.2283735 -39.73  0.001682088    1.500    0.333
       341  -9.6435    163.4904     22.0239   2.6847122702e+01   4.1209899715e+01    0.3940715    0.2369521   6.18  0.001673913    2.389    0.581
       342 -10.0962    166.5787     17.8216   2.5006003939e+01   4.0895561359e+01    0.3837456     0.189834  49.66  0.001657616    1.876    0.467
       343  -8.4622    167.6842    237.3612   7.6177875336e+01   3.6758638890e+00    0.1178512   0.08444896  68.05 0.0007042327    1.759    0.432
       344  -9.9321    139.8822     20.2971   3.0671758089e+01   4.7249837635e+01    0.3135599    0.2369315  34.43 0.0003003823    1.288    0.224
       345  -9.6738    188.2023    235.6034   7.2322838635e+01   5.0771293070e-01    0.1718958     0.091847  35.34 0.0004429822    1.598    0.374
       346  -9.0837    109.4691     23.4665   3.8837379055e+01   5.3809682157e+01    0.1964607    0.1778232 -24.93 0.0005144639    1.190    0.160
       347  -8.5917    229.9839     22.9892   1.8056878047e+01   2.4372539200e+01     0.162118    0.1465424 -80.86 0.0005124691    1.022    0.022
       348  -9.6381    153.6954     22.5472   2.8758877054e+01   4.3607211903e+01    0.3435843    0.2108284 -26.65   0.00109242    1.716    0.417
       349  -8.7311    228.5640    234.1799   6.5141420373e+01  -5.8749290016e+00    0.1474152    0.1000127  -6.54 0.0006166036    1.619    0.382
       350  -9.1885    122.6072     22.3784   3.5183827669e+01   5.1054593026e+01    0.3617875    0.2468666 -72.23  0.001634257    2.486    0.598
       351  -9.3060    117.0326     22.3630   3.6512490742e+01   5.2304336937e+01    0.2105552    0.1707566  10.17 0.0002410005    1.217    0.178
       352 -10.5539     50.6314     21.9602   5.7133815297e+01   6.4255001455e+01    0.2596653    0.1780532 -23.32 0.0006588461    1.245    0.197
       353  -9.5181     26.4712     21.8015   6.6869002638e+01   6.6989809138e+01    0.2529096    0.1319943 -35.50  0.001484336    1.541    0.351
       354  -9.2937    207.1817     21.4930   2.0308153866e+01   3.0160244054e+01    0.3533444    0.1210497 -45.93 0.0007471859    3.129    0.680
       355  -8.7923     11.9354     22.5725   7.3422187936e+01   6.8047964850e+01    0.1531283   0.07524119 -14.72 0.0008060967    2.592    0.614
       356  -8.8900    144.2333     20.8925   3.0008187886e+01   4.6127582514e+01    0.2084566    0.1882238 -86.49 0.0006520117    1.257    0.205
       357  -9.1393     31.8782     19.2936   6.3595528593e+01   6.6863368339e+01     0.272529    0.1366956 -32.70  0.001532368    1.679    0.404
       358  -8.9656    222.2863    233.6685   6.6126319646e+01  -4.8220353955e+00    0.1026554    0.0900341  59.73 0.0004362791    1.619    0.382
       359  -9.3956     31.8919    232.0997   9.8872851159e+01   2.4034748849e+01    0.1595671   0.09817522  69.83 0.0003900175    1.213    0.176
       360  -8.7016    178.5229    231.4650   7.3444371335e+01   2.6813317350e+00    0.1228834   0.09792231  36.08 4.231513e-05    1.048    0.046
       361  -9.2455    179.1963     13.3863   2.1732448606e+01   3.8156183237e+01    0.2365603    0.1662254  78.80 0.0005751898    1.425    0.298
       362  -8.3890    189.6608    230.3248   7.1298216909e+01   9.6076835427e-01    0.1172424   0.08867922  64.89 0.0007051264    1.725    0.420
       363  -9.3497    193.4538     20.1143   2.1707166204e+01   3.3791034542e+01    0.2228575    0.1873154  73.11 0.0002892931    1.118    0.105
       364  -9.9293    194.9730     15.0112   2.0069493667e+01   3.3966476956e+01    0.2233413     0.185013  75.15 0.0003837282    1.125    0.111
       365  -8.9144    163.4074    227.1927   7.5562138713e+01   5.8477390938e+00    0.1429376    0.1181316 -70.01 0.0009362944    1.559    0.358
       366  -8.8355    207.7490    226.4259   6.7508264590e+01  -1.5660661993e+00    0.1781956   0.09388415  33.24 0.0009436054    1.656    0.396
       367  -8.5701    235.2932    225.3076   6.2572449033e+01  -5.9236952262e+00    0.1208296   0.07638166  14.29 0.0003393228    1.583    0.368
       368  -9.0020    223.9088    225.0918   6.4481663663e+01  -4.0682554667e+00    0.1717411    0.1438825  35.61 0.0005343185    1.220    0.180
       369  -8.2883    132.2844    225.2954   8.0979964436e+01   1.1339828256e+01    0.1084913    0.0906786  19.68 0.0002354592    1.543    0.352
       370  -9.0289    143.8983     16.3574   2.8522308957e+01   4.6709101410e+01     0.264138    0.1347342  67.45  0.001119065    2.071    0.517
       371  -8.3413    125.4953    225.5019   8.2241132329e+01   1.2405573186e+01    0.1220948   0.09768938  57.01 -5.23909e-05    1.028    0.028
       372  -8.8321    109.7270    221.9794   8.4701815583e+01   1.5483685446e+01    0.1589166     0.132056  73.01  0.000356207    1.107    0.097
       373  -9.7966     44.6288     15.4488   5.6744447801e+01   6.5985836315e+01    0.3620306    0.1673872  31.45  0.001899501    2.290    0.563
       374  -9.2587     89.4171    220.8762   8.8260087089e+01   1.8712267554e+01    0.1919426    0.1763445  31.06 0.0008469907    1.500    0.334
       375  -9.2014    174.8650    218.0143   7.2136852823e+01   5.2351047321e+00    0.1953984    0.1693669 -27.55 0.0008903591    1.374    0.272
       376  -9.0796    112.6497     13.9502   3.4384153415e+01   5.4231600968e+01    0.2757823    0.1545669  37.71  0.001325686    1.700    0.412
       377  -8.5478     24.3159    215.6857   9.9088456362e+01   2.7731423766e+01    0.1116393   0.05633237  68.36            0    1.644    0.392
       378  -9.2041    227.7384     13.7777   1.6010732083e+01   2.5962334600e+01    0.2095178    0.1014294  85.51 0.0008193606    2.393    0.582
       379  -8.4862    117.8269    211.8326   8.1988438855e+01   1.5963973459e+01      0.16835    0.1226582  64.94 0.0003973298    1.278    0.218
       380  -9.1520    184.3727     12.8554   2.0855464366e+01   3.6891867657e+01    0.2246894    0.1807573  84.43  0.000511539    1.223    0.183
       381  -8.2698    123.9893    205.9804   8.0050141613e+01   1.5991007637e+01    0.1418872    0.1230828  62.90            0    1.034    0.033
       382  -8.2912     12.6506    203.2880   1.0026990906e+02   3.1161152979e+01    0.1110001   0.05527687  66.77 0.0002997963    1.662    0.398
       383  -8.4775    133.0060    198.9960   7.7310713833e+01   1.5713549241e+01     0.157629    0.1239707  49.73            0    1.110    0.099
       384  -8.2754     80.7348    198.6984   8.7531477131e+01   2.4044671450e+01    0.1017207   0.09372351 -43.45 0.0002188191    1.521    0.343
       385  -8.1311    109.6049    196.6972   8.1629802364e+01   2.0055207792e+01    0.1199307    0.1002603   5.80 0.0001438898    1.817    0.450
       386  -9.4430      6.4548    195.0120   1.0082694535e+02   3.3281192984e+01    0.1353798   0.06334794 -58.98 0.0008069001    2.455    0.593
       387  -8.8895    248.4679    191.4831   5.4326387065e+01  -3.9506302148e+00     0.207063    0.1092774 -41.36 0.0009847758    2.318    0.569
       388  -8.8583     91.5394     13.5710   3.9807827292e+01   5.8648371893e+01    0.2051563    0.1259467  62.50 0.0005283092    2.169    0.539
       389  -8.9103    229.3276     10.3124   1.5003273113e+01   2.5957688380e+01    0.1310865    0.0961485  39.62   0.00070423    1.667    0.400
       390  -9.5675     28.8074    178.2405   9.5566842402e+01   3.4443839602e+01    0.1632046    0.1165543  78.51 0.0003511453    1.132    0.116
       391  -9.8617     17.7197    173.9925   9.7352101274e+01   3.6371565701e+01    0.1601287      0.11723  88.86  0.001172633    1.041    0.040
       392  -8.8871      5.3100    174.7099   9.9744565325e+01   3.7314294595e+01    0.1096583    0.0599071  70.33 0.0003228792    1.582    0.368
       393  -8.2657     26.6552    171.6774   9.5421693338e+01   3.5993335045e+01     0.105392   0.07811863 -50.63 0.0007050132    1.734    0.423
       394 -10.4644     17.6488    169.8127   9.7033065350e+01   3.7225260641e+01    0.1497521    0.1231498  85.98  0.001150468    1.128    0.114
       395 -12.1719     21.5871    150.3088   9.4482466911e+01   4.0928104490e+01     1.078023    0.3234203  41.60    0.0051452    3.162    0.684
       396 -11.5279     39.2576    160.1268   9.1713009168e+01   3.7115187601e+01    0.5448591    0.2841019  70.64  0.002866925    2.137    0.532
       397 -12.2762     34.2547    157.9883   9.2551586964e+01   3.8089236418e+01    0.7261577    0.3499076  62.61  0.003548262    2.274    0.560
       398 -10.0502     23.9532    163.2920   9.5216398677e+01   3.7983611675e+01     0.185739     0.143466  89.15 0.0004712795    1.005    0.005
       399  -9.9879     20.7827    158.5678   9.5436390025e+01   3.9261314815e+01    0.2836564    0.1241685 -69.70 0.0008914932    1.843    0.457
       400 -10.2060      9.6813    157.5374   9.7617761495e+01   4.0431313793e+01    0.2247985    0.1318485  84.82  0.001220679    1.439    0.305
       401  -9.9446      2.0977    156.0020   9.9021831461e+01   4.1343588397e+01     0.298011    0.1056166 -70.85  0.001231023    2.130    0.530
       402  -9.2525    248.9943    153.9985   4.6681582046e+01   1.0919256789e+00    0.1648493    0.1428284  -3.49 0.0007335693    1.020    0.019
       403 -10.7913     10.9463    151.3064   9.6831208210e+01   4.1622716874e+01    0.2867517    0.1910274 -34.64   0.00165091    2.365    0.577
       404  -9.3876     58.3083    150.9287   8.6395952133e+01   3.6917417958e+01     0.185273    0.1479883  71.13 0.0003471824    1.187    0.157
       405 -10.5639     10.9978    147.0099   9.6438238346e+01   4.2519217020e+01    0.2291348    0.1710371 -26.31  0.001408839    2.115    0.527
       406 -10.1160      4.2438    145.1180   9.7706299769e+01   4.3434442435e+01    0.2072939    0.1501916 -83.53  0.001524407    1.040    0.038
       407 -10.1147     29.0313    144.1665   9.2199577860e+01   4.1559735393e+01    0.1958245    0.1589803 -68.84  0.001383095    1.182    0.154
       408 -10.5687    240.0761    141.6829   4.5507634049e+01   4.6385534011e+00    0.4481129    0.1759762 -39.68  0.001755919    2.543    0.607
       409  -9.2975     36.5665    144.0625   9.0481249500e+01   4.0846555977e+01    0.1807083    0.1425359  69.01  0.001222409    1.229    0.186
       410  -9.5959     14.6978    141.5469   9.5118340828e+01   4.3377486701e+01     0.145036   0.09322491  52.55 0.0008493278    1.617    0.382
       411  -9.9501      1.7163    139.8728   9.7795975964e+01   4.4713693202e+01    0.2782682    0.1072087 -82.27  0.001426822    2.229    0.551
       412 -10.3837     40.8946    137.4389   8.8642583702e+01   4.1850257505e+01    0.2816037    0.2019321  64.41 0.0009760077    1.426    0.299
       413  -9.7784     61.5747    132.0781   8.2834126528e+01   4.0675150121e+01    0.4143255      0.20652 -54.03  0.001386685    1.839    0.456
       414  -9.0366     18.7454    126.5830   9.2570185737e+01   4.6268073940e+01    0.2481487    0.1135332 -62.55  0.000612283    1.731    0.422
       415  -9.5084     34.3792    136.6560   9.0080169214e+01   4.2678766087e+01    0.2690474    0.1668753  63.10 0.0009313915    1.721    0.419
       416 -10.6887      7.9739    133.0463   9.5781665034e+01   4.5706385644e+01    0.3421417    0.2307649  -2.06  0.002196932    2.492    0.599
       417 -10.9218      4.3854    125.0954   9.5809620182e+01   4.7652989130e+01     0.383834    0.2183752  82.71  0.002360006    1.699    0.411
       418  -8.5729    225.5471    133.5274   4.6196742035e+01   8.8901792141e+00    0.1426882    0.1324545  -1.68 0.0001389479    1.007    0.007
