#   1 NUMBER                 Running object number                                     
#   2 MAG_AUTO               Kron-like elliptical aperture magnitude                    [mag]
#   3 X_IMAGE                Object position along x                                    [pixel]
#   4 Y_IMAGE                Object position along y                                    [pixel]
#   5 X_WORLD                Barycenter position along world x axis                     [deg]
#   6 Y_WORLD                Barycenter position along world y axis                     [deg]
#   7 A_WORLD                Profile RMS along major axis (world units)                 [deg]
#   8 B_WORLD                Profile RMS along minor axis (world units)                 [deg]
#   9 THETA_WORLD            Position angle (CCW/world-x)                               [deg]
#  10 FWHM_WORLD             FWHM assuming a gaussian core                              [deg]
#  11 ELONGATION             A_IMAGE/B_IMAGE                                           
#  12 ELLIPTICITY            1 - B_IMAGE/A_IMAGE                                       
         1 -14.8758     11.7967    156.5072   1.5013867465e+02   4.0764476030e+01      5.97445     1.869106  83.25   0.02478826    3.300    0.697
         2 -13.2124    191.8700     28.2397   7.1259131412e+01   3.3188554798e+01     1.312572      1.21235  67.10  0.005909177    1.088    0.081
         3 -13.5090    205.4223      9.3725   6.4249029151e+01   3.1661457989e+01      1.62011     1.046032  41.96  0.008085554    1.816    0.449
         4 -12.9403      4.7937     10.2236   1.3599859489e+02   7.5850117722e+01     1.780544    0.4981494 -60.00  0.007743774    2.454    0.593
         5  -8.3587     37.6379    249.7286   1.4826637379e+02   2.1218294852e+01   0.08704406    0.0712077  17.07 0.0006999489    1.655    0.396
         6 -11.5911    139.2151    249.5198   1.2918274456e+02   9.1912937711e+00    0.4261223    0.2025064  36.56  0.002583134    1.459    0.315
         7 -11.1738    102.1703    247.5016   1.3603894263e+02   1.4250477926e+01    0.2541319    0.2025677  53.80  0.001339388    1.255    0.203
         8  -9.4038     29.0569    249.5244   1.4980339549e+02   2.2081588056e+01     0.213314    0.1558256  89.35  0.001799394    1.564    0.361
         9  -9.8688     33.4926    248.5041   1.4897329670e+02   2.1810257637e+01    0.2362334    0.1450724 -70.43  0.001790134    2.107    0.525
        10 -10.0708     35.9329    244.1863   1.4837721385e+02   2.2233939021e+01    0.4026212    0.1961803  15.40  0.002034329    3.772    0.735
        11  -9.8775      2.0904    248.5920   1.5450141961e+02   2.4612885981e+01    0.2813902    0.1361511  81.03  0.002078512    1.950    0.487
        12  -9.6912    162.0403    249.0290   1.2488955236e+02   6.2210247373e+00    0.1671926    0.1099599  47.71 0.0007052844    1.688    0.408
        13 -10.1050     24.3827    246.5397   1.5055244887e+02   2.2975750241e+01    0.2922519   0.04818966  45.87   0.00124738    2.697    0.629
        14 -10.2763    127.8153    245.1822   1.3092213293e+02   1.1257895290e+01    0.1540613    0.1090242  22.00  0.001078588    1.338    0.252
        15 -10.2209     82.3639    243.0210   1.3952198997e+02   1.7329686179e+01    0.4502659    0.1592051  57.81  0.002002179    3.732    0.732
        16 -10.9705    125.9410    250.1942   1.3174610335e+02   1.0845098321e+01    0.3654253    0.1171293  35.71  0.001826141    2.142    0.533
        17  -9.6397     72.0391    241.4721   1.4141758744e+02   1.8779318992e+01    0.2333698    0.1323246 -56.67  0.001535117    2.445    0.591
        18  -9.8558      5.5473    240.9916   1.5378027506e+02   2.5498067477e+01    0.2331605    0.1000407  34.89    0.0009629    1.727    0.421
        19 -10.1872      2.0000    239.9997   1.5438963412e+02   2.5946372075e+01    0.2819777    0.1117183 -79.92   0.00181952    2.771    0.639
        20 -10.1825    196.0222    240.5489   1.1772091197e+02   2.6339143975e+00    0.1747216    0.1490209 -61.11  0.001268868    2.409    0.585
        21  -9.6216     12.7383    240.8309   1.5249730664e+02   2.4910677240e+01    0.1608929    0.1138476  32.65  0.001306561    1.409    0.290
        22 -14.2312      9.0741    206.7156   1.5239586963e+02   3.0985691323e+01     10.66067          nan  33.42  0.005859739    8.546    0.883
        23 -10.0770    248.8509    249.0169   1.1008468244e+02  -4.6715152168e+00    0.2428264    0.1167829  16.90  0.001617887    1.608    0.378
        24 -10.5010    173.6969    222.3175   1.1942764532e+02   7.8441041846e+00    0.3343845    0.2640047  55.66  0.002234821    1.811    0.448
        25  -8.6520    152.4905    212.9856   1.2238199330e+02   1.2235990141e+01    0.1410578    0.1229912 -32.69 0.0003190058    1.451    0.311
        26 -11.1242      2.6356    152.6583   1.5232890442e+02   4.2225655692e+01    0.3916256    0.2437589  84.81  0.002501015    1.370    0.270
        27 -11.2814     21.4939    200.5574   1.4962647408e+02   3.1057878764e+01    0.3708408    0.1410663  47.48  0.001407596    1.856    0.461
        28 -11.1795     65.1234    199.1243   1.3993382723e+02   2.6778835167e+01    0.2960749    0.2335552 -39.96  0.001266695    1.791    0.442
        29  -9.7349    192.1960    193.4527   1.1152696956e+02   8.7996949029e+00    0.3502106    0.2222878 -60.42  0.001570197    4.016    0.751
        30 -11.0212     13.5998    197.0544   1.5118619068e+02   3.2396219409e+01    0.3197286    0.2290166  31.68  0.001135868    1.399    0.285
        31  -8.5111     51.4947    197.4375   1.4288648721e+02   2.8662349639e+01    0.1200503   0.09029904  52.45 0.0001008527    1.036    0.034
        32 -12.4342     39.8179    233.7746   1.4724040191e+02   2.3497178083e+01    0.2405443    0.2259459 -86.31 0.0007738182    1.462    0.316
        33 -11.5604     70.7865    191.1442   1.3796962056e+02   2.7605487501e+01    0.2357166    0.2289838 -28.93 0.0004691452    1.343    0.255
        34 -13.0159     67.3893    176.3375   1.3742348771e+02   3.0981410078e+01     0.450334    0.2771455 -42.31  0.001561619    2.298    0.565
        35 -10.6144     80.2914    178.3174   1.3442706124e+02   2.8905254449e+01    0.2187571    0.2039795  47.18 0.0003524471    1.142    0.124
        36  -8.5874    171.3766    173.2210   1.1227550710e+02   1.5190083755e+01    0.1520175    0.1294643 -42.36  0.000253138    1.456    0.313
        37 -11.6525     87.8296    168.6430   1.3140345826e+02   2.9834672807e+01     0.687303    0.5431719  27.70  0.004058504    1.274    0.215
        38 -14.2983     45.7637    226.3481   1.4574143382e+02   2.4110458146e+01     2.803494     1.273838  26.85  0.006391197    2.164    0.538
        39 -10.4937    189.6594    153.1042   1.0462170234e+02   1.5044598764e+01    0.4060933    0.3099009 -78.08  0.001829663    2.738    0.635
        40  -9.4494    183.6821    146.9452   1.0457875288e+02   1.7136848434e+01    0.2482824    0.2220783  87.78 0.0009426348    1.660    0.397
        41  -9.7460     99.6064    152.4757   1.2603253273e+02   3.1462579672e+01    0.2759388    0.2387937  54.74 0.0007732685    1.086    0.079
        42 -11.8276     88.1826    152.0014   1.2906483839e+02   3.3328589088e+01    0.2691075     0.248891  -8.16  0.000573343    1.289    0.224
        43 -12.2723     67.0904    143.9367   1.3389096000e+02   3.8087079583e+01    0.8038454    0.4881209  62.38   0.00367658    1.750    0.429
        44 -10.9308     57.7941    133.2079   1.3526130303e+02   4.1752526259e+01    0.7381188    0.2204831 -76.20  0.002182727    4.971    0.799
        45  -8.2270    191.9959    143.9836   1.0225091804e+02   1.6018539201e+01    0.1654757    0.1436805   2.57 0.0004148095    1.062    0.058
        46  -9.5327    101.9648    224.4886   1.3412742339e+02   1.7698928954e+01    0.1877723   0.08882526  35.93  0.001028233    1.577    0.366
        47  -8.7454    180.0574    142.8811   1.0448116527e+02   1.8497014730e+01    0.1982421    0.1841979  40.51 0.0003282631    1.224    0.183
        48  -9.5040    110.4373    137.4912   1.2047803345e+02   3.2880720191e+01    0.3507799    0.2319195 -21.30  0.001377507    2.348    0.574
        49 -10.2071     86.1504    136.2298   1.2720092441e+02   3.7171308176e+01     0.287715    0.2005094  52.58 0.0005513605    1.399    0.285
        50 -10.5164     97.5691    134.9128   1.2364645455e+02   3.5652085328e+01    0.2903833    0.2442538  20.90 0.0006140414    1.276    0.216
        51 -10.8933      4.3059    228.6204   1.5378535223e+02   2.7590259170e+01    0.2250208    0.1863555  55.82  0.001265102    1.245    0.197
        52  -9.6362    163.0744    127.6833   1.0486721358e+02   2.4557320082e+01    0.3651268    0.2493807  69.06  0.001398469    2.326    0.570
        53  -9.2657    107.3385    124.1481   1.1870861146e+02   3.6376843400e+01    0.2211507    0.1878161  28.41 0.0003463808    1.179    0.152
        54  -8.5518    102.2438    148.5535   1.2468811131e+02   3.1878953328e+01    0.1883153    0.1296305  24.21  0.000371619    1.562    0.360
        55  -8.6596     94.3205    216.3817   1.3498978061e+02   2.0024751829e+01    0.2300225     0.114858  55.75  0.001085129    2.071    0.517
        56 -10.2460    168.0323    113.1545   1.0023394613e+02   2.6124930909e+01    0.3297269    0.2921526  84.60 0.0008551653    1.453    0.312
        57  -9.1404     74.2225     86.8591   1.2111595713e+02   5.0803659716e+01    0.4327941    0.1861643  52.86  0.001409588    3.433    0.709
        58  -9.1955    156.3260     75.6897   9.2500230541e+01   3.5590452486e+01    0.1584473    0.1255585 -76.67 0.0003974752    1.658    0.397
        59 -11.4295     12.3215     64.7474   1.4299612824e+02   6.2612327681e+01    0.3710212     0.232077  31.57  0.001146197    1.781    0.438
        60 -11.1184      7.9785     63.4421   1.4484898122e+02   6.3113578583e+01    0.2538651    0.2348537  63.29 0.0004953739    1.192    0.161
        61  -8.3496     36.9734     63.9940   1.3122407902e+02   6.1115498267e+01    0.1580222    0.1479843 -51.39 0.0003954896    1.039    0.038
        62 -10.8325      1.9723     60.3336   1.4731272159e+02   6.4067711815e+01    0.4557003    0.1336486 -79.43  0.001803124    2.836    0.647
        63  -9.9275     30.0663     61.0917   1.3388133517e+02   6.2427384668e+01    0.2640966    0.1819701  31.39 0.0005060592    1.584    0.369
        64  -9.3553     13.5008     55.4984   1.4104229926e+02   6.4844590646e+01    0.1275436    0.1104381 -70.74 0.0008103859    1.039    0.037
        65 -11.4008      2.5736     49.0968   1.4573380263e+02   6.6793841794e+01    0.5875883    0.1593794 -73.88   0.00232457    2.818    0.645
        66 -10.8542      2.2160     37.2967   1.4424607626e+02   6.9647116439e+01    0.3310807    0.1861639  82.71  0.001743418    1.921    0.479
        67  -9.9050     81.6739    248.7598   1.4003497343e+02   1.6568382577e+01    0.2316977    0.1183429  59.37  0.001442903    1.981    0.495
        68  -8.9927     47.4021    249.3025   1.4646955716e+02   2.0293543912e+01    0.1238936   0.07806931  68.35 0.0003927374    1.489    0.328
