#   1 NUMBER                 Running object number                                     
#   2 MAG_AUTO               Kron-like elliptical aperture magnitude                    [mag]
#   3 X_IMAGE                Object position along x                                    [pixel]
#   4 Y_IMAGE                Object position along y                                    [pixel]
#   5 X_WORLD                Barycenter position along world x axis                     [deg]
#   6 Y_WORLD                Barycenter position along world y axis                     [deg]
#   7 A_WORLD                Profile RMS along major axis (world units)                 [deg]
#   8 B_WORLD                Profile RMS along minor axis (world units)                 [deg]
#   9 THETA_WORLD            Position angle (CCW/world-x)                               [deg]
#  10 FWHM_WORLD             FWHM assuming a gaussian core                              [deg]
#  11 ELONGATION             A_IMAGE/B_IMAGE                                           
#  12 ELLIPTICITY            1 - B_IMAGE/A_IMAGE                                       
         1 -10.7304     32.9446     63.8420   1.1017710174e+02   5.9680564653e+01     1.623361    0.5229862 -41.69  0.005995669    3.752    0.733
         2 -10.3595     10.0407     19.1203   1.0714738515e+02   7.0752831042e+01     1.233157    0.3901888 -29.52  0.003893148    6.651    0.850
         3  -9.5958     26.7271     23.7715   1.0056674973e+02   6.8528327229e+01    0.8637452    0.3244282 -30.28  0.003151266    4.302    0.768
         4 -10.8086    134.0138     31.0487   6.6286783799e+01   4.8013446884e+01    0.4250871    0.2932536  -7.07            0    1.668    0.401
         5 -10.1155     69.5393     40.5079   8.9105602877e+01   5.9959984760e+01    0.9140455    0.3527347 -41.33   0.00358098    2.355    0.575
         6  -8.3478     72.1093      8.3307   7.3792779616e+01   6.4617818997e+01    0.2322439    0.1664043 -21.83 0.0005385368    1.286    0.222
         7 -10.0820     73.5729     17.7752   7.7888746709e+01   6.3058054247e+01     1.034174    0.2395357 -33.48  0.003280093    4.126    0.758
         8  -9.7396     63.9655      3.0277   7.4008294177e+01   6.6758274138e+01    0.5078297    0.3885827  11.23  0.003111009    1.206    0.171
         9  -9.5646     63.2995     21.7151   8.3582532126e+01   6.4213851135e+01    0.4795627    0.2938945 -46.10 0.0009620939    1.762    0.433
        10 -10.1894     64.5294     13.0401   7.8965227875e+01   6.5327149193e+01    0.5639885    0.4802688 -57.95  0.001652075    1.639    0.390
        11 -10.0872     46.2860     29.6287   9.4028536592e+01   6.5286407449e+01     0.483121    0.2541055 -56.55   0.00106971    2.278    0.561
        12  -9.8186     51.8063     13.7984   8.4530147317e+01   6.7232637789e+01    0.6001413    0.3533974  18.26  0.002604406    2.091    0.522
        13  -9.2615    103.0512     21.0156   6.9995291962e+01   5.6660842425e+01    0.4263587     0.207161 -30.88  0.001334141    1.995    0.499
        14  -8.9186    128.5836     24.9489   6.5169259386e+01   5.0164415230e+01    0.5245123    0.2862853 -16.44   0.00140528    2.087    0.521
        15  -9.0290    112.3901     15.4938   6.5150555352e+01   5.5228564950e+01    0.4553689    0.2343139 -45.81  0.001289173    2.417    0.586
        16  -8.8970    114.1050      9.9591   6.2353600188e+01   5.5450798887e+01    0.3018166    0.1936302  31.65  0.000312711    1.593    0.372
        17  -8.4574     97.0110     12.4760   6.7894276069e+01   5.9069507233e+01    0.4170073    0.2321953  13.85  0.001726338    2.514    0.602
        18 -10.7016     37.3579      9.6011   8.9018680721e+01   6.9856167242e+01    0.9465415    0.3981448 -47.32   0.00305865    2.520    0.603
        19 -10.1289     27.1615     10.8591   9.4737289156e+01   7.0812567731e+01    0.8351916    0.4241873  28.54  0.004662548    2.234    0.552
        20  -8.9127     19.1523      9.1952   9.8181349249e+01   7.1875631884e+01     0.344957    0.1990888 -12.51  0.001275744    2.067    0.516
        21  -9.8443     18.1732      3.9291   9.6153058091e+01   7.2865543151e+01    0.5071326    0.3004858  35.33   0.00256006    2.138    0.532
        22  -9.5659      2.4331     14.5419   1.0955006209e+02   7.2094668387e+01    0.4821933    0.2384864 -72.78  0.002182325    2.688    0.628
        23 -10.3717      5.2092      4.4509   1.0392012125e+02   7.3802694856e+01    0.4512779    0.3387361 -40.27  0.001674911    1.051    0.049
        24  -9.4637     85.3056     13.1538   7.1724672437e+01   6.1443300876e+01    0.5458928    0.2668869 -44.03    0.0021083    2.519    0.603
        25  -7.8386     80.4794     12.5534   7.3006379553e+01   6.2479070460e+01    0.2491156    0.1368552 -45.42 0.0009916077    2.279    0.561
        26  -8.8095    131.7204      8.0676   5.7787592434e+01   5.1307972862e+01    0.5250102    0.2161402 -42.60  0.001944508    2.857    0.650
        27  -7.8214    141.4599     12.3003   5.7597756048e+01   4.8380196296e+01    0.2003996    0.1307631 -35.94 0.0009428537    1.597    0.374
        28  -8.7270    102.6360      8.9251   6.4740974443e+01   5.8229706736e+01    0.4408587    0.2443156 -55.00  0.001446804    2.975    0.664
        29  -8.1404    137.7293      8.4125   5.6783938727e+01   4.9738993684e+01    0.3758188    0.1360318 -13.55  0.001222917    3.592    0.722
        30  -8.5527    127.0735      9.1458   5.9155779106e+01   5.2368597708e+01    0.2281257    0.1715943  35.47 0.0004772434    1.284    0.221
        31  -9.3866    110.2618      5.2646   6.1199960589e+01   5.6851900446e+01      0.56279    0.2677202 -22.96  0.002445395    2.102    0.524
        32  -8.1453     97.5426      5.9718   6.4730672374e+01   5.9693270821e+01    0.2412892    0.1720927   3.26 0.0007430464    1.435    0.303
        33  -8.1850     95.7706      2.9919   6.3797860227e+01   6.0398046327e+01    0.1958421    0.1800569 -37.69 0.0003734546    1.265    0.209
        34  -8.3611     77.0162      6.5001   7.1173814242e+01   6.3913203006e+01    0.2135632    0.1786433  -6.92 0.0004002882    1.077    0.072
        35  -8.5793     78.8523      3.1286   6.8855170097e+01   6.3944278230e+01    0.2796939    0.2187042 -24.30 0.0008397032    1.267    0.211
        36  -8.2958    143.0285      5.0359   5.4539920761e+01   4.8691185908e+01    0.3274735      0.15074 -44.59  0.001050418    2.537    0.606
        37  -8.7406    125.8793      5.2107   5.7779001961e+01   5.3057745926e+01     0.324563    0.2045546  15.48   0.00150577    1.829    0.453
        38  -8.1053    120.7898      5.8606   5.9103125324e+01   5.4255619706e+01    0.1894867    0.1668662 -65.07 0.0005936646    1.346    0.257
        39  -8.7868    115.1933      4.3738   5.9680615603e+01   5.5763229478e+01    0.2565025    0.2099628 -38.94 0.0005334317    1.354    0.262
        40  -8.5442     89.0022      2.8042   6.5592698318e+01   6.1887012967e+01    0.2330083    0.1768768 -16.28 0.0008235828    1.270    0.212
        41  -7.9853    104.4911      2.1495   6.1172045141e+01   5.8508017855e+01    0.2289975    0.1651703  31.26 0.0007610861    1.311    0.237
        42  -7.8720    151.4745      1.5370   5.1874896507e+01   4.6790104710e+01    0.1413168    0.1331492  61.66 0.0008088518    1.024    0.023
        43  -7.6740    136.2618      1.5409   5.4347018941e+01   5.0760187394e+01    0.2059447    0.1173209  52.94 0.0004091106    1.574    0.365
        44  -8.7451    240.1409    124.9448   7.3550520415e+01   8.3547747159e+00    0.1955307    0.1754053 -35.39 0.0004178161    1.255    0.203
        45  -9.3912    209.1071    249.5967   1.0095675758e+02  -1.3423185178e+00    0.2259587     0.119397  46.12  0.001426438    1.697    0.411
        46 -10.5756    202.2736    249.1617   1.0198756276e+02  -3.0377024221e-01    0.4667099    0.2137412  50.31   0.00256869    2.368    0.578
        47  -9.6280    185.9747    249.8575   1.0469294705e+02   2.0244192974e+00    0.2613501     0.145627  21.59  0.001555451    2.150    0.535
        48 -10.3413    140.6635    118.2851   9.1495656671e+01   3.0791092019e+01    0.8255504    0.3525572 -45.35  0.002578363    2.401    0.584
        49  -9.5501     41.5044    122.1516   1.1782763507e+02   4.5722804889e+01    0.5041298    0.2169288 -83.00  0.002035642    2.760    0.638
        50  -7.3936    178.9148    124.6251   8.4570290402e+01   2.1377266384e+01    0.1890556    0.1355982  59.30 0.0001818638    1.539    0.350
        51 -10.0248    110.7831     90.0151   9.1962049350e+01   4.2668919562e+01     2.453655    0.9525843  29.27  0.004556241   11.590    0.914
        52  -9.1902    129.7964     97.1808   8.8873032202e+01   3.7325072689e+01    0.4708868    0.2941546  23.44  0.001884148    2.390    0.582
        53 -10.2361    123.7902     90.9724   8.8735667569e+01   3.9846697302e+01    0.6876437    0.4243791 -40.72  0.002169577    1.624    0.384
        54 -10.5505    131.5789    119.4126   9.3925862483e+01   3.2420833101e+01    0.8796663    0.5382892  80.58   0.00271716    3.406    0.706
        55 -10.8325    133.6302    109.7521   9.1134474369e+01   3.3969505037e+01    0.9311941    0.3889159 -47.80  0.003308938    2.456    0.593
        56 -10.0101    127.9499    102.5758   9.0747787033e+01   3.6610325188e+01    0.5343348    0.4126207  81.87  0.002191992    1.659    0.397
        57 -11.0797    120.8991    109.2377   9.4190896575e+01   3.6649218709e+01     1.639909    0.5920976 -48.74  0.003200817    2.783    0.641
        58 -10.8272    108.6086    100.5556   9.5294750242e+01   4.0850223494e+01     1.059005    0.7516671 -74.49  0.005014383    1.769    0.435
        59  -9.5287    153.6644    117.0232   8.8193087887e+01   2.8278036794e+01    0.7142009    0.3458852 -62.27  0.002065602    4.716    0.788
        60 -10.1150    108.6734    114.5586   9.8569912457e+01   3.7831620456e+01    0.6087817    0.3873042 -82.78  0.001409519    2.462    0.594
        61  -8.1526    152.4061    121.7684   8.9604084237e+01   2.7637750259e+01    0.2026928    0.1414021 -31.54 0.0009482708    1.604    0.376
        62  -8.2648    158.9821    122.7959   8.8377971889e+01   2.6036309518e+01    0.3104323    0.2148603  88.55  0.001282748    2.462    0.594
        63 -10.1691     91.8672    112.9514   1.0267026142e+02   4.1085152232e+01     0.601953    0.4375712 -83.51  0.001623365    1.596    0.373
        64  -8.9978     93.8678    103.1531   9.9963484805e+01   4.2913464522e+01    0.7079213    0.3028513  30.74  0.002514589    3.386    0.705
        65  -8.1762      1.4351    116.4992   1.2763503005e+02   5.0295898767e+01    0.2319593   0.08634727 -78.77 0.0007222752    2.106    0.525
        66 -10.2364     15.3239    112.3423   1.2361584890e+02   5.0248183737e+01    0.6487789    0.2671882  61.17  0.002870931    2.934    0.659
        67 -10.2385     78.1800    112.9490   1.0639551239e+02   4.3210911412e+01    0.5143766    0.3114398 -85.62  0.001641704    2.252    0.556
        68  -8.7481    158.8187    112.1566   8.5843681473e+01   2.8074746328e+01    0.2590403    0.1935979 -51.34 0.0005988562    1.442    0.306
        69 -10.2609     67.0145    104.1611   1.0781150738e+02   4.6762317175e+01    0.7628145    0.4523689  16.28  0.003455084    2.739    0.635
        70  -9.4863     63.4613     87.1595   1.0525995048e+02   5.1072390608e+01    0.7583684     0.404706 -41.43  0.003515809    2.050    0.512
        71  -9.2468     59.2706    109.4366   1.1101117142e+02   4.6568492378e+01    0.4201143    0.2386352 -83.56   0.00133731    2.126    0.530
        72 -10.9224     21.0608    101.6468   1.2076036911e+02   5.2193428346e+01     1.311149    0.5440663  77.09  0.003069069    4.218    0.763
        73  -9.8109    191.4939    249.5070   1.0375951026e+02   1.2458464197e+00    0.2159727    0.1250534  43.90  0.001443305    1.366    0.268
        74  -9.2973     43.9002     53.8263   1.0339732051e+02   6.0745033150e+01    0.3177722    0.2717052  75.45  0.001030596    1.478    0.323
        75  -9.1741     54.2059     37.0788   9.3675885227e+01   6.2860205982e+01    0.5835475    0.1832881 -40.77  0.002187776    2.975    0.664
        76  -9.8994     19.9914     85.2066   1.1875062947e+02   5.5971966983e+01    0.9833694    0.2238068 -68.48  0.003669896    3.424    0.708
        77 -10.6683     25.5289     77.9678   1.1572141625e+02   5.7170358124e+01    0.7388044    0.3918313 -88.51  0.002227992    2.338    0.572
        78 -10.0828     36.9720     81.0633   1.1249890471e+02   5.5464907866e+01    0.7219925    0.3875582 -20.30  0.003056586    3.673    0.728
        79  -8.9712     35.4526    110.5593   1.1788589741e+02   4.8931252664e+01    0.2552671    0.1482274  88.54 0.0009109249    1.803    0.445
        80  -9.0762    149.5659    109.9956   8.7402799153e+01   3.0523510271e+01    0.2719199    0.2572678  18.00 0.0009193859    1.091    0.083
        81 -10.1152    139.6673    104.0198   8.8223535232e+01   3.3845396256e+01    0.7101188    0.3701899 -46.27  0.001432589    1.952    0.488
        82 -10.9477     44.7157    102.4821   1.1399712657e+02   4.9825163184e+01    0.7750539    0.3792582  70.36  0.003095216    3.499    0.714
        83  -9.1531     39.4506    106.3757   1.1614498759e+02   4.9484862643e+01    0.3767216    0.1821849  54.38  0.001741886    2.425    0.588
        84  -8.2692     78.6937    105.0474   1.0464986611e+02   4.4906120072e+01    0.3494756     0.235605 -13.99  0.001553507    2.708    0.631
        85  -9.5686     81.4436    100.1454   1.0279842900e+02   4.5586138536e+01     0.437663     0.258413 -70.47  0.001070061    1.966    0.491
        86  -8.1642     82.3307     94.3141   1.0119496233e+02   4.6746408971e+01    0.3312218    0.2344365 -12.76  0.001556911    2.243    0.554
        87  -9.3658      6.3095    103.7307   1.2517429503e+02   5.2776706098e+01     0.410343    0.1953115  67.32  0.001519395    2.336    0.572
        88  -8.3252     14.0704    104.9530   1.2314635546e+02   5.1979781679e+01    0.1770519    0.1420389 -76.64 0.0005519136    1.063    0.059
        89  -9.6189    149.5132    103.3601   8.5719213589e+01   3.1819334889e+01    0.4092603    0.2885809 -49.16 0.0008472106    1.482    0.325
        90  -9.0091    165.5675    102.7223   8.1944314831e+01   2.8305073565e+01    0.4645771    0.2357196 -44.09  0.001189852    2.041    0.510
        91 -10.4790     63.0145     95.7269   1.0727552554e+02   4.9199917402e+01    0.6500034     0.367603 -83.29   0.00161111    2.535    0.605
        92  -8.5518    159.1534    101.4726   8.3026795332e+01   3.0005428791e+01    0.3048634    0.2360001 -75.41 0.0006860971    1.708    0.414
        93  -9.4494     94.3286     97.3061   9.8447747997e+01   4.4117982698e+01    0.3542873    0.2795941 -89.71 0.0007083372    1.499    0.333
        94  -8.7147     95.6905     91.2834   9.6549604172e+01   4.5193201695e+01    0.4452482    0.2819134 -21.21  0.001829563    2.630    0.620
        95  -9.4732    241.5942     96.6498   6.6647765032e+01   1.1955029848e+01    0.4460627    0.1867238  59.09  0.001743198    2.833    0.647
        96  -8.9086    150.3693     96.6630   8.3739618681e+01   3.2912949635e+01    0.3072331    0.2157457  13.86  0.001303907    2.045    0.511
        97  -9.7401    221.5456     95.2468   6.9392366448e+01   1.6556058437e+01    0.2468603    0.2366383  18.10 0.0003235403    1.061    0.057
        98  -7.5739    171.3433     95.8067   7.8863572694e+01   2.8209113755e+01    0.2112686    0.1422171 -24.88 0.0003851302    1.640    0.390
        99 -10.2693      4.3435     89.5442   1.2419599366e+02   5.6033943156e+01    0.7108631    0.2831014  85.89  0.001960787    3.081    0.675
       100  -9.4847      5.9814     79.0537   1.2235920940e+02   5.8266474029e+01    0.5845606    0.2355861 -40.49  0.002803508    3.001    0.667
       101  -8.3956    164.3281     94.6406   8.0047576542e+01   3.0067602553e+01    0.2532912    0.2262786 -73.59 0.0005990139    1.274    0.215
       102  -9.6578    138.8903     92.7080   8.5394301353e+01   3.6251225879e+01    0.4330967    0.3368063 -73.86 0.0008539766    1.627    0.385
       103  -9.8996    140.4168     82.0176   8.1968477543e+01   3.7972019054e+01    0.8866441    0.3635243 -36.64  0.001502554    2.526    0.604
       104  -9.1877    139.8618     75.6160   8.0182167306e+01   3.9301466741e+01    0.4680229    0.2235449 -39.12  0.001639103    2.070    0.517
       105  -8.7772    157.5078     91.6367   8.0726315720e+01   3.2213901468e+01    0.3500849    0.2123272 -63.32  0.001320311    2.533    0.605
       106  -8.3526    226.2200     91.6123   6.7722005898e+01   1.6034342360e+01    0.2404239    0.1765158  42.00 0.0006487765    1.395    0.283
       107  -9.4163    150.3723     89.5049   8.1758762238e+01   3.4268710823e+01    0.5396937    0.2602954 -31.44  0.001981657    2.385    0.581
       108  -9.8336     81.6282     72.4791   9.5660215244e+01   5.1614633136e+01    0.4043503    0.2962392 -80.62 0.0009779774    1.857    0.461
       109  -9.1735     83.4511     64.8180   9.2754353087e+01   5.2912066870e+01    0.5794857    0.3575849 -16.16  0.002370436    2.732    0.634
       110 -10.2042     85.3153     86.5516   9.8380818052e+01   4.7979527888e+01    0.4776922    0.3419541 -86.88  0.000969109    1.904    0.475
       111  -8.4355    163.4505     86.5533   7.7981525769e+01   3.1734467761e+01    0.3546594    0.1952448 -28.23  0.001395731    2.037    0.509
       112 -10.2900     47.8857     83.5111   1.0942669578e+02   5.3785678176e+01    0.7100229    0.3389506 -66.96  0.001963604    2.002    0.501
       113  -7.6484    231.5716     85.8291   6.5430922797e+01   1.5658411628e+01    0.2034454    0.1226217 -39.17 0.0005859367    1.609    0.378
       114  -7.5184    116.4453     85.2096   8.9078202649e+01   4.2536675044e+01    0.2047656    0.1378312 -56.72 0.0009288647    1.616    0.381
       115 -10.3863    104.0075     82.6404   9.1817397312e+01   4.5516096169e+01    0.5488656    0.3225967 -57.95 0.0008849208    1.909    0.476
       116  -9.2986    105.4720     71.2104   8.7996123887e+01   4.7575261119e+01    0.6908566    0.4048584 -31.12  0.002962138    1.944    0.486
       117  -6.9055    217.2984     84.3970   6.7268086293e+01   1.9141110871e+01    0.1572239    0.1092551  13.03 0.0007003082    1.810    0.447
       118  -9.2043    157.8223     83.0282   7.8205657772e+01   3.3712048704e+01    0.5215012    0.2304969 -33.15  0.001266919    2.399    0.583
       119  -8.7749    157.1843     75.9429   7.6251823592e+01   3.5129469861e+01    0.4585595    0.2160251 -34.75  0.001336567    2.139    0.532
       120  -7.6734    170.2036     83.2095   7.5588214783e+01   3.0696391333e+01    0.2184147    0.1812072 -62.99  0.001065496    1.386    0.278
       121  -8.3644    150.0610     80.8788   7.9339500393e+01   3.5944933552e+01    0.2908033    0.2048108 -53.59 0.0004363616    1.587    0.370
       122  -7.8589    150.6458     76.7133   7.7960592648e+01   3.6564434578e+01    0.2197917    0.1596838 -16.24 0.0009819954    1.629    0.386
       123  -9.1229    115.2871     72.5253   8.5620776997e+01   4.5321694487e+01    0.5701317    0.2633456 -39.16  0.001304466    2.153    0.536
       124  -8.7926    119.1611     80.6400   8.7019452262e+01   4.2901785453e+01    0.3254294    0.2448433 -56.72 0.0007304532    1.426    0.299
       125  -8.2057    119.8583     75.9205   8.5416196041e+01   4.3692150385e+01    0.3140192    0.2026484  37.04 0.0007643241    1.683    0.406
       126  -9.1462     74.1773     79.4151   9.9960218685e+01   5.1282676491e+01    0.5771469    0.2415657 -55.81  0.001157293    2.278    0.561
       127  -9.9766     65.9655    111.1085   1.0943149027e+02   4.5331485739e+01    0.4469149    0.3213637  67.68  0.001350482    1.520    0.342
       128  -7.8455    166.3025     78.6607   7.5086359042e+01   3.2434590438e+01     0.239686    0.1530337 -38.05 0.0005454056    1.558    0.358
       129  -8.2562    165.9900     75.2451   7.4140970159e+01   3.3098613717e+01    0.2909949    0.2628456 -62.14  0.000772482    1.202    0.168
       130  -8.0418    162.5546     73.0708   7.4216367353e+01   3.4316407277e+01    0.2757027    0.2118567 -54.46 0.0006157935    1.446    0.308
       131 -10.0333     50.0458     53.8882   1.0107061816e+02   6.0024128596e+01    0.6428413    0.3202352 -62.68  0.002144288    2.251    0.556
       132  -8.7448    248.6414     78.0626   6.1089898801e+01   1.2956664956e+01     0.195642    0.1680033 -18.78 0.0006002677    1.068    0.064
       133  -8.1306    184.1507     78.1297   7.1346768703e+01   2.8130152258e+01      0.23609    0.2014441  19.10 0.0006398344    1.259    0.206
       134  -9.3379     87.4036     78.6653   9.5620830824e+01   4.9338415935e+01    0.5517705    0.3502809  19.96  0.001978836    2.278    0.561
       135  -9.4063    127.3317     75.2917   8.3241350944e+01   4.2197328183e+01    0.3572757    0.2591474 -61.64  0.000640234    1.660    0.397
       136  -9.2547     87.6171     57.5259   8.9021820050e+01   5.3652766535e+01    0.7741652    0.3026899 -36.07  0.002763031    2.879    0.653
       137 -10.3376     89.5407     38.5545   8.1418340005e+01   5.6787683743e+01     0.952279    0.4048452  31.91  0.003273796    3.569    0.720
       138  -9.4358     55.7278     63.0143   1.0167697959e+02   5.7388759727e+01    0.4234101     0.301802 -10.65  0.001664118    1.875    0.467
       139 -10.1005     62.4950     60.7705   9.8609743533e+01   5.6972187588e+01    0.7787278    0.2758661  35.15  0.002431364    3.190    0.687
       140 -10.2297     85.1121     47.9176   8.6452761313e+01   5.5940401911e+01    0.4455199    0.3327271 -62.81 0.0009483696    1.702    0.413
       141  -9.9803     73.5187     57.2308   9.3634004790e+01   5.6079512828e+01     1.167394    0.3903542 -40.37  0.002879126    3.113    0.679
       142  -9.1480     80.0592     46.2478   8.7541601680e+01   5.7143921983e+01    0.3893344    0.2047431 -39.95 0.0005508663    1.759    0.431
       143  -9.8983     15.9703     70.6338   1.1767691830e+02   5.9517155978e+01    0.5449408    0.2287171 -50.35  0.001379211    2.039    0.509
       144  -8.9974    244.7822    245.1379   9.4815911059e+01  -5.9856751866e+00    0.1858947    0.1189003  27.39 0.0003066909    1.104    0.094
       145  -9.8301     17.0905     61.1535   1.1546798458e+02   6.1536075619e+01     0.746901    0.2123762 -60.67  0.003273633    2.458    0.593
       146 -10.7953     21.8668     53.4718   1.1192229728e+02   6.2865250951e+01    0.8035227    0.4143666  87.41  0.002865889    4.058    0.754
       147 -10.7267     23.2612     34.1856   1.0591485532e+02   6.6795466959e+01    0.5596981     0.439827 -13.32  0.003360916    1.375    0.273
       148  -8.7819    158.5040    244.9788   1.0863779193e+02   6.6819891318e+00    0.1311295    0.0909881  86.51 0.0008099699    2.554    0.608
       149 -10.2272     12.5343     45.6035   1.1381791177e+02   6.5198486256e+01    0.7834122    0.3878369 -18.01  0.003059628    2.980    0.664
       150 -10.2910      4.6269     42.3073   1.1639188956e+02   6.6349832388e+01    0.7162372    0.2666876 -63.86  0.003297575    1.985    0.496
       151  -9.5637      6.8246     32.7909   1.1304048257e+02   6.8218341132e+01    0.2854612    0.1993005 -28.71  0.000796204    1.446    0.308
       152 -10.1723      7.1849     28.4195   1.1162501362e+02   6.9089517374e+01    0.3181391     0.263191  66.17  0.001023658    1.647    0.393
       153  -7.2761    175.3345     72.6779   7.1469789777e+01   3.1211662348e+01    0.1596404    0.1201862 -70.04 0.0007050281    1.706    0.414
       154  -9.3773    147.0681     69.3604   7.6525480223e+01   3.8734300774e+01     0.444126    0.2761688 -58.15 0.0008763969    2.114    0.527
       155  -8.2892    169.4341     71.0862   7.2179649121e+01   3.2946398714e+01    0.2324529    0.1481971 -35.32  0.000434644    1.554    0.357
       156  -8.5077    156.7045     69.6158   7.4426625466e+01   3.6347735025e+01    0.4629425    0.2384969 -25.71  0.001573267    2.266    0.559
       157  -8.1167    157.6610     63.2319   7.2217199449e+01   3.7188394989e+01    0.2729174    0.2027614 -48.98 0.0007848735    1.438    0.304
       158  -9.1102    129.9486     57.2096   7.6706752202e+01   4.4920703200e+01    0.6210933    0.2563764 -39.63  0.002120254    2.370    0.578
       159  -8.9193    138.0154     66.4385   7.7754704607e+01   4.1406088979e+01    0.3129536     0.276716 -50.92 0.0009731981    1.180    0.153
       160  -8.3486    138.8020     62.1673   7.6175101320e+01   4.1974255322e+01    0.3122454    0.2277949  12.12  0.001132374    1.780    0.438
       161  -9.0745    129.2574     69.0293   8.0782637067e+01   4.2952273793e+01    0.5926555    0.2940985  29.57  0.001914359    3.454    0.710
       162  -8.4792    130.4884     64.2178   7.8911642632e+01   4.3554318157e+01    0.4943741     0.193687 -37.36  0.001731525    2.516    0.603
       163  -9.8830     94.8854     68.1863   9.0209956333e+01   5.0204574840e+01    0.4833912    0.2602583 -50.86 0.0008323462    1.866    0.464
       164  -9.2181     97.6008     57.9212   8.6010807204e+01   5.1718733419e+01    0.7081621    0.4440874  -8.13  0.002789633    2.784    0.641
       165  -9.9699     34.5303     90.6281   1.1505512219e+02   5.3531848792e+01      0.56817    0.2502134 -82.92   0.00229856    3.128    0.680
       166  -9.3569    118.3688     54.7483   7.8895573559e+01   4.7984597035e+01     0.571323    0.3166659 -35.56  0.001448216    1.772    0.436
       167  -8.9693    121.1994     66.1658   8.1981130059e+01   4.5279074437e+01    0.3344403    0.2517343 -57.63 0.0006322255    1.513    0.339
       168  -9.6088    122.6648     60.1769   7.9604734162e+01   4.6057781664e+01    0.3089861    0.2699212 -17.73 0.0002078863    1.166    0.142
       169  -8.9403    121.1001     47.0772   7.5425956303e+01   4.8681867372e+01    0.3571655    0.2119737 -41.58 0.0004570817    1.704    0.413
       170  -8.1274    122.2772     41.4721   7.3051324813e+01   4.9313803082e+01    0.5033735    0.2837446  16.75  0.001738244    3.272    0.694
       171  -9.3069    109.8531     63.8718   8.4378671218e+01   4.8128882147e+01    0.4056706    0.2640105 -56.77 0.0007228475    1.823    0.451
       172  -8.7516    110.7502     58.1230   8.2187398613e+01   4.9022808746e+01    0.3649405    0.2666753  13.17  0.000779773    1.762    0.433
       173  -7.7890     75.6580     65.8692   9.5639018452e+01   5.3962448726e+01    0.1980824     0.119848 -57.43 0.0009340541    1.696    0.410
       174  -7.9859    170.5543     65.0135   7.0104736481e+01   3.3658687517e+01    0.2323624    0.1508633 -29.89 0.0005664459    1.555    0.357
       175  -7.9814    147.5083     63.9128   7.4691872820e+01   3.9576277454e+01    0.2423954    0.2034357  51.08 0.0007078238    1.191    0.161
       176  -9.5168     56.4792     43.0915   9.5006450637e+01   6.1393491933e+01    0.6736778    0.3775529 -11.28   0.00260599    3.666    0.727
       177  -7.8031    164.4382     60.2687   6.9857809833e+01   3.5966774700e+01    0.2129788    0.1408413 -43.25 0.0009325565    1.553    0.356
       178  -7.9715     10.1115     59.6812   1.1779273051e+02   6.2304651314e+01    0.1691393    0.1373932  64.95 0.0009761904    1.455    0.313
       179  -8.1273    152.7766     53.4520   7.0091150933e+01   3.9996655542e+01     0.364933    0.1788348 -45.52 0.0009036527    2.246    0.555
       180  -8.7981    147.0169     56.8385   7.2490163742e+01   4.0885537299e+01    0.8333434    0.3294525 -21.28  0.002246853    4.631    0.784
       181  -8.5207    149.8782     48.4158   6.9020124397e+01   4.1511685276e+01    0.2988283    0.2119427 -39.76 0.0005911654    1.429    0.300
       182  -8.6176    138.8736     56.7389   7.4351086927e+01   4.2887356153e+01    0.3206221    0.2074722 -43.06 0.0005962951    1.581    0.367
       183  -7.5240    138.7699     52.3851   7.2892892785e+01   4.3634847901e+01    0.2623219    0.1878853  14.93 0.0008235401    1.774    0.436
       184  -8.4643    141.9851     48.7736   7.0897194564e+01   4.3426811560e+01    0.3031616    0.2192448 -29.97 0.0006076533    1.385    0.278
       185  -7.9752    157.6178     56.1990   6.9964365641e+01   3.8340789486e+01    0.2038717    0.1472538 -17.99 0.0003149796    1.517    0.341
       186  -9.5136    162.4392     53.3295   6.8036735006e+01   3.7563340348e+01    0.4434526    0.2843615 -39.36  0.001425789    1.565    0.361
       187  -8.9734    105.3937     51.9218   8.1562951667e+01   5.1273566809e+01    0.5356526    0.2546435 -36.74  0.001891831    2.047    0.511
       188  -6.7399    172.3103     50.2996   6.5149327061e+01   3.5474507523e+01     0.157637     0.114907  25.65 0.0003591742    1.601    0.375
       189  -9.6145    130.6378     46.1468   7.2660097946e+01   4.6601492408e+01    0.8980332    0.3731367 -22.60  0.001797603    3.398    0.706
       190  -8.6414    132.7503     35.9960   6.8433942893e+01   4.7631699999e+01    0.3330181    0.2169563 -25.46 0.0004545231    1.563    0.360
       191  -7.4774    103.4661    238.4592   1.1726222325e+02   1.5576325924e+01    0.1091781   0.08046564  53.63 2.337788e-05    1.008    0.007
       192  -9.2523    218.4737     46.6417   5.6799208859e+01   2.4131757210e+01    0.3812827    0.2629066 -22.77  0.001293634    1.452    0.311
       193  -8.5856    111.9087     46.9754   7.7889842978e+01   5.0754078315e+01    0.2656015    0.2046755 -42.85 0.0004552912    1.318    0.241
       194  -8.4757    113.2471     42.1722   7.5723006582e+01   5.1258332440e+01    0.3625331     0.204257  22.38  0.001341346    2.834    0.647
       195 -10.1248    187.8070    234.6816   1.0248866031e+02   3.4289089027e+00    0.3408388    0.2112181  27.80  0.002197258    1.462    0.316
       196 -10.1167    138.6297    231.4365   1.1051530241e+02   1.1448912471e+01      0.20202    0.1563868  46.86 0.0002028356    1.018    0.018
       197  -7.3918     10.5643    220.4615   1.3163007475e+02   2.9368452166e+01   0.09639651   0.06824856  69.64 0.0001149647    1.066    0.062
       198  -9.8070     76.0965     31.9043   8.3272962130e+01   6.0386614842e+01     0.377409    0.3193694  61.48  0.001016478    1.534    0.348
       199  -9.2426     71.6396     26.2813   8.2470165525e+01   6.2089736246e+01    0.3622583    0.2287524  35.69  0.001892219    1.664    0.399
       200  -9.7407     79.4326     23.9436   7.8655003936e+01   6.1063439382e+01      0.58549    0.3127322  23.13  0.001950034    2.718    0.632
       201  -8.7371     84.7933     21.7734   7.5874768836e+01   6.0364258962e+01    0.2468064    0.2038067 -39.21 0.0006358695    1.300    0.231
       202  -9.9592     37.7929     41.9815   1.0215812022e+02   6.3857325888e+01    0.3841254    0.2861912 -86.36  0.001385531    1.951    0.487
       203 -10.4518     35.9032     37.9661   1.0160972990e+02   6.4863131575e+01    0.4655181    0.2732993 -23.49 0.0003424969    2.062    0.515
       204  -9.0566    139.9340     40.8027   6.8547721893e+01   4.5153572083e+01    0.6444264    0.3422987 -56.70  0.002172201    2.906    0.656
       205  -9.8610    152.8857     40.9239   6.5812011831e+01   4.1857417614e+01    0.4518848    0.3545063  -1.40  0.001803856    1.434    0.303
       206  -8.9976    110.3723     33.2068   7.3029272359e+01   5.3302981994e+01    0.3241672    0.2342016 -47.94 0.0008144176    1.562    0.360
       207  -9.1102    104.9537     41.2091   7.7709549940e+01   5.3219933207e+01    0.4092442    0.2571382 -54.66 0.0008887592    2.065    0.516
       208  -8.4904    106.2980     36.1668   7.5351256477e+01   5.3745392305e+01    0.2942047    0.2288613  14.18 0.0007973437    1.406    0.289
       209  -8.1941    191.7184     38.5625   5.8206156113e+01   3.2018062636e+01    0.3438042    0.2174901 -66.63 0.0008860681    2.031    0.508
       210  -9.0982    157.4116     48.3171   6.7403855062e+01   3.9611923358e+01    0.5640565    0.2172993 -42.78  0.001510706    2.776    0.640
       211  -8.7752    144.0831     36.5359   6.6101595271e+01   4.4726310505e+01    0.2764642    0.1938899 -45.22 0.0005626358    1.529    0.346
       212  -8.6800    118.9240     34.8900   7.1409706248e+01   5.1100493169e+01    0.3151975    0.1930212 -37.03 0.0006826011    1.631    0.387
       213  -8.7920    153.2092     34.7786   6.3602278040e+01   4.2628157322e+01    0.2197566    0.2062617 -87.48 0.0009084578    1.141    0.123
       214  -7.3799    140.7397    217.3634   1.0850374464e+02   1.3131363821e+01    0.1558743    0.0915253  38.28  0.000234243    1.459    0.315
       215  -9.3023     60.2043     33.8198   9.0014675266e+01   6.2618194616e+01    0.4515786    0.2328523 -48.22  0.001977114    1.900    0.474
       216  -8.4345     63.0278     26.4871   8.5825460605e+01   6.3472770443e+01    0.3649797    0.1958933  32.04  0.001633776    2.084    0.520
       217 -10.1032     11.3946    207.2519   1.3094892632e+02   3.1539662751e+01    0.4743342    0.2190381  31.81  0.003002054    2.514    0.602
       218  -8.3378    123.9537    205.9531   1.1022511755e+02   1.7553080133e+01    0.1693446    0.1375443  53.81  0.001153398    1.016    0.016
       219  -9.1136    101.0830     32.0336   7.5203362997e+01   5.5506943926e+01    0.3850999    0.2116938 -40.26 0.0008382644    1.841    0.457
       220 -10.6083     55.2800     71.0094   1.0400753938e+02   5.5708350985e+01     0.600983    0.3831268  64.76  0.002124969    2.317    0.568
       221  -7.8804     45.4840     15.4785   8.8130571186e+01   6.7856066241e+01    0.1653277      0.11242  16.22 4.624348e-05    1.614    0.380
       222  -8.9996    247.8035    202.6091   8.7742108602e+01  -2.4305319152e+00    0.1943303    0.1527231   9.54  0.000400093    1.084    0.078
       223  -8.2920     42.2593     28.0199   9.5123838370e+01   6.6076920476e+01    0.1883058    0.1550701 -26.70  0.000196349    1.050    0.047
       224  -8.6265     46.8245     20.0145   8.9657456685e+01   6.6921658487e+01    0.3628103    0.1673787 -31.38  0.001579757    2.174    0.540
       225  -9.2062    192.1151    194.3000   9.5790190775e+01   7.7880089988e+00    0.6740702    0.3523226 -59.78  0.002513628    5.201    0.808
       226 -10.0311    154.5090     26.8536   6.0550025968e+01   4.3314413422e+01    0.4395529    0.4062068  -1.10  0.002415524    1.108    0.098
       227  -8.7659    143.9892     26.3146   6.2387439930e+01   4.6111385472e+01    0.3671713    0.2639746   1.54  0.001161864    1.611    0.379
       228  -8.0231    110.4055     26.7572   7.0402906336e+01   5.4230602737e+01     0.207551    0.1338811 -13.70 0.0009540098    1.710    0.415
       229  -8.8004     91.4832     26.4614   7.5787589154e+01   5.8342296556e+01    0.2708942    0.2236457 -50.57 0.0008820806    1.431    0.301
       230  -8.7664     91.8319     21.1747   7.3362925323e+01   5.9035995558e+01    0.3992316    0.2386745   4.66  0.001234832    2.381    0.580
       231  -9.6842    245.6745    184.3215   8.4851625165e+01  -1.2013673457e-01    0.2979325     0.249165  62.05  0.001472781    1.887    0.470
       232  -7.8067    104.6869     14.6841   6.6780789122e+01   5.7099142994e+01    0.2254548    0.1456906  22.46 0.0005755574    1.721    0.419
       233  -9.2336    233.9697    179.5135   8.5877059155e+01   2.3996581768e+00    0.2948884    0.1979118  42.41 0.0007812419    1.437    0.304
       234  -9.2980    119.0201     21.3083   6.5957896713e+01   5.2947815135e+01    0.2950126    0.2775781 -30.67 0.0005717446    1.132    0.117
       235  -8.4290    119.5072     17.0064   6.4067164703e+01   5.3357871213e+01    0.4308974    0.2205577  20.14  0.001550503    3.065    0.674
       236  -8.3278    111.5512     20.8939   6.7657159883e+01   5.4755236992e+01    0.4045591    0.1361759 -27.31  0.001408049    2.977    0.664
       237  -7.7541     16.2504    178.6515   1.2863038662e+02   3.6335292078e+01    0.1243784   0.09500789  34.64 0.0004767076    1.616    0.381
       238 -10.1257    100.9981    176.0021   1.1101512246e+02   2.6450400053e+01    0.1771615    0.1518042  63.36            0    1.013    0.013
       239  -8.5943     40.8961     20.7558   9.2650217151e+01   6.7550333440e+01    0.2040672    0.1396372 -29.29 0.0003484578    1.272    0.214
       240  -8.3399    155.4795     18.0585   5.7233929252e+01   4.4091662972e+01    0.2113176    0.1457461 -21.25 0.0004833413    1.509    0.337
       241  -8.3935    139.5768     18.1035   6.0178605412e+01   4.8229779908e+01    0.3150648      0.16155  45.54  0.001240039    1.889    0.471
       242  -8.8369    132.7086     17.3903   6.1296398515e+01   5.0057400397e+01     0.253362    0.2004242 -50.78 0.0006018355    1.436    0.304
       243  -7.9622    128.9951     16.4883   6.1724488376e+01   5.1091612032e+01    0.2497299    0.1936379   0.66 0.0005428534    1.366    0.268
       244  -8.4019     95.8672     16.8187   7.0197282923e+01   5.8774348269e+01    0.2077362    0.1902272  -5.73 0.0003459361    1.063    0.060
       245  -9.1550    234.5932    174.7075   8.4869772450e+01   2.8775071677e+00    0.2434231    0.1878645  14.64 0.0002588503    1.117    0.105
       246  -9.0379     89.0672    170.8691   1.1289016484e+02   2.9250360537e+01    0.1860626    0.1583339  86.64 0.0002914482    1.105    0.095
       247  -8.4727    244.6995    169.8384   8.2277902820e+01   1.7243969219e+00     0.182173    0.1322872  24.59 0.0008643406    1.189    0.159
       248  -8.9560    235.0131    169.9722   8.3891592753e+01   3.3897938019e+00    0.1917507    0.1582221  14.66 0.0003283765    1.001    0.001
       249  -8.9068    230.2765    168.5501   8.4410049513e+01   4.4095615536e+00    0.3013931    0.1645045 -39.76  0.001491543    2.147    0.534
       250  -8.2629     27.5562     16.8012   9.7264255160e+01   6.9732351185e+01    0.2042708    0.1915351 -30.92  0.001142478    1.266    0.210
       251  -8.1366    155.8917    170.0466   9.8631653352e+01   1.8088455196e+01    0.1921873    0.1711736  45.99 0.0003448603    1.022    0.021
       252  -8.1249     15.0275    170.4580   1.2838159015e+02   3.8037816072e+01    0.1449962   0.09477694  41.38 0.0007649692    1.570    0.363
       253 -10.3302    202.8217    167.2202   8.8993904895e+01   9.6518526048e+00     0.243177    0.2105445  35.12    0.0003492    1.101    0.092
       254  -8.3657     88.5808    155.2737   1.1088211933e+02   3.2474937296e+01    0.1968531    0.1569474  47.12 0.0003689697    1.224    0.183
       255  -8.8373    133.7253    148.5310   9.9471007824e+01   2.6179100728e+01    0.6797036    0.1834386 -51.27  0.002163246    4.148    0.759
       256  -8.4484    125.2627     13.1249   6.1167451771e+01   5.2396019026e+01    0.2581953    0.2087236  68.29  0.000670305    1.308    0.235
       257  -8.7697    222.5009    150.0223   8.1995895383e+01   8.3375146629e+00    0.2265521    0.1761031  37.08  0.001301592    1.210    0.173
       258  -8.2383    208.5178    149.1523   8.4304571908e+01   1.1202899524e+01    0.2433027    0.2201866 -81.88  0.001425357    1.517    0.341
       259  -7.3792    150.5894    147.4038   9.5537646588e+01   2.3149879090e+01    0.1377828    0.1273947  48.45 8.007656e-05    1.011    0.011
       260  -9.5354     66.5203    143.6928   1.1443521820e+02   3.8031096374e+01    0.5131977    0.3162868  77.84  0.002716087    1.804    0.446
       261  -9.7551    238.3948    145.3038   7.8315379709e+01   5.9494980159e+00     0.303377    0.1755432  37.40  0.001542417    1.644    0.392
       262  -8.6807    112.3516    133.9621   1.0167036129e+02   3.3042615806e+01    0.3278145    0.2224708  85.26 0.0009749619    2.027    0.507
       263  -8.7039    135.7537    132.2735   9.5766578231e+01   2.8993888463e+01    0.4164933    0.1973214 -49.53  0.001708344    2.218    0.549
       264  -8.9311    132.2180    131.7750   9.6486350327e+01   2.9786544665e+01    0.3145371    0.2322899  82.81  0.001522516    1.780    0.438
       265  -8.2235     82.0768    130.3822   1.0854762266e+02   3.8764261507e+01    0.4120181    0.1934757 -77.55  0.001507484    3.446    0.710
       266  -9.6492     98.5605    128.5591   1.0404293068e+02   3.6567639714e+01     0.599989      0.34101  73.28  0.002362177    2.972    0.663
       267 -10.4056     70.4476    126.2889   1.1085300744e+02   4.1324024226e+01    0.5715818    0.4881786 -64.88  0.001738894    1.147    0.128
       268  -8.7905    243.2489    128.8308   7.3936597246e+01   7.2184520631e+00    0.2638359     0.151612  24.45  0.001222481    2.039    0.509
       269 -10.1517     58.2559    124.6309   1.1377641674e+02   4.3271084934e+01    0.5881584    0.3178974  80.89  0.002637367    2.568    0.611
       270  -9.8436    117.1731    125.5089   9.8786306298e+01   3.3941583750e+01    0.5619724    0.3641397  83.74  0.001424743    2.481    0.597
       271  -9.0911    117.6334    119.6562   9.7413289308e+01   3.5086879077e+01    0.3076999    0.2407589  11.84 0.0009613045    1.744    0.426
       272  -9.7877     27.4296    123.1446   1.2161578954e+02   4.6862170362e+01    0.5129014    0.2349737  68.37  0.002036137    2.666    0.625
