#   1 NUMBER                 Running object number                                     
#   2 MAG_AUTO               Kron-like elliptical aperture magnitude                    [mag]
#   3 X_IMAGE                Object position along x                                    [pixel]
#   4 Y_IMAGE                Object position along y                                    [pixel]
#   5 X_WORLD                Barycenter position along world x axis                     [deg]
#   6 Y_WORLD                Barycenter position along world y axis                     [deg]
#   7 A_WORLD                Profile RMS along major axis (world units)                 [deg]
#   8 B_WORLD                Profile RMS along minor axis (world units)                 [deg]
#   9 THETA_WORLD            Position angle (CCW/world-x)                               [deg]
#  10 FWHM_WORLD             FWHM assuming a gaussian core                              [deg]
#  11 ELONGATION             A_IMAGE/B_IMAGE                                           
#  12 ELLIPTICITY            1 - B_IMAGE/A_IMAGE                                       
         1 -14.4331    239.3015     24.9105   4.2332930122e+01   2.2607644802e+01     0.678425    0.4536887 -44.30  0.002442638    1.336    0.251
         2 -14.7347    249.4364     13.0536   3.8749493649e+01   2.1725011154e+01     2.903063    0.9266814 -21.98  0.009198237    5.456    0.817
         3 -14.8030    240.6774      9.4804   3.8628884105e+01   2.4085254830e+01     1.308346    0.7204059 -43.63  0.006319713    1.591    0.372
         4 -14.5382    249.4060     58.2522   4.9168753311e+01   1.5901445485e+01     2.217638    0.3148825 -38.32  0.006430217    4.453    0.775
         5 -13.9018    232.4528      2.4326   3.7648541438e+01   2.6724297930e+01     1.011713    0.2603189  71.60  0.003752104    3.465    0.711
         6 -14.0248    140.5068      4.1598   4.8691813771e+01   4.9457127481e+01    0.6034436    0.4432953  60.33  0.002676192    1.203    0.169
         7 -15.5289    175.2586      7.4155   4.4662190387e+01   4.0324576365e+01     1.901289     1.232121  86.81  0.009576251    1.563    0.360
         8 -14.3192    161.5255      9.7317   4.7257904094e+01   4.3620575217e+01    0.8719482    0.5589723 -61.48  0.004240121    1.828    0.453
         9 -13.7214    155.6276      2.4106   4.5753083207e+01   4.5796825682e+01     1.001437     0.336127  67.29  0.003795393    2.578    0.612
        10 -11.7485     34.0645     14.0899   8.5822227554e+01   6.9330291091e+01    0.2151528    0.1509098 -34.46  0.000489956    1.322    0.244
        11 -13.5630    149.2837      8.9008   4.8875809238e+01   4.6819942679e+01    0.4225911    0.2861052 -77.95  0.001802466    1.805    0.446
        12 -11.5876     50.1520     13.8737   7.8397553947e+01   6.7252428339e+01    0.1765019    0.1576102 -10.15  0.000656091    1.253    0.202
        13 -11.6671    115.4867      8.8947   5.5329953538e+01   5.5097045431e+01    0.1899754    0.1317425 -18.30  0.000620249    1.533    0.348
        14 -11.8074     98.4342      8.3064   5.9233554247e+01   5.9003214755e+01    0.2287571    0.1841209 -27.68 0.0006525685    1.358    0.264
        15 -12.1350    101.9954      6.9726   5.7744408588e+01   5.8350363930e+01    0.2607304    0.1773916  41.76 0.0006888458    1.292    0.226
        16 -11.5243     89.5199      8.4946   6.1780701868e+01   6.0876124792e+01     0.218451    0.1759228   4.97 0.0006582671    1.166    0.142
        17 -12.9477     85.3224      7.4651   6.2551259812e+01   6.1839383270e+01    0.3897914    0.3007522  36.21  0.001429881    1.149    0.129
        18 -10.9067      2.9848      8.5106   9.9673244646e+01   7.2998775771e+01    0.1462163   0.09720656   9.28  0.001031666    1.597    0.374
        19 -13.3667    124.3778      6.5270   5.2522956036e+01   5.3207018936e+01    0.3627148    0.2416753  59.31  0.001521925    1.353    0.261
        20 -13.8194    213.3221      3.7703   3.9570255990e+01   3.1130436526e+01    0.4645969    0.3188328  78.32  0.002610616    1.330    0.248
        21 -11.1211     15.8703      5.5622   9.1022197348e+01   7.2486640867e+01    0.1797413    0.1113163 -39.51 0.0005836209    1.435    0.303
        22 -12.1143     64.8562     10.8990   7.1053314311e+01   6.5298729722e+01     0.289397    0.2222755  -6.61 0.0008983698    1.151    0.131
        23 -13.3947    190.5204     11.1061   4.3869913676e+01   3.6059900214e+01    0.4979246    0.3214315 -59.57  0.001101035    1.611    0.379
        24 -12.4631    113.5151      1.7733   5.2913720763e+01   5.6191985823e+01    0.4294637    0.1577607  59.19  0.001679329    2.312    0.568
        25  -9.9565      8.6873    191.7578   1.2801098213e+02   3.3226550991e+01   0.09218992   0.07774932 -65.48 0.0005862259    1.506    0.336
        26  99.0000    139.1052    222.1253   1.0505386550e+02   9.6765598666e+00     0.849813    0.8303933  58.15  0.005941604    1.173    0.148
        27 -16.9562    189.0757    235.9528   9.7438914019e+01  -7.3442619326e-01     3.722936     3.204752   5.72   0.02598283    1.195    0.163
        28 -16.1651    174.0976    208.6290   9.6056539209e+01   5.9222966063e+00     3.532394     1.641491  31.89   0.01522236    2.273    0.560
        29  99.0000    130.2360    235.0392   1.0841570858e+02   8.9481845640e+00    0.7705739    0.7266076  16.07  0.005537397    1.306    0.234
        30 -15.0117    122.5346    218.6927   1.0790116882e+02   1.3013204499e+01     1.520265     0.769726 -42.58   0.00715705    2.790    0.642
        31 -19.6636     81.1361    190.1604   1.1298157926e+02   2.5125264678e+01     8.012623     6.259499  55.57   0.04915245    1.154    0.133
        32 -12.0748    127.4812    249.7799   1.1060341352e+02   7.0290266561e+00    0.2085951    0.1354995  23.92  0.001202211    1.995    0.499
        33 -11.0316    180.7763    144.1245   8.2027210977e+01   1.6451246498e+01    0.2101653     0.202071 -76.86 0.0003517253    1.153    0.133
        34 -12.3349    167.3157    138.8776   8.3776850014e+01   2.0409114606e+01     0.281994    0.2630819 -53.78 0.0003557828    1.115    0.103
        35  99.0000    118.0994    250.8306   1.1241128070e+02   8.2875030954e+00    0.3301768    0.0751588  38.54  0.001178168    3.991    0.749
        36 -12.0074      2.4285    139.8815   1.2574179631e+02   4.4990919383e+01    0.2376868    0.1739931  -1.89  0.001577542    2.104    0.525
        37 -12.5853     38.8758    137.8210   1.1642199674e+02   4.2407198819e+01    0.4177616     0.191936 -69.18  0.001430692    1.835    0.455
        38 -11.5341      4.8092    191.4107   1.2872505289e+02   3.3637715740e+01    0.1680477   0.09726556  51.31  0.001119208    1.536    0.349
        39 -12.7471     30.2001    129.0698   1.1757351516e+02   4.5316193838e+01    0.3237349    0.2685662 -33.72 0.0006408811    1.505    0.336
        40 -12.4404     27.8503    135.0576   1.1893841344e+02   4.4116363563e+01    0.2866468     0.212408  51.09  0.001807605    1.439    0.305
        41 -12.3104     32.4516    134.4918   1.1767095485e+02   4.3825879800e+01    0.2322118    0.1699984  88.47 0.0004912711    1.232    0.188
        42 -11.2495    234.7632    132.5791   6.8936211503e+01   7.2179574476e+00    0.1775386    0.1399331  60.97 0.0004603096    1.563    0.360
        43 -12.2786      8.1413    187.7229   1.2787705015e+02   3.4109305444e+01    0.4095135    0.1128515  40.91  0.002021576    2.947    0.661
        44 -10.7702    222.4630    128.4388   7.0118089726e+01   1.0435678805e+01    0.2527603    0.1256187 -45.26 3.078289e-05    2.097    0.523
        45 -10.7716    147.3582    122.9344   8.4622920207e+01   2.8133337556e+01    0.2171077      0.19957 -42.34 0.0004811628    1.086    0.080
        46 -12.1504    218.5376    186.0161   8.3304468131e+01   1.6046519597e+00    0.2118599    0.1625096  31.42 0.0005038548    1.207    0.172
        47 -11.1998    143.4778    121.5043   8.5221738962e+01   2.9287929518e+01     0.153937    0.1528748 -56.44 3.812269e-05    1.004    0.004
        48 -13.2689    242.4412    119.7502   6.4707632039e+01   7.7944661996e+00     0.349533    0.2638373  34.78  0.001367112    1.452    0.311
        49 -13.7274    248.2105    115.0111   6.2711714749e+01   7.4092434268e+00    0.7377857    0.4029872 -41.47  0.003433393    1.688    0.408
        50 -13.7169    245.5143    101.0112   5.9839856455e+01   1.0200488659e+01    0.6406301    0.3154446 -33.38  0.002793091    1.833    0.455
        51 -12.8620    249.7434     99.8204   5.8947275690e+01   9.5203718100e+00    0.8080649    0.2193188 -33.13  0.002599835    3.434    0.709
        52 -11.0779    189.6348    118.2459   7.3916431778e+01   1.9529536705e+01    0.2540318     0.202629  63.47 0.0006399668    1.411    0.291
        53 -12.2656    145.3765    116.1884   8.3403437123e+01   3.0025805195e+01    0.3235981    0.2721735  49.71 0.0006053009    1.203    0.169
        54 -11.3410      2.0534    183.5838   1.2881214657e+02   3.5487510408e+01    0.1596843   0.09707092  55.27  0.001078412    1.455    0.313
        55 -11.2978     21.0205    115.8140   1.1835797339e+02   4.9217386069e+01     0.208998    0.1632172 -35.89  0.001341811    1.517    0.341
        56 -11.2126      6.3149    113.0983   1.2214696121e+02   5.0871358155e+01    0.1664521    0.1398085 -63.35 0.0003101584    1.178    0.151
        57 -12.3631     38.7247    111.0525   1.1248864298e+02   4.8801285788e+01    0.3782023    0.1531822 -45.05  0.001575509    2.667    0.625
        58 -11.5684    153.5364    108.2497   7.9325370584e+01   2.9874940343e+01      0.42241    0.3007804  55.71  0.001886597    1.487    0.328
        59 -12.4547    127.0471    105.1146   8.5202256111e+01   3.6408568927e+01    0.6359835    0.4107839  74.26  0.002401535    2.575    0.612
        60 -11.3233    128.9699    101.0651   8.3583310150e+01   3.6881805207e+01    0.3008548    0.2524119 -21.21 0.0005390152    1.316    0.240
        61 -12.5885      1.7576    104.8940   1.2249372586e+02   5.3021753378e+01    0.2651402     0.145726 -69.39  0.001570088    1.361    0.265
        62 -12.9197    212.7808    179.9051   8.3187756663e+01   3.6137722149e+00    0.3615083    0.2214832 -30.85  0.001319222    1.667    0.400
        63 -12.8169    105.8717     99.7428   8.9657260301e+01   4.1861184746e+01    0.6772852    0.3726974  53.28   0.00272056    2.178    0.541
        64 -11.6324      4.0623    178.7451   1.2813508001e+02   3.6338236233e+01    0.1989899    0.1123563 -64.25  0.001250663    1.747    0.428
        65 -11.8394     27.4700     98.5704   1.1381766372e+02   5.2758244426e+01    0.2437286    0.1822501 -54.03  0.000794204    1.170    0.145
        66 -10.9596     14.4773     98.0357   1.1779199862e+02   5.3839935864e+01    0.1687585    0.1459681 -66.69 0.0003296057    1.104    0.094
        67 -12.0513     91.4943     97.1788   9.3246530869e+01   4.5040598240e+01     0.405395    0.2102851  21.47  0.001418401    3.315    0.698
        68 -11.0492    142.7093     96.0625   7.8616739104e+01   3.4889888596e+01    0.2592183    0.2206302  66.69 0.0009593891    1.291    0.225
        69 -10.5778     80.5709     94.7389   9.5987490301e+01   4.7390304413e+01    0.1881079    0.1321142 -61.47 0.0002875249    1.434    0.303
        70 -11.0793     64.7938     94.2752   1.0090877197e+02   4.9783912659e+01    0.2883618     0.182377 -25.81  0.001326974    2.097    0.523
        71 -11.0965     19.1101     95.0777   1.1588029513e+02   5.4208949061e+01    0.1870409    0.1538413 -78.74 0.0007970918    1.126    0.112
        72 -11.6911    102.9406     93.3156   8.8750391381e+01   4.3849951217e+01    0.2941102    0.2451857  30.60 0.0006213247    1.285    0.222
        73 -12.8550     43.6702     92.5085   1.0742043765e+02   5.2687274013e+01    0.3090094    0.2118381 -79.31  0.001096778    1.585    0.369
        74 -13.5716     38.7130     89.1496   1.0835797868e+02   5.3959981425e+01     0.364606    0.2801697  55.47  0.002055735    1.577    0.366
        75 -14.0090    249.1741     85.1477   5.5568180197e+01   1.1935563500e+01     1.170002    0.4650976 -25.05  0.004040968    3.297    0.697
        76 -13.4425    244.0095     84.6687   5.6155639642e+01   1.3108372153e+01    0.5637537    0.3001026 -37.23 0.0007576291    1.654    0.396
        77 -10.9131    132.4056     91.8117   8.0045469461e+01   3.8096139423e+01    0.2828126    0.1968327 -34.88  0.001258709    1.469    0.319
        78 -11.5117    110.2024     89.8904   8.5639406502e+01   4.3192950157e+01    0.3763075    0.2286569  45.65  0.001544274    1.722    0.419
        79 -11.9207     49.8661     89.2589   1.0464096513e+02   5.2777011338e+01    0.2400035    0.1648521 -66.43 0.0006973685    1.384    0.278
        80 -13.5966     30.2687     86.4975   1.1065886385e+02   5.5331790643e+01    0.6668816    0.1787405 -60.40  0.002580582    2.754    0.637
        81 -12.0548     15.5338     87.9801   1.1586350084e+02   5.6088490148e+01    0.2797407    0.1719441 -65.03  0.001118204    1.270    0.212
        82 -11.9311     89.4673     86.3959   9.0909257380e+01   4.7808284959e+01    0.4132798    0.2375503 -41.35 0.0008422729    1.673    0.402
        83 -12.2104    137.0469    250.3875   1.0893163258e+02   5.4655515911e+00    0.2523414    0.1182293  47.92  0.001343052    1.741    0.426
        84 -14.3610     43.2630     82.3922   1.0529551807e+02   5.5060889313e+01    0.8965121    0.4435415  44.87  0.004152781    2.576    0.612
        85 -13.2368     37.0058     71.9897   1.0500561683e+02   5.8012496971e+01    0.4708396    0.2752297 -59.66  0.001762269    1.490    0.329
        86 -12.0193     43.1626     75.7950   1.0372242510e+02   5.6558530609e+01    0.2702108    0.2460831  -5.32 0.0009143832    1.222    0.182
        87 -13.3515     42.4838     70.9808   1.0272528495e+02   5.7694091135e+01      0.49151    0.3439809  61.66  0.002634301    2.095    0.523
        88 -12.4119     36.5371     82.5073   1.0766106133e+02   5.5692106157e+01    0.2225443    0.1930461  71.67 0.0007306734    1.378    0.274
        89 -13.6024     35.9952     78.7049   1.0698904491e+02   5.6605408267e+01    0.4397913    0.3094822  35.03  0.002503711    1.685    0.406
        90 -11.7779     10.3090     83.9406   1.1692378153e+02   5.7332264470e+01    0.2047625    0.1632329 -30.70 0.0006262379    1.392    0.282
        91 -11.0292     80.9485     79.5158   9.1654298794e+01   5.0733876384e+01    0.2063775    0.1427793  34.38 0.0008434826    1.566    0.361
        92 -10.7327    137.0284     74.9895   7.3748928433e+01   4.0394176203e+01     0.245557     0.190032   8.57 0.0009743639    1.619    0.382
        93 -12.6090    245.1022    169.9070   7.5290603722e+01  -6.0775229887e-01    0.3466067    0.2782555  22.30  0.001396869    1.190    0.160
        94 -11.1560     56.1784     74.3271   9.8665034381e+01   5.5405581028e+01    0.2368721    0.1580194 -42.16 0.0006701244    1.329    0.248
        95 -11.5033    156.9119    248.9876   1.0514232675e+02   2.5691126021e+00    0.1716866    0.1331473  43.03 0.0002984303    1.047    0.045
        96 -11.7542    159.4647    241.8779   1.0376691910e+02   3.1938614528e+00    0.2978445    0.1775301  24.45  0.001261772    1.937    0.484
        97 -11.8704    147.0105    223.9845   1.0374939818e+02   8.0419728777e+00    0.2470493    0.1725685 -50.98  0.001454895    1.707    0.414
        98 -14.2820    147.6287    232.3153   1.0475000454e+02   6.5802742845e+00    0.6024706    0.4516544  11.28  0.003588545    1.767    0.434
        99 -10.4918     77.0089     71.4672   9.0535248258e+01   5.3082185467e+01    0.1961805    0.1396024  35.22 0.0005247697    1.518    0.341
       100 -13.6991     23.6520     66.4907   1.0866193952e+02   6.0352706212e+01    0.4390011    0.3308941 -42.66  0.002840805    1.139    0.122
       101 -10.7476     82.9811     68.7173   8.7644252518e+01   5.2676203913e+01    0.1876568    0.1780553  -0.44  0.000283738    1.079    0.074
       102 -12.2362     16.1890     69.0236   1.1204178285e+02   6.0316173244e+01    0.1937588    0.1734566 -20.02  0.001043119    1.265    0.210
       103 -13.8653    249.4049     46.9120   4.6503189628e+01   1.7486327203e+01      1.25241      0.34892 -40.16  0.004643129    2.832    0.647
       104 -10.4847    204.5379     65.9477   5.7224072819e+01   2.5240214093e+01    0.2137766     0.141979 -35.08  0.000449714    1.460    0.315
       105 -11.4439    152.0030     64.9874   6.6986289557e+01   3.8597762075e+01    0.3141408    0.2216413 -25.83 0.0008046859    1.520    0.342
       106 -12.0721     98.6374     61.8184   8.0249791754e+01   5.1184327673e+01    0.3826899    0.3462975  17.29   0.00214786    1.101    0.092
       107 -12.7965      3.4630     59.5294   1.1490126158e+02   6.3091435405e+01    0.5293785    0.2117537 -77.88  0.002284828    3.131    0.681
       108 -12.2793    236.7245     61.5459   5.1488937964e+01   1.8248711874e+01    0.4764899    0.2375087  60.91   0.00211225    2.116    0.527
       109 -11.2108    229.8247     60.0921   5.2015782634e+01   2.0052712291e+01    0.3649015     0.229389 -75.73  0.001643202    2.050    0.512
       110 -12.1562     79.8906     61.2495   8.6217720550e+01   5.4691668752e+01    0.3302119    0.3073346  46.81  0.001676295    1.253    0.202
       111 -11.1682      9.8594     59.8804   1.1247446097e+02   6.2686999218e+01    0.1487641    0.1250376 -76.56 0.0002717529    1.278    0.218
       112 -10.4350    117.3072     57.6507   7.3274257678e+01   4.8051659625e+01    0.1497943    0.1187178 -71.65  0.000704315    1.706    0.414
       113 -12.1354    186.0472    163.2068   8.5101215671e+01   1.1695720928e+01    0.2443126    0.2237302 -18.41 0.0002630225    1.099    0.090
       114 -11.0321     78.5715     55.5458   8.4692407085e+01   5.6011472466e+01    0.2895944    0.1356614  39.76  0.001232257    2.260    0.558
       115 -12.3789    243.3987    158.3430   7.3161200235e+01   1.4436871615e+00    0.2890589    0.2096987 -49.98  0.001540082    1.735    0.423
       116 -12.0791    228.0145     44.1694   4.8230453425e+01   2.2749531163e+01    0.6123495    0.2218437 -55.77  0.001911956    4.079    0.755
       117 -12.1295     56.2322     45.5518   8.9374570321e+01   6.1266382610e+01    0.2856879    0.2171269   6.62 0.0008770733    1.377    0.274
       118 -11.0914     23.9732     42.9476   1.0202248538e+02   6.5243416336e+01    0.1841845    0.1468922 -41.23 0.0004741356    1.055    0.052
       119 -10.5864    209.0282     42.4780   5.0185538434e+01   2.7593549106e+01     0.210633    0.1377978  72.49 0.0008073468    1.551    0.355
       120 -13.1608    125.8177     40.2302   6.4816570276e+01   4.8895512469e+01    0.5829414    0.3312633  45.04  0.001763812    1.692    0.409
       121 -11.2885    105.0579     42.0672   7.1117842070e+01   5.3284117962e+01    0.2359405    0.2122512  61.96 0.0006754051    1.289    0.225
       122 -10.9157     64.5002     41.9412   8.4784826262e+01   6.0736222035e+01    0.1975639    0.1188572 -39.29 0.0005847465    1.523    0.344
       123 -11.3400    217.9520     37.4624   4.7722289995e+01   2.6070563869e+01    0.2810901    0.1708987 -49.90  0.001101772    1.576    0.365
       124 -11.5090     79.0395     37.6772   7.7752837749e+01   5.9063122514e+01    0.4045393    0.1116406  39.98  0.001339773    3.824    0.739
       125 -11.6256     40.2607     36.4897   9.2590473645e+01   6.4903651866e+01    0.2501359    0.1943171 -26.94   0.00100147    1.054    0.051
       126 -11.4838    174.6821     33.3284   5.2610912578e+01   3.7564953433e+01    0.2501955    0.2311174  39.98 0.0003037826    1.140    0.123
       127 -11.0412    109.1656     33.5810   6.6684092707e+01   5.3646088995e+01    0.2688292    0.2011802 -24.85  0.001414745    1.345    0.257
       128 -11.4795    190.8087    157.6804   8.2932482182e+01   1.1756359654e+01    0.3217913    0.2695733  83.08   0.00121529    1.617    0.382
       129 -11.6220    128.1996     29.0501   6.0156213182e+01   4.9846120604e+01    0.3175916    0.1822629 -35.18 0.0009173607    1.813    0.448
       130 -11.0152     59.5289     28.7931   8.1349223565e+01   6.3676258456e+01     0.251568    0.1113564 -32.59  0.001135921    2.137    0.532
       131 -10.8266    160.3928     26.2828   5.2773655193e+01   4.2123401036e+01    0.1982837    0.1297791 -39.21 0.0009457425    1.591    0.371
       132  99.0000    150.4812    241.0088   1.0533090361e+02   4.7646809395e+00    0.5708919    0.2463979 -35.58  0.002380765    4.264    0.766
       133 -12.8641    133.8381     23.8518   5.7010319877e+01   4.9108225710e+01    0.4405633    0.1919305  49.44  0.001233565    2.070    0.517
       134 -12.8362    216.3942     20.2506   4.3456215956e+01   2.8590422833e+01    0.2914504    0.2424026  63.37  0.001192861    1.245    0.197
       135 -11.7719    155.4250    239.6700   1.0423375552e+02   4.1721349572e+00    0.2634726    0.1920762 -75.46  0.001593358    2.022    0.505
       136 -12.0761    143.5265    247.4271   1.0740520423e+02   4.9001553193e+00    0.1756262    0.1439108  41.86 0.0004821663    1.062    0.058
       137 -12.0455    147.1223    246.7783   1.0666673859e+02   4.4319496774e+00    0.2044454    0.1204008  42.44 0.0006361186    1.335    0.251
       138 -12.1359      1.6186    158.1973   1.2731077699e+02   4.0963116853e+01    0.2171747    0.1048605 -75.24   0.00125473    1.609    0.379
       139 -13.0682    140.6151    241.0725   1.0718401496e+02   6.3300374976e+00    0.4172849    0.3279875 -28.59  0.002720597    1.763    0.433
       140 -13.5835    144.0188     16.4558   5.2375710979e+01   4.7396086647e+01    0.4741184    0.2668729  72.31  0.001582737    1.868    0.465
       141 -11.2302     10.4124     15.1901   9.8429300154e+01   7.1378362968e+01    0.1868063    0.1582839 -58.58 0.0008505786    1.591    0.371
       142 -13.2454    144.7212    239.2557   1.0619063174e+02   5.9573728457e+00    0.3251321    0.2053779  45.60  0.001940219    1.283    0.221
       143 -10.8104    151.2308    247.7528   1.0603025158e+02   3.6413931811e+00    0.1051747   0.07766701  58.21   0.00027678    1.385    0.278
       144 -11.2503    113.1547    243.4390   1.1255130267e+02   1.0215550276e+01    0.2952783    0.1179408  50.98  0.001421314    2.170    0.539
       145 -11.8404    174.0405    154.7333   8.5849965219e+01   1.5784469378e+01    0.2510506    0.2145916 -37.99 0.0006589391    1.200    0.166
       146 -11.5315      7.7310    155.5082   1.2577018945e+02   4.1097335756e+01    0.1227569    0.1094286  62.74 0.0003790218    1.293    0.227
       147 -14.2019    248.1844    128.0820   6.5708252638e+01   5.3233646703e+00    0.7939954    0.4978093 -34.33  0.003525795    1.423    0.297
       148 -14.0952    248.7518    149.8746   7.0445222549e+01   1.7896596348e+00    0.7302826    0.4733076 -34.67  0.003552862    1.423    0.297
       149 -14.2757    246.2066    141.0255   6.8927368514e+01   3.6399388261e+00    0.9711882    0.3083084 -43.31  0.003311472    3.443    0.710
       150 -11.0837    144.7164    211.7800   1.0247381196e+02   1.0530859896e+01    0.1979089    0.1735239 -74.00  0.001107924    1.323    0.244
       151 -11.5926    139.7114    210.4530   1.0330110215e+02   1.1629946660e+01    0.2193848    0.1630326  19.36  0.001205396    1.660    0.398
       152 -11.4715      8.7465    210.8692   1.2904142589e+02   2.9395798436e+01    0.1462378    0.1048819  76.97   0.00110333    1.026    0.025
       153  99.0000      2.4053    202.2477   1.2973455672e+02   3.1662145235e+01    0.2791497    0.1858976 -73.09  0.002027655    1.488    0.328
       154 -11.6394      7.8073    199.1199   1.2859142491e+02   3.1806941289e+01    0.2246649   0.08786173 -59.92  0.001167905    2.872    0.652
       155 -10.4628     21.9705    150.0556   1.2201707992e+02   4.1154182337e+01    0.2172046    0.1082472  81.07  0.001076833    2.087    0.521
