#   1 NUMBER                 Running object number                                     
#   2 MAG_AUTO               Kron-like elliptical aperture magnitude                    [mag]
#   3 X_IMAGE                Object position along x                                    [pixel]
#   4 Y_IMAGE                Object position along y                                    [pixel]
#   5 X_WORLD                Barycenter position along world x axis                     [deg]
#   6 Y_WORLD                Barycenter position along world y axis                     [deg]
#   7 A_WORLD                Profile RMS along major axis (world units)                 [deg]
#   8 B_WORLD                Profile RMS along minor axis (world units)                 [deg]
#   9 THETA_WORLD            Position angle (CCW/world-x)                               [deg]
#  10 FWHM_WORLD             FWHM assuming a gaussian core                              [deg]
#  11 ELONGATION             A_IMAGE/B_IMAGE                                           
#  12 ELLIPTICITY            1 - B_IMAGE/A_IMAGE                                       
         1 -11.8358    248.6265     93.1161   5.4704452585e+01   1.1286854913e+01     2.357079    0.5871232 -31.50  0.006761429    4.524    0.779
         2 -12.4700    243.2901     40.5589   4.3103057294e+01   2.0144335036e+01     1.236835    0.8240467 -15.88  0.006415383    1.972    0.493
         3 -11.2675    248.8450     48.8219   4.4429187482e+01   1.7835460278e+01     1.055825    0.5992354 -16.83  0.004758663    2.556    0.609
         4 -11.6489    244.4994     28.3231   4.0195600624e+01   2.1445573883e+01    0.7910831    0.3971939 -50.77  0.003952751    1.773    0.436
         5 -10.9405    244.6614     21.0390   3.8549316191e+01   2.2291054618e+01    0.6092135    0.2242535 -37.89  0.002584642    2.265    0.559
         6 -10.3623    226.0762     31.3581   4.2701013102e+01   2.5196592579e+01    0.6181408    0.3188716 -29.44  0.002913419    1.985    0.496
         7  -9.8425    213.1037     24.8525   4.2476348829e+01   2.9038111810e+01    0.5256049    0.2817571 -24.56  0.002455737    2.106    0.525
         8  -9.2630    211.7639     17.4772   4.0756851594e+01   3.0210350559e+01    0.3742457    0.1240997 -43.77  0.001473848    2.731    0.634
         9  -9.9476    194.8444     23.2021   4.4157000201e+01   3.3668474029e+01    0.7792176    0.2421649 -30.83  0.002870828    3.071    0.674
        10 -11.1139    161.4845     10.8572   4.5006963397e+01   4.3324957694e+01     0.662335    0.3105857 -28.30  0.002964244    2.239    0.553
        11  -9.5813    237.8652     11.1387   3.6894233110e+01   2.4911695622e+01    0.2067404    0.1441286 -61.98  0.001082635    1.251    0.201
        12  -9.8568    244.3558     10.4110   3.6231484056e+01   2.3573173136e+01    0.3173533    0.1253247 -43.71   0.00151312    2.089    0.521
        13  -9.5667    111.7778      4.7909   5.1670175648e+01   5.5955741077e+01    0.2988881    0.2009515  34.02  0.001632841    1.400    0.286
        14  -8.1621    229.5877      1.7771   3.5427724594e+01   2.7750800489e+01    0.1775169    0.0955858 -44.54 0.0009484199    1.652    0.395
        15  -9.2040    220.5112    203.4984   8.3382069470e+01  -1.4292914522e+00    0.2214369    0.1205999 -34.23 2.418922e-06    1.856    0.461
        16  -9.2598    148.8892    203.5169   9.7773586302e+01   1.0926581052e+01    0.3226815     0.154432 -45.52  0.001427628    2.326    0.570
        17  -9.2252    249.9183    198.3321   7.7151492426e+01  -5.2912490435e+00    0.2510568    0.1582738 -19.08  0.001438363    1.446    0.308
        18  -9.2428    232.9484    194.8097   7.9460717032e+01  -2.1558191634e+00     0.285903    0.1758768 -36.25  0.001542463    1.652    0.395
        19  -8.9702    235.6676    188.3231   7.7711813949e+01  -1.6323839932e+00    0.3837638    0.2448035 -41.78  0.002053729    1.761    0.432
        20  -8.0516    129.7795    189.5161   9.9661864355e+01   1.7030512094e+01    0.2001653    0.1207785  51.16 0.0009361156    1.648    0.393
        21  -9.7864    219.5595    165.5240   7.6005896411e+01   4.8014278077e+00    0.5432582      0.29005 -47.13  0.002363897    2.183    0.542
        22  -9.1116    248.7709    154.7119   6.8528800606e+01   1.3502747980e+00    0.2937867    0.2287771 -49.07   0.00166654    1.551    0.355
        23  -8.5169    249.4211    146.8518   6.6729668504e+01   2.4803785275e+00    0.3271965     0.117434 -27.96  0.001138651    3.213    0.689
        24  -7.8636     49.4697    147.5239   1.1269129408e+02   3.8752128132e+01    0.1330611    0.1143466 -76.29 0.0008090531    1.042    0.041
        25  -7.6736    233.6570    145.3137   6.9041372958e+01   5.5936280384e+00    0.1347239    0.1109259 -67.73 0.0007047196    1.707    0.414
        26  -9.7054    238.6942    135.9831   6.6091813729e+01   6.2068090843e+00    0.4020514    0.1581691 -35.57   0.00157794    2.280    0.561
        27  -9.0644    207.7732    129.7288   7.0156471133e+01   1.3508004096e+01    0.4402008    0.2302331 -39.29  0.001833561    1.804    0.446
        28  -9.5064    250.1437    127.7769   6.2406365803e+01   5.4136049082e+00    0.3662846    0.1708288 -39.45  0.001614748    1.892    0.471
        29  -8.2065     74.5462    124.6838   1.0190655304e+02   4.1105876370e+01    0.2720969      0.12433 -54.62 0.0009257484    1.951    0.487
        30  -8.5142    226.7893    118.3298   6.4003412486e+01   1.1568505250e+01    0.3533336    0.1995298 -57.30  0.001405957    2.527    0.604
        31 -10.9595    249.7089    112.5002   5.9015900893e+01   7.9673480148e+00    0.9859812    0.3329188 -32.84   0.00358245    2.758    0.637
        32  -8.7413    234.1447    246.5390   8.8295644347e+01  -9.1383646482e+00    0.2630243    0.1583005 -47.41  0.001473523    2.880    0.653
        33 -11.9790    242.0613     80.6885   5.2676290892e+01   1.4595855742e+01     1.494978     0.328914 -39.11  0.004710424    3.580    0.721
        34  -8.7688    217.9329    112.4245   6.4100519997e+01   1.4469592386e+01    0.4194551    0.1694206 -37.01  0.001555808    2.273    0.560
        35  -9.7187    236.0414    104.8353   5.9290624254e+01   1.1951323712e+01    0.4711818    0.3462794  24.63  0.002395217    1.700    0.412
        36  -8.9365     46.9740    101.4477   1.0557681584e+02   5.0200802112e+01    0.4449556    0.1597631 -57.86  0.001785255    2.260    0.558
        37  -9.4329    234.7653     93.9225   5.6871742448e+01   1.4022706504e+01     0.501318    0.2520308 -49.17  0.002109141    2.064    0.516
        38  -9.7862    213.9131     93.2077   5.9987102860e+01   1.8718451909e+01    0.5023451    0.2137313 -34.10  0.001884096    2.249    0.555
        39  -9.2266    212.9858     87.4454   5.8667480356e+01   1.9913708819e+01    0.4815255    0.3078449 -71.02  0.002003419    2.305    0.566
        40  -8.0790    191.5364     89.9897   6.3126422281e+01   2.4484801317e+01    0.2384668    0.1459013 -36.58 0.0007305485    1.570    0.363
        41  -7.9296    195.4916     78.5286   5.9292297266e+01   2.5541276460e+01    0.1499076    0.1431456 -52.94 0.0001004038    1.011    0.011
        42  -9.4765    216.3100     74.7990   5.4890415165e+01   2.1235843087e+01    0.4705775    0.3724099 -49.34  0.002320287    1.196    0.164
        43 -11.5050    227.3063     67.3280   5.1420988021e+01   1.9889760926e+01    0.7597936    0.4676893 -38.15   0.00370606    1.473    0.321
        44  -9.1283    205.5522     66.8988   5.4481169197e+01   2.5027612185e+01    0.4481434     0.293788  51.73  0.002128485    1.596    0.374
        45 -10.4825    244.7877     63.2570   4.8220636082e+01   1.6654207196e+01     0.821888    0.3085132 -38.23  0.003372943    2.237    0.553
        46  -8.6042    242.6846    247.6610   8.7005653994e+01  -1.0415421991e+01    0.1200973   0.06957021   6.73  0.000704787    1.701    0.412
        47 -11.2962    211.8093    237.8502   9.0892436150e+01  -4.8729162077e+00    0.7196969    0.6623572   4.66      0.00525    1.296    0.228
        48  -8.9332    172.8452    237.7917   9.8179841108e+01   1.1711456744e+00     0.275814   0.09094425 -48.00  0.001125221    3.848    0.740
        49  -9.6228    250.1317    220.9557   8.1256228008e+01  -8.2804018990e+00     0.357195    0.1506215 -28.89   0.00179065    2.312    0.567
        50 -11.1238    227.6932     59.1284   4.9336101336e+01   2.1031531671e+01    0.6923044    0.4021289  70.48  0.003267017    1.908    0.476
        51  -8.0774     47.3750     62.1998   9.5416644467e+01   5.9024818413e+01      0.18845    0.1155704 -58.10 0.0009508556    1.692    0.409
        52  -9.1502    249.3928     57.1457   4.6276776825e+01   1.6557862408e+01    0.5010539    0.2532217 -30.55  0.001899427    1.926    0.481
        53  -8.8381    197.7341     57.4954   5.3159897284e+01   2.8372963127e+01    0.4092925    0.1922772 -26.70  0.001521385    2.403    0.584
        54 -10.5180    226.0619     40.8791   4.5029041836e+01   2.3967295738e+01    0.6987931    0.2743462 -36.42  0.002910011    2.259    0.557
        55 -10.5877    246.8773    226.5386   8.2787095594e+01  -8.5159086421e+00    0.4820613    0.2061601 -34.80  0.002482347    2.401    0.584
        56  -8.0399    124.3074     41.6408   6.2659378869e+01   4.8814515059e+01    0.1467959    0.1130741 -66.34 0.0007040781    1.732    0.423
        57  -8.6771    148.6712     40.3399   5.6728023670e+01   4.3113092248e+01    0.1523073    0.1110691 -68.14 0.0007051663    1.738    0.424
        58  -8.8896    173.2929     35.3045   5.0673028648e+01   3.7591931277e+01    0.3085424    0.2331614 -37.25  0.001608215    1.350    0.259
        59  -8.7238    161.4902     35.5286   5.2739464440e+01   4.0542405866e+01    0.1428618    0.1357952  78.04 0.0004458282    1.031    0.030
        60 -10.1572    249.6566    236.9852   8.4083503248e+01  -1.0133103464e+01    0.2535088    0.1672011 -25.24  0.001673899    1.518    0.341
        61  -9.8348    208.5807    222.9857   8.9061474657e+01  -2.3527069242e+00    0.4880077    0.2853008 -33.58  0.002696385    1.835    0.455
        62  -8.7065    180.1932    223.1806   9.4541020451e+01   2.2106135755e+00    0.1730043    0.1457826  51.24  0.001078818    1.342    0.255
        63  -9.6140    214.5417     39.2542   4.5979682695e+01   2.6883843643e+01    0.4080039    0.2656451 -13.75  0.001948108    2.038    0.509
        64  -8.2952    150.4961    220.5340   1.0006545300e+02   7.5904497169e+00    0.1307177    0.1124287  40.49 0.0003312185    1.023    0.023
        65  -9.0727    221.7833    213.4365   8.4951422965e+01  -3.0760754787e+00    0.3154266    0.1838343  28.28  0.001705086    1.557    0.358
        66  -9.7861    228.5266    204.4898   8.2089784110e+01  -2.8608437736e+00    0.4183631    0.2065911 -49.28  0.001779558    3.320    0.699
        67  -7.9463    184.3195    209.6621   9.1489923675e+01   3.6812708511e+00    0.1261058    0.1047053  71.00 0.0001253989    1.708    0.415
