#   1 NUMBER                 Running object number                                     
#   2 MAG_AUTO               Kron-like elliptical aperture magnitude                    [mag]
#   3 X_IMAGE                Object position along x                                    [pixel]
#   4 Y_IMAGE                Object position along y                                    [pixel]
#   5 X_WORLD                Barycenter position along world x axis                     [deg]
#   6 Y_WORLD                Barycenter position along world y axis                     [deg]
#   7 A_WORLD                Profile RMS along major axis (world units)                 [deg]
#   8 B_WORLD                Profile RMS along minor axis (world units)                 [deg]
#   9 THETA_WORLD            Position angle (CCW/world-x)                               [deg]
#  10 FWHM_WORLD             FWHM assuming a gaussian core                              [deg]
#  11 ELONGATION             A_IMAGE/B_IMAGE                                           
#  12 ELLIPTICITY            1 - B_IMAGE/A_IMAGE                                       
         1 -11.8354    246.7457      4.3255   1.5446205724e+01   2.4574870744e+01     1.376493     0.525792 -42.24  0.007481961    1.875    0.467
         2 -11.7163    203.6898     21.4117   2.2146225891e+01   3.1627052030e+01     1.196719    0.5169969 -43.34  0.004960786    1.961    0.490
         3 -12.8823    198.2816     55.8666   3.1760552930e+01   2.8751047030e+01     3.696535    0.9503811 -37.58   0.01115447    3.098    0.677
         4 -11.7607    228.3730     11.8373   1.8061184615e+01   2.7400240305e+01    0.8469875    0.5624646  -4.94  0.004681933    1.961    0.490
         5 -14.4441    181.6184     87.7188   4.2571841909e+01   2.7720587219e+01     5.617917     2.390104 -49.37    0.0199688    2.951    0.661
         6 -13.0540    219.3102     29.3665   2.2882119797e+01   2.7459703240e+01     2.604961    0.5224646 -31.44  0.009497781    3.438    0.709
         7 -12.1805    210.2490     49.2249   2.8664295135e+01   2.7054439092e+01     2.344903    0.4798219 -35.01  0.008132764    3.448    0.710
         8 -13.1579    239.0955     28.7611   2.1274898943e+01   2.3635892680e+01     1.492774    0.7611639 -13.44   0.00740582    2.521    0.603
         9 -14.7973    236.2891     53.3263   2.7072370915e+01   2.1458617744e+01     8.171793     1.541137 -26.91   0.02372666    5.774    0.827
        10 -13.6198    160.6114     96.2295   4.8799718828e+01   3.0771234413e+01     5.310313     1.911012 -52.92   0.01297125    6.466    0.845
        11 -14.4929    231.7141     97.4436   3.7448715233e+01   1.6781689500e+01     5.250354     1.131232 -42.78   0.01566442    5.581    0.821
        12 -11.8169    139.5797     35.3409   3.4470780753e+01   4.5526355513e+01      1.20299     0.492651 -18.70  0.003903072    3.670    0.728
        13 -12.9913    248.8187     52.4142   2.5786413690e+01   1.9321215459e+01     1.011981    0.2847454 -26.25  0.001747086    3.360    0.702
        14 -10.5196    133.1727     22.9148   3.1137010283e+01   4.8753645730e+01    0.5232955    0.2768052 -18.67  0.001704688    2.238    0.553
        15 -13.8673    249.1782     86.2801   3.3024144843e+01   1.5301192857e+01     1.923703    0.7714366 -25.75  0.002901436    2.281    0.562
        16 -14.6863    242.3666     74.4419   3.1192973955e+01   1.7867885896e+01     3.040391     1.016929  43.26  0.002400799    4.501    0.778
        17  -9.4792    155.6679     13.3381   2.4510425254e+01   4.3952101801e+01    0.4021409    0.2463532   1.00  0.001571974    2.295    0.564
        18 -10.0669    135.2813     11.4831   2.6534283429e+01   4.9443001082e+01    0.4140036    0.2530533 -13.84  0.001934216    1.930    0.482
        19  -8.5602    220.0297     11.1914   1.8404153501e+01   2.9156240753e+01    0.1782984    0.1436797 -52.63 0.0009805025    1.031    0.030
        20 -10.2088    120.2377      9.2613   2.8040382318e+01   5.3651273367e+01    0.3647638     0.308165 -42.68 0.0009988402    1.232    0.188
        21  -7.9355    194.2235      5.3321   1.8586247804e+01   3.5332428490e+01    0.1127137   0.09496747  18.32 0.0002814622    1.518    0.341
        22  -9.3602    182.3267      3.4211   1.8912534256e+01   3.8285984395e+01    0.3212063    0.2012291 -25.21  0.001617723    1.606    0.377
        23  -8.1870    171.9740      2.7906   1.9541767771e+01   4.0848779673e+01    0.2320201    0.1211056 -65.82   0.00107357    1.964    0.491
        24  -9.1112    189.5653     10.1150   2.0245559119e+01   3.5960686518e+01    0.2192164    0.1762863  71.34  0.000552723    1.291    0.225
        25  -9.5021    241.8473    182.7004   5.2570418599e+01   4.5296266676e+00    0.3600102    0.1901714   1.19  0.001285369    2.178    0.541
        26  -8.7467    147.6557    250.6192   7.8986869032e+01   7.4001774272e+00    0.1870711   0.08054037  26.42 0.0006768019    1.762    0.432
        27 -10.2107    238.3877    175.7206   5.1892072222e+01   5.7707353429e+00    0.3616538    0.3083896  88.18  0.001361255    3.148    0.682
        28  -9.7841    228.9742    171.5040   5.2595938743e+01   7.4868793948e+00    0.2858438    0.2343851 -46.65  0.001834777    1.878    0.467
        29 -10.5643    230.8253    167.8548   5.1655840901e+01   7.7016308121e+00    0.4780883    0.2205225 -41.97   0.00243411    2.607    0.616
        30 -10.3839    211.3230    180.9291   5.7144923992e+01   8.6154250201e+00    0.4711947    0.1795686 -35.34  0.002276277    2.521    0.603
        31  -9.7231    214.0645    176.4949   5.5904833118e+01   8.8307685257e+00    0.2504404    0.2397577  79.90  0.001777235    1.858    0.462
        32  -9.1491    206.7148    179.6108   5.7712517997e+01   9.4153732273e+00    0.2042527    0.1877163 -22.03 0.0002198338    1.446    0.308
        33  -8.8137    199.2206    179.4767   5.9020062599e+01   1.0470826783e+01    0.1953945    0.1903945 -54.27  0.001144127    1.633    0.387
        34  -7.7325     50.4831    180.5053   9.4075194379e+01   3.1189453534e+01    0.1291244    0.1118469  44.98 -1.074252e-05    1.021    0.021
        35 -10.9471    220.9509    174.3068   5.4375862853e+01   8.1907605810e+00    0.3710026    0.3569041  84.75  0.002015125    1.877    0.467
        36  -9.6763    150.6623    173.4064   6.7724684198e+01   1.8663850546e+01    0.2315634    0.2098792  15.55 0.0002664876    1.096    0.088
        37  -8.1342    145.0406    172.7092   6.8869293637e+01   1.9664454371e+01    0.1877315    0.1545103  24.15 0.0006504002    1.069    0.065
        38  -8.8013    249.9479    168.7309   4.8988780159e+01   5.1734273362e+00    0.1532652    0.1161836  -5.87  0.000606788    1.042    0.041
        39 -10.1392    243.2520    165.3272   4.9342795215e+01   6.4053046633e+00    0.3608486    0.1543051  33.42  0.001954959    2.430    0.588
        40  -7.8438     94.0268    164.5022   8.0314811535e+01   2.9136059834e+01    0.1871989    0.1254512  31.32 -4.687847e-05    1.345    0.257
        41  -9.6438    249.5535    247.4431   6.1206864602e+01  -2.9359583517e+00    0.2336689    0.1636931 -25.03   0.00196561    1.762    0.433
        42  -8.9480    134.7024    248.8846   8.1322988958e+01   9.1127467661e+00    0.2081653    0.1070079  43.94  0.000711769    2.058    0.514
        43  -8.9336    148.8455    246.6214   7.8317400424e+01   7.7769490258e+00    0.1661476    0.1282743  -0.03 0.0004708519    1.255    0.203
        44  -9.1870     39.7831    247.3841   1.0068525824e+02   1.9570264526e+01    0.1507653    0.0856787  20.56 0.0004321124    1.656    0.396
        45  -9.3875     34.7161    239.5607   1.0140818487e+02   2.1339558833e+01    0.1974498    0.1006843  59.45  0.001211248    1.811    0.448
        46  -8.4259    227.4649    159.4776   5.0647723607e+01   9.2237894584e+00    0.1190096   0.09425364  -7.35 1.096723e-05    1.014    0.014
        47 -10.8507      2.0800    153.7125   1.0603838962e+02   4.1483558718e+01    0.6646822    0.2278102 -84.91  0.002453397    2.764    0.638
        48  -9.5146    204.5786    152.8110   5.3146053552e+01   1.3479939823e+01    0.2992845    0.2600139  40.59  0.001448198    1.428    0.300
        49 -10.2993     17.5228    153.8693   1.0148638558e+02   4.0380353401e+01    0.2901047    0.1219095  39.67  0.001342819    1.991    0.498
        50  -8.2568    167.0050    152.7622   6.0353580960e+01   1.9572986061e+01    0.1790933    0.1546639 -65.56 0.0006987567    1.619    0.382
        51 -10.0271    133.5161    144.4547   6.6391988049e+01   2.6910484572e+01     1.063209    0.2794359 -53.23  0.002788214    5.902    0.831
        52 -10.7519    213.7108    139.4064   4.8946373757e+01   1.3977655247e+01    0.6749015     0.366558 -43.20  0.002318848    2.023    0.506
        53  -9.1331    222.6483    145.2542   4.8687496247e+01   1.1799425054e+01    0.1928844     0.174699  -3.69 0.0003268713    1.213    0.176
        54  -9.9825    219.0492    144.9782   4.9200498930e+01   1.2376670174e+01    0.3105681    0.2541922  34.82 0.0004598808    1.382    0.276
        55 -12.2336     31.6388    142.8469   9.6297974939e+01   4.1864926609e+01    0.8918245    0.4979036  42.90  0.001373466    1.620    0.383
        56 -12.1420     39.3730    140.4254   9.3562791664e+01   4.1717905316e+01    0.8738827    0.6285569  64.80  0.002953483    1.370    0.270
        57 -11.5547     46.3833    139.3889   9.1163149207e+01   4.1235367937e+01    0.6810041    0.4530674  81.00  0.002046859    1.637    0.389
        58  -9.2864    204.3582    144.3177   5.1503439688e+01   1.4752379948e+01    0.2153841    0.1782784 -67.19  0.001179553    1.971    0.493
        59  -9.5686    199.2502    143.0137   5.2132562293e+01   1.5769679158e+01    0.2705938    0.1609965 -28.33  0.001431475    1.578    0.366
        60 -11.9024     63.3134    137.6748   8.5436074835e+01   3.9622024250e+01     2.833638     1.243089  44.95   0.01131782    2.218    0.549
        61 -11.8397     14.1533    142.6053   1.0185241150e+02   4.3347408633e+01    0.5197477    0.4632885 -37.52  0.003321386    1.320    0.242
        62  -9.5850    178.9251    146.7389   5.6706402517e+01   1.8566576945e+01    0.3563353    0.2650623 -75.80   0.00170545    2.706    0.630
        63 -10.0933    192.3585    143.9323   5.3564757256e+01   1.6762272730e+01    0.2563154    0.1974448  27.34 0.0005480893    1.261    0.207
        64  -9.2426    228.5921    140.4375   4.6833259196e+01   1.1562676440e+01    0.2276218    0.1715456 -26.37  0.001492281    1.179    0.152
        65  -9.3271    144.4591    139.4417   6.2696642278e+01   2.5934032116e+01    0.2207404    0.2017727  20.13 0.0001333399    1.028    0.027
        66  -9.9600    141.0102    138.2473   6.3274114586e+01   2.6790634508e+01    0.4234042    0.2619986 -27.85  0.001420783    1.916    0.478
        67  -9.0496    155.9152    135.3763   5.9182433595e+01   2.4605523785e+01    0.2385504    0.1960649 -56.16 0.0003342576    1.467    0.318
        68  -9.7306    171.9087    132.0191   5.5020780241e+01   2.2268469442e+01    0.2494398    0.2291868 -41.70  0.000384034    1.226    0.184
        69  -9.3455    225.5398    147.4491   4.8666185599e+01   1.1078576607e+01    0.2091693    0.1811724  -6.92 0.0005182952    1.138    0.121
        70 -10.0177    160.8933    128.3901   5.6545076582e+01   2.4950410679e+01     0.401496     0.323775 -21.45  0.001163469    1.240    0.194
        71  -9.9228    196.0125    127.4709   4.9440354509e+01   1.8686934186e+01    0.4347602    0.2639146 -56.61  0.001892463    2.649    0.622
        72  -9.5936    201.8218    125.9956   4.8116383911e+01   1.7900654076e+01    0.2054913    0.1843259  27.86 0.0005037626    1.195    0.163
        73  -8.5919    205.7115    122.1747   4.6639264230e+01   1.7798073133e+01    0.2232716    0.1416107 -34.52 0.0006017639    1.440    0.306
        74  -8.8506     89.9222    122.7520   7.4229015230e+01   3.9264303941e+01    0.5178227    0.2981126  64.11  0.001937716    2.708    0.631
        75  -9.2605    177.0306    119.3604   5.1152422346e+01   2.3463965272e+01    0.2851524    0.1862931 -46.90 0.0008857876    1.665    0.399
        76  -8.9638    135.3990    119.8062   6.0562812230e+01   3.1508851271e+01    0.2721429    0.1425439 -48.44 0.0008130636    2.032    0.508
        77 -10.1246    115.3968    237.5314   8.4082798120e+01   1.2984558071e+01    0.2074476    0.1724711  16.31 0.0005328596    1.138    0.121
        78  -9.2361    143.3054    108.1046   5.5755194197e+01   3.2226212409e+01    0.3517587    0.2437879  31.60 0.0008952675    1.530    0.346
        79 -10.7289    144.2481     97.1074   5.2672936110e+01   3.4130086805e+01    0.4764274    0.4056319 -38.72  0.001232391    1.174    0.148
        80 -11.9306    135.6785    104.6801   5.6762282918e+01   3.4482020884e+01     1.337153    0.7837071 -42.51  0.005831894    1.727    0.421
        81 -10.1273    119.6495     96.2482   5.8797345021e+01   3.9571080712e+01    0.4377052     0.326747 -53.91  0.001744786    1.441    0.306
        82 -11.4206    117.4369    106.7075   6.2180883408e+01   3.7809676533e+01     1.021625    0.7156756 -63.31  0.004618972    1.750    0.429
        83 -12.0070    125.3861    105.9990   5.9794533833e+01   3.6345359763e+01     1.357484     1.264959 -74.75  0.007353097    1.195    0.163
        84  -9.5178    223.1959    112.2608   4.1811122136e+01   1.6229612229e+01    0.3611309    0.1875796 -31.10  0.001623072    1.664    0.399
        85 -12.9921    199.8142     90.2531   4.0236653497e+01   2.3626051862e+01     1.565733    0.9173064  38.55  0.005031583    1.969    0.492
        86  -9.2462    130.8295    110.0581   5.9374935396e+01   3.4398211054e+01    0.2779138     0.260823  38.78 0.0004629294    1.056    0.053
        87  -8.7876    218.3977    112.5475   4.2568059355e+01   1.7001635482e+01    0.1996904    0.1812603 -63.30 0.0007116385    1.419    0.295
        88 -10.2463     67.0251    111.0233   7.9580186676e+01   4.5735792964e+01     0.233889    0.2118683  29.23  0.001269864    1.107    0.096
        89  -9.7716    136.0872    127.9026   6.2245494665e+01   2.9749495422e+01    0.5228003    0.1703506 -51.07  0.001619801    3.816    0.738
        90  -8.5543    216.0060    106.5447   4.1597073645e+01   1.8259059956e+01    0.2587116    0.1564714 -42.35  0.001379586    1.621    0.383
        91 -10.1600    150.3803    105.2768   5.3378438541e+01   3.1293948672e+01    0.4406961    0.2995848 -16.50  0.001586968    1.868    0.465
        92  -9.6509    107.5319     98.8315   6.3050966045e+01   4.1514406009e+01    0.4605484    0.3115869 -75.22  0.001259792    2.233    0.552
        93  -7.4754    101.3024    229.2905   8.6277883463e+01   1.5948311312e+01    0.1126727   0.08169623   2.04 0.0001840179    1.567    0.362
        94  -8.7646    118.8610     87.8312   5.6650571938e+01   4.1483204084e+01    0.2310603    0.2031396 -13.85  0.001175948    1.248    0.199
        95 -10.3674    157.3256     82.4051   4.5742719751e+01   3.3892738146e+01    0.4451764    0.2377516 -44.60  0.001347501    1.896    0.473
        96  -9.4930    133.4427     83.2162   5.1413752043e+01   3.9153879194e+01    0.3414798    0.2308499 -39.46  0.001027512    1.488    0.328
        97  -9.5445    140.8888     79.7267   4.8583960480e+01   3.8104830226e+01    0.4435459    0.2579892  56.25 0.0009847934    1.813    0.448
        98  -8.9451     84.6047     76.5373   6.4311797978e+01   5.1068080657e+01     0.331883    0.2376564 -38.56 0.0006555853    1.471    0.320
        99 -10.1043    164.4578     74.5039   4.2115339688e+01   3.3590356709e+01    0.3220398    0.2947067 -45.76 0.0008184366    1.074    0.069
       100  -8.6077     66.8162    227.8920   9.3777662135e+01   2.0131949239e+01    0.1625305     0.136607  23.01 0.0004127745    1.185    0.156
       101 -10.1999    136.2029     73.1292   4.7707580192e+01   4.0383212922e+01    0.6217617    0.1903287 -41.14  0.001949595    3.208    0.688
       102  -8.5578    151.2952     71.0515   4.3716005388e+01   3.7200694419e+01    0.2122782    0.1820196 -38.80 0.0004429821    1.149    0.129
       103  -8.7175    139.3403    225.2919   7.7733736894e+01   1.1875378926e+01    0.1872278    0.1401851  10.71 0.0003385888    1.191    0.161
       104  -8.7062    126.3334     67.1747   4.8266437890e+01   4.3786042040e+01    0.2565191    0.2021962  44.50 0.0005305344    1.265    0.210
       105  -9.3163    244.9482    224.9355   5.8744277753e+01  -3.6442507868e-01    0.1323569    0.1138046   8.49  0.001006409    1.695    0.410
       106  -9.2581    158.1145     64.1242   4.0299668512e+01   3.6715752331e+01    0.2146107    0.1949275  10.35 0.0004124032    1.214    0.177
       107  -8.4031    124.8364     61.4408   4.6754471091e+01   4.5168890395e+01    0.3081188    0.1062509 -39.19  0.001005543    2.873    0.652
       108  -9.0618    186.4479     60.3106   3.4536060336e+01   3.0746723354e+01    0.2253979    0.2204192  51.00 0.0006141749    1.103    0.094
       109  -9.5119    144.4002     59.4268   4.1575733960e+01   4.0756438147e+01    0.2726684    0.2412387 -59.43 0.0005837613    1.161    0.139
       110 -10.0269    182.0744     57.4285   3.4378015058e+01   3.2130682701e+01    0.3104848    0.1827695 -36.25 0.0005160613    1.563    0.360
       111  -9.5076    105.6504     58.7518   5.1166017652e+01   5.0220141324e+01    0.3055326    0.2506694  84.21 0.0004425081    1.470    0.320
       112  -8.1123     72.4648     58.2236   6.2894229649e+01   5.7476624759e+01    0.2015458    0.1458214 -61.48 0.0008824623    1.602    0.376
       113  -8.6039    224.1109    218.2331   6.1002355757e+01   2.5355652592e+00    0.2056382    0.1218083  44.20  0.001192433    2.852    0.649
       114 -10.2741    181.9240     44.7638   3.0841576821e+01   3.3860353359e+01    0.5397706    0.1968623 -26.45   0.00193116    2.852    0.649
       115  -9.3304    221.9780    161.7151   5.1929625032e+01   9.6935827740e+00      0.22059    0.1941729 -46.61 0.0008809138    1.671    0.401
       116  -9.4089    195.8128    158.6424   5.5835084274e+01   1.3975692447e+01    0.2748843    0.2434895  50.97  0.001161899    1.554    0.357
       117  -8.7566     33.0068    218.5041   1.0085102373e+02   2.5246558566e+01    0.1804872   0.09431469  27.41  0.001034438    1.598    0.374
       118 -10.3145    133.2135     34.6028   3.5422916735e+01   4.7262905755e+01    0.3906122    0.2873876 -15.63  0.001033917    1.572    0.364
       119 -11.0508    204.9516     39.1239   2.6640775996e+01   2.9387793272e+01    0.4628912    0.2135712 -28.21  0.001099233    1.997    0.499
       120  -8.0441    102.8028     43.5694   4.6286432025e+01   5.3597523279e+01    0.2064859    0.1439837  67.54 0.0003780789    1.592    0.372
       121  -8.4554    164.7623     40.1385   3.1875185722e+01   3.8558993348e+01    0.2764346    0.1620244  40.88  0.001225584    2.063    0.515
       122 -10.3406    192.2229    154.4029   5.5678231807e+01   1.5175657031e+01    0.4795295    0.3557959 -41.45  0.002180599    1.510    0.338
       123  -9.4835    123.2263     38.1118   3.8834008490e+01   4.9336110197e+01    0.2998186    0.1945583 -84.07  0.001245962    2.162    0.538
       124  -9.3411    159.4601     35.9175   3.1346875487e+01   4.0413103472e+01    0.2146392    0.1861022  74.66 0.0006310921    1.139    0.122
       125  -9.2788    153.9154     33.5338   3.1425537132e+01   4.2106921450e+01    0.2193938    0.1947557 -15.19   0.00122855    1.238    0.192
       126 -10.4877    126.2564     31.2394   3.5583685594e+01   4.9513152366e+01     0.399689    0.3113047  62.55  0.002052354    1.224    0.183
       127  -9.1120     31.9831    214.4813   1.0089541924e+02   2.6099519471e+01    0.1847529   0.09269791  29.57  0.001036111    1.607    0.378
       128 -10.7694    132.7781     41.5655   3.8008771097e+01   4.6396855173e+01    0.5733399    0.3272447 -26.77  0.002459525    1.904    0.475
       129 -10.2528    179.0928     24.1205   2.5222399547e+01   3.6998508635e+01    0.5211735    0.3635824  77.28  0.002232494    1.440    0.306
       130  -7.7680    190.5442    211.5421   6.5793559556e+01   7.2993826545e+00    0.1162482   0.08948223   9.95 0.0001109426    1.039    0.038
       131  -8.7863    232.1919     19.7725   1.9675341487e+01   2.5872614721e+01     0.219758    0.1541385 -14.12  0.001359125    1.597    0.374
       132 -12.7295    247.7996     60.9525   2.7729426513e+01   1.8528860041e+01    0.5687252    0.4622465 -12.85  0.002565453    1.277    0.217
       133  -8.1247    229.5037    207.6716   5.8530882535e+01   3.1102400547e+00    0.1606163    0.1166596  36.13  0.001137561    1.831    0.454
       134  -8.9129    207.3778    206.4556   6.2014910374e+01   5.8592242788e+00    0.2999737    0.1770311  47.01  0.001641757    2.823    0.646
       135  -8.7862    185.9980     15.8719   2.2163350099e+01   3.6228873409e+01    0.1887739    0.1675846 -52.53 0.0005410021    1.043    0.042
       136  -7.9947    190.4536     15.4716   2.1660529520e+01   3.5228520301e+01    0.1294952      0.11417 -59.02 0.0001033777    1.007    0.007
       137  -8.1487     71.5046    208.0460   9.1124246866e+01   2.3209965259e+01    0.1592183    0.1216738 -86.58  0.001005615    1.564    0.361
       138  -8.4164     68.7018    204.4061   9.1483059465e+01   2.4230022324e+01    0.2606602   0.08631115  33.88  0.001128333    2.246    0.555
       139  -9.9579    194.1975    196.9911   6.2868448210e+01   8.7524071858e+00    0.4254705    0.2742408 -60.05  0.002001099    4.070    0.754
       140  -9.6108    191.2075    191.6134   6.2546476817e+01   9.8871811748e+00    0.4918046    0.3800021 -83.07  0.002258756    3.996    0.750
       141  -8.6219      3.2162    190.5552   1.0685235941e+02   3.3249021984e+01    0.1805749    0.1390912  76.29 0.0003789987    1.218    0.179
       142  -9.5993    173.1233    187.7434   6.5400818815e+01   1.2972496565e+01    0.2080268     0.185773  11.61 0.0004464256    1.189    0.159
       143  -8.2699    250.5889    186.0206   5.1848234657e+01   3.1377222116e+00    0.1513773   0.08338784 -25.40 0.0009888801    1.509    0.337
