#   1 NUMBER                 Running object number                                     
#   2 MAG_AUTO               Kron-like elliptical aperture magnitude                    [mag]
#   3 X_IMAGE                Object position along x                                    [pixel]
#   4 Y_IMAGE                Object position along y                                    [pixel]
#   5 X_WORLD                Barycenter position along world x axis                     [deg]
#   6 Y_WORLD                Barycenter position along world y axis                     [deg]
#   7 A_WORLD                Profile RMS along major axis (world units)                 [deg]
#   8 B_WORLD                Profile RMS along minor axis (world units)                 [deg]
#   9 THETA_WORLD            Position angle (CCW/world-x)                               [deg]
#  10 FWHM_WORLD             FWHM assuming a gaussian core                              [deg]
#  11 ELONGATION             A_IMAGE/B_IMAGE                                           
#  12 ELLIPTICITY            1 - B_IMAGE/A_IMAGE                                       
         1  -9.7964     80.3748     12.2148   5.1542049094e+01   6.1431370440e+01    0.2090768    0.1583578 -30.63   0.00129083    1.533    0.347
         2  -8.9666    111.7021    208.6779   9.5598133488e+01   1.4944554048e+01    0.1409553    0.1097564 -16.52 0.0003836234    1.623    0.384
         3 -10.6208    148.8292    187.3375   8.2953639608e+01   1.3451834565e+01    0.3304935    0.1899881  10.69  0.001173335    3.014    0.668
         4  -9.3034    126.3338    184.3192   8.7905731298e+01   1.8088544706e+01    0.1557267    0.1169395 -12.56 0.0007048947    1.698    0.411
         5  -9.6153    116.5090    183.9977   9.0344488356e+01   1.9854082595e+01    0.2223237    0.1181168 -34.06 0.0008105654    2.593    0.614
         6  -9.0292    175.6651    178.6811   7.5064324719e+01   1.0522626213e+01    0.1545676    0.1108258  -6.83 0.0006163305    1.700    0.412
         7  -9.9609    124.5044    174.4898   8.6520554681e+01   2.0725619057e+01    0.1512398    0.1477389  -6.23 1.699542e-05    1.022    0.021
         8 -12.3507    152.3623    169.2779   7.8504936998e+01   1.6825450892e+01    0.6090407    0.3992296  -0.30  0.002396517    2.417    0.586
         9 -10.5206    128.6338    172.4784   8.5065463020e+01   2.0463070579e+01    0.2891201    0.1967342 -85.62   0.00115094    2.363    0.577
        10  -9.7979    110.7309    167.9978   8.8897039717e+01   2.4722583851e+01    0.2738185    0.1668824  -7.17 0.0009000954    3.448    0.710
        11 -12.2874    162.1700    163.2580   7.4904560147e+01   1.6312140125e+01    0.5863986    0.3340546  30.50  0.002406141    1.965    0.491
        12 -12.9679    149.7856    160.9385   7.7361805865e+01   1.9200309715e+01    0.7436368    0.5340347   3.30  0.003232687    1.880    0.468
        13 -11.1232    137.7003    160.7405   8.0334548022e+01   2.1553775193e+01    0.4400099    0.2566572  12.28  0.001479368    3.151    0.683
        14 -12.8572    165.7811    154.6133   7.2177528050e+01   1.7512772310e+01    0.5784172    0.5401071  32.93  0.003115779    1.112    0.101
        15 -11.8739    135.9951    150.9824   7.8642764770e+01   2.4178854049e+01    0.3812596    0.3320547   7.54  0.001897706    1.256    0.204
        16 -10.0134    114.2571    149.2488   8.4092236841e+01   2.8725221450e+01    0.2564654    0.1190976  47.68 0.0008931264    2.426    0.588
        17 -11.9630    174.5262    147.3349   6.8572475265e+01   1.7365485048e+01    0.4705942    0.2809657  45.77  0.002034858    1.790    0.441
        18 -13.0617    151.9010    140.7153   7.2284920380e+01   2.3377121914e+01     0.890619    0.5672546 -23.59  0.003548965    2.090    0.521
        19  -9.2723     91.3217    123.3446   8.4916412361e+01   3.9263504707e+01    0.1644334    0.1182268 -20.56 0.0002798204    1.731    0.422
        20 -11.2579    141.7348    132.7498   7.2912394358e+01   2.7273007905e+01     0.384664    0.2541052 -63.08  0.001584982    1.857    0.462
        21 -11.7555    179.4028    135.9095   6.4886992948e+01   1.8797833021e+01    0.4967274    0.2601094 -45.29  0.002024759    1.809    0.447
        22  -9.5066     74.3290    110.6692   8.7326591821e+01   4.5159438559e+01    0.1519921    0.1191429  76.22  0.000705163    1.715    0.417
        23  -9.3586     82.3288    105.3191   8.3266107247e+01   4.5153905456e+01    0.1591031    0.1148131 -16.98 -0.0001126835    1.685    0.407
        24 -11.4278     66.0600     98.2472   8.7007865500e+01   4.9374713149e+01    0.3958296    0.2461458  19.92  0.001784648    1.840    0.457
        25 -12.4788     53.8997     90.5090   8.9415292598e+01   5.2850393300e+01    0.6369545    0.3910683 -25.74  0.002908511    1.865    0.464
        26  -9.4997    115.6608     97.3111   7.0636140317e+01   4.0639771962e+01    0.1560611    0.1249629  87.29 0.0003006487    1.691    0.409
        27 -10.5103    110.8661     84.6981   6.8320039862e+01   4.4253900620e+01     0.248552    0.1880217  24.85  0.001181831    1.455    0.313
        28 -10.6204     78.8830     78.1880   7.6593237723e+01   5.1750264715e+01     0.296647    0.1674327  55.52  0.001160541    2.674    0.626
        29 -10.9396    102.4684     69.9862   6.6205501721e+01   4.8823280610e+01    0.2949919    0.2205392  44.11 0.0008203494    1.312    0.238
        30  -9.4860     63.6716     69.6799   7.9458580611e+01   5.5969962563e+01    0.1482378      0.10178 -11.08 0.0007047782    1.687    0.407
        31 -10.1082     47.5880     65.1932   8.4449449614e+01   5.9146693405e+01    0.2002308    0.1107468 -37.75  0.000622645    1.671    0.402
        32 -10.1180     60.6704     62.6653   7.8277632793e+01   5.7801175119e+01    0.1432219    0.1296823  -8.41 0.0008477722    1.059    0.056
        33 -11.0627     68.7623     61.7704   7.4845715549e+01   5.6677843489e+01     0.318026     0.235424  73.38  0.001472726    2.515    0.602
        34  -9.1524     82.3366     61.3204   6.9792543744e+01   5.4359706494e+01    0.1490157    0.1054397   3.92 0.0003092735    1.707    0.414
        35 -10.1918     75.0124     60.1693   7.1976898443e+01   5.5896873468e+01    0.2404697    0.1542807  11.44  0.001007752    1.986    0.496
        36 -11.1130     94.9763     52.6370   6.2619031158e+01   5.3328664981e+01    0.3090904    0.2939833  79.55 0.0007318257    1.264    0.209
        37 -11.9651     96.8650     45.3485   5.9457217043e+01   5.4038693710e+01    0.4953386    0.2979241  50.51  0.002410541    1.587    0.370
        38 -10.0187     84.9690     21.3942   5.3916112508e+01   5.9557874513e+01    0.2139242    0.1775289 -44.48   0.00053294    1.502    0.334
        39 -10.5420     75.0411     17.4170   5.5327879631e+01   6.1988688652e+01     0.234322    0.2076043  49.06 0.0003303422    1.233    0.189
