#   1 NUMBER                 Running object number                                     
#   2 MAG_AUTO               Kron-like elliptical aperture magnitude                    [mag]
#   3 X_IMAGE                Object position along x                                    [pixel]
#   4 Y_IMAGE                Object position along y                                    [pixel]
#   5 X_WORLD                Barycenter position along world x axis                     [deg]
#   6 Y_WORLD                Barycenter position along world y axis                     [deg]
#   7 A_WORLD                Profile RMS along major axis (world units)                 [deg]
#   8 B_WORLD                Profile RMS along minor axis (world units)                 [deg]
#   9 THETA_WORLD            Position angle (CCW/world-x)                               [deg]
#  10 FWHM_WORLD             FWHM assuming a gaussian core                              [deg]
#  11 ELONGATION             A_IMAGE/B_IMAGE                                           
#  12 ELLIPTICITY            1 - B_IMAGE/A_IMAGE                                       
         1 -12.0207    174.2543     41.6767   6.7649287676e+01   3.6484749018e+01     1.244832    0.9766092   2.93  0.004269799    1.418    0.295
         2 -11.8216    195.5475     12.2150   5.4771799024e+01   3.4354599522e+01     1.186134    0.5742903  57.18  0.004929472    1.936    0.484
         3 -11.2982    193.7142      5.6270   5.2888654703e+01   3.5488735855e+01     1.052626    0.5092503  55.11  0.004408825    1.945    0.486
         4  -8.8517    120.3350      9.0245   6.6318184337e+01   5.4250242061e+01    0.3017529    0.2591574  34.60 0.0009019529    1.101    0.092
         5  -8.6474      7.7997      8.8057   1.0912873987e+02   7.2140653187e+01    0.1998515   0.07487756 -33.97 0.0009478205    2.821    0.645
         6  -7.8856    171.0755     15.4845   5.9265268196e+01   4.0564116735e+01    0.2135438    0.1417759  62.96 0.0002961959    1.461    0.315
         7 -12.0053    242.0908    242.2747   9.9751257432e+01  -3.7516965734e+00    0.2537969     0.244566  50.03 0.0004547835    1.774    0.436
         8  -8.1817    235.5477    249.7207   1.0168846242e+02  -3.4265187284e+00    0.1692394    0.1019382  49.24  0.001177872    1.814    0.449
         9  -8.3338    150.8255    249.3346   1.1444025971e+02   8.8674146814e+00    0.1491816    0.1240036  65.22  0.000729286    1.317    0.241
        10 -18.1718     50.5764    233.7838   1.2879993551e+02   2.4042140264e+01     3.607855     2.633051  72.60   0.02003651    1.137    0.120
        11  -8.2135    222.7472    179.8239   9.3086900323e+01   5.4428250076e+00     0.152994    0.1384558  44.59 0.0005574172    1.322    0.244
        12  -8.8322    204.9038    176.9305   9.5609006145e+01   8.9892357569e+00    0.2726616    0.2373322  61.00  0.001223657    1.411    0.291
        13  -9.0692    192.4801    193.9978   1.0060082797e+02   8.9948689062e+00    0.3166666    0.2383376  88.76  0.001806146    2.422    0.587
        14  -9.4368    102.7917    171.0168   1.1407994484e+02   2.7673538489e+01    0.3957657    0.1959113  58.33  0.001972514    2.095    0.523
        15  -9.6811      4.8863    197.5710   1.3430170504e+02   3.4350579275e+01    0.2314234    0.1128534 -81.46  0.000906313    1.758    0.431
        16  -9.1445    110.4661    170.0323   1.1240855388e+02   2.6667073742e+01    0.2948053    0.1866416 -74.46 0.0009569079    1.832    0.454
        17  -7.9934     19.1802    199.6269   1.3204037336e+02   3.2718594643e+01   0.09730505   0.04954059  75.63 0.0003032935    1.562    0.360
        18  -9.6413    134.9414    195.1099   1.1102858472e+02   1.8550727645e+01    0.3634399    0.2234913 -77.08   0.00169734    2.435    0.589
        19 -10.1726     58.5588    166.2816   1.2246368155e+02   3.4571553523e+01    0.3612737    0.2014287  59.58  0.000722195    1.603    0.376
        20  -9.1762    113.5507    164.7199   1.1104185931e+02   2.7141314246e+01     0.381975    0.2249421  66.77  0.001954478    1.997    0.499
        21  -9.1849    247.2801    164.2481   8.6214967980e+01   2.9135470733e+00    0.2385245    0.1800222  35.50 0.0002347371    1.219    0.180
        22  -8.2020    125.8570    163.7173   1.0838184684e+02   2.5291356398e+01    0.2222216     0.150329  83.40 0.0007154667    1.944    0.486
        23 -10.1994     35.7390    162.5359   1.2670998001e+02   3.7809776397e+01    0.3732474    0.1915794  33.81  0.002265157    2.203    0.546
        24  -9.0306    117.1798    153.2504   1.0855092770e+02   2.8674757829e+01    0.3816103    0.2513539  30.50  0.001578105    1.850    0.459
        25  -9.8850    102.7588    145.3272   1.1041976494e+02   3.2558093579e+01    0.4217714    0.3632543 -19.09 0.0008269812    1.653    0.395
        26  -9.9949    111.5103    150.8726   1.0938604618e+02   3.0066293185e+01    0.6239704    0.2592737  48.53  0.002762673    2.259    0.557
        27 -10.8047    104.4719    154.4906   1.1144764264e+02   3.0503896849e+01    0.7265767    0.4633226 -77.87  0.002565808    1.814    0.449
        28  -9.4025    103.0474    161.3237   1.1272856013e+02   2.9428123146e+01    0.2026238    0.1664081 -65.02 0.0003847353    1.292    0.226
        29  -9.3861    100.8697    158.1192   1.1273566315e+02   3.0370468752e+01    0.2533236    0.2157111  75.68  0.000315517    1.049    0.047
        30  -8.9786    155.9185    191.1041   1.0665561712e+02   1.5685358948e+01    0.4383698    0.2455332 -68.33  0.002070399    3.280    0.695
        31  -9.3389    192.8418    165.0929   9.5622684565e+01   1.2832937108e+01    0.4283155    0.3133765 -69.44  0.002217188    2.262    0.558
        32  -9.3980    247.8786    159.4396   8.5181823576e+01   3.3484451879e+00    0.2445395     0.192258  28.02 0.0005080239    1.117    0.105
        33  -8.4752    169.1069    157.3930   9.8667660398e+01   1.8525181454e+01    0.1920829    0.1753246 -13.03 0.0003053563    1.222    0.181
        34  -7.5897      3.4677    158.4323   1.3276733092e+02   4.1479810274e+01    0.1017897   0.07372624  80.17 0.0001538274    1.025    0.024
        35  -8.7997    189.7408    156.0090   9.4481093552e+01   1.4751906762e+01    0.3386165    0.2645972  63.66  0.001918702    1.515    0.340
        36  -8.1867    132.6717    156.5379   1.0583854692e+02   2.5403922099e+01    0.3516889    0.1859556  67.47  0.001195693    3.157    0.683
        37  -8.7067    247.8761    154.3533   8.4168739640e+01   3.9296642980e+00    0.1889488    0.1591623 -15.90 0.0003208834    1.237    0.192
        38 -11.4192    119.3626    201.9543   1.1467651106e+02   1.9921684288e+01    0.7037966    0.4049647  60.04  0.001822094    1.663    0.399
        39 -10.0897    215.9037    152.6889   8.9116895669e+01   1.0130544676e+01    0.2466932    0.2045347  33.97 0.0003801743    1.089    0.082
        40  -9.5738    134.1270    148.5872   1.0417297912e+02   2.6591543486e+01    0.7835518    0.2654307 -57.26  0.002652372    4.243    0.764
        41  -8.8839    143.7858    147.3181   1.0191406705e+02   2.5046057562e+01    0.2644831    0.1931384  71.36  0.001219413    1.619    0.382
        42  -9.9343    113.7407    137.7293   1.0669889388e+02   3.2252707903e+01    0.4327652    0.3541844  86.85  0.001836518    1.264    0.209
        43  -9.6174    116.5065    146.0121   1.0751276205e+02   3.0166820751e+01    0.4041249    0.2264586  58.26  0.001405186    1.913    0.477
        44  -9.8143    111.5524    142.9819   1.0809221483e+02   3.1588327117e+01    0.3104309    0.2324184  66.95  0.000639306    1.343    0.255
        45  -8.8367     92.3163    140.1198   1.1194371241e+02   3.5216984885e+01    0.2443171    0.1673859  52.40 0.0008804688    1.383    0.277
        46  -8.3112    154.7301    204.3855   1.0868824598e+02   1.3970916390e+01    0.2372444    0.1585516  65.81  0.001437252    1.756    0.430
        47  -8.2622    127.3458    137.4303   1.0361038982e+02   2.9917926729e+01    0.2514904    0.1689626  78.21 0.0008966009    2.034    0.508
        48  -9.7014    103.0424    137.5202   1.0908420329e+02   3.4068525385e+01    0.2285133    0.2063956  68.57 0.0003837596    1.046    0.044
        49  -8.8180    235.0488    134.8438   8.2133178857e+01   8.7338838668e+00    0.2103222    0.1859534  14.32 0.0003677457    1.045    0.043
        50  -7.8335    163.4427    134.5308   9.5304989289e+01   2.3475271152e+01    0.1377561    0.1292493  43.85 4.703299e-05    1.009    0.009
        51  -9.6509    119.0480    129.9195   1.0405369184e+02   3.2876729223e+01    0.4409287    0.2478366 -50.44  0.002124284    1.826    0.452
        52  -9.2263     91.3270    129.3673   1.1043039111e+02   3.7573431706e+01    0.2197942    0.1933857  51.47 0.0006902529    1.177    0.151
        53  -8.7288    106.9502    125.1982   1.0597277324e+02   3.5927004564e+01    0.2311334    0.1854141 -45.93 0.0006239743    1.356    0.263
        54  -8.1051    115.6692    123.7150   1.0362493083e+02   3.4720315626e+01    0.3347667    0.1494517  62.16  0.001058382    4.367    0.771
        55  -7.5808    167.5578    130.4926   9.3597798509e+01   2.3332285783e+01    0.1393897    0.1310081  35.32 8.994366e-05    1.015    0.015
        56  -8.7066    125.9567    187.0919   1.1166026754e+02   2.1269563080e+01    0.1853783    0.1569494  78.56 0.0004938441    1.192    0.161
        57  -8.5134    174.0150    201.4087   1.0491002942e+02   1.1179665815e+01     0.208082    0.1654709 -71.79  0.000557488    1.800    0.444
        58  -8.8828    168.6075    114.3516   8.9706123275e+01   2.5926632982e+01    0.3364675    0.2547475 -71.83  0.001624334    1.792    0.442
        59  -8.1173    171.9530    195.7985   1.0445986603e+02   1.2284830668e+01    0.2831055    0.1644054 -72.60   0.00113097    4.932    0.797
        60  -7.7124    195.5239    184.5212   9.8543681679e+01   9.6844920301e+00    0.1897849    0.1159837 -50.49  0.001016505    2.291    0.563
        61  -7.3660    190.0089    110.9706   8.4592258017e+01   2.1767009722e+01      0.16939    0.1594462  21.95            0    1.003    0.003
        62 -11.1562     57.5213    110.1212   1.1567966245e+02   4.6280920909e+01     0.561165    0.2195085  33.17  0.002517433    2.953    0.661
        63  -9.7246    194.7561    198.4882   1.0090678293e+02   8.0419687086e+00    0.2875725    0.1962741 -53.39  0.001739119    2.143    0.533
        64  -9.7588     30.3079    181.4549   1.2909448144e+02   3.4820813880e+01    0.4384453    0.1444306  40.49  0.002430876    2.574    0.611
        65  -8.9352    162.4797    178.4478   1.0353589615e+02   1.6446909274e+01    0.3284779    0.2379097 -81.73  0.001820751    2.113    0.527
        66  -8.3452    175.5364     88.2115   8.1549004824e+01   2.8881704868e+01    0.2228017    0.1893953  17.50 0.0004115143    1.258    0.205
        67  -9.5688    231.4655     79.4506   6.9346747218e+01   1.6937614880e+01    0.2659326    0.2422465   5.35 0.0003014446    1.046    0.044
        68  -8.6443    235.7111     75.8261   6.7774388001e+01   1.6444101901e+01    0.2429742    0.1845694  40.62 0.0006391311    1.344    0.256
        69  -8.4421    117.9062     71.3073   9.0074258716e+01   4.4893219612e+01    0.2256644    0.1853402 -53.13 0.0004054845    1.231    0.188
        70  -8.2717    234.1007     68.3609   6.6029912854e+01   1.7797945960e+01     0.294583    0.1133628  51.01  0.001105451    2.556    0.609
        71 -11.7483    160.9929     56.1424   7.4971868130e+01   3.7721488865e+01     1.068983    0.6919013  29.09  0.003792383    1.870    0.465
        72  -7.2672    144.3377    179.2778   1.0708911622e+02   1.9490094685e+01    0.1191518   0.09183075  21.21 0.0001860084    1.615    0.381
        73 -10.5036    178.8214     34.2877   6.4411719807e+01   3.6274046241e+01    0.4980856    0.3699967  -2.82  0.001026988    1.502    0.334
        74 -10.3150    130.2997     48.9911   7.9549895615e+01   4.6259710133e+01    0.2548326    0.2399687   5.39  0.000251586    1.048    0.045
        75  -8.2232    141.5024     45.4842   7.5641275963e+01   4.4191517804e+01    0.1505172    0.1436298   4.68 0.0003830291    1.017    0.017
        76  -9.1034    225.6613     30.8678   5.6744927342e+01   2.4493100652e+01    0.3589222    0.2542025 -29.85  0.001031806    1.335    0.251
        77  -8.3201    198.8548     23.8352   5.8017270307e+01   3.2229423108e+01    0.2021441    0.1653326 -54.20 0.0004055565    1.278    0.217
        78  -7.6591    167.9685    230.4850   1.0969868773e+02   8.5080577772e+00    0.1391228    0.1292242  43.76 5.023133e-05    1.248    0.199
        79  -8.3199    186.2440    229.4597   1.0663090081e+02   5.8008050527e+00    0.2315902   0.09191322 -46.62  0.001208029    3.660    0.727
        80  -9.6822    184.0495    214.2765   1.0499825190e+02   7.8979497329e+00    0.4821377     0.229879 -50.02  0.002572173    3.104    0.678
        81  -9.2744    175.1061    214.0845   1.0646881156e+02   9.3710458263e+00    0.2572031    0.1215024  41.24  0.001424784    1.667    0.400
