#   1 NUMBER                 Running object number                                     
#   2 MAG_AUTO               Kron-like elliptical aperture magnitude                    [mag]
#   3 X_IMAGE                Object position along x                                    [pixel]
#   4 Y_IMAGE                Object position along y                                    [pixel]
#   5 X_WORLD                Barycenter position along world x axis                     [deg]
#   6 Y_WORLD                Barycenter position along world y axis                     [deg]
#   7 A_WORLD                Profile RMS along major axis (world units)                 [deg]
#   8 B_WORLD                Profile RMS along minor axis (world units)                 [deg]
#   9 THETA_WORLD            Position angle (CCW/world-x)                               [deg]
#  10 FWHM_WORLD             FWHM assuming a gaussian core                              [deg]
#  11 ELONGATION             A_IMAGE/B_IMAGE                                           
#  12 ELLIPTICITY            1 - B_IMAGE/A_IMAGE                                       
         1 -11.7119     76.3597     22.3624   7.2210464469e+01   6.1808352307e+01    0.4905238    0.3269452 -41.68  0.002332143    1.740    0.425
         2 -11.5120     13.7318     20.8182   9.8991839517e+01   7.0164374476e+01    0.2952968    0.2322639  43.19  0.001240624    1.939    0.484
         3 -10.8571      1.9838     22.1199   1.0553606786e+02   7.0671524702e+01    0.2737983    0.1443349 -60.66 0.0009961678    1.838    0.456
         4 -10.8947     36.8699      6.4330   8.0648244994e+01   7.0070598793e+01    0.4046701    0.2197207 -45.06   0.00118325    2.427    0.588
         5 -10.1797     40.9749      6.0366   7.8520709662e+01   6.9580305852e+01    0.1965607    0.1492486  11.55  0.000540061    1.158    0.136
         6 -10.4564     22.9090      9.0742   8.8982786763e+01   7.1290437889e+01    0.3419276    0.2042994  -6.30  0.002068258    1.706    0.414
         7 -11.7455     30.2656      7.2413   8.4292165112e+01   7.0764764185e+01    0.3485334    0.2574563  14.14  0.001354739    1.289    0.224
         8 -10.7598     43.0645     18.5779   8.3753563642e+01   6.7550727802e+01    0.4544767    0.2168307 -19.29   0.00202806    2.713    0.631
         9 -10.2987     72.1720     13.0042   6.9406981157e+01   6.3756306529e+01    0.2691758    0.1744988   6.41  0.001022066    1.630    0.386
        10 -10.1284     75.9803     15.3947   6.9196635299e+01   6.2770322765e+01    0.2629789    0.1690242 -40.63 0.0005974158    1.849    0.459
        11 -11.6703    234.5709     14.8819   4.0391633577e+01   2.4880268713e+01    0.2697894    0.2147307 -75.92  2.80898e-05    1.115    0.103
        12  -9.6168     88.8163      7.3648   6.1476719807e+01   6.1135218624e+01    0.3137173    0.1266876 -30.48  0.001373684    2.513    0.602
        13 -10.8370     89.2080     13.3854   6.4050650212e+01   6.0421033876e+01    0.4371147    0.3302751  79.44  0.001911607    2.018    0.504
        14 -10.4523     92.3911     10.0987   6.1670326628e+01   6.0113554817e+01     0.314735    0.1737631  36.96 0.0008188514    1.685    0.406
        15 -11.8357     34.7296     12.8075   8.4882947129e+01   6.9442270736e+01    0.3429139    0.2450082 -33.48  0.001102883    1.320    0.242
        16 -10.0502    154.4473     15.0650   5.0095340042e+01   4.4896637624e+01    0.2119841     0.175214  65.22 0.0004792827    1.111    0.100
        17 -11.0890     64.6814     11.8542   7.1580395765e+01   6.5213399518e+01     0.385208    0.2931737 -78.39  0.001927858    3.119    0.679
        18 -10.9190    126.4729     10.7801   5.3710309462e+01   5.2303578180e+01    0.3505422     0.168167  45.93            0    1.892    0.472
        19 -10.4047    215.3867      9.8000   4.0898939994e+01   3.0002480311e+01    0.1647768    0.1283797 -12.45 0.0002531764    1.605    0.377
        20 -11.8520     57.1530      3.6196   7.0365622271e+01   6.7431656818e+01    0.5311645    0.3104526 -15.71  0.003000573    1.627    0.385
        21  -9.8385     15.1880      9.0704   9.3105994081e+01   7.2006331165e+01    0.1758893    0.1110024 -22.98 0.0004367154    1.280    0.219
        22 -10.6241    224.1390      7.8110   3.9609029974e+01   2.8109788798e+01    0.2069624    0.1543396 -65.30 0.0007189363    1.205    0.170
        23 -10.2523    211.2049      7.1843   4.0632612501e+01   3.1298169792e+01    0.2260685    0.1203403  36.71 0.0009554276    2.879    0.653
        24 -10.9823     71.2321      5.9623   6.6367458019e+01   6.4719852756e+01    0.3086899    0.2961447  -2.30  0.002131668    1.315    0.239
        25 -10.2534      8.6432      5.6443   9.5123561007e+01   7.3071548972e+01    0.3343595    0.1828499  41.62   0.00185198    3.270    0.694
        26  -9.7844      2.5182      6.4791   9.9040782315e+01   7.3362920008e+01    0.1901286   0.09785008  13.18 0.0007496864    2.098    0.523
        27 -10.5979    107.7984      4.9602   5.5492471150e+01   5.7232807015e+01    0.2402373    0.1895371  20.37 0.0002228338    1.221    0.181
        28 -10.8706    101.8771      2.6143   5.5918876245e+01   5.8771439434e+01    0.4341383    0.3065781  73.85  0.001519876    1.700    0.412
        29  -9.4863    120.8150      4.3831   5.2419816593e+01   5.4250050246e+01    0.1945882    0.1044466  51.21 0.0003016149    1.595    0.373
        30 -10.2865    130.0140      3.0279   5.0126570504e+01   5.2146106721e+01    0.2064618    0.1860911  53.60 0.0005502246    1.030    0.030
        31 -11.1016     20.7189      1.9084   8.6476056687e+01   7.2551334878e+01    0.2165507    0.1479301   4.97 0.0007072674    1.323    0.244
        32 -10.0791     26.1352      2.1152   8.3707620226e+01   7.1940655695e+01    0.2670848    0.1573728  10.48  0.001626868    1.713    0.416
        33  -9.8937    145.0178      5.9679   4.8571763494e+01   4.8167036206e+01    0.1637201    0.1474976  58.79 0.0003437523    1.005    0.005
        34  -9.6441    176.3439      2.3283   4.3017277968e+01   4.0523135888e+01    0.2189097    0.1406425  40.93  0.001101597    1.734    0.423
        35 -11.3894     80.4708      1.6557   6.1310046283e+01   6.3374755685e+01    0.2993119    0.1519877  50.27 0.0007157787    1.787    0.440
        36  -9.5611    187.1377      1.2645   4.1487091590e+01   3.7879800755e+01    0.1872915    0.1062724  82.93 0.0002631086    1.696    0.410
        37  -9.9006     65.0018      7.0166   6.9099239879e+01   6.5722817749e+01    0.1937736    0.1613847   6.02  0.000589516    1.043    0.041
        38  -9.7530     10.0000      1.4819   9.2276407380e+01   7.3602490355e+01    0.1453406   0.09610649  14.95  0.001013602    1.547    0.354
        39  -9.4414     24.5474    138.9933   1.2023561223e+02   4.3487513063e+01    0.1902719   0.09853735 -70.74 0.0008727334    1.559    0.358
        40 -12.1289     15.9460    248.9330   1.2963401897e+02   2.1731591742e+01    0.4827214    0.1921522  31.55   0.00259905    3.428    0.708
        41 -12.7808      9.7152    228.0472   1.2970408614e+02   2.6055943780e+01    0.5149236    0.2553946  77.61 0.0007363432    1.597    0.374
        42 -11.4360      1.7393    225.7966   1.3091578660e+02   2.7223496023e+01    0.2782328    0.1023032 -89.62  0.001514415    2.330    0.571
        43 -11.7503      3.2736    249.0450   1.3157978140e+02   2.2973381552e+01    0.6090526    0.2767039  79.74  0.004141107    1.739    0.425
        44 -12.3724      4.4675    233.0146   1.3077303637e+02   2.5656835288e+01    0.4760705    0.1612736  61.79  0.002691573    2.274    0.560
        45 -12.1249      9.2054    245.1666   1.3052300479e+02   2.3057624649e+01    0.3862775    0.2084578  30.46  0.002532308    2.539    0.606
        46 -12.2602      6.3531    241.4332   1.3081640805e+02   2.3984831699e+01    0.4102595    0.2057071  53.72  0.002156657    1.467    0.318
        47 -10.2306    212.6233    133.9181   7.3215425840e+01   1.1544412061e+01    0.2640132    0.2151176  56.61 0.0006329726    1.383    0.277
        48  -9.3606     96.0127    133.9576   1.0047269995e+02   3.5643438975e+01    0.1746085    0.1635327 -81.55 0.0004838233    1.007    0.007
        49 -10.5705      2.1687    133.1313   1.2523060042e+02   4.6537842542e+01    0.2394218    0.1513294  49.37  0.001433181    1.689    0.408
        50  -9.3263     35.3648    130.8563   1.1642518701e+02   4.4408331573e+01    0.1825834    0.0940067 -60.14 0.0004468424    1.647    0.393
        51 -10.9327     11.9049    129.9463   1.2248039845e+02   4.6600912721e+01    0.2268128    0.1589049  52.91 0.0008134077    1.526    0.345
        52 -10.0545    248.6779    129.3268   6.5911704477e+01   5.0306197202e+00    0.1359147    0.1048226 -60.65 0.0005452644    1.687    0.407
        53  -9.6991     28.6262    128.1911   1.1788235180e+02   4.5665348750e+01    0.1735953   0.09421668 -63.06 0.0002403367    1.518    0.341
        54  -9.5501     20.4454    125.4239   1.1973370322e+02   4.7005677190e+01     0.123716   0.09824691 -84.06 -2.586824e-05    1.055    0.052
        55 -11.2295      8.3199    121.5851   1.2253731878e+02   4.8782967576e+01    0.3229745    0.1747243  67.74   0.00085032    2.037    0.509
        56 -11.8032     23.7781    120.8892   1.1825670944e+02   4.7802855275e+01    0.4336702    0.2511061  76.12  0.001115407    1.957    0.489
        57 -11.2694     65.9129    110.8942   1.0428730668e+02   4.5712361974e+01    0.3140587    0.2468152  81.95  0.001039278    1.449    0.310
        58  -9.2396    102.9895    109.0618   9.2911312749e+01   4.0272834802e+01    0.1749522    0.1636602 -55.16 0.0003068068    1.017    0.017
        59  -9.3780     35.6867    109.3142   1.1310636556e+02   4.9504484451e+01    0.1294326   0.09010033  76.22 0.0003277448    1.639    0.390
        60 -11.6151      4.2933    108.4402   1.2218029102e+02   5.2065410036e+01     0.382747     0.247147 -21.14  0.002329871    2.154    0.536
        61 -11.4924     58.0198    107.3753   1.0595728475e+02   4.7561495572e+01    0.3281971    0.2528896 -11.27 0.0009163658    1.711    0.415
        62  -9.8786     88.5796    105.7071   9.6295159242e+01   4.3561790148e+01    0.2932363    0.1283147 -48.76   0.00113206    2.115    0.527
        63 -10.5358     18.1518    104.0409   1.1755466085e+02   5.2190752173e+01    0.2187297   0.09896961 -49.52  0.001085145    2.008    0.502
        64  -9.9759    186.9641    103.0926   7.0533827891e+01   2.3041968456e+01      0.22761    0.2261985 -59.89 0.0004932578    1.030    0.029
        65  -9.2862    161.5197    102.4675   7.5877319416e+01   2.9205738386e+01     0.156212    0.1544285 -53.65  6.27589e-05    1.018    0.018
        66  -9.3715     66.6536    101.7202   1.0206157492e+02   4.7791717882e+01    0.1397296    0.1025299 -26.33 0.0003867149    1.637    0.389
        67 -10.5049     61.9817     97.9886   1.0268540320e+02   4.9285444906e+01    0.2302928    0.1524441 -33.41  0.001139757    1.710    0.415
        68  -9.1006    100.6677     96.0049   9.0170392394e+01   4.3674072889e+01    0.2496871    0.1224977 -67.19 0.0007052034    4.405    0.773
        69 -10.3342      3.3718     95.3989   1.2084077775e+02   5.5106843524e+01    0.2343784    0.1625743 -82.36  0.001520975    1.241    0.194
        70  -9.7280     19.1113     87.1501   1.1453450627e+02   5.6037783036e+01    0.3584956    0.1561122 -53.05  0.001496871    1.804    0.446
        71 -12.3416     20.8800     92.8067   1.1493637073e+02   5.4608327318e+01    0.3367789    0.2508994 -40.21  0.000477601    1.369    0.270
        72 -10.4925     24.1165     88.3890   1.1309150040e+02   5.5388576130e+01    0.3171498    0.1704992 -74.26 0.0006062937    1.768    0.434
        73 -11.1235    125.1320     93.3069   8.2427830648e+01   3.9370561885e+01    0.2644528    0.2434769 -44.55 0.0001967941    1.065    0.061
        74  -9.5466    119.2858     94.3329   8.4332949802e+01   4.0385637520e+01    0.1554979    0.1213621  -8.93 0.0007013116    1.621    0.383
        75  -9.3985     78.7826     94.4175   9.6468167956e+01   4.7741634501e+01     0.176822    0.1398332  15.28 0.0003267599    1.504    0.335
        76 -10.5353     44.0927     91.2337   1.0700755865e+02   5.2940473570e+01    0.3865711    0.2502305 -67.98  0.002071617    1.446    0.308
        77 -10.3109     29.4155     92.5296   1.1211195696e+02   5.4007618733e+01    0.2214881    0.1774283 -61.74 0.0005553528    1.017    0.017
        78 -11.0565     10.0671     79.3224   1.1622206529e+02   5.8390127222e+01    0.3955804     0.172596 -67.96  0.001011709    1.812    0.448
        79 -11.9792      9.3775     91.3609   1.1839653812e+02   5.5694928189e+01    0.3495857    0.3221965  -1.80  0.002597488    1.380    0.275
        80 -10.3116     11.3804     85.1359   1.1676400853e+02   5.6997459105e+01    0.3122932    0.1503025 -82.77  0.001505554    2.276    0.561
        81 -10.8623     57.6277     92.0514   1.0271548100e+02   5.1218729960e+01    0.2356084    0.1968713   2.41 0.0006618755    1.420    0.296
        82 -10.4165     76.5420     89.3666   9.5858517371e+01   4.9236718142e+01    0.2653662    0.2355667   3.97 0.0009633727    1.253    0.202
        83  -9.4854     64.5454     88.5113   9.9562919454e+01   5.1145935678e+01    0.1393144    0.1232152 -50.41 7.232309e-05    1.012    0.012
        84 -10.4081     55.0287     85.2706   1.0194403230e+02   5.3094805905e+01    0.2344248    0.1959373 -68.71 0.0007065044    1.211    0.174
        85  -9.5689    113.6237     85.5908   8.3382124549e+01   4.3419075424e+01    0.1520101    0.1384957 -15.13 0.0007872562    1.128    0.113
        86  -9.6547    124.5154     82.5737   7.9409920888e+01   4.1735899502e+01     0.264953    0.1484096 -40.73  5.22513e-05    1.752    0.429
        87  -9.7285    124.4280     79.2791   7.8418349797e+01   4.2418249275e+01    0.2070834    0.1440752 -50.66 0.0007062747    1.515    0.340
        88  -9.4002     76.7685     82.9625   9.4026239707e+01   5.0637446026e+01    0.1924658    0.1700045 -41.52 0.0004064104    1.026    0.026
        89 -10.8877      3.8029     82.4796   1.1886173632e+02   5.8015869857e+01    0.3064614    0.1665186 -62.52   0.00180761    1.362    0.266
        90 -11.0099      5.3797     76.5024   1.1735960528e+02   5.9276444214e+01    0.3453225    0.1075725 -49.11  0.001172274    2.464    0.594
        91  -9.6994     89.5924     80.7731   8.9226867678e+01   4.9011594840e+01    0.2022076    0.1337818 -56.65 0.0004563731    1.606    0.377
        92 -10.6922     64.7389     80.0626   9.7262076107e+01   5.3025861158e+01    0.2789018    0.2632525 -34.61  0.001103757    1.073    0.068
        93  -9.3340    250.3408     80.7221   5.4367318984e+01   1.2370206292e+01    0.1398579   0.09834182 -64.36 0.0004969742    1.622    0.383
        94  -9.6076     48.2143     78.8376   1.0269182695e+02   5.5337089269e+01    0.1803918     0.136086 -32.92  0.000415228    1.310    0.237
        95  -9.6560     24.2015     78.8391   1.1119618090e+02   5.7563348684e+01    0.1839795    0.1183051 -45.64  0.001072655    1.354    0.261
        96  -9.8833    176.8282     76.8196   6.5282053727e+01   3.0339805050e+01    0.2198419    0.1861344 -76.39 0.0009545634    1.329    0.248
        97 -10.3271     42.5920     76.2870   1.0405110300e+02   5.6507319264e+01     0.311104    0.1983594  49.84  0.001631197    2.063    0.515
        98 -10.7297     28.1377     77.0692   1.0942133001e+02   5.7654796182e+01    0.1828728    0.1603754 -46.81 0.0003356003    1.098    0.089
        99  -9.8514     70.0360     75.6905   9.4200200918e+01   5.3239896232e+01    0.1918011     0.175264 -16.74 0.0009190359    1.099    0.090
       100 -10.7898     55.2448     75.7549   9.9390880698e+01   5.5206160695e+01    0.2736283    0.2378298 -40.58 0.0008752296    1.024    0.024
       101  -9.9029     37.2883     75.3512   1.0573185225e+02   5.7238380357e+01    0.2316852    0.1516544 -48.75 0.0009541523    1.265    0.210
       102 -10.4603     35.1908     72.6371   1.0583400905e+02   5.8037891326e+01    0.4896564    0.2614111 -12.09    0.0021634    3.065    0.674
       103 -10.5478     15.0740     75.7908   1.1382041704e+02   5.8882391558e+01    0.2424319    0.1910077 -58.12  0.001362209    1.008    0.008
       104 -11.3235     20.4365     73.1353   1.1135196997e+02   5.9118576133e+01     0.377098    0.1673118 -47.41  0.001317443    1.841    0.457
       105 -10.1351    217.0785     72.3577   5.6975164807e+01   2.1176248311e+01    0.2302997    0.1909643 -26.78 0.0003467619    1.230    0.187
       106 -10.8368    106.0334     72.0537   8.1399197331e+01   4.7734739759e+01    0.2620898    0.2125635  45.08 0.0003872299    1.290    0.225
       107  -9.3361     92.4606     72.4791   8.5748258038e+01   5.0245621439e+01    0.1451795    0.1355852 -29.82 0.0002500951    1.026    0.026
       108 -10.2823     80.2972     69.3862   8.8762606804e+01   5.2985408778e+01     0.529498    0.1887664 -50.73  0.001857514    2.902    0.655
       109  -9.9966    100.0355     70.6422   8.2770219917e+01   4.9197930176e+01    0.2219651    0.1897874 -47.77 0.0005429542    1.190    0.160
       110  -9.2280     29.6347     71.3226   1.0756517282e+02   5.8815455498e+01    0.1225816   0.09268644  74.99 0.0007039036    1.790    0.441
       111 -11.1726     46.6514     69.1893   1.0069850441e+02   5.7641339242e+01    0.4032159    0.2279947  17.78 0.0006202458    2.210    0.548
       112  -9.4650     91.0165     69.5069   8.5254936091e+01   5.1112265465e+01    0.1811442    0.1288453  69.72 0.0003991198    2.206    0.547
       113 -10.6085     15.1308     64.7513   1.1151287256e+02   6.1320054137e+01    0.3990766    0.2636248 -78.39  0.001938178    1.628    0.386
       114 -10.6437      1.4063     66.8493   1.1709086947e+02   6.1600234225e+01    0.1958676   0.09099845 -70.48 0.0006723831    1.762    0.433
       115 -11.4571     10.5811     60.0068   1.1221927725e+02   6.2619222990e+01     0.287663    0.1832431  -0.06   0.00117209    1.933    0.483
       116 -10.9984      5.3008     68.7191   1.1600432100e+02   6.1005273210e+01    0.3096265    0.1747739  81.73   0.00121954    2.531    0.605
       117 -10.4998     10.7066     67.6639   1.1380109850e+02   6.0947967413e+01    0.3079275    0.1632782 -62.06  0.001075861    1.447    0.309
       118 -11.4152      6.5198     64.3181   1.1469889437e+02   6.1905976627e+01    0.2708138    0.2194213  -5.88  0.001933304    1.479    0.324
       119 -10.8740     63.3157     62.6352   9.2571649754e+01   5.6952639425e+01    0.5970351    0.3948975 -41.50  0.003161019    1.336    0.251
       120  -9.6169    132.5470     65.7629   7.1933376695e+01   4.3146677897e+01    0.3321043   0.09830388  41.65  0.000890289    4.216    0.763
       121 -10.2355     34.5902     64.7610   1.0404080393e+02   5.9816878824e+01    0.2635574    0.1512813 -47.95  0.001017923    1.411    0.291
       122 -10.4102     38.9078     61.7360   1.0153633987e+02   6.0051377484e+01    0.3016337    0.1946411 -54.41  0.001697366    1.348    0.258
       123 -10.1260     41.6930     59.0006   9.9647317330e+01   6.0342617468e+01    0.2449779    0.1385856 -40.58 0.0002884626    1.528    0.346
       124 -10.6671    101.3815     61.3093   7.9221864892e+01   5.0739157440e+01    0.2522659    0.2468222 -76.81 0.0007599483    1.181    0.153
       125 -13.4066     20.1876     57.8138   1.0787721075e+02   6.2475895410e+01    0.4035465    0.2511269 -64.31  0.001155792    1.474    0.321
       126 -10.1857     48.9351     59.2800   9.6914423463e+01   5.9483405336e+01    0.2814219    0.2155186 -81.85  0.001054812    1.916    0.478
       127  -9.7722    193.5550     58.6935   5.6995247171e+01   2.9119920533e+01    0.2964452    0.1819087  67.04   0.00129859    1.709    0.415
       128  -9.8364      1.3008     59.6647   1.1576841483e+02   6.3161355957e+01    0.1087177   0.08077572  81.42 0.0007035088    1.658    0.397
       129 -10.8037     83.8023     56.6510   8.3282755189e+01   5.4906842193e+01    0.2535144     0.237557 -30.52   0.00105853    1.114    0.103
       130 -11.8438     88.0040     53.0136   8.0564036435e+01   5.4824681024e+01    0.4963786    0.3427616  43.34  0.001718221    1.533    0.348
       131 -10.2379     33.1053     57.0374   1.0247530916e+02   6.1593876992e+01    0.3324819    0.2939911 -39.71  0.001356464    1.100    0.091
       132  -9.4224     29.4112     54.3943   1.0320508301e+02   6.2471835890e+01    0.1970705   0.09838244 -52.13  0.000201959    1.602    0.376
       133  -9.5225     71.6371     56.8252   8.7601293286e+01   5.6886269789e+01    0.1870516    0.1210956 -50.94  0.000701355    1.606    0.377
       134 -11.8725    114.5601     53.8684   7.2716942743e+01   4.9308992045e+01    0.3325741    0.2917169  31.66 0.0005952794    1.118    0.106
       135 -10.3837     96.6885     55.0722   7.8491529410e+01   5.2808517286e+01    0.2092143    0.1736536 -25.69 0.0006858468    1.148    0.129
       136 -12.2416     65.6238     52.4935   8.8282920305e+01   5.8631598035e+01    0.4892769    0.2359475  35.82  0.002223929    2.235    0.553
       137  -9.5094    149.4280     52.1563   6.3420725637e+01   4.1348682725e+01    0.2885367   0.09995375  53.93 0.0007378465    2.704    0.630
       138  -9.8414    121.9956     51.2842   6.9763862036e+01   4.8076050060e+01    0.2068484    0.1846989  42.23  0.000385648    1.104    0.095
       139 -11.2590      4.2643     35.2918   1.0861442495e+02   6.8049503680e+01    0.4687028    0.2709517 -14.98  0.002912839    1.871    0.465
       140  -9.6786     19.9415     44.7074   1.0433605620e+02   6.5203917245e+01    0.1858147    0.1276827 -37.62 0.0004307554    1.182    0.154
       141 -11.2473      5.6056     50.8153   1.1211323794e+02   6.4833584563e+01    0.2350857    0.1789283 -30.36 0.0002546653    1.270    0.212
       142 -11.6129     13.0893     48.5148   1.0837802523e+02   6.4892049304e+01    0.5006611    0.3301333  37.67 0.0007190022    2.002    0.500
       143 -11.5407     13.7203     41.7366   1.0619349296e+02   6.6227385735e+01    0.6474459    0.4096376  87.60  0.003174217    3.153    0.683
       144 -10.7424     76.4779     48.4743   8.2854822552e+01   5.7666038889e+01    0.4385283    0.2210391 -46.44  0.001941243    2.051    0.512
       145 -10.9981     78.9936     45.7264   8.0927577783e+01   5.7723630912e+01    0.2682877    0.2339382  53.59 0.0002311289    1.428    0.300
       146 -11.6767     56.8143     46.7587   8.9588675995e+01   6.0962555056e+01    0.3933976    0.3242968 -21.13 0.0006993016    1.062    0.058
       147  -9.8256    154.8629     47.5224   6.0747710556e+01   4.0689710496e+01    0.2180921    0.1442717  58.28 0.0003679022    1.469    0.319
       148  -9.8059    135.7870     46.2405   6.4530061333e+01   4.5619325294e+01    0.2037045    0.1950343  76.26 0.0004035282    1.117    0.105
       149  -9.8135     65.3522     46.6219   8.6244249617e+01   5.9768909214e+01    0.2295422    0.1145915  50.71 0.0009097211    3.074    0.675
       150  -9.9729     31.4090     46.1571   9.9838734483e+01   6.3966248185e+01    0.2227451    0.1784577 -78.01   0.00113317    1.730    0.422
       151 -11.1347     26.3377     43.4841   1.0115950348e+02   6.4942196868e+01     0.319201    0.2792353 -46.18  0.002239053    1.192    0.161
       152 -11.0783     69.4432     42.1245   8.2990517235e+01   5.9936667535e+01    0.2500137    0.2220004  -4.87 0.0005996992    1.052    0.049
       153 -10.6957      3.0248     42.2348   1.1109012309e+02   6.6725709706e+01    0.2085225    0.1671643 -14.43  0.001400173    1.351    0.260
       154 -10.3061      5.6463     39.1951   1.0909513069e+02   6.7205651427e+01    0.2252268    0.1235506 -56.31 0.0006765547    1.414    0.293
       155  -9.5748    159.5108     41.9828   5.8022530513e+01   4.0309087026e+01    0.2104792    0.1468533 -30.95 0.0009952949    1.482    0.325
       156 -10.7838    140.3775     40.7487   6.1574937608e+01   4.5302616499e+01    0.2864785    0.2545889 -61.76 0.0007517916    1.256    0.204
       157  -9.3073     95.4082     42.4527   7.4198205896e+01   5.5210659354e+01    0.1407971    0.1263734  -0.84 0.0003124223    1.022    0.021
       158 -10.0438    185.9458     41.2290   5.3183153564e+01   3.3611838946e+01    0.2497467    0.1811354  47.78 0.0001980941    1.428    0.300
       159  -9.8422     42.7796     40.7673   9.3116928034e+01   6.3832549474e+01    0.1465052    0.1412625 -10.99 0.0005105937    1.284    0.221
       160 -10.0471     35.4239     41.2607   9.6449382533e+01   6.4530945653e+01    0.2238837    0.1651651  16.56  0.001406992    1.480    0.324
       161  -9.4818     51.2286     39.7037   8.9185886886e+01   6.2997780529e+01    0.2318595   0.09620945 -46.76  0.001016002    2.267    0.559
       162  -9.8748    128.1238     38.7969   6.3731424010e+01   4.8554937494e+01    0.2044305     0.196297 -81.33 0.0003577186    1.168    0.144
       163 -11.8729    121.5965     37.2838   6.4797608557e+01   5.0306408086e+01    0.3895907      0.38688  35.63  0.001033791    1.105    0.095
       164  -9.3617     87.0642     39.0214   7.5552675164e+01   5.7378308593e+01    0.1648773    0.1464618  12.06 0.0003902718    1.053    0.051
       165 -10.2525     22.5033     38.4396   1.0120111897e+02   6.6241638496e+01    0.1464887    0.1379083 -69.09 0.0005568539    1.402    0.287
       166 -10.9119     26.5910     35.1374   9.8192226003e+01   6.6524552703e+01    0.4311256    0.2125109 -29.48  0.001630728    2.019    0.505
       167 -10.4054     38.8946     35.5083   9.2810876832e+01   6.5233233974e+01    0.3017187    0.1792142   8.80  0.001619384    2.010    0.502
       168 -10.9722     38.9142     30.9339   9.0997081287e+01   6.6042958831e+01    0.2469735    0.1926672 -28.72 0.0008789393    1.064    0.060
       169 -11.5802     43.2237     30.2116   8.8794105838e+01   6.5662687703e+01    0.7384112    0.3842526 -26.31  0.003700339    1.968    0.492
       170 -10.4918     96.9613     35.0601   7.0816860079e+01   5.6033590952e+01    0.2077741    0.1827315   7.33  0.001204788    1.046    0.044
       171  -9.4727    134.2533     34.3512   6.0699108326e+01   4.7689430373e+01     0.147318    0.1071888  18.30 0.0003681636    1.597    0.374
       172 -10.5177    144.9631     33.0408   5.7935743610e+01   4.5209184498e+01    0.2092702    0.2036107  64.66 0.0003873407    1.048    0.046
       173 -10.9144     18.9063     32.1721   1.0070503420e+02   6.7715012365e+01    0.4662879    0.2156442  -0.74  0.002165745    3.246    0.692
       174 -10.2340     73.1342     32.1719   7.7597972513e+01   6.0959567367e+01    0.2013196    0.1586583   2.55 0.0003143129    1.206    0.171
       175  -9.0769    166.4408     31.4329   5.3388310221e+01   3.9934166198e+01    0.1438714    0.1351576  83.58 0.0001755283    1.041    0.039
       176 -10.1152    128.9226     30.9881   6.0700984727e+01   4.9424184593e+01    0.2472828    0.1984997  53.84 0.0006023567    1.191    0.160
       177  -9.8021    119.6657     30.0737   6.2581558759e+01   5.1735606058e+01    0.2372258    0.1885803  63.55 0.0006246331    1.345    0.256
       178  -9.2176     83.9921     30.0218   7.2904550410e+01   5.9323685523e+01    0.1599775    0.1395381  14.65            0    1.051    0.048
       179 -10.6392      8.0359     28.4660   1.0466232226e+02   6.9152547961e+01    0.2904406    0.2351786  81.03   0.00197222    2.013    0.503
       180  -9.6767    146.8483     27.2326   5.5565082976e+01   4.5463452721e+01    0.3174938    0.1308177 -40.14  0.001204947    2.575    0.612
       181 -11.2787    113.8512     25.9351   6.2455757814e+01   5.3603656618e+01    0.3578714    0.2783557 -29.45  0.001952539    1.340    0.254
       182  -9.4601     70.2324     28.6173   7.7152695570e+01   6.1993315387e+01    0.1775517    0.1133811  28.48 0.0005764086    1.571    0.363
       183  -9.8441     58.0041    248.4754   1.2276722570e+02   1.7016817758e+01    0.1591802    0.1179207  79.49 0.0003378109    1.187    0.157
       184  -8.9637    139.9899     27.0000   5.6852932724e+01   4.7211576576e+01    0.2371401   0.07751665  60.63 0.0005914501    2.879    0.653
       185  -8.4621     18.7681     25.0643   9.8131350082e+01   6.9024861449e+01    0.3391148   0.09730728 -42.36  0.001492757    2.634    0.620
       186  -9.8714    229.6839    248.0083   9.2019795356e+01  -8.4164594796e+00    0.1532181    0.1218918   8.27 0.0006882485    1.129    0.114
       187 -11.1114     13.8879     16.1095   9.6971772683e+01   7.0963731720e+01    0.2235521    0.1656605  16.64 0.0009792851    1.514    0.339
       188  -9.9480    225.1294    246.8334   9.2624654910e+01  -7.6292791227e+00    0.1646474    0.1094978  14.32  0.001069468    1.337    0.252
       189  -9.2680     69.6246     25.6880   7.6104199128e+01   6.2527705758e+01    0.1407965   0.09070095   8.02 0.0007030491    1.788    0.441
       190 -10.2792     58.9627     23.5900   7.9286888749e+01   6.4555996076e+01    0.2868243    0.1716754 -18.65 0.0006960102    1.686    0.407
       191  -9.9642     58.1892     19.2620   7.7621918179e+01   6.5299773723e+01    0.1785707    0.1694199  18.50  0.001214216    1.359    0.264
       192 -10.5120     34.6629     22.8303   8.9536954359e+01   6.7889323535e+01    0.3443663    0.1359058 -30.32 0.0009715453    2.715    0.632
       193  -9.4747    164.3209    247.6817   1.0362282141e+02   1.5866466161e+00     0.116706   0.08237124  60.36 0.0003901415    1.665    0.399
       194  -9.5188     61.0429    241.1716   1.2173314188e+02   1.7900677163e+01    0.1471714   0.06831355  41.51 0.0007056093    1.850    0.459
       195  -9.4911    202.4842    240.0649   9.5602822428e+01  -3.4032561510e+00    0.1530184    0.1153541 -27.59 0.0007471249    1.530    0.346
       196  -9.3109     49.6793    240.6448   1.2366488661e+02   1.9405124802e+01   0.09203679   0.08481585 -49.27 0.0007046201    1.756    0.431
       197 -10.8238     30.7563     16.0268   8.8341937609e+01   6.9406951303e+01    0.1790488    0.1473682  14.84  0.000966537    1.321    0.243
       198  -9.4539    219.6843     23.6475   4.3975259315e+01   2.7388748851e+01    0.1347893    0.1021281  32.97 0.0007046452    1.736    0.424
       199 -10.3790     97.2207     27.5035   6.7680031895e+01   5.7040143375e+01    0.3356773    0.1804078  -8.02   0.00135578    2.671    0.626
       200 -10.7177     30.4941     21.0839   9.0752240694e+01   6.8624901621e+01     0.257928    0.1861551 -17.91  0.001006659    1.161    0.139
       201  -9.5457    164.9919     20.9727   5.0310047954e+01   4.1553889129e+01     0.167067    0.1622776 -38.75 0.0009404037    1.106    0.096
       202 -11.1845     85.8730     19.5498   6.7796772896e+01   6.0367031107e+01    0.3734394    0.2238714  11.16 0.0007494082    2.069    0.517
       203  -9.5087    156.3191     20.1441   5.1461951640e+01   4.3874174639e+01    0.2405545    0.1190473  35.21 0.0008550011    2.604    0.616
       204  -9.9523    148.5690    238.6814   1.0539442739e+02   5.4279732601e+00    0.1965649    0.1194769 -44.93  0.001130126    2.065    0.516
       205  -8.9731     65.6613     19.3307   7.4733019549e+01   6.4086170608e+01    0.1163621    0.1036903 -64.19 0.0007051877    1.739    0.425
       206 -11.3296     14.0621    238.8036   1.2948456947e+02   2.3684814598e+01    0.1769352    0.1114688  81.30  0.000525237    1.220    0.180
       207 -10.4857     20.3236     17.2096   9.4103161074e+01   7.0245855645e+01    0.2065106    0.1441887 -25.51 0.0005165494    1.119    0.107
       208 -10.2557    200.4097     17.1273   4.4388376139e+01   3.2911360432e+01    0.3287165    0.1144631  54.87  0.001236708    2.756    0.637
       209  -9.7659    114.9858     17.4290   5.8830163608e+01   5.4339879397e+01    0.2028077    0.1264233  56.76 0.0003033625    1.518    0.341
       210  -9.7617     90.9998    237.0442   1.1600276649e+02   1.4567746646e+01    0.1550544    0.1428092 -21.47  0.000784026    1.675    0.403
       211 -12.1133     25.8793    235.7832   1.2740401027e+02   2.2994783641e+01       0.3147    0.2396158  40.74  0.001716139    1.571    0.363
       212  -9.9590    108.3927     16.1343   5.9936410978e+01   5.5988298240e+01    0.1819482    0.1548943  -8.74 0.0005642477    1.190    0.160
       213  -9.5401    204.4655    235.4576   9.4544687925e+01  -3.1176492288e+00    0.1223015   0.09676898  24.85 0.0002109762    1.003    0.003
       214 -10.0186    249.3397    234.0701   8.6466979120e+01  -9.6414235031e+00    0.1883882    0.1229303  20.08  0.000421903    1.228    0.186
       215  -9.2463    242.9834    230.2215   8.6903683159e+01  -8.3024581826e+00    0.1526236   0.08008169  34.99 0.0007957217    1.639    0.390
       216  -9.6355    209.5185    229.5257   9.2696118044e+01  -3.1376020589e+00    0.1241205   0.09867105  21.85 4.449054e-05    1.011    0.011
       217  -9.5398    140.5577    228.9550   1.0567349733e+02   8.2855555942e+00    0.1592643    0.1055728 -23.41  0.000565102    2.577    0.612
       218 -10.0119    223.1821    226.8087   8.9792096951e+01  -4.9268116351e+00    0.1720645    0.1188279  12.19 0.0004219279    1.347    0.257
       219  -8.6099    126.6742    220.7012   1.0733233226e+02   1.1977881581e+01    0.1190444   0.09713748  12.17 0.0004450584    1.632    0.387
       220  -9.6589     99.2542     11.3011   6.0299837847e+01   5.8524052922e+01    0.2951732    0.1172303  58.66  0.001189735    2.559    0.609
       221 -11.4791      8.3939    218.4959   1.2947887902e+02   2.7964918617e+01    0.2477556     0.193044   0.25  0.001731781    2.648    0.622
       222  -9.0991    136.6755    215.6795   1.0465856971e+02   1.1209851735e+01    0.1244428   0.09932139   8.40 0.0007046294    1.678    0.404
       223  -9.2444    209.6588    211.3076   8.9634233344e+01  -6.4699539601e-01    0.1180902    0.1005644  64.40 0.0007043154    1.688    0.407
       224  -9.6962      3.4973    211.4946   1.2998815429e+02   2.9756867733e+01    0.1088727   0.07489434  74.71 -7.544453e-05    1.022    0.022
       225  -9.8112    191.1566     13.6283   4.4503993420e+01   3.5633486079e+01    0.2056136    0.1094632  59.15 0.0006977766    1.743    0.426
       226  -9.9678     20.1644    209.8260   1.2694314614e+02   2.8492046653e+01    0.1766248     0.107039  67.05  0.001130164    1.285    0.222
       227 -10.1719     10.1804    203.3837   1.2839041686e+02   3.0735696032e+01    0.1482893   0.07551238  51.47 0.0003965379    1.643    0.391
       228  -9.0514    193.4781    201.5413   9.1013716905e+01   3.6315107909e+00    0.1339413      0.11592  24.12 3.341451e-05    1.005    0.005
       229  -9.9821     23.2002    197.1202   1.2557200926e+02   3.0746633918e+01    0.1645921    0.1338008 -81.84 0.0006521022    1.268    0.211
       230 -10.9360     13.9495    192.7350   1.2706525714e+02   3.2546190287e+01    0.2032556     0.126508  76.58 0.0005157105    1.260    0.206
       231 -10.4110      6.3828    191.5012   1.2843308870e+02   3.3482537247e+01     0.193623     0.127796  79.29  0.000630293    1.130    0.115
       232  -9.3810     20.6171    189.2341   1.2553634768e+02   3.2641983247e+01    0.1508155   0.08667097 -71.46 0.0003847349    1.565    0.361
       233  -9.5831     22.3356    179.9646   1.2451457617e+02   3.4449695318e+01    0.1636346    0.1213817 -89.50 0.0004870163    1.082    0.076
       234 -10.5070      5.5280    167.5350   1.2711773035e+02   3.8622903737e+01    0.2383178    0.1398053  73.56  0.001099582    1.440    0.305
       235  -9.5394    226.5214    164.0263   7.7349965924e+01   3.6350558164e+00    0.2041731    0.1283615 -31.62 0.0006438867    1.533    0.348
       236  -9.5031     41.1875    158.1340   1.1830435529e+02   3.7408748323e+01    0.1761228    0.1228976  80.46 0.0005977376    1.306    0.235
       237  -9.1293    247.4690    155.4975   7.1866988921e+01   1.1543251174e+00    0.1361391    0.1162248  -8.57 0.0001104441    1.014    0.013
       238 -10.5680      2.4888    153.5060   1.2678613960e+02   4.1935406429e+01    0.2003222    0.1114445  28.47  0.001221226    2.200    0.546
       239  -9.9890     23.3806    150.8061   1.2175620393e+02   4.0856745136e+01    0.1735606   0.08998722 -66.29 0.0008990593    1.618    0.382
       240  -9.3817    237.7207    149.6718   7.2263017863e+01   3.8508238398e+00    0.1410674    0.0999219  -0.03 0.0002446772    1.598    0.374
