#   1 NUMBER                 Running object number                                     
#   2 MAG_AUTO               Kron-like elliptical aperture magnitude                    [mag]
#   3 X_IMAGE                Object position along x                                    [pixel]
#   4 Y_IMAGE                Object position along y                                    [pixel]
#   5 X_WORLD                Barycenter position along world x axis                     [deg]
#   6 Y_WORLD                Barycenter position along world y axis                     [deg]
#   7 A_WORLD                Profile RMS along major axis (world units)                 [deg]
#   8 B_WORLD                Profile RMS along minor axis (world units)                 [deg]
#   9 THETA_WORLD            Position angle (CCW/world-x)                               [deg]
#  10 FWHM_WORLD             FWHM assuming a gaussian core                              [deg]
#  11 ELONGATION             A_IMAGE/B_IMAGE                                           
#  12 ELLIPTICITY            1 - B_IMAGE/A_IMAGE                                       
         1 -13.4434    224.5478      7.6434   3.3838299578e+01   2.8961642065e+01     1.170423    0.9616966  52.90  0.004538997    1.457    0.313
         2 -14.2366    197.2384     38.2530   4.4114436718e+01   3.1705407186e+01      2.28232     1.506896  15.47   0.01051118    2.486    0.598
         3 -11.8876     62.8812      3.0951   6.0459747054e+01   6.6068519381e+01     0.458886    0.3797542   5.31  0.003107584    1.122    0.108
         4  -9.5451    168.1364    232.6796   9.4339722853e+01   2.7873239662e+00    0.2340315     0.170935  36.80 0.0008504334    1.221    0.181
         5 -16.8871     70.9963    146.5440   1.0335636007e+02   3.6508506542e+01      21.1457     11.18046  88.11   0.05586199    3.748    0.733
         6 -18.5205      2.0000    100.8006   1.1695943072e+02   5.4087330965e+01     16.34887    0.3056698 -71.59   0.01731958   40.052    0.975
         7  -9.4909     42.7978    179.1612   1.1509565459e+02   3.2029863663e+01    0.1921419    0.1848127 -67.72 0.0005984821    1.228    0.186
         8 -10.1384    187.6957    175.9772   8.0101889246e+01   9.5136431514e+00    0.3788505    0.3189084 -41.11  0.001504564    1.259    0.206
         9  -9.1934    148.7795    176.0201   8.8810645103e+01   1.6703546884e+01    0.2163677    0.1974965 -86.40 0.0004581002    1.296    0.228
        10  -9.9164    146.7240    172.3037   8.8564513468e+01   1.7871765545e+01    0.3485764    0.2571497 -81.09   0.00158094    2.018    0.504
        11 -11.8710     51.8110    171.7414   1.1208118318e+02   3.2769829998e+01    0.8560411    0.3063545 -57.88 0.0007138752    2.496    0.599
        12 -11.6899     47.5357    172.4639   1.1321716463e+02   3.3083109240e+01    0.5788181    0.4713401  29.31  0.002190386    1.417    0.294
        13 -10.0160    234.4047    174.2076   7.0602469768e+01   1.6715318316e+00    0.1925366       0.1155 -42.27 0.0009573136    1.723    0.419
        14  -8.8975    193.8495    171.1607   7.7808965663e+01   9.2871640094e+00    0.2046711    0.2028702   0.33 0.0008502423    1.214    0.176
        15  -9.5935    185.2415    169.4873   7.9271999479e+01   1.1206342425e+01    0.2653253    0.1964398 -36.25 0.0006301597    1.324    0.245
        16 -10.2519     81.9586    194.8403   1.0776272884e+02   2.3548103054e+01    0.3140366     0.290602 -35.10  0.001741776    1.295    0.228
        17  -9.6302    137.3583    168.2601   9.0013052336e+01   2.0478458995e+01    0.2916542    0.2552243  52.69  0.001214909    1.193    0.162
        18 -11.7211     93.3068    151.4458   9.8099100531e+01   3.2031673917e+01    0.7191426    0.5865959  -9.12   0.00368697    1.537    0.349
        19 -10.9026    133.8231    145.0919   8.6005771064e+01   2.6353666069e+01     1.258849    0.3339165 -53.95  0.003041105    5.352    0.813
        20  -9.7218    112.4613    150.9383   9.2851383055e+01   2.8949587433e+01    0.2781091    0.2049597  55.17 0.0006478743    1.498    0.333
        21  -9.0561    174.6641    149.3687   7.7167300378e+01   1.7269748713e+01    0.2728803    0.1975889  41.61 0.0007224034    1.409    0.290
        22 -10.6086    105.3275    137.9596   9.2048377986e+01   3.3293406369e+01    0.5815089    0.3301275 -31.96   0.00224575    2.341    0.573
        23 -10.4217    105.9667    130.8470   9.0278603123e+01   3.4883557433e+01    0.4049541    0.3249044 -59.94  0.001221286    1.263    0.208
        24 -11.6381     93.2029    137.4363   9.5348046500e+01   3.5455940837e+01    0.2937727    0.2610702 -37.22 0.0004597578    1.141    0.124
        25 -10.8983    114.0089    129.3028   8.7659641150e+01   3.3789277607e+01    0.4470711    0.4228159 -69.10 0.0008619404    1.105    0.095
        26 -10.1514    136.0768    129.5940   8.1781385198e+01   2.9421363974e+01    0.4125561    0.1863837 -48.19  0.001362776    2.206    0.547
        27  -8.5359     96.4587    128.4812   9.2467203482e+01   3.7092750625e+01    0.1500123    0.1429183 -58.81 0.0001114518    1.035    0.034
        28 -10.3077    100.8339    124.8874   9.0367471074e+01   3.7208677621e+01    0.3045829      0.25229 -18.64 0.0006930077    1.353    0.261
        29 -11.0169    119.2629    123.1159   8.4696657086e+01   3.4236068281e+01    0.5698702    0.3897352   2.03   0.00229295    2.248    0.555
        30 -10.0924    135.0000    120.3270   7.9734320880e+01   3.1715651448e+01    0.5039197   0.08787563 -45.50  0.001122359    5.601    0.821
        31  -9.3995    109.0771    118.1222   8.6330704041e+01   3.7325474884e+01    0.2255481    0.2173583 -25.70  0.000340435    1.016    0.016
        32  -9.9436    231.3494    113.6528   5.7803222449e+01   1.2488400606e+01    0.2714808    0.2444442 -24.83 0.0008202074    1.046    0.044
        33  -9.0273    167.7208    112.6774   6.9719514729e+01   2.6262964562e+01    0.3193143    0.2313528 -79.70  0.001322659    2.159    0.537
        34 -11.7485    118.1869    108.9468   8.1326954352e+01   3.7673899338e+01    0.6771361    0.5915974 -65.79   0.00321742    1.278    0.218
        35  -9.4374    205.5589    110.1231   6.1360448914e+01   1.8420840783e+01    0.2621514    0.2154105  36.23  0.000623527    1.315    0.240
        36 -10.0134     89.9163    212.5906   1.0817754691e+02   1.8599951257e+01    0.2666717    0.2075378  75.48 0.0006096096    1.307    0.235
        37  -9.7999    134.4864    105.2238   7.5835653282e+01   3.5119902247e+01    0.5217057    0.1511185 -44.62  0.001505497    3.402    0.706
        38 -11.0028    148.8404    187.9961   9.1057303307e+01   1.4205604440e+01    0.4758259    0.3408856  81.37  0.002133667    2.324    0.570
        39 -11.2594    192.9554    194.7544   8.2725812205e+01   5.1601551585e+00     1.049186    0.5382286 -59.99  0.003393484    5.001    0.800
        40 -11.3489    120.8551    186.1931   9.7284939901e+01   1.9441061362e+01    0.4264457    0.1857717  40.83  0.001181775    2.165    0.538
        41 -11.8393    120.4529    195.0067   9.8820119927e+01   1.7610702335e+01    0.5729256    0.3206967 -77.48  0.001890202    3.166    0.684
        42  -8.2539    156.6768     81.6987   6.3610056327e+01   3.4775931651e+01      0.15662    0.1194093  14.43 0.0005490424    1.632    0.387
        43  -8.6175    184.5167     77.4680   5.6721062636e+01   2.8933566721e+01    0.1460475    0.1425322  -9.61 0.0001016172    1.060    0.057
        44 -12.3329    111.9239    204.9046   1.0226839261e+02   1.6900001171e+01    0.4209192    0.3597224 -60.90 0.0004312535    1.251    0.200
        45 -18.4022     10.4195    244.0319   1.2621456149e+02   2.1733463232e+01     4.851383     3.358324 -81.01   0.02434619    1.400    0.286
        46  -8.8475     81.0000    248.0504   1.1368836478e+02   1.2958869530e+01    0.2070187    0.1187323 -76.11 0.0006217143    2.009    0.502
        47 -12.7798    181.4322     52.3519   5.0282489150e+01   3.3589984856e+01    0.7153486    0.6811913  10.51 0.0008690709    1.157    0.136
        48 -10.7506     83.5594    245.1223   1.1292857868e+02   1.3148116811e+01    0.3682853    0.2279021  51.62 0.0008233637    1.364    0.267
        49 -11.5350    107.6881    203.9277   1.0308763665e+02   1.7764410864e+01    0.3054317    0.2445993 -77.64 0.0006506337    1.366    0.268
        50 -11.1345    185.1895    212.3229   8.7533248202e+01   3.4327460788e+00    0.4171629    0.2406146 -22.76  0.001961997    2.140    0.533
        51  -8.9392    186.8308    186.5922   8.2419379824e+01   7.6924811949e+00     0.186086    0.1750867  64.23  0.000707015    1.360    0.265
        52  -9.3376    189.6858     14.9849   3.8935639704e+01   3.6180597544e+01    0.1785833    0.1615614 -62.74 0.0005721666    1.099    0.090
        53 -10.1665     75.0489     13.1469   6.1019036114e+01   6.2798976732e+01    0.2759943    0.1761697  73.63   0.00123892    3.173    0.685
