#   1 NUMBER                 Running object number                                     
#   2 MAG_AUTO               Kron-like elliptical aperture magnitude                    [mag]
#   3 X_IMAGE                Object position along x                                    [pixel]
#   4 Y_IMAGE                Object position along y                                    [pixel]
#   5 X_WORLD                Barycenter position along world x axis                     [deg]
#   6 Y_WORLD                Barycenter position along world y axis                     [deg]
#   7 A_WORLD                Profile RMS along major axis (world units)                 [deg]
#   8 B_WORLD                Profile RMS along minor axis (world units)                 [deg]
#   9 THETA_WORLD            Position angle (CCW/world-x)                               [deg]
#  10 FWHM_WORLD             FWHM assuming a gaussian core                              [deg]
#  11 ELONGATION             A_IMAGE/B_IMAGE                                           
#  12 ELLIPTICITY            1 - B_IMAGE/A_IMAGE                                       
         1 -11.8452     55.3975      6.3838   6.6014123501e+01   7.0173605460e+01      1.59145    0.8785115  18.84  0.006697621    2.670    0.625
         2 -12.6780    104.8390     35.5641   6.3069669903e+01   5.4940979425e+01     1.922188       1.1586  14.15  0.007059739    2.942    0.660
         3 -11.1534     99.4601      5.4719   5.0606595418e+01   6.0202952331e+01    0.5152804    0.4063851 -36.70  0.002363903    1.338    0.253
         4 -12.6252     90.8146     21.4372   6.0876317924e+01   6.0405019635e+01      3.09065     0.907168 -23.26  0.007785469    5.932    0.831
         5 -11.8650    102.4438     53.3246   7.0942359100e+01   5.2394337502e+01     1.245386      0.82069  20.03  0.005098343    2.228    0.551
         6 -11.0740     65.8634     20.4726   6.9564432119e+01   6.6020582194e+01    0.5955279    0.4271506 -70.91  0.001735971    2.314    0.568
         7 -13.2428     72.4492     31.1323   7.2207319322e+01   6.2911805078e+01     1.696827    0.8194832  49.51  0.007048971    2.179    0.541
         8 -11.5624     59.0809     28.0877   7.6578908124e+01   6.6009096209e+01    0.7947988    0.4255445  22.14  0.002925428    2.924    0.658
         9 -10.7684    110.7062     17.8312   5.3763464729e+01   5.5969983971e+01    0.3142263    0.2779815  40.26 0.0003678138    1.113    0.102
        10 -12.0150    116.5748     14.8892   5.1146972827e+01   5.4802236544e+01     1.065674    0.6047319  40.03  0.004255402    1.908    0.476
        11 -11.5200     24.6715     24.5063   9.4252538727e+01   7.1630115181e+01     2.355862    0.2554151 -48.63  0.006613228    5.278    0.811
        12 -12.0355      4.0614     26.8892   1.0915634749e+02   7.2612460449e+01     1.163028    0.3134293 -48.86  0.004799134    2.691    0.628
        13 -11.9731     30.3550     24.8678   9.0767339485e+01   7.0932855132e+01     1.031757    0.4770468 -41.44  0.004182145    1.991    0.498
        14 -12.0163     18.4683     15.3107   9.4211754189e+01   7.4156303960e+01     1.309509     0.318987 -50.80  0.004925317    3.121    0.680
        15 -11.8747     24.7847      8.2530   8.5555908216e+01   7.4841502745e+01    0.7521252     0.363143 -46.43   0.00280332    1.901    0.474
        16 -12.9101     12.9518      5.9403   9.3476780755e+01   7.6536444291e+01    0.6696963    0.6340082  -4.32  0.004790502    1.222    0.181
        17 -13.4100      5.1613     10.0900   1.0224759012e+02   7.6273349161e+01    0.7743494    0.4795378 -56.74  0.001385919    1.375    0.273
        18 -12.2094      2.5437      2.8134   1.0103735852e+02   7.7939253323e+01    0.3403402    0.3061562  61.65  0.001445611    1.495    0.331
        19 -12.3876     52.7758     21.5968   7.6294303532e+01   6.8285515687e+01      2.41391     1.206109 -17.82   0.00791675    4.292    0.767
        20 -10.4308    181.3272     33.0923   4.7072858510e+01   3.5685358406e+01    0.9183363    0.5153814 -45.02  0.004153409    1.694    0.410
        21 -10.2218    157.4343      5.9089   4.1100332084e+01   4.4883814359e+01    0.8309439    0.3045351 -14.88  0.002875422    3.411    0.707
        22 -10.2384    176.5616     21.1659   4.3930241921e+01   3.8313366803e+01    0.5995314    0.3147911 -36.76  0.002122107    1.752    0.429
        23 -10.2585    179.3956     15.9377   4.1953507688e+01   3.8159527627e+01     0.641818    0.2923692  83.21  0.002545589    2.499    0.600
        24 -10.5482    161.3902     18.3134   4.4908098615e+01   4.2573122795e+01    0.5307199    0.4714967 -49.95  0.002482749    1.092    0.084
        25 -11.3718    169.1992     14.2926   4.2575111493e+01   4.0962235268e+01     0.854108    0.5171848  59.15  0.004082056    1.635    0.388
        26 -10.9824    151.9781      9.0020   4.2874655410e+01   4.6034403357e+01    0.7033146     0.435631  33.19   0.00234417    1.986    0.497
        27 -11.0504    154.1885     17.5751   4.5646784101e+01   4.4554517392e+01    0.5457417    0.3637562  38.11 0.0004268824    1.730    0.422
        28 -10.2578    149.4718     16.4066   4.5912202396e+01   4.5933435255e+01    0.4545567    0.3014497  25.84  0.001773129    1.922    0.480
        29 -10.5847    221.7766     34.9883   4.3100963240e+01   2.5831051196e+01    0.8576537    0.4830024 -23.33  0.004213758    1.740    0.425
        30 -10.9485    241.4605     14.0012   3.6295023296e+01   2.3888015603e+01    0.7653708    0.3213946  58.46  0.003630367    2.743    0.635
        31 -10.0484    233.0660     10.7791   3.6037342359e+01   2.5987531661e+01    0.3577284    0.2136471 -85.00  0.001834676    1.782    0.439
        32 -10.1445    234.0244      7.0129   3.5049570009e+01   2.6152512503e+01    0.2240072    0.1607601 -35.44  0.000529291    1.207    0.172
        33 -11.1487    247.0955     18.8139   3.7083882606e+01   2.2238727341e+01    0.7809647    0.4693827  58.43  0.004460462    1.978    0.494
        34 -10.0589    250.5312      7.0793   3.4147313547e+01   2.2723987494e+01    0.2623529    0.1590393 -23.66  0.001027738    1.565    0.361
        35 -11.0573    243.7159      3.9048   3.3763261566e+01   2.4413110381e+01    0.5477247    0.2211976 -29.99  0.002061701    2.002    0.500
        36 -10.3363    248.4981      2.3998   3.3170861584e+01   2.3579658861e+01    0.4282321     0.224823 -25.64  0.002355466    1.722    0.419
        37 -11.3544     12.0041     25.4186   1.0318846276e+02   7.2501309553e+01    0.4882196    0.2258547 -42.42 0.0008935914    1.894    0.472
        38 -10.1115    203.7751     23.4702   4.1699762171e+01   3.1306055246e+01     1.310877    0.1511009 -35.70  0.003889713    4.244    0.764
        39 -11.2797    212.5214     13.2739   3.8126159702e+01   3.0335769564e+01    0.6975348    0.6201018  57.76   0.00367086    1.291    0.226
        40  -9.5039    205.0211     15.8740   3.9454746688e+01   3.1831555455e+01    0.3689399    0.2242274 -23.21  0.001863325    1.644    0.392
        41 -10.7725    215.0680     22.5250   4.0408656838e+01   2.8766243745e+01    0.5004653    0.4254571  -7.21  0.001952718    1.349    0.259
        42 -10.8238    225.8205      8.3027   3.5879058372e+01   2.7814882096e+01    0.6251684    0.3747401  17.58  0.002934993    2.811    0.644
        43 -10.6306    217.0056      3.4007   3.5177228782e+01   3.0271415040e+01    0.6706167    0.2761261 -52.66  0.002996333    2.206    0.547
        44  -9.4743    221.7384     12.8842   3.7334851626e+01   2.8268097079e+01    0.3175862    0.2805979 -76.50  0.001242454    1.126    0.112
        45 -10.0783    151.8329     27.3611   4.9490102876e+01   4.4026423711e+01    0.7436234    0.4284513  19.41  0.002811914    2.848    0.649
        46 -10.4080    123.4493     22.5924   5.2956464705e+01   5.2090118995e+01    0.6091578    0.3999131   9.29  0.002040012    2.068    0.517
        47 -11.3144    131.9717     19.5551   5.0026530574e+01   5.0221857303e+01    0.6632812    0.4241518  46.89  0.002494173    1.585    0.369
        48 -12.3862    106.2616      8.0948   5.0310084470e+01   5.8204417565e+01     2.319989     0.904023  62.61  0.008900183    2.341    0.573
        49  -9.6912     84.0000     20.0331   6.2398345458e+01   6.2185237379e+01    0.3919309    0.2044818 -25.80  0.001668755    2.030    0.507
        50  -9.8580     79.8694     18.7589   6.3176701030e+01   6.3300696060e+01     0.481881    0.4123867 -70.83  0.002182859    1.460    0.315
        51  -9.6797    232.6017     17.7275   3.7795233121e+01   2.5377837667e+01    0.4386308     0.184395 -39.88  0.002079007    1.879    0.468
        52 -10.3060     38.3609     10.7125   7.7990055757e+01   7.2525230179e+01    0.4949798    0.2647259 -30.97  0.002151528    1.866    0.464
        53  -9.0085     36.6176      6.0507   7.6045442698e+01   7.3560959316e+01    0.2161623    0.1801479  -8.98 0.0005028619    1.075    0.070
        54 -10.5491     41.9673      3.1810   7.0853775662e+01   7.3110450781e+01    0.3751036    0.2482969 -19.20   0.00167377    1.505    0.336
        55  -9.9585     31.5089     12.0287   8.3176350137e+01   7.3289061997e+01    0.2713141    0.1977866 -37.15 0.0008684061    1.242    0.195
        56  -8.6097     86.6774     10.8267   5.6783804275e+01   6.2761341085e+01    0.3214711    0.1178125  47.25  0.001187417    2.568    0.611
        57 -10.8710    200.0618      6.1840   3.7129693951e+01   3.3996157307e+01    0.6136455    0.3508388 -45.48  0.002053129    1.547    0.353
        58  -9.9182    164.3248      7.3205   4.0801541543e+01   4.2934978725e+01    0.6775174    0.3162572  36.08  0.002523383    3.105    0.678
        59  -9.9380    162.5248      4.4820   4.0034314548e+01   4.3673837974e+01    0.5367617    0.2662577  41.10  0.002202341    2.488    0.598
        60  -9.7809     77.5006      8.7126   5.8576655590e+01   6.5157028108e+01    0.2855631    0.2450194 -32.62 0.0003194394    1.224    0.183
        61  -8.8880     77.4941      4.5265   5.6204998952e+01   6.5639779997e+01    0.2661236    0.1324402  37.39  0.001128534    2.137    0.532
        62 -10.2178    133.4164      5.2723   4.4060852569e+01   5.1340996820e+01    0.5543807     0.361252 -52.03  0.002642811    1.627    0.386
        63 -10.6568    138.6301      3.3692   4.2551557013e+01   5.0122556263e+01    0.5073953    0.3649499   9.29  0.002077657    1.674    0.403
        64  -8.1863     82.6685      8.7250   5.6896303619e+01   6.3957174517e+01    0.1465074   0.09747938  30.22 0.0003812539    1.596    0.374
        65  -9.7908     67.4948      6.3783   6.0846375763e+01   6.7669924804e+01     0.337694    0.2269667 -23.26 0.0009774716    1.487    0.328
        66 -10.1869     71.6551      3.7347   5.7719504448e+01   6.7061076377e+01    0.4115329    0.2889147 -44.73  0.001815627    1.649    0.393
        67  -9.5760    189.8728      6.6468   3.8094056756e+01   3.6453397977e+01    0.4814565    0.2530303 -44.83  0.001478614    1.718    0.418
        68  -9.7829    181.5417      4.8025   3.8264299790e+01   3.8723624928e+01    0.4721632     0.345085 -67.99  0.002567852    1.308    0.236
        69  -8.8306     29.6353      5.8212   8.0511799442e+01   7.4634479510e+01    0.1908004    0.1320025 -23.47 0.0008164817    1.370    0.270
        70 -10.7805    208.5507      4.0259   3.5906782701e+01   3.2174899837e+01    0.5686621    0.3462536 -85.25  0.002987515    1.662    0.398
        71  -8.6136     84.3322      3.6999   5.3642957391e+01   6.4114181190e+01    0.2780737    0.1580163  28.30  0.001023961    2.047    0.512
        72 -10.7356     38.0446    143.2680   1.1326751132e+02   4.1224720576e+01    0.3865309    0.3117563 -45.94  0.001619212    1.490    0.329
        73 -11.1467    236.2881    249.9774   8.4721769888e+01  -3.7172098425e+00    0.4149006    0.1270981  33.35  0.002267482    2.585    0.613
        74 -10.4771    211.3396    249.7171   8.8627573447e+01  -8.6245695257e-01    0.2046575    0.1614016  19.26  0.001688548    1.260    0.206
        75  -9.6987    162.2715    250.1282   9.7059110620e+01   5.1062065726e+00     0.204139    0.1159765  26.17  0.001331327    1.397    0.284
        76  -9.4958    125.2696    249.8360   1.0377365339e+02   9.8362846510e+00    0.2108061    0.1219944  15.98  0.001233102    2.136    0.532
        77  -9.0070     10.7551    144.4372   1.2107538841e+02   4.3349668321e+01    0.1910959    0.1464392 -30.06 0.0005844429    1.795    0.443
        78  -9.9860      6.5089    142.6504   1.2215334480e+02   4.4073686903e+01    0.2533824    0.1796784  62.75   0.00058146    1.195    0.163
        79  -9.4200     98.7785    139.5182   9.5390197876e+01   3.3893484392e+01    0.2436936    0.1953459 -62.51 0.0004237574    1.287    0.223
        80  -9.3008     47.5569    139.2026   1.1006056164e+02   4.1180136942e+01    0.2940213    0.1548441 -74.76  0.001118293    1.830    0.454
        81 -11.0005     62.2811    110.0160   1.0102317115e+02   4.6589253298e+01    0.6819192    0.5266457  37.20  0.003633484    1.337    0.252
        82 -11.4457     66.4955    134.5398   1.0381791273e+02   3.9959180845e+01    0.4828454    0.4164084  70.77 2.035237e-05    1.087    0.080
        83 -11.1995     61.6361    120.9722   1.0316873457e+02   4.3940350920e+01       0.6353    0.3501746 -75.09 0.0007679772    1.912    0.477
        84 -11.0832     66.9633    124.5526   1.0208488506e+02   4.2332925878e+01    0.6667032    0.3231087 -49.46  0.002791318    2.209    0.547
        85 -11.1355     68.4381    117.0259   1.0029663568e+02   4.3983989472e+01    0.6827841    0.3738687 -63.74  0.002065767    1.767    0.434
        86  -9.5688     58.8681    138.1588   1.0659595758e+02   4.0080561010e+01    0.2155239    0.1687236  64.29 0.0005977511    1.209    0.173
        87 -10.3157     22.6383    136.3532   1.1712851103e+02   4.4335002797e+01    0.3521212    0.1821233 -62.71  0.001628046    1.864    0.463
        88  -9.9831      3.2219    136.4113   1.2275942356e+02   4.5763480717e+01    0.3213941    0.2161034  -3.75  0.001873933    2.104    0.525
        89  -9.8436     55.3285    133.8228   1.0706292408e+02   4.1574314702e+01    0.3764079    0.2555493 -78.22  0.001971187    1.429    0.300
        90  -8.5104     77.2347    135.3949   1.0078501189e+02   3.8236381539e+01    0.2148391    0.1162432  45.97 0.0009521599    1.783    0.439
        91 -10.6640     34.7413    131.3370   1.1302528454e+02   4.4455922128e+01    0.6071827     0.234183 -78.57 0.0002309848    2.549    0.608
        92 -11.7960     48.1243    124.1194   1.0796246798e+02   4.4825763077e+01    0.7955572    0.6504146 -58.41  0.003451794    1.256    0.204
        93 -10.2035     32.6846    110.3022   1.1121429185e+02   4.9919199322e+01    0.6091233    0.2505758 -56.78  0.002594972    2.242    0.554
        94 -11.0080     40.0619    109.2233   1.0850979573e+02   4.9462895753e+01    0.7243256    0.4202811  29.38  0.003555703    1.829    0.453
        95 -10.9965     33.8045    119.5888   1.1199833128e+02   4.7468369956e+01    0.6166784    0.3679463 -65.39  0.002144182    1.535    0.349
        96 -10.1961     28.3644    119.8317   1.1379972675e+02   4.7909995307e+01    0.3382427    0.2252234 -84.16  0.001036512    1.351    0.260
        97  -9.3332     22.7775    128.0716   1.1638234611e+02   4.6344275643e+01    0.3422889    0.1900679   2.17  0.001562394    2.749    0.636
        98  -9.7662     73.5649    129.8167   1.0094704617e+02   4.0112519000e+01    0.3121023    0.2161923  77.99  0.001186983    1.655    0.396
        99 -10.3356     55.9293    126.2253   1.0579940418e+02   4.3369713864e+01    0.3890835    0.1917752 -66.19 0.0009802323    1.913    0.477
       100  -9.2135    131.1597    125.0583   8.3803897049e+01   3.1186578816e+01    0.4603195    0.1774978 -37.67  0.001473485    3.419    0.707
       101 -10.1909     93.2057    121.8887   9.3581023208e+01   3.8921575056e+01    0.4318947    0.3845791 -83.05   0.00236894    1.136    0.120
       102 -11.5041     75.5532    120.0274   9.8595752463e+01   4.2202224165e+01    0.2684523    0.2414275  48.29  0.001511966    1.111    0.100
       103 -10.5781     19.9556    118.2790   1.1638008530e+02   4.8999265065e+01    0.3480151    0.2370939  74.62 0.0006826768    1.351    0.260
       104 -10.3513     50.9569    116.8462   1.0597643444e+02   4.6316823926e+01    0.3185658    0.1845585 -57.04   0.00151942    1.660    0.398
       105 -10.4101    116.4031    116.4194   8.5722111348e+01   3.5947834543e+01    0.3141339    0.2663818  35.62 0.0006656416    1.195    0.163
       106  -9.7077    104.4276    116.1608   8.9050148929e+01   3.8272515865e+01    0.3264326    0.2404875 -78.80  0.001140297    1.656    0.396
       107  -9.7656    108.3355    114.6249   8.7571224692e+01   3.7896228186e+01    0.4404262    0.2825633 -46.67  0.001255802    1.588    0.370
       108  -9.7655     97.4324    115.2516   9.0904466820e+01   3.9750593088e+01    0.3306946    0.2574812  20.59  0.001354598    1.516    0.340
       109 -10.6711     96.5508    109.5417   8.9870627982e+01   4.1250955689e+01    0.4786065    0.4225813 -64.97  0.001768224    1.127    0.113
       110 -10.0522     28.9347    129.6950   1.1463813487e+02   4.5408442011e+01    0.3828099    0.2513888 -69.88  0.001847234    1.408    0.290
       111 -11.5072     40.6078    124.3724   1.1038933605e+02   4.5587571262e+01     1.466907    0.5009456 -82.25  0.004783476    3.901    0.744
       112 -10.4233     48.9688    111.8160   1.0584861809e+02   4.7820150618e+01      0.40444    0.2831317 -11.65  0.001682278    2.087    0.521
       113  -9.5458    193.0710    111.6610   6.7056710229e+01   2.1004996999e+01    0.1942772    0.1753041  24.41 0.0004705672    1.121    0.108
       114  -9.8420    131.3255    110.6735   8.0334547521e+01   3.4199082531e+01    0.3533384    0.2592365  73.52   0.00111582    1.818    0.450
       115 -10.6418     88.0156     97.2056   8.9575017749e+01   4.5703271359e+01    0.6237745    0.4209998 -57.25  0.002292106    1.462    0.316
       116  -9.9701     73.1841    108.0567   9.6987352240e+01   4.5505363188e+01    0.5888042    0.3818649  -8.52  0.002345989    2.831    0.647
       117 -10.5526     89.1347     88.3566   8.6864075386e+01   4.7593251315e+01    0.6628651     0.566239  10.16  0.003396629    1.387    0.279
       118  -9.6243     68.0209     86.7663   9.3890339869e+01   5.1551212824e+01    0.3225514    0.2580976 -38.87 0.0007423222    1.322    0.243
       119 -10.2962     73.3780     89.5151   9.2639685931e+01   5.0037044109e+01    0.8943377    0.2960692  31.51  0.002811388    3.650    0.726
       120 -10.4394     76.2626    102.0925   9.4659941781e+01   4.6496169231e+01    0.6386947    0.3229325  26.11  0.002479779    2.496    0.599
       121 -11.7726     77.2859     96.4618   9.2993291338e+01   4.7709859516e+01     0.861728    0.6678113  57.64  0.004353294    1.377    0.274
       122  -9.7369     82.8839     89.8724   8.9396249080e+01   4.8356313557e+01    0.3744012     0.254773  63.35 0.0006983418    1.821    0.451
       123  -9.7565     82.5073     86.0112   8.8480076403e+01   4.9341017327e+01    0.3563572    0.2364278 -36.32   0.00128115    1.708    0.414
       124 -10.1521    117.5183    106.9947   8.3120616945e+01   3.7820541771e+01    0.4274141    0.2537155 -40.91   0.00170503    1.774    0.436
       125  -9.8509    113.2884    107.5382   8.4449064868e+01   3.8543461904e+01    0.3701699     0.285515 -52.38 0.0007502854    1.303    0.233
       126 -10.8544    106.2050    102.3061   8.5188454677e+01   4.1118353453e+01    0.7782681    0.4940026  71.50  0.003032255    2.467    0.595
       127  -9.3019     82.6149    114.9161   9.5372147661e+01   4.2346640721e+01    0.2790231    0.2075486  46.89 0.0008158831    1.336    0.252
       128  -8.7939     23.8065    109.1095   1.1413784933e+02   5.0998439572e+01    0.3211305    0.1097861  33.06  0.001325008    2.741    0.635
       129 -10.4724    132.3455     97.5805   7.6639090472e+01   3.6730941789e+01    0.5939859    0.3265508 -37.42  0.002391609    1.921    0.479
       130 -10.1426    133.8105    102.1187   7.7485411523e+01   3.5470651468e+01    0.5371902    0.3153013 -59.10  0.001613326    2.146    0.534
       131 -11.7136    141.9672    102.2865   7.5484605393e+01   3.3670837379e+01    0.9324147    0.5282696  22.40  0.003180388    3.213    0.689
       132 -10.2033    146.5781     99.5213   7.3631347561e+01   3.3211017593e+01    0.2759698    0.2525875  29.27 0.0006070015    1.121    0.108
       133 -10.0873    197.0573    104.4536   6.4582942064e+01   2.1362744105e+01    0.3175715    0.2672302  -5.64 0.0005697284    1.213    0.176
       134 -10.9416     51.1245     92.3643   1.0152236756e+02   5.2495140277e+01     1.022144    0.4363524 -42.28  0.003746841    2.927    0.658
       135 -10.6178     39.3276     80.5489   1.0371708259e+02   5.6844968669e+01    0.7269415     0.487329  83.13  0.003577153    1.744    0.427
       136 -10.0593     48.6157    102.8273   1.0445365289e+02   5.0141546960e+01    0.6486872    0.3452949 -51.72  0.002810633    1.844    0.458
       137 -10.1081     53.7303    101.5898   1.0239677891e+02   4.9833472962e+01    0.5643299    0.2662102 -44.34  0.001778849    2.450    0.592
       138  -9.8227     55.4775     96.5404   1.0076546165e+02   5.0887605693e+01    0.4353245    0.2800473 -11.61 0.0005606106    2.539    0.606
       139  -9.7931     39.8670     96.6546   1.0657551970e+02   5.2687642709e+01    0.4698106    0.2664191  16.54  0.002164139    2.199    0.545
       140 -10.5204     40.6134     91.5166   1.0537368570e+02   5.3920334399e+01    0.5212175    0.3362639 -30.80   0.00247714    1.972    0.493
       141 -10.6854     34.5905     91.5309   1.0770860412e+02   5.4527752826e+01    0.4757892    0.3197836  -9.42  0.001954878    2.052    0.513
       142  -9.4207     65.7940    100.9978   9.8011139303e+01   4.8354347041e+01    0.3834615    0.2913833  27.84  0.001969728    1.447    0.309
       143  -9.4021     62.4022    102.2128   9.9451236494e+01   4.8529918448e+01    0.3719254    0.2070941 -76.97   0.00152706    2.101    0.524
       144  -8.9229     62.4823     98.4760   9.8640760665e+01   4.9455797086e+01    0.2952506     0.172234 -88.54   0.00117771    2.432    0.589
       145  -9.2334     39.1225    102.7424   1.0785242318e+02   5.1210761345e+01     0.306841    0.1808558  30.50 0.0009835981    1.795    0.443
       146 -10.1338      3.5971     97.7443   1.2019359579e+02   5.5203289514e+01    0.4788069    0.2110224  60.63  0.001375934    2.346    0.574
       147 -11.3081      4.3741     87.8924   1.1904557843e+02   5.7638856213e+01    0.8513083    0.3443697 -68.49  0.003167728    1.984    0.496
       148  -9.3598     10.3149     99.1662   1.1788131092e+02   5.4470936030e+01    0.2216426    0.1756715  42.18  0.001028119    1.345    0.256
       149  -9.5445    240.7094     96.5760   5.6111167740e+01   1.3983376086e+01    0.2338139    0.1339338 -44.55  0.001192434    1.758    0.431
       150 -10.3099    156.4573     96.2933   7.0480820029e+01   3.1631373787e+01      0.38328    0.3533663 -54.95  0.001298503    1.123    0.110
       151  -8.9863    126.7611     93.2475   7.6908883120e+01   3.8852417335e+01    0.3057024    0.2620715  43.05 0.0007445979    1.177    0.150
       152 -11.0791    116.8813     95.0282   8.0137577734e+01   4.0584039859e+01    0.7080356    0.5357515  47.94  0.002008309    1.332    0.249
       153 -11.2691    119.0965     87.0968   7.7248911642e+01   4.1820324012e+01    0.6345199    0.4755056 -88.70  0.002674581    1.853    0.460
       154  -8.6514    228.2092     95.4135   5.7516321939e+01   1.6484608963e+01    0.1601466    0.1319167  75.77 0.0005101135    1.579    0.367
       155  -9.4688    189.4671     93.8543   6.3235079937e+01   2.4707430917e+01    0.2693123    0.2106412  14.05 0.0008857981    1.500    0.333
       156 -10.6637    105.0224     90.9021   8.2485355069e+01   4.3938696694e+01    0.9255515    0.5048491 -26.61  0.003099234    3.250    0.692
       157  -8.8472    174.1910     92.0082   6.5602390746e+01   2.8411124654e+01    0.2228972    0.1599355  30.21  0.001044128    1.608    0.378
       158  -9.2883    193.8842     89.6325   6.1363490729e+01   2.4428025074e+01    0.2323508    0.1879569 -17.98 0.0004326871    1.243    0.196
       159  -8.6665     93.5503     98.0029   8.7986939827e+01   4.4514951563e+01    0.2282837     0.145298 -52.82 0.0008365868    1.542    0.352
       160 -10.3833    112.2411     88.3426   7.9587923492e+01   4.3018326660e+01    0.3812844    0.2332202 -31.95  0.001554555    1.963    0.491
       161  -9.6549    145.7182     87.0375   7.0344303901e+01   3.5842514041e+01    0.4227417    0.2793416  27.78  0.001376814    1.950    0.487
       162 -10.2148    146.5428     82.9803   6.8963406450e+01   3.6426051171e+01    0.4338117     0.315965 -10.32   0.00157363    1.808    0.447
       163  -9.0993    222.8923     86.0750   5.6004722161e+01   1.8856417101e+01    0.3347123    0.1552476 -35.52  0.001491002    1.860    0.462
       164 -11.0382    139.1364     69.3153   6.6497478327e+01   4.0737984742e+01    0.8079255     0.487035  57.11  0.001898105    1.729    0.422
       165  -9.5091    146.7977     74.8279   6.6443419047e+01   3.7885337197e+01    0.2197058    0.2028078   7.75 0.0002369226    1.171    0.146
       166 -11.1744    135.4280     82.5356   7.1526452961e+01   3.9092218714e+01    0.7516243    0.6071262  -6.54  0.003193926    1.520    0.342
       167 -11.1888    140.6567     76.3812   6.8361536280e+01   3.9058644780e+01    0.6128597    0.5844001 -65.94  0.002379953    1.070    0.065
       168  -9.3555     74.4672     84.1518   9.0835148363e+01   5.1159115969e+01    0.4241957    0.2100116  30.75  0.001663565    2.326    0.570
       169 -10.9572    160.8426     81.7505   6.5438979668e+01   3.3297796894e+01    0.4724331    0.3097782  62.64  0.001369385    1.714    0.417
       170 -10.7547     76.2578     43.4221   7.6198069426e+01   5.9871704093e+01    0.8055367     0.496676 -38.96  0.003707206    1.585    0.369
       171  -9.5925    108.5090    249.5016   1.0687348481e+02   1.1978954126e+01    0.1102716   0.08251777  35.72 -6.044011e-05    1.052    0.049
       172 -12.2658    102.2548     77.4524   7.9353690520e+01   4.7487005869e+01     1.566612    0.9500036 -51.82    0.0067006    1.681    0.405
       173 -11.0884    106.8138     61.7843   7.2691982135e+01   4.9766855618e+01     1.061131    0.3313727 -39.89  0.003255145    3.226    0.690
       174  -9.8563    182.4814    249.9525   9.3494833693e+01   2.5963807777e+00     0.219607     0.113748  23.15  0.001370538    1.625    0.385
       175 -10.4006    148.0555    247.3220   9.9317123122e+01   7.2654139421e+00    0.1989462    0.1049452  38.33 0.0003992392    1.465    0.317
       176 -11.6213     77.9599     61.3332   8.2445127722e+01   5.5824157606e+01    0.5908214    0.4518532  32.12  0.002957081    1.398    0.285
       177 -10.5851    141.7110    244.5972   1.0019465710e+02   8.4378109647e+00    0.3106855    0.2281584  32.82  0.002276309    1.032    0.031
       178 -12.5544     87.3795     54.7590   7.6546486709e+01   5.5370510556e+01     1.147625     0.859243 -56.84  0.004571889    1.452    0.311
       179  -9.9586      4.0964    245.9617   1.2603731834e+02   2.3710803414e+01    0.1892513    0.1416943 -75.81  0.001581023    1.702    0.413
       180 -10.8472     29.8714     48.2746   9.9963665365e+01   6.5753511950e+01     0.454629    0.2620627 -45.80   0.00227035    1.569    0.363
       181 -11.7940     31.7981     42.0955   9.6897448431e+01   6.6999395447e+01    0.9456094    0.3772481  26.45   0.00353728    2.739    0.635
       182 -11.0221    244.9977    244.5666   8.2667062005e+01  -4.1765126371e+00    0.3875001    0.1232216  34.58   0.00214879    2.636    0.621
       183  -9.8227    188.3139    243.9898   9.1757452539e+01   2.5397004970e+00    0.1490183    0.1112467  17.60 0.0004675403    1.043    0.041
       184  -8.2415     77.3304    242.7007   1.1227715666e+02   1.6769274763e+01    0.1161829   0.06087792  53.23 0.0003629673    1.644    0.392
       185  -9.1008    204.3009    241.6332   8.8737219674e+01   8.1803896826e-01   0.09266996   0.07815139  42.43 0.0006325679    1.735    0.424
       186  -9.1906    211.3637    239.8508   8.7326502781e+01   1.4671844730e-01    0.1398441   0.08368448 -15.08 0.0009441869    1.746    0.427
       187 -12.1129     56.7299     37.6016   8.2160940638e+01   6.4580840307e+01    0.6055216    0.4132469 -15.63  0.002801116    1.871    0.466
       188 -12.2739     49.3003     39.3968   8.6573229798e+01   6.5373794163e+01    0.4626452    0.3678374   5.09 0.0003779255    1.407    0.289
       189 -10.7517    123.1555     79.3929   7.3794173629e+01   4.2525926044e+01    0.5463855     0.374989 -37.35  0.001915155    1.480    0.324
       190  -9.6111    168.8690     78.2688   6.2805021395e+01   3.2014581314e+01    0.3909931     0.290903 -83.77  0.001490713    1.805    0.446
       191  -9.8923    165.9037     73.6188   6.2025863258e+01   3.3511721932e+01    0.4925228    0.3449021  29.51      0.00223    1.756    0.431
       192  -9.3750    164.4766     68.8178   6.0867310134e+01   3.4663772942e+01    0.3266418    0.2447008 -40.95 0.0008523081    1.289    0.224
       193  -8.8645     88.0124     79.0000   8.4543859552e+01   4.9971334009e+01     0.249431    0.1836304   6.94  0.001104185    1.930    0.482
       194  -9.3139     92.2547     76.5603   8.2346810758e+01   4.9707606273e+01    0.3526176    0.2580501  13.64  0.001575031    1.863    0.463
       195 -10.0362     56.5939     86.2021   9.8071441372e+01   5.3339477494e+01    0.5994363    0.3433633  -3.13  0.002128165    3.675    0.728
       196 -10.2267    189.4020     77.3972   5.8841720166e+01   2.7377888630e+01    0.5524237    0.2468446  42.67  0.001759761    2.654    0.623
       197 -11.0838    117.5369     64.6643   7.0551381382e+01   4.6749468897e+01     1.218415    0.6154268  38.30  0.004521701    2.339    0.572
       198 -11.5543    115.3656     71.8207   7.3572822598e+01   4.5826436527e+01    0.7202797    0.4120179 -39.43 0.0007429316    1.754    0.430
       199 -11.9219    119.6638     69.7007   7.1654554376e+01   4.5271206571e+01     1.008048    0.4994351  53.04 0.0008516883    2.107    0.525
       200  -9.5848      5.3106     77.0337   1.1754006365e+02   6.0328857490e+01    0.3036903    0.1887316  58.46  0.001202859    1.704    0.413
       201  -9.8623      3.7542     72.8489   1.1772944809e+02   6.1451903813e+01    0.2909919    0.1512832 -63.66 0.0009824535    1.583    0.368
       202  -9.6056     70.5123     76.3845   9.0129628604e+01   5.3669515539e+01    0.3445591    0.2925557   7.58  0.001812858    1.380    0.275
       203  -9.3444    248.3888     76.2193   5.0501796814e+01   1.5246908385e+01     0.194509   0.09407123 -37.84 0.0005601342    1.713    0.416
       204  -8.6023    204.8087     75.3663   5.5866721995e+01   2.4227814344e+01    0.1942243     0.125443  45.32 0.0007014648    1.706    0.414
       205  -8.5913    156.2371     85.5455   6.7521561047e+01   3.3686980448e+01    0.2103521    0.1423667  39.51 0.0008975717    1.587    0.370
       206  -9.9534     82.1725     75.9245   8.5666766325e+01   5.1761716113e+01    0.4178656    0.2389583 -60.89 0.0009751089    1.959    0.490
       207  -9.3817     52.5379     83.7032   9.9068265594e+01   5.4499077270e+01    0.6162881    0.2374873 -56.91  0.002372056    2.279    0.561
       208 -10.3949     41.7929     53.9004   9.5650881313e+01   6.3119922799e+01     0.248921    0.2343218  -4.43 0.0004080494    1.131    0.116
       209 -10.4758    136.2867     41.9920   5.7739243608e+01   4.6061679870e+01    0.5629323    0.2936589 -53.58  0.002060551    2.380    0.580
       210 -10.6675    148.6521     34.2901   5.2503152063e+01   4.3959179968e+01      1.40162    0.3492718  53.73   0.00422205    3.573    0.720
       211 -11.4571    149.3297     66.2199   6.3179720165e+01   3.8809098124e+01     1.010817    0.5030622 -38.03  0.003785945    1.942    0.485
       212 -11.0856    142.0658     44.6581   5.7472849792e+01   4.4172318306e+01     0.711499     0.349327  40.40 0.0005597243    2.502    0.600
       213 -10.2288    139.9015     52.3378   6.0636106321e+01   4.3506461990e+01    0.4244008     0.305835  46.56 0.0008508113    1.422    0.297
       214 -10.5589    143.8065     58.1188   6.1743465886e+01   4.1564776919e+01    0.2896615    0.2725936  78.66 0.0004097149    1.085    0.078
       215 -12.7179    147.2443     53.8210   5.9559649127e+01   4.1411725781e+01    0.4900136    0.3944942  51.64 0.0003966172    1.256    0.204
       216 -11.1938    145.8211     48.3737   5.7996201718e+01   4.2638013702e+01    0.3789293    0.2919718  51.22 0.0003093708    1.309    0.236
       217  -9.8307    177.6487     68.5993   5.8366624137e+01   3.1521798321e+01    0.4262541       0.2967  63.91  0.002036617    1.550    0.355
       218  -8.6110    244.6407     75.6970   5.0797779837e+01   1.6015280925e+01    0.1278982   0.09320066  12.55 0.0007038276    1.721    0.419
       219  -8.8482    131.8864     67.1060   6.7554771928e+01   4.2891183101e+01    0.2417963    0.1867967  18.18 0.0009368836    1.631    0.387
       220  -9.3820     87.8791     65.4148   8.0215083891e+01   5.3029390904e+01    0.3650938    0.2454955 -42.01  0.001453431    1.463    0.316
       221 -10.2878    158.1557     42.4344   5.3620574029e+01   4.0358202415e+01    0.7807389    0.2684271 -35.05  0.002696814    2.645    0.622
       222 -10.7093    153.2063     43.7733   5.4969766012e+01   4.1438919364e+01     0.764997    0.4010026 -46.18  0.002326278    1.963    0.491
       223 -10.6471    161.0852     52.1946   5.6306649081e+01   3.8167368704e+01    0.5374416     0.367763 -27.01  0.001893426    1.497    0.332
       224 -10.0600    167.5846     62.3398   5.8304199105e+01   3.4960799204e+01     0.443463    0.3163744 -23.97  0.001304337    1.472    0.321
       225  -8.8501    169.6234     58.8186   5.6853739588e+01   3.5012038715e+01    0.2087887    0.1695592 -63.44 7.685408e-05    1.315    0.239
       226 -10.2424    166.4505     53.9164   5.5889016334e+01   3.6554960910e+01    0.6310899    0.2887852 -43.79  0.002349098    2.160    0.537
       227  -9.7108    207.9457     59.8554   5.1286106024e+01   2.5751627853e+01    0.3983656     0.265009  -7.51  0.001441397    1.887    0.470
       228 -10.6835    133.1162     54.9039   6.3095986625e+01   4.4775170674e+01    0.7565685    0.4270261  -9.82  0.002499489    3.387    0.705
       229 -10.2556    128.1314     59.8600   6.6054090750e+01   4.5127954574e+01    0.7901818    0.4853581  85.43  0.002793586    2.993    0.666
       230 -10.6795    121.4916     54.5582   6.5899993670e+01   4.7691348294e+01    0.5822096    0.5190378  24.56  0.002291899    1.208    0.172
       231 -10.3239    116.6848     49.7690   6.5422045448e+01   4.9701280174e+01     0.478629    0.3782968 -21.98  0.001746763    1.366    0.268
       232  -8.6257    181.9889     61.4224   5.5532564868e+01   3.1592691997e+01    0.2256823    0.1990906  15.09 0.0004181687    1.280    0.219
       233 -10.9345    193.7019     54.9738   5.1880424849e+01   2.9730527194e+01     0.893584    0.7076024 -74.85  0.004737211    1.401    0.286
       234  -9.3152    180.2430     43.9227   5.0554506901e+01   3.4542146415e+01    0.3759397    0.2652731  15.57  0.001736299    1.942    0.485
       235 -10.9172    184.7774     55.9387   5.3479887156e+01   3.1732435210e+01     0.363028    0.2857649 -25.77 0.0003573479    1.262    0.208
       236 -10.8305    180.9911     50.5722   5.2462516464e+01   3.3429916754e+01    0.6704434    0.4620759 -66.92  0.003145298    1.690    0.408
       237  -8.9283    200.7691     59.4133   5.2134984551e+01   2.7450313145e+01    0.2517722    0.1750705  51.78  0.001273661    1.553    0.356
       238 -10.2280     70.9839     52.3865   8.1929748006e+01   5.9036680308e+01    0.4380731    0.2914431 -54.58  0.001399029    1.557    0.358
       239 -10.6154      3.1553     56.1252   1.1579519599e+02   6.5644430280e+01    0.5185002    0.2530207  39.75  0.002568346    2.342    0.573
       240  -9.7278      4.2064     51.6122   1.1452669646e+02   6.6712113004e+01    0.2784075    0.1770618 -50.29 0.0007696296    1.385    0.278
       241  -8.4630    250.2953     58.6747   4.6223195870e+01   1.7080522310e+01    0.1317136   0.07983916 -51.03 0.0007021775    1.624    0.384
       242  -8.3361    224.2834     56.3272   4.8362608380e+01   2.2634905445e+01    0.1301536    0.1009483  10.09 0.0002148868    1.604    0.376
       243  -9.0810     11.8951     56.3194   1.1138448352e+02   6.5174388484e+01    0.2029509    0.1622791  40.22  0.001137346    1.430    0.300
       244  -9.0737    244.1996     55.0373   4.5952437111e+01   1.8705836472e+01    0.1902214    0.1569739 -12.04 0.0005067777    1.273    0.214
       245  -9.9487     50.7676     53.6637   9.1281773526e+01   6.2003702937e+01    0.3209955    0.2542942   0.81  0.001423068    1.479    0.324
       246 -11.5963     57.6859     48.3086   8.6125082090e+01   6.2171881244e+01    0.8205719    0.7152571  72.54  0.004046073    1.400    0.286
       247  -9.5217     63.7717     46.9903   8.2880841994e+01   6.1451244646e+01     0.343915    0.1843711 -40.14  0.001044731    1.841    0.457
       248 -10.6247     67.1637     44.1312   8.0243687192e+01   6.1448106957e+01    0.4537989    0.3377005 -50.40  0.001646049    1.351    0.260
       249  -8.9860    238.3556     51.9900   4.5788630019e+01   2.0249104168e+01    0.1803811    0.1457713 -32.03  0.000540937    1.076    0.071
       250  -9.7856    228.4692     50.4342   4.6406759199e+01   2.2495516347e+01    0.3526427    0.2206956 -49.54  0.001079007    1.509    0.337
       251  -8.5760      9.8300     52.3132   1.1167985781e+02   6.6274485206e+01    0.1616981    0.1121959 -12.37 0.0004551421    1.679    0.404
       252 -10.3089    174.2865     56.6285   5.5376109662e+01   3.4195517681e+01    0.4866693    0.2988868  -6.31  0.001508443    2.423    0.587
       253  -7.9839     16.6219     50.7003   1.0771529476e+02   6.6260983614e+01    0.1419897   0.08125973 -37.78 0.0007025158    1.761    0.432
       254  -9.9404    137.6592     59.1060   6.3471971290e+01   4.2923918294e+01    0.2891865    0.2233248  41.12 0.0004194828    1.363    0.266
       255  -8.2803     21.6201     49.2461   1.0466390633e+02   6.6248521735e+01    0.1790072    0.1059586 -55.85 0.0009194039    1.422    0.297
       256  -9.6147    172.8620     47.1640   5.2685998031e+01   3.5938709048e+01    0.3716952    0.2834775 -60.00  0.001486044    1.371    0.271
       257 -10.1491    207.8716     45.9742   4.7521100768e+01   2.7626079550e+01    0.4118603    0.1868052  61.70  0.001462702    2.305    0.566
       258  -8.6408    222.2269     45.6526   4.5835627080e+01   2.4439162051e+01    0.3331472     0.116209  62.04  0.001324666    2.991    0.666
       259  -8.4531    119.3381    239.2896   1.0388307137e+02   1.2077141246e+01    0.1084337    0.0775433  11.74 0.0004313262    1.640    0.390
       260  -9.1155     55.9891    238.4532   1.1612638655e+02   1.9878223982e+01    0.1616897    0.1270528  74.29  0.001250836    1.285    0.222
       261 -10.6208      9.8033     41.9750   1.0945608076e+02   6.8784094312e+01    0.4932761    0.2540137  29.21  0.002480263    2.184    0.542
       262 -10.2301     14.4897    238.2656   1.2397722967e+02   2.4064646065e+01    0.2720862    0.1419782  69.59  0.001878896    1.614    0.380
       263 -10.2616     36.5136     26.8001   8.7926959751e+01   6.9775241694e+01    0.4206842    0.2205608 -41.89 0.0007248099    1.741    0.425
       264 -11.7834     16.8756     38.2373   1.0425434652e+02   6.9223576421e+01    0.8309352    0.5775733  45.18  0.004714963    1.734    0.423
       265 -11.1217     15.6440     30.8484   1.0265530595e+02   7.1019515394e+01    0.3131325    0.2468514   3.31 0.0004728521    1.393    0.282
       266 -10.8185    192.2223    237.3413   9.0228583910e+01   2.8018145625e+00    0.2938154    0.1885646  47.91   0.00135325    2.100    0.524
       267  -8.5611    220.5236    237.5245   8.5513300083e+01  -7.1378719337e-01     0.108491   0.07560288  12.63 0.0001249824    1.047    0.045
       268  -8.9249    172.6376    237.6743   9.3730818561e+01   5.2912338285e+00    0.1166051   0.07168903   9.49 0.0007040814    1.790    0.441
       269  -9.9313    182.4863    234.9902   9.1628773078e+01   4.3323602164e+00    0.2485355    0.1126786  44.90  0.001299971    2.488    0.598
       270  -8.8426     21.0437    232.3857   1.2256676866e+02   2.4460626871e+01    0.1503407   0.09910128  45.86 0.0007112535    1.139    0.122
       271  -9.0281    213.2572     43.1601   4.6142306635e+01   2.6751748696e+01    0.3324054    0.1929566  13.65  0.001305409    3.233    0.691
       272  -9.9635    215.8500     38.9285   4.4730375583e+01   2.6687363624e+01    0.2537317    0.2264179 -74.83  0.001110618    1.139    0.122
       273  -8.5823    192.8411     44.5205   4.8985076981e+01   3.1367541263e+01    0.1990563      0.14033  68.73 0.0007066916    1.495    0.331
       274 -10.0858    118.3629     42.1223   6.2039079352e+01   5.0576471075e+01    0.4350151    0.3347467 -32.79  0.002045002    1.308    0.235
       275  -9.2605    235.1854     40.2081   4.3187302181e+01   2.2323519574e+01    0.4052022    0.2196052   2.35  0.001572008    3.682    0.728
       276  -9.3724    197.1924     41.9229   4.7678028754e+01   3.0660295444e+01    0.2024237    0.1847014 -44.69 0.0003870746    1.020    0.019
       277  -8.9494    167.0323     41.9963   5.1978066333e+01   3.8142963948e+01    0.2467591    0.1759789  27.93  0.001140327    1.769    0.435
       278  -9.6777    173.3071     39.3986   5.0170110015e+01   3.6898824831e+01    0.4145703    0.2691596  26.45  0.001806207    2.132    0.531
       279  -9.5335     12.5412    231.8047   1.2415824601e+02   2.5335965929e+01    0.2408506    0.1186594  43.30  0.001614253    1.432    0.302
       280  -8.8228     62.6495     39.9115   8.0433482901e+01   6.3105442011e+01    0.2374874    0.1857645  19.16 0.0005424673    1.409    0.290
       281  -8.6645    227.0251    231.5413   8.3627354344e+01  -8.7743146065e-01    0.1531041   0.08170526  29.41 0.0004015377    1.510    0.338
       282  -9.1862    219.3037    230.7738   8.4766335661e+01   1.3743977202e-01    0.1881735    0.1207528  23.72 0.0006511727    1.208    0.172
       283 -10.1493    179.9144     24.9905   4.4732576804e+01   3.7020218495e+01    0.2607637    0.2223713 -61.27 0.0003074251    1.114    0.102
       284  -8.7180    202.2715    228.9950   8.7366726901e+01   2.4727939841e+00    0.1496013    0.1135526  12.15 0.0004130128    1.047    0.045
       285  -8.9723    137.3584    224.7955   9.8816437689e+01   1.1799834463e+01    0.1437993    0.1057044 -32.80  0.000563443    1.700    0.412
       286  -9.5305    185.1692     13.8814   4.0714114147e+01   3.6910520512e+01     0.257797    0.1826693  77.60 0.0006635742    1.400    0.286
       287  -9.2646     41.1376    221.4011   1.1813831637e+02   2.4407853360e+01     0.169462     0.141614 -81.24 0.0007742462    1.399    0.285
       288  -8.4781    167.6891    220.6830   9.2443851869e+01   8.1637608551e+00    0.1176253   0.07856681   7.44 0.0003824344    1.639    0.390
       289  -9.2849      3.0000    213.9590   1.2552883654e+02   2.9338721027e+01    0.1586366    0.0519546 -85.78 0.0008024556    2.943    0.660
       290  -9.7824     13.4917    211.5607   1.2335022222e+02   2.8889815711e+01    0.2114088   0.09377648 -86.45  0.001221079    2.202    0.546
       291  -8.6984    143.3197    209.6488   9.5734239922e+01   1.3263415304e+01    0.1205405   0.08709661  59.43 0.0007047845    1.743    0.426
       292  -8.6391    162.0466     38.9643   5.1797961381e+01   3.9841067634e+01    0.1728585    0.1591154 -42.91            0    1.062    0.058
       293  -9.6153    202.1491     37.9819   4.5964885798e+01   2.9978411509e+01    0.2135707    0.1901609 -89.34            0    1.157    0.136
       294  -8.4928    235.5195    208.0132   7.8720457983e+01   5.7634984705e-01    0.1484475   0.09401732 -23.41  0.000385602    1.502    0.334
       295  -9.1303    227.8090     30.8593   4.1487137647e+01   2.4982610831e+01    0.2575256    0.2091947 -58.10 0.0006086181    1.139    0.122
       296  -9.7870    224.7061     28.3727   4.1116302580e+01   2.5944429036e+01    0.5271837    0.1580704 -48.35  0.001904604    3.227    0.690
       297  -9.8239    228.1290     26.8390   4.0434560387e+01   2.5365014867e+01    0.3055401    0.2160799  72.57  0.001111142    1.545    0.353
       298 -11.0088    192.7119     32.6646   4.5530107773e+01   3.2909307626e+01    0.4926646    0.3210859 -30.02 0.0009485017    1.452    0.311
       299 -10.6452    135.9689     34.1181   5.4882461706e+01   4.7293387012e+01    0.4951651    0.3272895   8.31  0.000957082    2.183    0.542
       300  -9.6103    121.9122     36.0020   5.8740275588e+01   5.0638425308e+01     0.514868    0.2202281  62.24  0.001448355    2.464    0.594
       301  -9.1764    124.0219    205.9984   9.9264378316e+01   1.6667583357e+01    0.1775861    0.1464935  36.60  0.001170889    1.004    0.004
       302  -8.6047    234.0124    199.7719   7.7626287882e+01   1.6922156003e+00    0.1698185    0.1014523  -4.61  0.001039397    1.635    0.388
       303  -9.4687     27.3611    193.5701   1.1962354389e+02   3.1119534031e+01    0.1947456    0.1756102  61.53  0.001134621    1.205    0.170
       304  -9.9683     11.3431    192.6469   1.2313950908e+02   3.2755060768e+01    0.2987116    0.1239527  38.30   0.00166404    1.881    0.468
       305 -10.1635     10.5998    185.1223   1.2302113470e+02   3.4354912803e+01    0.3372421    0.2018139   4.99  0.001885523    2.641    0.621
       306  -8.3499     18.3113    182.6615   1.2114573267e+02   3.4206892524e+01    0.1301546   0.06348561  58.93 0.0007045316    1.690    0.408
       307 -10.1365      2.3774    178.3746   1.2465946748e+02   3.6416469563e+01    0.3524333    0.2310875 -69.47   0.00230683    1.654    0.395
       308 -10.6164    235.3064     32.8570   4.1352433986e+01   2.3149417309e+01    0.4987588    0.3260971   3.85  0.001634145    2.204    0.546
       309 -10.2761    237.8969     26.3052   3.9529323591e+01   2.3335453143e+01    0.4877243    0.2498634  67.16  0.002346397    2.150    0.535
       310  -9.5253     26.3138    179.6368   1.1910529159e+02   3.4115869151e+01     0.229367    0.1786959 -56.42  0.001342496    1.592    0.372
       311 -10.3892    245.3161     33.1346   4.0612750577e+01   2.1053773752e+01    0.4640577    0.2781907  70.06  0.002215719    1.904    0.475
       312  -8.8981     36.7578    179.5545   1.1659737129e+02   3.3104557193e+01     0.181034   0.08670717  43.83 0.0009465964    1.705    0.414
       313  -8.5266     70.4924    174.5181   1.0785630592e+02   3.0261505944e+01    0.1294288    0.1124615  57.65 0.0002430442    1.018    0.018
       314 -11.6438     32.3068    166.4263   1.1677800378e+02   3.6426149587e+01    0.3253273    0.2511483 -63.02 0.0004787296    1.448    0.309
       315 -10.6520    213.5242     29.7349   4.2491590561e+01   2.8309400628e+01    0.5008513    0.4528696  29.71  0.002370087    1.319    0.242
       316  -8.5853     16.9605    169.0028   1.2079065638e+02   3.7261837923e+01    0.1662979    0.1328817 -51.92 0.0003436453    1.591    0.371
       317  -9.7275     19.0315    165.5067   1.2008512261e+02   3.7857924037e+01    0.1831556    0.1602473 -73.95 0.0007882756    1.292    0.226
       318  -9.6053     12.8786    165.9416   1.2164818739e+02   3.8277283779e+01      0.17097      0.14227 -75.32  0.000555791    1.305    0.234
       319 -10.2077      1.8753    159.1270   1.2410747127e+02   4.0626189253e+01    0.4277288    0.1461273  83.07  0.001462226    2.712    0.631
       320  -9.5185    172.7880     30.8771   4.7524132912e+01   3.8132020642e+01    0.3689447    0.2260584  23.06  0.001525874    2.453    0.592
       321 -10.5776    167.5135     29.2734   4.7744306351e+01   3.9690255446e+01    0.2489849    0.2353568  81.93 0.0003526783    1.057    0.054
       322  -9.2975    167.0271     25.5051   4.6566457414e+01   4.0273641141e+01    0.3397983    0.2315077 -72.46   0.00143728    1.625    0.384
       323  -9.6062    147.4973     24.0114   4.8997366034e+01   4.5581815648e+01    0.2944239     0.225752  63.45 0.0006386243    1.269    0.212
       324 -10.6903     22.4284    158.7726   1.1880759706e+02   3.9079042819e+01     0.273351    0.2030845 -89.62   0.00173362    1.208    0.173
       325  -9.0045    145.2892     29.0795   5.1227888824e+01   4.5530736186e+01     0.419485    0.2055813  52.28  0.001622892    2.003    0.501
       326  -8.7234    160.4675     24.9226   4.7302053759e+01   4.2055295282e+01    0.5396285    0.2821791 -54.42  0.002202931    2.142    0.533
       327  -9.4463    185.4590     24.4244   4.3903957671e+01   3.5685348431e+01    0.4022723    0.1876568 -42.06 0.0009644293    1.954    0.488
       328  -9.1421    125.3284     16.1597   4.9910743603e+01   5.2366600738e+01    0.3939375    0.1715685  43.59  0.001456382    2.543    0.607
       329 -12.4977     15.8533    151.2055   1.2008080584e+02   4.1375894385e+01    0.9640838    0.7023088 -26.31  0.003618956    1.997    0.499
       330 -13.3051     12.3134    126.9796   1.1950923604e+02   4.7418567753e+01     1.099442    0.4384226  85.29   0.00165319    2.483    0.597
       331  -8.9949    131.7627     13.8269   4.7772196642e+01   5.0922950920e+01    0.4733893    0.1290258  57.83  0.001553923    3.027    0.670
       332 -12.3328     11.3671    106.8173   1.1821217110e+02   5.2479959892e+01     1.404984    0.5726532 -47.87  0.006045798    2.755    0.637
       333  -8.7319     75.0001     18.7901   6.4976942001e+01   6.4369584330e+01    0.2009366    0.1889821  76.51  0.000602603    1.235    0.190
       334 -12.5643     32.7662     58.7843   1.0149744252e+02   6.2940267533e+01    0.5286335    0.4427001  16.34   0.00312595    1.339    0.253
       335 -10.3889     46.6326     58.5902   9.4825058808e+01   6.1407435667e+01    0.4696212    0.3046084 -79.36  0.001480733    1.992    0.498
       336  -9.7937    230.3172     19.6829   3.8450177403e+01   2.5665727639e+01    0.2876267    0.1767315 -46.61  0.001226362    1.380    0.275
       337 -12.1633     20.3496     89.1841   1.1292449969e+02   5.6336576841e+01     1.954283     1.021935  78.15  0.007285722    2.177    0.541
       338  -9.9607    189.0086     19.3671   4.1984729729e+01   3.5363988830e+01    0.2268926    0.2106667 -17.49 0.0003524133    1.176    0.150
       339  -8.7219    101.3831     18.7285   5.6518822239e+01   5.8207701407e+01     0.184278    0.1382544 -10.01 0.0002182423    1.465    0.317
       340  -9.7240     42.5537     16.4527   7.8946090366e+01   7.0882126998e+01    0.3598513    0.2223741  21.37  0.001268269    1.885    0.470
       341  -9.3484    198.4865     16.4829   4.0208884022e+01   3.3339946152e+01    0.2255518    0.2136679 -78.80 0.0007087117    1.092    0.084
       342  -9.1699     70.9333     16.8759   6.5521494654e+01   6.5521943189e+01    0.3055151    0.1745558  32.51  0.001358998    1.982    0.495
       343  -9.1065    193.7421     14.7783   4.0153406039e+01   3.4680206244e+01    0.2598249    0.1438649 -66.63  0.001178683    1.955    0.489
       344 -10.5230     26.8615     84.3329   1.0957230070e+02   5.7063509277e+01    0.6020947      0.48497  10.55  0.003529425    1.470    0.320
       345 -10.8263     19.5002     73.4855   1.1087494508e+02   6.0390753426e+01    0.5691424    0.3360336 -32.73   0.00284005    1.974    0.493
       346 -10.4895     25.0058     66.4609   1.0703613600e+02   6.1740894361e+01    0.5570601    0.1912095 -68.86  0.001781995    2.585    0.613
       347 -11.5838     19.8717     60.6969   1.0827681423e+02   6.3573953202e+01      1.20238    0.6727421 -10.87  0.005669135    2.422    0.587
       348  -9.5461     66.2938     12.5522   6.4969194356e+01   6.7115939735e+01    0.3758761    0.1350937  53.89  0.001388172    2.924    0.658
       349 -11.2133     40.4641     66.1475   9.9828509904e+01   6.0320649512e+01    0.7853944    0.6323848 -11.08   0.00437438    1.451    0.311
       350 -10.6107     36.5504     52.0384   9.7666270719e+01   6.4166581024e+01    0.3044481    0.2551368 -33.67 0.0006717925    1.172    0.147
       351 -12.4019     55.6764     67.2919   9.3445357300e+01   5.8109299656e+01      1.21259    0.6621642 -49.91  0.003784907    1.689    0.408
       352 -11.7342     68.9272     68.3137   8.8303042077e+01   5.5831410009e+01      1.42234    0.6321908  35.74  0.005524938    2.398    0.583
       353 -10.4544     44.6795     50.0749   9.2960466411e+01   6.3649318941e+01    0.3220358    0.2693145  13.68 0.0009259704    1.309    0.236
       354 -10.5281     29.2699     75.9204   1.0703894951e+02   5.8995670320e+01    0.3254763    0.3059397  59.79  0.001044101    1.152    0.132
       355 -11.1500     31.0308     71.3704   1.0533054237e+02   5.9984631580e+01    0.5672343    0.3404104 -22.00  0.002511592    2.244    0.554
       356  -9.9444     45.4204    150.9232   1.1195154073e+02   3.8620732109e+01    0.2607039    0.2103198 -59.29 0.0007062268    1.360    0.265
       357 -10.9727     29.6206    143.1155   1.1566921030e+02   4.2086028662e+01    0.5313208     0.285356 -73.25  0.001282687    1.710    0.415
       358  -9.4107     27.4301    136.7814   1.1575235293e+02   4.3812521489e+01    0.2017883    0.1152802 -79.12 0.0008040955    1.584    0.369
       359  -9.8783     30.7499    151.6779   1.1606682492e+02   3.9953615142e+01    0.2979978    0.1818536 -70.00 0.0005240678    1.576    0.365
       360  -8.9833     34.3218    150.3565   1.1497344830e+02   3.9916155466e+01    0.1941594    0.1489358 -55.40  0.001017101    1.480    0.325
       361  -8.4447    187.5130    149.4739   7.6568876264e+01   1.5819577324e+01    0.1372035    0.1191404   5.13 0.0002108285    1.057    0.054
       362  -9.5160      5.1911    147.2318   1.2273945712e+02   4.3098229420e+01    0.1981759     0.163064  71.95 0.0005671105    1.039    0.037
       363 -10.4158     40.4860    146.4936   1.1288993251e+02   4.0200647972e+01    0.2749817    0.2359016   4.49  0.000936552    1.495    0.331
