#   1 NUMBER                 Running object number                                     
#   2 MAG_AUTO               Kron-like elliptical aperture magnitude                    [mag]
#   3 X_IMAGE                Object position along x                                    [pixel]
#   4 Y_IMAGE                Object position along y                                    [pixel]
#   5 X_WORLD                Barycenter position along world x axis                     [deg]
#   6 Y_WORLD                Barycenter position along world y axis                     [deg]
#   7 A_WORLD                Profile RMS along major axis (world units)                 [deg]
#   8 B_WORLD                Profile RMS along minor axis (world units)                 [deg]
#   9 THETA_WORLD            Position angle (CCW/world-x)                               [deg]
#  10 FWHM_WORLD             FWHM assuming a gaussian core                              [deg]
#  11 ELONGATION             A_IMAGE/B_IMAGE                                           
#  12 ELLIPTICITY            1 - B_IMAGE/A_IMAGE                                       
         1 -14.4073    162.1078     54.4629   7.5152301759e+01   3.7615252482e+01     1.785018     1.471299  19.92   0.00551448    1.342    0.255
         2 -14.4366    175.2610     39.1983   6.8018295021e+01   3.6511008393e+01     1.154426    0.9516571  43.40  0.003520959    1.192    0.161
         3 -14.5730    193.1392      7.9153   5.6336334611e+01   3.5614254913e+01     1.208138    0.9961115  50.18  0.004449013    1.214    0.176
         4 -13.0824    220.4851      2.6121   5.1829009586e+01   2.9321715250e+01     1.892131    0.3048965  71.31  0.004830287    6.291    0.841
         5 -10.8915      9.5891    210.8835   1.3874240797e+02   3.0478655124e+01    0.1541024   0.07599302  82.96  0.001005537    1.645    0.392
         6 -12.4782    248.8101    247.2377   1.0153886123e+02  -1.1630608695e+01    0.4898414    0.2537323 -23.11  0.002865188    2.234    0.552
         7 -18.1539     68.0784    239.9421   1.3147464468e+02   1.8568492868e+01     7.567741     5.488298 -87.70   0.05658165    1.271    0.213
         8 -10.5060    162.7004    202.1645   1.0979032005e+02   9.7317536859e+00    0.3480057    0.2027001  65.12 0.0008637664    2.267    0.559
         9 -11.9980    157.2310    199.4250   1.1041840968e+02   1.1247651304e+01    0.2964352    0.2424949  53.11 0.0007710326    1.075    0.069
        10 -11.5596    153.4993    201.8532   1.1153950042e+02   1.1520205232e+01    0.2738323    0.2190437 -79.19  0.001502012    1.468    0.319
        11 -10.1791    172.8250    189.0028   1.0554825572e+02   1.0071622833e+01    0.2146557    0.1591812 -82.01  0.001074084    1.914    0.478
        12 -10.1801    175.9225    186.2687   1.0443597166e+02   9.9393094230e+00    0.2240269    0.1925484 -70.96 0.0005901469    1.374    0.272
        13 -19.1666     45.0076     98.6424   1.1862076025e+02   5.0178051492e+01     15.97385     1.085712 -59.82   0.03043992   12.600    0.921
        14  -9.6869    165.3195    184.6510   1.0628008649e+02   1.2340604869e+01    0.1428509    0.1066209  80.51 0.0007048507    1.737    0.424
        15 -11.9253     33.7760    184.2704   1.3264993089e+02   3.3146397087e+01    0.1819345    0.1486132 -88.83 0.0005900925    1.145    0.126
        16 -10.9158    169.2278    182.0332   1.0501122067e+02   1.2039628897e+01    0.2567784    0.1856148  46.51 0.0009114547    1.251    0.201
        17 -11.1875    201.5063    169.0083   9.5990733517e+01   7.7275691113e+00    0.5630677    0.3019744 -58.45  0.002123974    3.126    0.680
        18 -12.0363    204.3945    165.2457   9.4645665851e+01   7.7736466026e+00     1.312397    0.3653531 -41.91  0.004169699    3.809    0.737
        19  -9.5646    199.1681    178.3952   9.8334986027e+01   6.6043318523e+00    0.1932171    0.1257852  54.07 0.0003852695    1.588    0.370
        20 -11.1112    167.7942    176.0353   1.0418867652e+02   1.3435449085e+01    0.3376916    0.2342041 -73.66  0.001078083    2.047    0.511
        21 -12.2392    194.0613    166.9749   9.7049859134e+01   9.6421234353e+00    0.3992073    0.3441921 -55.71 0.0007965863    1.321    0.243
        22 -11.2895    190.1975    160.8742   9.6561672439e+01   1.1558691568e+01    0.3572536    0.3212662  63.58 0.0009689765    1.178    0.151
        23 -11.7628    189.7098    155.4687   9.5512919666e+01   1.2654606816e+01    0.5061989     0.462646  43.76  0.001767785    1.040    0.039
        24 -11.9123    230.2047    166.7907   9.0077806791e+01   2.2141519330e+00    0.3893317    0.2001839 -44.51  0.001698359    2.214    0.548
        25 -10.4038     26.1158    165.3021   1.3235176469e+02   3.7779870638e+01    0.3103397    0.1271926  28.76  0.001560764    3.394    0.705
        26 -10.6051    119.9724    163.5979   1.1213741540e+02   2.5201401644e+01    0.2228617    0.1810349 -85.00 0.0006148373    1.267    0.211
        27 -10.4885    140.2355    163.0965   1.0759514446e+02   2.1487835917e+01    0.1976521    0.1953358  21.73 0.0003657353    1.145    0.126
        28 -11.8361    113.9656    161.1427   1.1303794075e+02   2.6789930474e+01    0.3816506    0.2716228  89.83  0.001439858    1.650    0.394
        29 -10.5610    131.8774    159.1628   1.0869456007e+02   2.3915875108e+01    0.2189826    0.1861966  79.88 0.0005885198    1.199    0.166
        30 -12.6422    134.0002    146.0560   1.0564053879e+02   2.6254290124e+01     1.389144    0.3411097 -54.99  0.003326927    6.334    0.842
        31 -11.4203    166.1120    154.0930   1.0017158949e+02   1.7996651396e+01    0.4305424     0.278229  76.39  0.001617327    2.481    0.597
        32 -11.5261    151.2711    150.3021   1.0262093811e+02   2.1877133347e+01    0.5223724    0.3150209 -85.34  0.001738069    3.825    0.739
        33 -12.3579    144.3904    146.1245   1.0328827529e+02   2.4154289446e+01    0.5290051    0.3817177  82.26  0.002437222    1.845    0.458
        34 -12.4425    193.7023    195.6432   1.0264941490e+02   4.8358751639e+00     1.216564      0.68628 -68.08  0.004176131    4.798    0.792
        35 -10.8882    174.3131    148.6811   9.7256621270e+01   1.7288539950e+01    0.3414443    0.2721639 -79.22  0.001260698    1.586    0.370
        36 -12.4901    102.8006    137.3758   1.1124187903e+02   3.3855054779e+01    0.2822154    0.2576928 -75.37 0.0003453684    1.024    0.024
        37 -12.3271    106.0626    130.8087   1.0913139913e+02   3.4734156237e+01    0.4286487    0.3456415 -70.73  0.001214945    1.244    0.196
        38 -11.5192    106.8529    124.5855   1.0762264510e+02   3.5954928989e+01    0.2648095    0.2481578  -8.16 0.0006145391    1.240    0.194
        39 -12.2426    204.4381    199.8975   1.0137457419e+02   2.0890278582e+00    0.4289507    0.2376853  35.91  0.002074988    1.686    0.407
        40 -12.5566    135.1810    124.5891   1.0067550665e+02   3.0562056811e+01     1.257815    0.2612764 -50.31  0.003012624    5.778    0.827
        41 -11.4053    160.8820    127.9956   9.5500457015e+01   2.4358703234e+01    0.4595076    0.3521728 -77.42  0.002137132    1.672    0.402
        42 -11.6815    118.3806    128.7914   1.0568877467e+02   3.2953534173e+01    0.3189757    0.2500596 -29.41   0.00069723    1.529    0.346
        43 -11.5953    122.2701    122.7738   1.0339411246e+02   3.3511772007e+01    0.3986824    0.2757923 -13.12  0.001683914    2.438    0.590
        44 -10.6379    113.1916    118.3018   1.0463331263e+02   3.6180220907e+01    0.2547368    0.2318992  85.87  0.000450651    1.142    0.124
        45 -11.2483    168.3762    113.2931   9.0223932409e+01   2.5591206164e+01    0.4153409     0.312347 -86.20 0.0009708568    1.834    0.455
        46 -11.2019    134.6720    105.9841   9.6253647328e+01   3.4550596393e+01    0.5920423    0.1408784 -45.47  0.001626289    4.194    0.762
        47 -10.7489    205.3268    110.1659   8.1784966868e+01   1.7437178688e+01    0.3634072    0.2369549  41.33  0.001069936    1.587    0.370
        48 -11.5197    117.2785    109.3839   1.0148268849e+02   3.7322099822e+01    0.3028341    0.2149722  66.48   0.00142383    1.762    0.433
        49 -10.9595    130.0650    109.6316   9.8319085858e+01   3.4748939391e+01    0.2864371    0.2131284 -36.23 0.0007543294    1.405    0.288
        50  -9.5083    124.6048     92.1883   9.5144963248e+01   3.9427441032e+01    0.1971063    0.1371793 -33.16 0.0002926165    1.504    0.335
        51  -9.3126     74.0036     86.2263   1.0754210354e+02   4.9331171595e+01    0.1562646    0.1100028  34.03 0.0005355578    1.586    0.369
        52 -10.2824    149.0095     80.9524   8.5934399575e+01   3.6278600822e+01    0.2304213    0.2267034  -1.07 0.0007122859    1.015    0.015
        53 -10.6820     85.9909     77.6991   1.0176880607e+02   4.9284383544e+01    0.2388099    0.1723363 -32.28  0.001287675    1.358    0.264
        54  -9.9608    107.5443     74.4930   9.4686114335e+01   4.6202136252e+01    0.1403813    0.1321338 -20.91 0.0002568699    1.009    0.009
        55 -12.5571    152.9314    193.0639   1.1023194711e+02   1.3210262729e+01    0.3694615     0.295992  88.52  0.001670482    1.449    0.310
        56 -11.7364    167.4514    231.6937   1.1335960102e+02   4.0910405196e+00    0.3095936    0.2502194  -6.42 0.0009721016    1.746    0.427
        57 -13.5178    179.4840     32.0923   6.5193807509e+01   3.6360130159e+01    0.8411955    0.4321283  51.55  0.001291775    1.793    0.442
        58 -10.3877     13.4598     59.6342   1.2001066201e+02   6.0682506708e+01    0.1875601    0.1408314 -52.33 0.0004011895    1.048    0.046
        59  -9.9035    120.8010     24.7942   7.4750787936e+01   5.1305711194e+01    0.1700811    0.1590694  86.19 0.0003728234    1.324    0.244
        60  -9.2109    102.6925     23.2743   7.8861509038e+01   5.5229617830e+01    0.1161571    0.1053569 -74.68 0.0001928595    1.547    0.354
        61  99.0000     10.7687    206.4134   1.3828300060e+02   3.1187865000e+01    0.3024078    0.2123042  30.62  0.002265822    2.132    0.531
        62  -9.7617    228.2239    231.9964   1.0258019250e+02  -6.6046633202e+00    0.1387793    0.0979466 -27.75 0.0004649246    1.626    0.385
