#   1 NUMBER                 Running object number                                     
#   2 MAG_AUTO               Kron-like elliptical aperture magnitude                    [mag]
#   3 X_IMAGE                Object position along x                                    [pixel]
#   4 Y_IMAGE                Object position along y                                    [pixel]
#   5 X_WORLD                Barycenter position along world x axis                     [deg]
#   6 Y_WORLD                Barycenter position along world y axis                     [deg]
#   7 A_WORLD                Profile RMS along major axis (world units)                 [deg]
#   8 B_WORLD                Profile RMS along minor axis (world units)                 [deg]
#   9 THETA_WORLD            Position angle (CCW/world-x)                               [deg]
#  10 FWHM_WORLD             FWHM assuming a gaussian core                              [deg]
#  11 ELONGATION             A_IMAGE/B_IMAGE                                           
#  12 ELLIPTICITY            1 - B_IMAGE/A_IMAGE                                       
         1 -11.5369     96.9222     35.3158   5.1225892839e+01   5.5923689428e+01    0.4607735    0.4145244  19.50 0.0006950258    1.136    0.120
         2 -12.1345     51.7742     37.3179   6.8316748676e+01   6.4412141243e+01    0.7362084    0.5716943  48.87 0.0006610537    1.508    0.337
         3 -10.8390     35.5363     17.5002   6.6857175175e+01   7.0117028325e+01    0.6063128    0.3916493   3.25 0.0008101189    1.817    0.450
         4  -8.3813     31.0891     12.5708   6.6623973269e+01   7.1485472332e+01    0.5194345    0.2782372  14.00  0.002460329    2.584    0.613
         5 -10.8364     50.5575     22.1209   6.1940159604e+01   6.7065686914e+01    0.3253564    0.2280101 -21.12  0.001043154    1.431    0.301
         6 -12.2487    107.9309     29.0268   4.5870707901e+01   5.4251191293e+01    0.5170266    0.3945943 -28.79  0.002813508    1.392    0.282
         7  -9.9111     20.2668     18.6054   7.5988576803e+01   7.1898716450e+01    0.4660957    0.2451544 -31.53   0.00249379    1.825    0.452
         8 -10.3249    205.3176     23.0451   2.9071723368e+01   3.1398522878e+01    0.5433401    0.3262486 -28.73  0.002281641    1.769    0.435
         9 -12.4632    105.1055     21.0965   4.3458763577e+01   5.5893722857e+01    0.3634391    0.3407982 -42.88 0.0005112722    1.149    0.130
        10 -10.2214    131.3994     22.2044   3.8429527169e+01   4.9394836179e+01    0.4291142    0.2607829 -19.38  0.001894562    1.956    0.489
        11 -11.2615     86.2159     22.3572   4.8994780004e+01   6.0044133670e+01    0.3773614    0.2890276 -89.22 0.0003971935    1.785    0.440
        12 -10.9468    151.5156     18.0537   3.3843168564e+01   4.4865331604e+01    0.5411991    0.3578551 -20.28 0.0003402313    1.777    0.437
        13 -10.4497     69.6129     11.6985   4.9354012532e+01   6.4830045355e+01    0.3190736    0.2093316  47.58  0.001010291    1.386    0.279
        14 -10.9871     68.5060     16.9831   5.2287255768e+01   6.4430868609e+01    0.6092067    0.2917596  57.04  0.002747769    2.266    0.559
        15 -11.6614     61.7724     17.4778   5.5012569633e+01   6.5686047430e+01    0.5476442    0.3758159  15.50  0.001665122    1.625    0.384
        16 -11.2672    218.2677     18.5634   2.6883157482e+01   2.9044087183e+01    0.5431663    0.2725522 -62.01  0.002737295    1.897    0.473
        17 -11.2035    165.1432     19.2125   3.2379390724e+01   4.1369991017e+01    0.5426425    0.3571005  30.50  0.001808316    2.164    0.538
        18  -9.3289    199.4796     18.7649   2.8547388150e+01   3.3225321029e+01    0.2842269    0.1247867 -27.73  0.001224734    2.434    0.589
        19  -9.3975    185.4038      2.3681   2.5583056373e+01   3.8226524708e+01    0.3501631    0.2148981 -17.20  0.001864374    2.066    0.516
        20 -11.0462    182.2491     18.5203   3.0199752054e+01   3.7296678558e+01    0.2896534    0.2726161  68.06 0.0007917318    1.209    0.173
        21  -9.7227    184.7243     13.1744   2.8506528823e+01   3.7291729771e+01    0.3107734    0.2455665 -81.93  0.001090171    1.118    0.106
        22 -11.0037    175.2895     12.8453   2.9381048247e+01   3.9586741105e+01    0.7332284    0.3780779  76.77  0.003540546    1.824    0.452
        23 -11.8494    177.9549      3.2517   2.6474137685e+01   3.9908651281e+01    0.4074022    0.3253437  77.74  0.002543704    1.167    0.143
        24 -10.1328    144.1819     16.6278   3.4453119061e+01   4.6841092654e+01    0.5122669    0.2169367 -27.56  0.002162965    2.513    0.602
        25 -10.4004    145.0941     12.8110   3.3081767566e+01   4.7012802732e+01     0.536184    0.2238591  59.91  0.001940545    2.103    0.524
        26  -9.6726    225.6919     15.7837   2.5681270472e+01   2.7765466547e+01    0.2776909    0.1756994 -31.19  0.001073626    1.615    0.381
        27 -10.5306    230.5047     14.6858   2.5094706297e+01   2.6877152492e+01    0.3459018    0.2219881 -83.09   0.00130602    1.457    0.314
        28  -9.9272      1.3632      8.4941   8.3476354030e+01   7.5388986599e+01    0.2137883    0.1180639 -46.96 -2.029185e-05    1.582    0.368
        29 -10.3075      7.2666     10.2051   8.0150107256e+01   7.4612626046e+01     0.315882    0.2408675  -1.04 0.0007925668    1.198    0.165
        30  -9.7015     18.3184     11.6279   7.3608303737e+01   7.3258725921e+01    0.3589278    0.2117469 -50.87   0.00202778    2.015    0.504
        31 -10.2424     14.0190     11.2641   7.6162860262e+01   7.3785828531e+01    0.2684829    0.1765635 -11.59 0.0006369568    1.491    0.329
        32 -10.2856      5.6227     15.8644   8.4019654582e+01   7.3769099390e+01    0.2574973    0.2344892  60.46  0.001172299    1.627    0.385
        33 -10.4767      9.3193     14.9683   8.1129282153e+01   7.3616870568e+01    0.3191063    0.2022132  -5.80  0.001277025    1.616    0.381
        34  -9.8710    117.4485     14.9750   3.8440981970e+01   5.3611251634e+01    0.2744401    0.2398955  28.72  0.000833475    1.232    0.189
        35 -10.2570    210.4306     14.2362   2.6490254058e+01   3.1254605770e+01    0.3037156    0.2163377 -28.49 0.0008401995    1.542    0.351
        36 -10.9158    207.3797      3.1252   2.4069607788e+01   3.3107034716e+01    0.4867069    0.2664745 -63.44  0.001385477    1.641    0.391
        37  -8.0040     87.9074     13.8644   4.4808373417e+01   6.0661523536e+01    0.6183789    0.1588628  56.72  0.001969876    3.281    0.695
        38  -9.9684     97.8325      5.8355   3.8893107731e+01   5.9188312725e+01    0.3956136    0.2512894 -18.47  0.002049489    1.763    0.433
        39 -10.2164    101.3302     11.3763   4.0413461946e+01   5.7837705833e+01     0.424686    0.2533963 -51.50  0.001857168    2.067    0.516
        40  -9.8451     96.9756     12.8844   4.2058149556e+01   5.8699559049e+01    0.2457025     0.203372  48.87 0.0004329993    1.097    0.088
        41 -10.6251     91.4330      8.7946   4.1668256709e+01   6.0387120872e+01    0.5238144    0.1939247  48.01  0.002166056    2.394    0.582
        42  -9.0755     87.7421      6.4077   4.1542218897e+01   6.1454852257e+01    0.1866735    0.1775945 -35.92 0.0006931975    1.182    0.154
        43  -9.7999    243.9678     13.7983   2.4020051311e+01   2.4239170708e+01    0.3029674    0.1648558  48.91  0.001266021    2.797    0.642
        44 -10.2042    212.3147      9.3235   2.5178868689e+01   3.1369368372e+01    0.3474537    0.1769242 -56.05  0.001819039    1.723    0.420
        45 -11.1584    133.0841     12.5933   3.4819738783e+01   5.0013828254e+01    0.2420111    0.2313813  81.93  0.000248918    1.067    0.063
        46  -9.8156    218.3920     11.4448   2.5225453319e+01   2.9810932496e+01    0.2476723     0.190678 -79.96  0.000606227    1.139    0.122
        47 -11.1150    199.8423      8.9459   2.6060671886e+01   3.4213242628e+01     1.221961    0.1593756  62.33  0.003794361    5.250    0.810
        48  -9.3609    191.6620      7.3398   2.6340608300e+01   3.6268084162e+01    0.3208546    0.1961308 -71.52  0.001069909    1.539    0.350
        49 -10.8396    195.1205      3.6732   2.5123316105e+01   3.5834791635e+01    0.7162442    0.2649717  61.64  0.003178516    2.608    0.617
        50  -8.9158     75.8150     12.1236   4.7544298975e+01   6.3489005639e+01    0.1729715    0.1676663  27.59 0.0003120626    1.114    0.102
        51  -8.9889     50.2247      3.3832   5.2253227050e+01   6.9517654882e+01    0.3635423   0.09785168 -34.22  0.001400483    3.738    0.732
        52  -8.9956     49.4004      8.1897   5.5257133724e+01   6.9123150472e+01    0.2164412    0.1817316 -65.80 0.0006879396    1.816    0.449
        53  -9.7091     51.2299     11.6567   5.6330919344e+01   6.8373615992e+01     0.565039    0.1830416  43.11  0.002301443    2.856    0.650
        54 -10.0974     52.9430      8.5634   5.3966511939e+01   6.8436485880e+01    0.5034259     0.240123  50.27  0.001794636    2.050    0.512
        55  -9.0206     23.1463     11.8249   7.0761861810e+01   7.2652149238e+01    0.2317226    0.1438551  11.88    0.0010796    1.716    0.417
        56  -8.1864     79.0000     10.9422   4.6020481566e+01   6.2934647898e+01     0.196436    0.0732654 -26.09 0.0007918983    2.870    0.652
        57  -9.2343     43.4246     10.9555   5.9459882936e+01   6.9810322189e+01    0.2755924    0.1479653  31.88 0.0008035889    1.851    0.460
        58  -9.4930    165.7985      9.2172   2.9378745651e+01   4.2265537238e+01    0.3124213    0.1954756 -49.32  0.001417403    1.546    0.353
        59  -9.9787    170.6109      6.2418   2.8013392865e+01   4.1387815498e+01    0.4738384    0.2386148  66.71  0.001231376    1.797    0.443
        60  -9.3745    120.0424     10.0262   3.6113787474e+01   5.3476624610e+01     0.199935    0.1775171  71.73 0.0003348347    1.030    0.029
        61  -9.7006    230.6711      7.4913   2.3506263215e+01   2.7628538200e+01    0.3730515    0.2031487 -13.52  0.001794721    3.072    0.674
        62 -10.2483    238.5569      3.1367   2.2105955633e+01   2.6472612991e+01    0.3159137    0.2258277 -80.72   0.00130621    1.232    0.189
        63 -10.0384    233.9668      2.6927   2.2272411101e+01   2.7452470055e+01    0.3582707    0.1441042 -55.62  0.001805515    2.067    0.516
        64 -11.7954    156.0238      3.5066   2.8776541986e+01   4.5208198268e+01    0.3817521    0.2153107  57.38 -7.86369e-06    1.700    0.412
        65 -11.9419    159.9296      1.7270   2.7815318605e+01   4.4412221909e+01    0.5213295    0.4164278 -69.82  0.001644132    1.161    0.139
        66  -8.7583    129.1261      7.8548   3.3800417904e+01   5.1452189832e+01    0.1837254     0.143753  47.42 0.0008482274    1.286    0.223
        67 -10.9525    115.6371      2.0186   3.3886199437e+01   5.5272832820e+01    0.3517866    0.1871495  53.90 0.0003463481    1.664    0.399
        68  -9.5384    120.0906      1.8720   3.3090286621e+01   5.4201218648e+01    0.2351246    0.1976953  68.57 0.0005168578    1.053    0.051
        69 -10.4132    107.5215      7.0346   3.7339256503e+01   5.6787489103e+01    0.4515388    0.1980378  57.87  0.001439485    1.930    0.482
        70 -10.0146    107.0441      2.2098   3.5509260542e+01   5.7327488352e+01    0.5191118    0.2470904  34.30  0.002236522    2.609    0.617
        71  -8.1307     69.9159      1.5751   4.4232110836e+01   6.5797591211e+01    0.2518854    0.1181647  45.05 0.0007090235    1.866    0.464
        72 -11.5425     79.4417      4.3371   4.2795846977e+01   6.3496213965e+01    0.2803249    0.2385896  24.59 0.0004248144    1.132    0.117
        73 -10.7434     73.5352      5.5342   4.5087700776e+01   6.4657570948e+01    0.3160005     0.220636 -37.62 9.389054e-05    1.624    0.384
        74 -10.9552     74.9552      2.4782   4.3175811779e+01   6.4641992035e+01    0.2849784    0.2219036  53.73 0.0007917237    1.176    0.150
        75 -10.4598     24.8809      7.1555   6.7110331742e+01   7.3115445995e+01    0.2017124    0.1842997  29.33 0.0004172352    1.382    0.277
        76  -9.8686     21.5095      5.4430   6.8135868696e+01   7.3799558325e+01    0.2064345    0.1410739  16.42 0.0008787561    1.378    0.274
        77  -8.7204    138.9254      6.7877   3.1975162050e+01   4.9129226065e+01    0.1955466     0.152988  49.29 0.0003088108    1.310    0.237
        78  -9.6830    123.5278      5.4655   3.3846386157e+01   5.3048049988e+01    0.2733252    0.2178519 -42.61  0.001194719    1.347    0.257
        79  -9.1466    126.3604      1.9684   3.2144625561e+01   5.2657845831e+01     0.279616    0.1715952   8.49  0.001130276    2.292    0.564
        80  -9.0224     63.4941      6.7322   4.8979034544e+01   6.6610397847e+01    0.3430262    0.2029874  66.45 0.0008731431    2.163    0.538
        81 -10.7919    217.8335      2.9604   2.3319687174e+01   3.0825569527e+01    0.3222091    0.2576154 -89.53  0.002178384    1.179    0.152
        82 -10.4286     30.5496      2.4857   6.1113102698e+01   7.2928971656e+01    0.2349439    0.1797204 -40.79 0.0006856692    1.612    0.380
        83  -9.6705     13.3743      2.8823   7.1853891489e+01   7.5149534335e+01    0.2709703    0.1919269 -47.98  0.001750959    1.750    0.429
        84  -8.9111     17.8870      1.9480   6.8302304756e+01   7.4747029622e+01    0.2742919    0.1764895   5.23 0.0009605748    1.584    0.369
        85 -10.9893    249.8756      1.5998   2.1188621587e+01   2.4396658638e+01    0.1834409    0.1288747 -74.55 0.0003596312    1.204    0.169
        86 -10.7575     91.7446      2.5000   3.8838697367e+01   6.0895308004e+01    0.3052012    0.2114564 -81.08  0.001014455    1.893    0.472
        87 -10.3026    135.3106      1.6178   3.0739228574e+01   5.0483941315e+01    0.2911906    0.1593142  77.68  0.001118535    1.706    0.414
        88 -11.5395     37.7798      4.7387   5.8690384361e+01   7.1520125484e+01    0.2757182    0.2582515  20.36 0.0006720156    1.264    0.209
        89  -8.6770     43.4216      1.4665   5.4098339397e+01   7.0946276753e+01    0.2065674    0.1144918  59.70  0.001022224    2.492    0.599
        90  -9.1745      4.8312      1.4417   7.7062910180e+01   7.6247093674e+01    0.2375028    0.1011507  21.13  0.001099307    2.445    0.591
        91  -9.7429     46.6053    113.9007   9.2547344893e+01   4.7907916423e+01    0.2619183    0.2515694 -41.34 0.0005961604    1.129    0.115
        92  -9.9811    201.3745    249.4952   7.7210090350e+01  -3.4975796032e+00    0.2250146    0.1662459   9.15  0.000736828    1.117    0.105
        93  -8.8390    128.8397    110.3670   6.6463974597e+01   3.4597088133e+01    0.2126467    0.1449401  35.39 0.0004768508    1.620    0.383
        94 -10.9369     43.6322     99.2040   9.0702263445e+01   5.1952973702e+01     0.485397    0.3244973  39.56   0.00144602    1.606    0.377
        95 -11.0621     30.6745    107.0333   9.6867225636e+01   5.1363204513e+01    0.5907159    0.2997392 -41.39  0.002609533    2.205    0.547
        96  -9.7496     34.4403    102.4772   9.4706381852e+01   5.2137672497e+01    0.4264804    0.1752388 -38.21  0.001520012    3.372    0.703
        97  -9.8274     37.1953    106.4354   9.4445230357e+01   5.0855745736e+01    0.2917705    0.1422323 -51.97 0.0008642341    1.873    0.466
        98  -9.0703     91.9863    106.3055   7.5901880147e+01   4.2884708163e+01    0.2026132    0.1961845  39.92 0.0003074114    1.076    0.071
        99  -8.6993      8.7764    105.8098   1.0444137846e+02   5.3430269555e+01    0.2328262   0.09341459 -42.02 0.0009567584    2.828    0.646
       100  -9.8958     46.6914    105.0302   9.0800419396e+01   5.0135547904e+01     0.414005    0.2901554 -16.04  0.001829954    1.921    0.479
       101  -9.4814    132.1607    103.9686   6.3935945226e+01   3.5270471450e+01    0.2603358     0.218212  53.90 0.0006139259    1.216    0.178
       102 -10.7994     71.3104    102.3496   8.1629406697e+01   4.7370644809e+01    0.5925491    0.3507613  50.45  0.002587796    1.910    0.476
       103  -9.5806     80.7183    101.3595   7.8242890106e+01   4.6060468095e+01    0.3505544     0.232269 -77.36  0.001499965    1.998    0.499
       104 -10.4708     77.4895    101.5304   7.9353012493e+01   4.6565383635e+01    0.3763582     0.273283 -50.72  0.001385126    1.317    0.241
       105  -9.7652    100.6586    102.9603   7.2388209676e+01   4.2029002142e+01    0.3932813    0.2228028  40.02  0.001408343    1.824    0.452
       106  -9.3587    100.4824     99.0195   7.1386242760e+01   4.2966648379e+01    0.3142791     0.258121 -56.28 0.0009123409    1.206    0.171
       107 -10.3182     56.7540    100.7932   8.6314414577e+01   4.9897615824e+01     0.428151    0.2417036 -50.03  0.001933361    1.660    0.398
       108  -8.2568    127.2887    101.7224   6.4585804941e+01   3.6808727116e+01    0.1506119    0.1208701 -88.45 0.0001740349    1.519    0.341
       109  -9.3595    106.0117     99.9450   6.9992394061e+01   4.1657776085e+01    0.2403171    0.1910409  -5.15 0.0005270408    1.678    0.404
       110  -8.8743     95.1253    100.0860   7.3311087451e+01   4.3755806540e+01    0.2212459    0.1993773 -24.37 0.0003396307    1.207    0.171
       111 -11.6072    117.6713     97.9854   6.6140780907e+01   3.9679654982e+01    0.2767214    0.2673695  41.04 0.0003211274    1.069    0.064
       112  -8.7949     16.5633     99.2001   1.0070935221e+02   5.4536415110e+01    0.1970467   0.09892172 -58.75 0.0009445691    1.663    0.399
       113  -9.4985      3.0940     79.7360   1.0292169452e+02   6.0165476329e+01    0.4015436    0.1561639 -60.63  0.001593192    1.957    0.489
       114  -9.3174      5.7882     98.0397   1.0451283028e+02   5.5547070376e+01    0.4520797    0.2627976  19.94  0.002436949    2.009    0.502
       115 -10.2557      2.3618     92.3439   1.0503766760e+02   5.7142671764e+01    0.3583596    0.2124483  54.31 0.0002522102    1.944    0.486
       116 -10.0935      2.1031     87.0932   1.0441959091e+02   5.8438279091e+01    0.4399297    0.1467214 -62.41  0.001698997    2.215    0.549
       117 -10.3378    140.2669     94.6785   5.9413588340e+01   3.5410357522e+01    0.5272222    0.2451804 -53.33   0.00186778    2.513    0.602
       118 -10.3167    125.1398     96.9169   6.3833817348e+01   3.8303726349e+01    0.3873172    0.2360354  51.38  0.001649788    1.692    0.409
       119  -8.2311    154.5458     96.4482   5.6629143431e+01   3.1823862402e+01    0.1496516    0.1456026 -55.81 0.0001393318    1.025    0.025
       120  -9.4737     86.1576     96.1105   7.5087525976e+01   4.6340738943e+01     0.224546    0.2065714 -16.58 0.0004534909    1.183    0.154
       121  -9.6680     80.7664     95.3087   7.6646805502e+01   4.7484429347e+01    0.3475056    0.2447024  55.09  0.001006789    1.605    0.377
       122 -10.0941     31.4612     93.7778   9.4148244487e+01   5.4603418284e+01      0.35875    0.2564849  88.03  0.001322045    1.573    0.364
       123  -9.2987     33.9548     90.5393   9.2526108053e+01   5.5152522971e+01    0.2899216    0.2289862   5.91 0.0008345318    1.480    0.324
       124 -10.0916     13.6979     94.3326   1.0102543408e+02   5.5953164441e+01    0.3301458    0.2320492  -1.75  0.001862837    1.758    0.431
       125  -9.7702     18.1805     90.9592   9.8744898167e+01   5.6457388677e+01    0.2923724    0.1893961   5.42 0.0006026143    1.908    0.476
       126 -10.9798     46.9064     91.7301   8.7829448589e+01   5.3401914896e+01    0.7127131    0.3922882 -83.65   0.00239915    2.848    0.649
       127 -10.7726     51.3387     82.8239   8.3917349307e+01   5.4970895000e+01     0.471258    0.3486545  -9.17  0.001468222    1.692    0.409
       128 -11.1114     45.2165     68.7371   8.2450465842e+01   5.9012911797e+01    0.3584701    0.2320012 -50.96 0.0002257914    1.407    0.289
       129 -12.9512     53.0560     75.2543   8.1150473284e+01   5.6492419766e+01    0.4334369    0.3145686 -36.73 0.0005283152    1.373    0.272
       130 -11.3658     51.0012     68.1938   7.9877304609e+01   5.8362743631e+01    0.6417558    0.5373062 -86.70  0.003582875    1.486    0.327
       131 -10.7961     53.9003     60.8647   7.6316665158e+01   5.9529456204e+01    0.5805619    0.3965354  77.35 0.0007074411    2.759    0.638
       132 -11.8824     56.2836     56.7567   7.3910506263e+01   6.0019364887e+01    0.4424824    0.3378785  70.32 0.0002691407    1.921    0.479
       133 -10.8713     26.6582     86.7011   9.4598609821e+01   5.6794512196e+01    0.7894998    0.3520292 -42.78  0.003389093    2.291    0.564
       134  -9.6204    133.9538     92.0320   6.0212595521e+01   3.7370752166e+01    0.4843855    0.2336311  33.60   0.00159752    3.166    0.684
       135  -9.3041     71.4624     91.0471   7.8683901055e+01   5.0051058463e+01    0.2272317    0.1392773 -55.43  0.000622544    1.572    0.364
       136  -8.6945    104.4223     90.4652   6.7809938963e+01   4.4087202042e+01    0.1505955    0.1456363 -65.29 8.184878e-05    1.022    0.022
       137  -9.9606     97.8056     88.8369   6.9346417817e+01   4.5779079339e+01    0.2853288    0.2470461 -79.90 0.0002630309    1.291    0.225
       138 -10.5736     64.5398     73.3011   7.6095590476e+01   5.5214339233e+01    0.7667198    0.5313323 -58.40  0.003763731    1.495    0.331
       139 -10.0097     91.9360     81.8669   6.9130356979e+01   4.8457381025e+01    0.7909933    0.3866384 -28.40   0.00243862    3.805    0.737
       140 -10.5480     87.6679     67.5729   6.5971218735e+01   5.2280373535e+01    0.6047286    0.3147234  41.01  0.001069056    1.967    0.492
       141  -9.1095     86.9930     83.7129   7.1297227609e+01   4.9000909727e+01     0.228658     0.189651 -48.09 0.0003875895    1.174    0.148
       142 -11.2445     80.8638     83.2460   7.3218781651e+01   5.0231723940e+01    0.4472582    0.3555882   1.34 0.0004237698    1.578    0.366
       143 -11.6487     72.1565     79.6892   7.5217279525e+01   5.2544763530e+01    0.6056266    0.5900438 -11.05  0.003528127    1.043    0.041
       144 -10.8337     88.6427     73.6398   6.7637057067e+01   5.0847730187e+01    0.7679095    0.5151696 -14.65  0.003242907    2.255    0.557
       145 -10.2657     94.2738     71.2977   6.5054679226e+01   5.0205173259e+01    0.5485813    0.3290488 -53.34  0.001592177    1.810    0.448
       146  -9.4491     39.6913     88.6812   8.9890993957e+01   5.4993038721e+01    0.3797289    0.1760957 -49.29  0.001640231    1.956    0.489
       147 -10.2424     58.6854     88.0542   8.2502276074e+01   5.2715738829e+01    0.3968969     0.260391  71.49  0.001721092    2.323    0.570
       148 -10.9848    123.8051     86.8644   6.1323264669e+01   4.0698365931e+01    0.4272046    0.3712737  42.83 0.0008610155    1.183    0.154
       149  -9.8381    120.6997     83.6381   6.1195858901e+01   4.2046586999e+01    0.3186193     0.208475  24.19 0.0009367686    2.212    0.548
       150  -9.6273    117.4748     83.4686   6.2018272889e+01   4.2793717713e+01    0.2526494    0.2167352 -81.42 0.0004791813    1.313    0.239
       151 -11.2615    155.1619     85.1059   5.3393580777e+01   3.3858566810e+01     0.288598    0.2717019 -33.46 0.0002715697    1.106    0.096
       152 -11.2356    155.1380     79.2792   5.1760343423e+01   3.4940042173e+01    0.7233521    0.3360534  47.74 0.0004543983    2.251    0.556
       153 -11.0349    145.7436     74.3719   5.2342539752e+01   3.8050694713e+01    0.4430461    0.3584569  42.56 0.0002548763    1.320    0.243
       154  -9.2464    146.0302     70.4818   5.1126194867e+01   3.8679296307e+01    0.2417008    0.2199058 -55.76 0.0005514699    1.076    0.071
       155  -9.9234    110.7959     85.3425   6.4447302964e+01   4.3852473971e+01    0.3212658    0.2634586  48.60 0.0009569479    1.233    0.189
       156 -10.3183     65.6933     85.6539   7.9276082260e+01   5.2230900058e+01    0.3049411    0.2241882 -24.65  0.001158758    1.614    0.380
       157  -9.6393    142.9613     84.3111   5.5860556175e+01   3.6844397944e+01    0.2474074    0.2036752 -57.65 0.0005117428    1.232    0.189
       158  -8.7335     99.5516     83.7496   6.7305050060e+01   4.6534696257e+01    0.2078887    0.1434644 -56.99 0.0007015392    1.546    0.353
       159  -9.9558     20.3022     81.9342   9.6208314989e+01   5.8495057758e+01    0.3349828    0.2488142  48.85  0.001408321    1.556    0.357
       160  -9.4363      6.7702     88.9736   1.0286892872e+02   5.7719817819e+01     0.178362    0.1703884  81.58 0.0004374952    1.160    0.138
       161 -10.5405     38.6784     81.4185   8.8578667994e+01   5.6856226509e+01    0.2974293    0.2773671  16.99 0.0009068099    1.174    0.148
       162  -8.9562     44.9169     80.6007   8.5864939432e+01   5.6317935013e+01    0.3411472    0.2898835  31.13  0.001669208    1.275    0.216
       163 -10.7745    165.9734     70.0014   4.7013854675e+01   3.4001045494e+01    0.5094956    0.2971554 -29.08  0.002195376    1.924    0.480
       164 -11.1573    167.3760     78.0267   4.8985945381e+01   3.2287531751e+01    0.3138161    0.2759618 -84.74 0.0003870953    1.166    0.143
       165 -10.1271    169.8096     73.6108   4.7317472138e+01   3.2480324145e+01    0.3515388    0.2568209 -30.37  0.001352409    1.453    0.312
       166  -8.5431     12.8396     78.0871   9.8565080543e+01   5.9974804089e+01    0.1800618    0.1205752 -50.63 0.0003527674    1.296    0.229
       167 -10.1113    111.0955     76.4124   6.1637021627e+01   4.5620062868e+01    0.3478714    0.3158463 -41.28   0.00107193    1.101    0.091
       168 -10.0863    129.9979     84.9933   5.9180459519e+01   3.9685743516e+01    0.3843094     0.303253   8.15  0.001595628    1.718    0.418
       169 -10.3985     44.7195     54.2251   7.8000413100e+01   6.2209016824e+01    0.5226366    0.2563503  37.38  0.002221725    2.162    0.537
       170 -10.1806     29.1431     74.9313   9.0953842100e+01   5.9387867924e+01    0.3459231    0.2104192 -42.94 0.0008777109    1.540    0.351
       171 -10.7161     29.2819     68.5444   8.9282375600e+01   6.0861561193e+01    0.7017676    0.4663131   8.50  0.003691012    1.766    0.434
       172 -10.4792     22.3836     64.1622   9.1245561257e+01   6.2505418651e+01    0.6683017    0.1846035 -48.85  0.001984033    2.902    0.655
       173 -10.5666     35.8195     53.4846   8.1817940493e+01   6.3485118852e+01    0.6248639    0.4959515 -20.21  0.003712738    1.251    0.201
       174 -12.7298     25.0034     56.3342   8.7847385193e+01   6.4019812636e+01    0.3759874    0.3684362  76.92  0.000471915    1.211    0.174
       175  -9.4058     28.4503     52.4218   8.4979209542e+01   6.4524790286e+01    0.1881782    0.1694433  -9.07 0.0001383792    1.116    0.104
       176  -8.6101     21.5462     76.5168   9.4554693937e+01   5.9693719752e+01    0.1313324    0.1143776 -57.04 0.0002210337    1.015    0.015
       177  -9.4618     19.2231     72.9054   9.4760119703e+01   6.0738168466e+01    0.3365394    0.2295914 -57.31  0.001347957    1.247    0.198
       178  -9.7746    185.1582     75.1863   4.5092426459e+01   2.8644571779e+01    0.2003485    0.1584298 -66.39 0.0004235325    1.291    0.226
       179 -10.1736    175.0014     74.9760   4.6761263767e+01   3.1030305138e+01    0.2586096    0.2238161 -79.28 0.0003470263    1.174    0.148
       180  -9.7375    177.3010     71.7098   4.5478552392e+01   3.1041985619e+01    0.2384503    0.1878088 -67.30 0.0003447722    1.310    0.237
       181  -9.1691    100.0559     75.0785   6.4469209533e+01   4.8246126140e+01    0.2113743    0.2093634 -37.61            0    1.002    0.002
       182  -8.3817     37.7260     75.6836   8.7523930066e+01   5.8317137296e+01    0.1397943   0.09289129 -34.40  0.000267012    1.564    0.361
       183 -11.3413    157.7385     70.8410   4.8821110209e+01   3.5820471538e+01    0.4501736    0.3630415 -74.23  0.002296811    1.339    0.253
       184 -11.5536      9.4564     51.2489   9.4112686261e+01   6.6388003643e+01    0.8814487     0.699722 -65.71  0.005682848    1.228    0.185
       185 -11.6378      3.6468     60.0640   9.9074550888e+01   6.4755436368e+01    0.4060254    0.3399508  31.34 0.0001569637    1.417    0.294
       186 -10.3743    140.8855     68.8801   5.1769682699e+01   4.0189354617e+01    0.4226183    0.2454415 -49.84  0.001364659    1.798    0.444
       187  -9.0379    143.4928     65.5104   5.0172769558e+01   4.0154490398e+01    0.2543545    0.1443654 -38.57 0.0008046227    1.753    0.429
       188  -8.1096    226.3322     70.2408   3.8114918889e+01   2.0461120444e+01    0.1172229    0.1011799  24.30 0.0002311618    1.540    0.351
       189  -9.3223    218.9106     69.9515   3.8950844951e+01   2.2039626474e+01    0.1971418    0.1714571 -54.02 0.0003546571    1.010    0.010
       190  -8.5566    129.3121     70.3443   5.4923749788e+01   4.2657366535e+01    0.1531028    0.1202447  10.86 0.0007046316    1.706    0.414
       191  -9.4956    102.5330     69.6063   6.1952741873e+01   4.8817798720e+01    0.4041001    0.2862469 -11.99  0.001782905    2.002    0.500
       192  -8.8089    106.0558     66.0000   5.9723237915e+01   4.8749635993e+01    0.2950967    0.1595188  54.39  0.001022159    1.955    0.489
       193 -10.2764    173.5628     68.8864   4.5349742199e+01   3.2388134284e+01    0.2667211    0.2399978 -66.71 0.0003713231    1.052    0.050
       194  -9.6282    119.9114     67.7412   5.6477378903e+01   4.5313994610e+01     0.362741    0.2208261 -36.76 0.0008419592    1.690    0.408
       195  -9.2909     32.2123     47.5109   8.1492952859e+01   6.5143477380e+01    0.3313341    0.2481223 -54.17  0.001592887    1.322    0.244
       196  -8.2795    205.9550     65.9992   3.9667215586e+01   2.5425452641e+01    0.1611962    0.1427866 -59.50 0.0003265757    1.009    0.009
       197 -10.2052    134.6974     64.2687   5.1743903519e+01   4.2473980980e+01    0.3358724    0.3075673  21.52 0.0007430436    1.227    0.185
       198  -9.8539    132.5854     59.7991   5.0810763230e+01   4.3745218642e+01    0.3611069    0.3081464  25.97  0.001094981    1.351    0.260
       199 -10.0457    128.3160     57.5586   5.1078218605e+01   4.5141806790e+01    0.4863882    0.2036969  59.30   0.00176216    2.533    0.605
       200  -9.8730     71.7877     60.7888   6.9235091118e+01   5.6625469924e+01    0.8365084    0.4892718 -11.63  0.002919974    3.694    0.729
       201  -9.2416     74.6477     65.9489   6.9954526404e+01   5.5067039208e+01    0.2902704    0.2407947  -2.18 0.0008836379    1.369    0.270
       202  -9.9630     81.6899     62.1684   6.6156974307e+01   5.4518027995e+01    0.4509155     0.245856  28.82  0.001816721    2.377    0.579
       203 -10.1626     77.4247     61.7673   6.7519924308e+01   5.5403875664e+01     0.581194    0.2612277 -36.90  0.002237288    2.444    0.591
       204  -9.8584     15.3877     64.7349   9.4608709824e+01   6.2936688935e+01    0.3726682    0.2013292 -20.41  0.001787528    2.314    0.568
       205  -9.2730    147.0238     64.2161   4.9032734065e+01   3.9526135624e+01    0.2044298    0.1183309  57.27 0.0008776007    1.716    0.417
       206 -10.1649    124.1024     62.6236   5.3751862458e+01   4.5266480281e+01    0.2921924    0.2474237 -79.46 0.0003310837    1.321    0.243
       207 -10.0071     64.5188     62.1084   7.2462034734e+01   5.7606631735e+01    0.4937748     0.224942  34.37  0.002010026    2.363    0.577
       208  -8.3461    228.7281     62.3099   3.6018689300e+01   2.1132793564e+01    0.1344116   0.08415538 -59.02 0.0002119824    1.548    0.354
       209 -10.6703    102.7076     59.2949   5.8422712509e+01   5.0724378351e+01    0.4931546    0.3802331  -0.95  0.001023431    1.685    0.407
       210  -8.8284    176.0940     61.0822   4.2774628377e+01   3.3044731209e+01    0.2123108    0.1966539 -14.05  0.001206643    1.255    0.203
       211 -10.3497    161.1101     60.6474   4.5227806960e+01   3.6709910804e+01    0.3637183    0.2741142  26.68  0.001761991    1.767    0.434
       212 -10.9799    160.8344     54.6193   4.3512638071e+01   3.7725780676e+01    0.2972092    0.2509434 -67.11  0.000396944    1.168    0.144
       213  -9.9752    155.0975     60.4209   4.6283341132e+01   3.8202620602e+01     0.316922     0.259949  74.01 0.0007906198    1.227    0.185
       214  -9.2738    193.9425     59.9709   3.9784298292e+01   2.9042622321e+01    0.2138873    0.1797431 -61.92 0.0004463274    1.092    0.084
       215  -9.6454    143.4598     58.7809   4.8108968570e+01   4.1294019714e+01    0.3728469    0.1716992  42.92  0.001294846    2.599    0.615
       216  -9.5453    167.4996     56.4888   4.2905362773e+01   3.5820395399e+01    0.2318668    0.1434822 -21.54  0.001013653    2.046    0.511
       217  -9.1987    136.4996     56.5141   4.8881766266e+01   4.3350092386e+01    0.2476568    0.1475135 -22.28 0.0006897743    2.167    0.538
       218 -10.1906    225.8283     55.4610   3.4758805829e+01   2.2704834427e+01    0.2349434    0.1844839 -49.63 0.0002874862    1.081    0.075
       219  -9.1600    187.5111     55.9953   3.9652686613e+01   3.1129680217e+01    0.2491224    0.1817394 -87.61 -9.124845e-05    1.474    0.321
       220  -9.0957     92.5041     54.5236   5.9842508585e+01   5.3774796030e+01    0.2778594    0.2319609  19.18  0.001172774    1.311    0.237
       221  -9.4688     95.2933     52.6674   5.8297054394e+01   5.3510407698e+01    0.2200798    0.2008595  64.33 0.0005831734    1.160    0.138
       222 -10.3099     85.9610     88.9297   7.3158423341e+01   4.8025746448e+01    0.4795087     0.338433 -26.17  0.001236716    1.754    0.430
       223  -9.7872     69.4591     53.0755   6.7326544945e+01   5.8544679753e+01    0.4969661    0.3060589  -2.44  0.001932087    3.059    0.673
       224 -10.9889     68.4797     48.3603   6.5911373200e+01   5.9598473184e+01    0.3851641    0.3132843  40.16 0.0003172871    1.249    0.199
       225 -12.7436     61.8696     44.3138   6.6925655545e+01   6.1497152841e+01    0.4768417    0.2981936  38.24 0.0004495956    1.608    0.378
       226 -10.3361    193.2967     52.4437   3.7915348534e+01   3.0305761377e+01    0.2478086    0.2353761  87.79 0.0004026348    1.126    0.112
       227  -9.3155    196.1806     48.8060   3.6594880306e+01   3.0159941918e+01    0.2744547    0.2106159  72.20 0.0008406688    1.318    0.242
       228  -9.9136    145.9072     52.3348   4.5604555401e+01   4.1726464945e+01    0.2836251    0.2341292 -63.68  0.001173875    1.241    0.194
       229  -9.4434    142.8277     49.1364   4.5207052088e+01   4.2971245547e+01    0.2580714    0.1954097  84.07 0.0002646973    1.437    0.304
       230 -10.6043    181.7639     50.2300   3.8925509117e+01   3.3333609140e+01    0.4468804    0.3117508 -12.38  0.002159245    1.978    0.494
       231  -9.0859    179.9141     44.8467   3.7711789202e+01   3.4541605584e+01    0.2227535    0.1713318 -71.99 0.0003909809    1.283    0.221
       232  -9.8884    166.1596     51.5869   4.1717623903e+01   3.6890098010e+01    0.3783832    0.2475239  77.22  0.001788962    1.647    0.393
       233 -10.7259    136.5927     49.5449   4.6614809349e+01   4.4433236909e+01    0.3466531    0.2897213 -82.80 0.0002126211    1.278    0.218
       234  -9.9463     61.3724     52.1084   7.0137596999e+01   6.0125649789e+01    0.2466672    0.1952003  39.09  0.000692231    1.311    0.237
       235 -10.3399    122.4723     50.5868   5.0141161574e+01   4.7675005566e+01     1.306226    0.2289566  56.87  0.003072229    6.087    0.836
       236 -10.2537    127.9558     48.0274   4.7996206964e+01   4.6762718676e+01    0.2735717    0.2179735  73.47 0.0004021033    1.297    0.229
       237 -10.5231    125.8358     44.8906   4.7410124553e+01   4.7751776145e+01    0.3679875    0.2937806  64.98 0.0004643852    1.227    0.185
       238 -10.6413    153.9597     47.7943   4.2688487312e+01   4.0437610361e+01    0.4125714    0.3113027 -51.62 0.0008435841    1.316    0.240
       239 -10.0435     86.3777     49.3099   5.9894138074e+01   5.5967981992e+01    0.4884707    0.2570324  42.28  0.002130741    1.900    0.474
       240  -9.7478    175.5705     48.7597   3.9429675721e+01   3.5028275639e+01     0.357144    0.2540982 -19.54  0.001512392    1.720    0.418
       241  -8.5692    228.5153     49.5049   3.3109358182e+01   2.2969700798e+01    0.1292979    0.1086572 -56.36 0.0008103917    1.020    0.020
       242 -10.1796     45.9808     47.2093   7.4886496062e+01   6.3446652960e+01    0.4854132    0.2881524   4.96  0.002136643    2.576    0.612
       243 -11.0697     79.6343     44.4524   6.0304297322e+01   5.8166102746e+01    0.6393909    0.4774107  -9.64  0.002950831    1.589    0.370
       244  -9.3614     23.3912     47.6185   8.5925327108e+01   6.6045114149e+01    0.4871078     0.294832   5.58   0.00203268    1.948    0.487
       245  -9.5078     26.5246     41.2849   8.2114427974e+01   6.7028300889e+01    0.5180537    0.4255955  73.65  0.001747777    1.801    0.445
       246  -9.7709     16.8930     46.5356   8.8916496487e+01   6.6853886373e+01    0.2455898    0.1932767  -8.48  0.001063098    1.297    0.229
       247 -11.1358     14.8598     40.4250   8.8021980145e+01   6.8298283177e+01    0.6251147    0.4466467 -84.10   0.00354922    2.001    0.500
       248  -9.3484      4.7220     32.0069   9.0961005114e+01   7.0755393530e+01    0.2918144    0.2089204 -21.91  0.000798875    1.298    0.230
       249 -11.2266      6.5965     35.9790   9.1181636599e+01   6.9824956721e+01    0.5276027    0.4028672 -18.54  0.002867422    1.246    0.197
       250 -10.6856      9.8494     31.8194   8.7857494729e+01   7.0432046240e+01    0.2813513    0.2077321  14.51 0.0007980591    1.438    0.304
       251  -8.4924    235.4458     47.4429   3.1970403443e+01   2.1828055652e+01    0.1281571    0.1027642 -56.70 0.0001467588    1.025    0.025
       252  -9.6687    145.8625     46.1678   4.3676301088e+01   4.2669257083e+01    0.2347685    0.2114668 -85.24 0.0004237002    1.082    0.076
       253 -10.1505    115.0965     45.8514   5.0306204874e+01   5.0165110567e+01    0.3545046    0.2834291  42.70  0.001359811    1.256    0.204
       254  -8.8881     38.6941     47.0583   7.8208318839e+01   6.4454420226e+01    0.1875502    0.1508672 -38.46 0.0005503882    1.130    0.115
       255  -9.4985    165.2290     46.0682   4.0263469512e+01   3.7924814730e+01    0.3289401    0.2398755  53.66  0.001700442    1.417    0.294
       256 -12.0367      2.3919     66.0744   1.0086214625e+02   6.3434692824e+01    0.4745386    0.2652893 -72.71 0.0004274316    1.606    0.377
       257  -9.0692    245.0012     44.5243   3.0473689757e+01   2.0314519983e+01    0.1663968    0.1159834  77.35 0.0005248142    1.558    0.358
       258  -9.6335    185.5189     43.4216   3.6558138809e+01   3.3403701249e+01     0.254479     0.226675  29.34 0.0007491421    1.413    0.292
       259  -9.6969    108.1463     40.1718   5.0024408899e+01   5.2650770805e+01    0.2467022    0.2055159 -53.62 0.0004278049    1.301    0.232
       260  -9.4424    103.4337     38.7069   5.0727936417e+01   5.3953526047e+01    0.4096947    0.2311634 -28.27  0.001839415    1.946    0.486
       261  -9.5882    107.2530     43.9816   5.1666434463e+01   5.2279128635e+01    0.3208435    0.2211244  37.99 0.0008715028    1.531    0.347
       262  -9.4329    104.0000     43.9649   5.2545573872e+01   5.3025170400e+01    0.2896552    0.2047103 -19.28  0.001102814    1.653    0.395
       263 -10.4661    203.1081     40.2521   3.3586021447e+01   2.9745495012e+01    0.3941868    0.2808219 -14.03  0.001858375    1.884    0.469
       264  -8.2663     99.7137     43.6890   5.3650595737e+01   5.4033966152e+01    0.1418986    0.1087089  16.09 0.0003736141    1.576    0.366
       265 -10.2086     90.8124     41.1156   5.5319930713e+01   5.6391535425e+01    0.6941769    0.3710925  66.80  0.002062815    2.830    0.647
       266  -8.4056     57.0524    249.0142   1.0507037743e+02   1.5711730056e+01    0.1312346    0.1019523  55.92            0    1.024    0.023
       267  -8.8659     86.8703     43.1423   5.7362036312e+01   5.6904000852e+01    0.1926285    0.1868935 -83.22 0.0002959737    1.148    0.129
       268 -10.4450     61.2184     32.6547   6.2294205478e+01   6.3593914734e+01    0.7213749    0.3549574 -22.38  0.002868418    2.969    0.663
       269 -10.4245    115.8770    248.5826   9.3338228781e+01   8.1536750960e+00    0.2662121    0.2139766  63.03  0.001816207    1.341    0.255
       270  -9.4836     55.0866     31.5378   6.4354959173e+01   6.4842390757e+01    0.2381323    0.1729019 -24.52  0.000539152    1.369    0.269
       271  -9.9872     41.0020     21.1046   6.5911989964e+01   6.8754988114e+01    0.3596805    0.2918075  83.92  0.001600811    2.266    0.559
       272  -9.0761     30.3465    247.6798   1.1014890359e+02   1.8985454521e+01    0.1250028   0.05800152  57.66 0.0007049279    1.732    0.423
       273  -9.0390      1.4642    243.9942   1.1538322849e+02   2.2546669938e+01    0.1499971   0.08668468  86.47 0.0004573488    1.538    0.350
       274 -10.5756     27.3548     31.3745   7.7759191780e+01   6.8842253670e+01    0.7994678    0.3044342  30.40  0.003565354    2.712    0.631
       275 -11.0267     36.4913     26.7576   7.0892208510e+01   6.8499715473e+01    0.6145277    0.3425054  36.74  0.001849261    1.850    0.459
       276 -10.4094     47.9807     26.9577   6.5414601769e+01   6.6749483819e+01    0.4216227    0.2868447  45.25  0.001735855    1.613    0.380
       277  -9.6229    244.7060    242.0231   6.8841090909e+01  -7.7377223514e+00     0.170064    0.1213542   7.49 0.0005594877    1.083    0.076
       278 -10.7587    228.3472     40.1137   3.0980162921e+01   2.4253803157e+01    0.4385352     0.371298  59.13  0.002246525    1.423    0.297
       279  -9.7537    222.8097     40.8191   3.1667644495e+01   2.5330356732e+01    0.2284415    0.2172985  76.23 0.0005143429    1.260    0.206
       280  -9.7335    143.8376     41.3838   4.2535648850e+01   4.3857625606e+01    0.2862499    0.2330937  72.71 0.0007225809    1.188    0.158
       281  -8.9539     72.1795     42.2253   6.2088402914e+01   5.9994827878e+01    0.3078173    0.1429881  33.00  0.001204616    2.636    0.621
       282  -9.1939     33.9213     41.8536   7.8572608327e+01   6.6076417533e+01    0.3035225    0.1744511  14.42  0.001496637    2.087    0.521
       283  -9.3760    237.8183     38.0415   2.9676654903e+01   2.2575353906e+01    0.4128596    0.2565157 -35.37  0.002377215    1.478    0.324
       284 -10.3541    159.6756     39.0705   3.9077033471e+01   4.0265006012e+01    0.4465266    0.2190135  65.19  0.001919939    1.971    0.493
       285  -9.0615    164.9590     36.5063   3.7499056524e+01   3.9308293825e+01    0.2776556    0.1227374  61.08  0.001154059    2.125    0.529
       286  -9.8638    127.6674     39.6552   4.5208682303e+01   4.8072282511e+01    0.4319459    0.2564314  70.04  0.001936465    1.816    0.449
       287 -11.2253     40.1546     39.4616   7.4578926429e+01   6.5736101372e+01    0.2205551    0.1890872 -25.31 0.0003455269    1.050    0.047
       288  -8.9413    121.0585     39.2788   4.6544331820e+01   4.9725693501e+01    0.1974758    0.1755013  72.48 0.0003672684    1.109    0.098
       289 -10.2288    178.4908     37.1467   3.5774836618e+01   3.5929599899e+01    0.4256814    0.2533232  51.35  0.002054121    1.835    0.455
       290  -8.6061    148.9996     38.4600   4.0671903421e+01   4.2986643701e+01    0.2117858    0.1328555  64.53 0.0005207019    1.524    0.344
       291  -8.8907    145.9986    242.0146   8.6589868620e+01   5.0108295058e+00    0.1476246     0.121882  29.23 0.0005399717    1.003    0.003
       292 -10.8658    118.3967     32.6118   4.4758031416e+01   5.1286506770e+01    0.6681656    0.4036443   8.02  0.001815042    2.946    0.661
       293 -10.0506    112.8445     33.1830   4.6254010816e+01   5.2538339260e+01    0.4009602    0.2471044 -40.33 0.0007225512    1.693    0.409
       294  -8.7748     67.5157     27.5147   5.7543815469e+01   6.3207517546e+01    0.1876868     0.169029  15.62  0.001150411    1.018    0.018
       295 -10.2183     73.6259     35.6872   5.8859775843e+01   6.0784398246e+01    0.4284446    0.3721002  11.76  0.001747028    1.139    0.122
       296  -9.3213     71.3407     29.6643   5.7091450251e+01   6.2149221413e+01    0.2595862    0.2235664 -56.58  0.000867855    1.419    0.295
       297 -10.4418     74.8820     24.8942   5.3725274023e+01   6.2113956322e+01    0.4801025    0.3203277 -25.88  0.002556995    1.564    0.361
       298  -9.7067     78.1678     34.4058   5.6722712582e+01   6.0075614356e+01     0.301795    0.2481359  65.70 0.0009103789    1.427    0.299
       299 -10.3857     80.6660     31.7711   5.4769515622e+01   5.9954383459e+01    0.4699534    0.3521882  78.64  0.001867991    1.871    0.466
       300  -8.6838    136.6579     37.7183   4.2710661850e+01   4.6138988827e+01    0.1966217    0.1319466  72.60 0.0002602186    1.522    0.343
       301  -9.1278    139.4869     36.4921   4.1763335670e+01   4.5607590718e+01    0.2971412    0.1324028  62.07  0.001198629    2.121    0.529
       302 -10.0682     86.9510     34.5192   5.3886397326e+01   5.8225845451e+01    0.4727322    0.2951758 -15.10  0.002190364    2.052    0.513
       303  -9.8443    130.8092     35.1162   4.2994542894e+01   4.7930967006e+01    0.4606323     0.273167 -58.55  0.001102728    2.073    0.518
       304  -9.6368    133.0964     31.5086   4.1310963748e+01   4.7842570865e+01    0.2888322    0.2043648 -31.75 0.0006460196    1.493    0.330
       305  -9.4849    134.3235     27.6968   3.9782342258e+01   4.8018796618e+01    0.2986826    0.1771205 -20.21  0.001378072    2.026    0.507
       306  -9.6300     26.3089     22.5398   7.4372973267e+01   7.0532150136e+01    0.2394636    0.1593426 -36.60 0.0005094743    1.362    0.266
       307  -9.8471     14.2072     18.8277   7.9813634431e+01   7.2489776936e+01    0.2874387    0.1727378 -14.13 0.0004544855    1.797    0.444
       308  -8.8544     18.7448     34.3416   8.3695445505e+01   6.9178619415e+01    0.3086157     0.128579 -38.97   0.00135263    2.236    0.553
       309  -8.9555    102.3198    242.3465   9.5421535216e+01   1.1070079147e+01    0.1147186   0.09104699  -3.78 0.0007049205    1.731    0.422
       310 -10.6808     18.7355     28.4558   8.1349008631e+01   7.0304578518e+01     0.340131    0.3187079 -31.58  0.000890096    1.215    0.177
       311 -10.3809     21.5026     23.5247   7.7585042990e+01   7.0913333338e+01    0.3437442    0.2135524  14.99  0.001151696    1.684    0.406
       312  -8.7066    242.4492     34.4725   2.8520014472e+01   2.2098397419e+01    0.1238102   0.09767325 -56.96  3.50238e-05    1.004    0.004
       313 -10.5301    234.1663     30.5788   2.8332861419e+01   2.4252835387e+01    0.3796867    0.2715888  41.44  0.001586449    2.050    0.512
       314  -9.8223    227.1348     33.1194   2.9494666376e+01   2.5400015083e+01    0.1950202    0.1649263 -62.32   0.00128061    1.046    0.044
       315  -9.4456    146.3351     33.9657   3.9708133369e+01   4.4246733683e+01    0.3719897    0.1806445  57.29  0.001106489    1.920    0.479
       316 -11.0837    145.6221     29.2077   3.8301251252e+01   4.5029732333e+01    0.5837568    0.3238912  44.26  0.000667037    2.036    0.509
       317 -10.6403    153.0250     31.9571   3.7962834766e+01   4.2846050068e+01    0.3735725    0.2562437 -82.41  0.001856155    1.614    0.380
       318  -9.0364    159.6958     31.8767   3.6905908962e+01   4.1204727958e+01    0.3131604    0.1653324  62.35  0.001428398    1.777    0.437
       319  -8.4455    190.1788     32.6336   3.3096762663e+01   3.3727187465e+01    0.1767603    0.1162979  62.96 0.0005634826    1.533    0.348
       320 -10.2606    247.9896     29.9478   2.7135787372e+01   2.1566494681e+01    0.2918817    0.1311755 -43.49  0.001233729    1.718    0.418
       321  -9.2755    125.0193     30.6279   4.2617461976e+01   4.9938876144e+01    0.2510829    0.2000711   7.11 0.0006739313    1.553    0.356
       322 -10.0172    212.6884     26.4833   2.9230511555e+01   2.9338246012e+01     0.290306    0.2310842  36.16  0.001056534    1.756    0.431
       323  -8.6960    190.0810     28.5102   3.2018453132e+01   3.4263912277e+01    0.2008354    0.1234552  75.36 0.0006440357    1.582    0.368
       324  -8.2989     19.6929    241.3061   1.1187043821e+02   2.1285584336e+01    0.1204941   0.05879255  58.79  0.000377358    1.608    0.378
       325  -8.4003    182.3050     27.3542   3.2598399885e+01   3.6252370438e+01    0.1311884    0.1019387  32.70 0.0007040938    1.713    0.416
       326  -9.1162    161.5186     26.6052   3.5055850568e+01   4.1406017775e+01    0.2516987    0.1544381  65.34 0.0005896463    1.528    0.346
       327 -10.0890    222.9552     26.2810   2.8285955582e+01   2.7126936630e+01    0.2794057    0.1189312  56.84  0.001285626    2.681    0.627
       328  -9.5197    101.1190     26.1471   4.6451689921e+01   5.6209958106e+01      0.26469    0.1802309  45.97 0.0006746557    1.390    0.280
       329  -8.4936    228.6541    233.7267   7.0190848630e+01  -4.8870923271e+00    0.1154689   0.07013605   3.94 0.0003373968    1.623    0.384
       330 -10.8092      2.1730     25.0744   9.0075606630e+01   7.2291319504e+01    0.2642202    0.1555416 -47.66 0.0005010862    1.381    0.276
       331  -9.2775    221.8085    233.5714   7.1321251479e+01  -4.0266831447e+00    0.1479831   0.09466628  36.19 0.0006983833    1.631    0.387
       332  -8.8415     32.0322    232.2849   1.0898210057e+02   2.1728087607e+01    0.1619287    0.1217192  55.39 0.0004632488    1.058    0.055
       333  -9.2652    233.8991     24.1242   2.6928496581e+01   2.5086698895e+01    0.2332545    0.1569891 -80.28 0.0007226109    1.405    0.288
       334 -10.0116    172.2807     23.2460   3.2658840290e+01   3.9163561709e+01    0.4777833    0.2649606  67.66  0.001603796    1.689    0.408
       335 -10.4135    153.5965     22.8838   3.5053214668e+01   4.3806084151e+01     0.245112    0.2269774  68.84 0.0003409583    1.103    0.093
       336 -10.1261    186.6479    230.8578   7.7199711201e+01   9.8154358337e-01    0.2398591    0.1404099  13.78  0.001289948    1.910    0.477
       337  -8.2529      3.3355    230.2526   1.1454712247e+02   2.4994303160e+01   0.08863121   0.08509878 -46.52 0.0002509457    1.564    0.361
       338  -9.2819     71.9785     14.9880   5.0141325871e+01   6.3965567051e+01    0.2054516     0.178229  78.81 0.0003900216    1.431    0.301
       339  -8.4484    207.4494    226.5027   7.2731080723e+01  -1.2370427871e+00    0.1186282   0.09487589   5.68 0.0003003486    1.022    0.021
       340 -10.9064     62.2160     22.2140   5.7121383397e+01   6.4968186315e+01    0.2856928    0.2368173   5.30 0.0009252575    1.177    0.150
       341  -8.5652    163.3022    226.6731   8.1088325741e+01   4.9566327979e+00    0.1167675   0.09351256  60.38 0.0006338865    1.642    0.391
       342  -8.7833    223.8694    224.9208   6.9621172937e+01  -3.1661360231e+00    0.1750159    0.1249955   2.40 0.0006098416    1.214    0.176
       343  -9.1081    132.1673    225.1981   8.7239829887e+01   9.8198692442e+00    0.1706751    0.1339576  53.03 0.0003411854    1.302    0.232
       344  -8.5709    116.6072     22.5167   4.1430989675e+01   5.2980267081e+01    0.1343279    0.1256694  51.38 0.0001462341    1.047    0.045
       345  -8.6019    188.6142     21.1330   3.0227324179e+01   3.5486930809e+01    0.1714603    0.1263511 -14.51 0.0007290031    1.744    0.427
       346  -8.5204      6.1391     20.8450   8.5861391328e+01   7.2820924657e+01    0.1604522    0.1087674 -24.46 0.0002697166    1.307    0.235
       347  -9.5537     89.3797    220.6729   9.5884410001e+01   1.6894541219e+01    0.2263808    0.2106549  20.00 0.0008286656    1.251    0.201
       348  -8.3721    117.9608    211.9898   8.8541400113e+01   1.4408843790e+01    0.1610946    0.1378844  40.55 0.0005102601    1.032    0.031
       349  -8.0928    209.2784    211.3457   6.9965509035e+01   6.6706148028e-01    0.1246919   0.08201542  -4.62  0.000373713    1.633    0.388
       350  -8.9744    242.5243    209.9545   6.4092688433e+01  -3.5564527696e+00    0.1786145    0.1522718  31.10 0.0006268609    1.499    0.333
       351  -8.4693    230.7317    209.9630   6.6021347020e+01  -2.0489154450e+00    0.1463895   0.08951842 -29.89 0.0008833516    1.502    0.334
       352  -9.1048    123.9786    205.9834   8.6378968272e+01   1.4647687087e+01    0.1869787    0.1704442  31.59            0    1.057    0.054
       353  -8.9618     20.8087    204.3864   1.0969053228e+02   2.8669138716e+01    0.1446644    0.1115045  25.43 0.0003358301    1.552    0.355
       354  -8.5929    221.2425    198.9838   6.5752535112e+01   7.9366495973e-01    0.1509917      0.09276 -33.69 0.0004149187    1.534    0.348
       355  -8.3076    140.3257     20.2830   3.6253739422e+01   4.7399671697e+01     0.138562   0.09713245  40.51 0.0004626581    1.600    0.375
       356 -10.1838    238.0638     17.7285   2.5237788660e+01   2.4979449748e+01    0.2655666    0.2396135  40.46  0.001117223    1.575    0.365
       357  -8.8332     80.1697     19.1122   4.9401963492e+01   6.1752345782e+01    0.2029285    0.1600199  23.71 0.0006842696    1.279    0.218
       358  -8.1984      3.2601     19.2759   8.7090589916e+01   7.3322750804e+01    0.1163221   0.06952381 -29.85 0.0001903641    1.469    0.319
       359  -8.6300     96.1797    195.7941   9.1353873245e+01   2.1045099872e+01    0.1712792    0.1581018   0.16 0.0003797772    1.296    0.228
       360  -9.1759      6.5347    194.6161   1.1230468941e+02   3.2145834591e+01    0.2234098    0.1327776 -52.69   0.00126379    2.136    0.532
       361  -8.8569      9.2127    179.4410   1.1082539339e+02   3.5349906521e+01    0.1612323   0.09598956  47.27 0.0009238613    1.506    0.336
       362  -9.9359      6.2033    174.9838   1.1127862344e+02   3.6637463590e+01    0.2237512    0.1518443  50.02 0.0006649315    1.344    0.256
       363  -9.2047     17.4635    174.5266   1.0847823350e+02   3.5766938775e+01     0.126573    0.1045628  79.50 2.448382e-05    1.022    0.021
       364  -9.6775     11.8021    167.0002   1.0935746465e+02   3.8054104774e+01    0.1939709    0.1381916 -49.61  0.001142391    1.675    0.403
       365  -9.7317     15.4635    165.4799   1.0830434096e+02   3.8102208723e+01    0.1633934    0.1270199   3.81 0.0007531752    1.766    0.434
       366 -10.2565      7.3044    166.3934   1.1045855533e+02   3.8570743683e+01    0.2243649    0.1837976  78.79 0.0004101674    1.022    0.021
       367 -12.4699     40.8044    161.7559   1.0122227142e+02   3.6480339857e+01    0.8351201    0.3445468  55.96 0.0008112352    2.715    0.632
       368 -10.3911     42.7333     15.4976   6.2212355346e+01   6.9308585494e+01    0.2811829    0.1906745  35.25  0.001656398    1.411    0.291
       369 -11.9759     30.2491    154.2089   1.0330931079e+02   3.9470155901e+01    0.6679912    0.4251724  71.71  0.003485186    1.545    0.353
       370  -9.9366     24.6955    163.0327   1.0568049867e+02   3.7845337163e+01    0.2161726    0.1782299  49.16  0.000198159    1.214    0.176
       371  -9.0571    195.0864     15.3411   2.8085700698e+01   3.4623065914e+01    0.1801662    0.1418051 -86.31 0.0003785078    1.138    0.121
       372  -9.3271      8.2699    161.9781   1.0990805763e+02   3.9548343175e+01    0.1780687    0.1341569  86.64 0.0003644752    1.097    0.089
       373  -9.1723     20.5276    160.5245   1.0656760420e+02   3.8848032735e+01    0.1319766    0.1073276  78.24 9.009814e-05    1.046    0.044
       374 -10.7617      1.9114    157.0563   1.1122901890e+02   4.1217527781e+01    0.5203325    0.1562089 -73.67  0.002163776    2.675    0.626
       375  -9.8499      4.8414    152.8624   1.1016270911e+02   4.2015428527e+01       0.1958    0.1570048  76.42 0.0003795996    1.066    0.062
       376  -9.9502      9.8334    157.5465   1.0917416112e+02   4.0492371559e+01    0.2492193    0.1746208  72.32  0.001305094    1.250    0.200
       377  -9.4503    249.1135    154.0789   5.2937256229e+01   3.4358042511e+00    0.1939346    0.1440656 -13.47 0.0007392375    1.282    0.220
       378 -10.0465     19.6486    152.8639   1.0612063342e+02   4.0807602031e+01    0.3159839    0.1438148 -64.27  0.001485261    1.951    0.487
       379 -11.4335     22.1566    148.5075   1.0500100708e+02   4.1662291059e+01    0.5580468      0.30876  36.18  0.002872082    1.823    0.451
       380  -8.9847    193.2161     20.0954   2.9487760590e+01   3.4525140915e+01    0.1757128    0.1690172  83.38 0.0003297788    1.212    0.175
       381 -10.9282      9.8638    147.3389   1.0835717636e+02   4.2985754755e+01    0.5383261    0.2408811 -47.47  0.002003803    2.680    0.627
       382  -9.9977     11.4780    151.5022   1.0825398647e+02   4.1834797364e+01    0.2797129    0.2002519 -61.15  0.001037861    1.396    0.284
       383  -9.8068     14.5330    150.4760   1.0732393108e+02   4.1837382522e+01    0.2279064    0.1815288  79.55 0.0005816575    1.080    0.074
       384  -9.6028     62.6253    146.4767   9.3039884926e+01   3.7586744612e+01    0.4340298    0.2253987 -78.37  0.001285783    2.228    0.551
       385  -9.5583    240.1867    143.0515   5.2070369203e+01   6.4941556763e+00    0.3400558    0.1528788 -52.23  0.001343468    3.334    0.700
       386  -9.3723     38.8776    143.2933   9.9558736622e+01   4.1304943414e+01    0.3566652    0.1521973  33.33  0.001528073    2.331    0.571
       387  -8.5466     21.6746    141.3024   1.0440087944e+02   4.3507027605e+01    0.1396471   0.08571431  64.41 0.0007031104    1.639    0.390
       388  -9.8306      1.8022    139.6965   1.1002211040e+02   4.5449375872e+01    0.2644992    0.1431572  85.46  0.001068178    1.659    0.397
       389  -8.4584     48.0306    139.0406   9.6237026029e+01   4.1336794368e+01    0.1634992    0.1511598  75.54            0    1.065    0.061
       390 -10.4232     41.5565    137.9252   9.8037387795e+01   4.2370079067e+01    0.3252522    0.2297455 -47.94  0.001709747    1.517    0.341
       391  -9.1355    230.7598    137.1736   5.2292831357e+01   8.9820866554e+00    0.1798159    0.1440639  -0.41 0.0007235029    1.375    0.273
       392  -9.0426    235.9946    136.5470   5.1369233122e+01   8.2029861229e+00    0.1708782    0.1281372  44.00 0.0004872927    1.542    0.352
       393  -8.6072     83.0207    135.9987   8.5232579294e+01   3.7176288483e+01    0.1751746     0.166027  68.91 0.0003557336    1.044    0.042
       394  -9.2793     58.2394    135.7451   9.2622378563e+01   4.0886532257e+01    0.2365921    0.2146476  44.63 0.0003432047    1.160    0.138
       395  -9.8867     60.1021    131.6229   9.1349743507e+01   4.1683158702e+01    0.3458944    0.2892004 -38.93  0.001107345    1.340    0.253
       396  -9.6186     31.0070    132.8333   1.0058679823e+02   4.4774656728e+01    0.3337992    0.1691875  84.40   0.00139416    2.392    0.582
       397  -9.1839     12.1707    128.2927   1.0590180238e+02   4.7553584003e+01    0.3624452    0.1278399 -64.13  0.001535375    2.279    0.561
       398 -10.8771      7.2009    132.8292   1.0786239883e+02   4.6779341379e+01    0.4505747    0.3962624  21.62  0.002561701    1.376    0.273
       399  -8.2297     22.6592    133.6750   1.0326143626e+02   4.5341266712e+01    0.1376308   0.09012853 -43.73 0.0007051165    1.730    0.422
       400  -9.8408     42.4884    130.1340   9.6617171962e+01   4.4249558010e+01    0.2504936    0.2340622  55.73 0.0007344435    1.135    0.119
       401 -10.2859     18.4574    127.0184   1.0379372091e+02   4.7381948977e+01    0.4227613    0.1919743 -57.03  0.001943234    1.978    0.495
       402 -10.8992     50.7573    126.7493   9.3451355131e+01   4.4134462596e+01    0.3110927    0.2579695  89.34 0.0006564842    1.173    0.148
       403  -9.5586     56.0958    126.2792   9.1668067884e+01   4.3574158544e+01    0.3316398    0.1920713 -70.23  0.001140309    1.689    0.408
       404 -10.6394     38.6388    123.8417   9.6884830364e+01   4.6279686469e+01    0.3712918    0.2662533  -8.16  0.001887097    1.924    0.480
       405  -8.9909    241.5090    124.0293   4.7975680052e+01   9.2553903615e+00    0.2070545    0.1082543 -37.49   0.00103598    1.603    0.376
       406 -11.4218     61.8627    121.2322   8.8881481503e+01   4.4074784688e+01    0.3297634    0.2513917 -44.91 0.0002078215    1.363    0.267
       407 -10.6763      7.4923    122.5133   1.0677260761e+02   4.9335732901e+01    0.4524353    0.2433047 -44.04  0.001916441    2.064    0.515
       408  -9.9873      4.6168    109.7573   1.0635058917e+02   5.2706962054e+01    0.5552179    0.2044684  43.98  0.002364055    2.947    0.661
       409  -9.5795     11.4852    117.0663   1.0488357772e+02   5.0425174963e+01    0.5225551    0.2291566  78.80  0.001992499    2.967    0.663
       410  -9.8688     13.6533    113.1571   1.0368534567e+02   5.1252001085e+01    0.2580051    0.2097958  30.85 0.0009529038    1.401    0.286
       411  -9.0554     84.2531    122.0187   8.1990128553e+01   4.0434455303e+01    0.2856197    0.1942305 -43.15  0.001029511    1.555    0.357
       412 -10.7469     44.7329    119.5732   9.4187124614e+01   4.6686293519e+01    0.3530001    0.2595909  38.58 0.0006905238    1.437    0.304
       413 -10.3749     33.8363    114.1865   9.6952834996e+01   4.9239817325e+01    0.2413323    0.1754631 -71.29 0.0004854539    1.229    0.187
       414 -11.0925     28.2120    115.9491   9.9138939967e+01   4.9337270474e+01    0.4757373    0.2625343 -89.50  0.001597874    2.025    0.506
       415 -11.5283     21.4513    118.8498   1.0180974381e+02   4.9200661923e+01    0.5102375    0.3804196  61.00  0.002920503    1.390    0.281
       416  -8.4193     13.3486    109.1878   1.0328037172e+02   5.2271657445e+01    0.1842638    0.1068567 -87.34 0.0003860629    1.678    0.404
       417 -10.7848     21.0775    110.0920   1.0072156111e+02   5.1447381442e+01      0.43874    0.2926868 -61.78 0.0009865975    1.303    0.233
       418  -8.9262     20.0822    104.1325   1.0018514187e+02   5.3028947757e+01    0.1965211     0.163709 -51.66 0.0005664615    1.166    0.142
       419  -9.1286     16.2652    107.9437   1.0209615570e+02   5.2369168087e+01    0.2341949    0.1529338 -84.52   0.00033024    1.436    0.303
       420  -9.1894     13.4082    104.3150   1.0260313984e+02   5.3488722033e+01    0.2534916    0.1678374  58.88 0.0006676684    1.667    0.400
       421  -9.8986    221.5093    119.3694   4.9912619205e+01   1.3559431490e+01    0.2808265    0.2428029  23.85 0.0009103621    1.321    0.243
       422  -8.9101     94.1394    119.1226   7.8347358808e+01   3.9424428774e+01    0.2312279    0.2045822 -24.08 0.0008056491    1.285    0.222
       423 -10.0550      3.8406    117.0896   1.0739262688e+02   5.0926847329e+01    0.3989349    0.2497906 -77.83  0.001453769    1.331    0.249
       424  -8.6287    104.3873    115.1976   7.4396355969e+01   3.8456049344e+01    0.2054255    0.1436641 -63.17 0.0002452771    1.524    0.344
       425  -8.1130    162.2679    114.7044   5.9658144771e+01   2.6478654373e+01    0.1464333    0.1166108 -75.94 0.0001869651    1.515    0.340
