#   1 NUMBER                 Running object number                                     
#   2 MAG_AUTO               Kron-like elliptical aperture magnitude                    [mag]
#   3 X_IMAGE                Object position along x                                    [pixel]
#   4 Y_IMAGE                Object position along y                                    [pixel]
#   5 X_WORLD                Barycenter position along world x axis                     [deg]
#   6 Y_WORLD                Barycenter position along world y axis                     [deg]
#   7 A_WORLD                Profile RMS along major axis (world units)                 [deg]
#   8 B_WORLD                Profile RMS along minor axis (world units)                 [deg]
#   9 THETA_WORLD            Position angle (CCW/world-x)                               [deg]
#  10 FWHM_WORLD             FWHM assuming a gaussian core                              [deg]
#  11 ELONGATION             A_IMAGE/B_IMAGE                                           
#  12 ELLIPTICITY            1 - B_IMAGE/A_IMAGE                                       
         1 -10.1997     24.6766     16.4966   1.0863324694e+02   6.9812550753e+01    0.3588466    0.2593452  13.79  0.000715663    1.389    0.280
         2  -9.1376     31.7212     10.4581   1.0233800922e+02   6.9907008568e+01    0.4032001    0.1948056 -20.53  0.002028154    2.263    0.558
         3 -10.1296      9.3137     19.6966   1.1774186198e+02   7.0656370502e+01    0.3726724    0.2170455   1.91  0.001330113    1.891    0.471
         4  -9.7850     63.9137     14.3648   9.0858736729e+01   6.4668159853e+01    0.4107312    0.2369742  25.23 0.0008094175    1.795    0.443
         5  -8.9028     74.4244     13.6789   8.6920452131e+01   6.2868583194e+01    0.3064601    0.2071938  28.57  0.001085688    1.377    0.274
         6  -8.7262     80.2524     12.6792   8.4615238641e+01   6.1869433159e+01    0.2348637    0.2336637 -20.41 0.0009678747    1.307    0.235
         7  -9.0489    232.5901     12.9177   5.9438592897e+01   2.5586536978e+01     0.328443    0.1849083 -46.61  0.001103157    1.578    0.366
         8  -8.4062    134.9581     13.0061   7.1645628111e+01   4.9636643761e+01    0.2223935      0.14176  35.26 0.0004321251    1.636    0.389
         9  -8.7489     89.2732     12.5806   8.1912892839e+01   6.0073119503e+01    0.3803349    0.1574703  37.63  0.001596251    2.459    0.593
        10  -8.9634     97.1689     11.8143   7.9447060240e+01   5.8491507785e+01    0.2718368    0.1888858  49.89 0.0006379913    1.332    0.249
        11 -10.6937     20.1360      8.8055   1.0722620724e+02   7.1438399973e+01    0.2794582    0.1839717   6.80 0.0003947224    1.475    0.322
        12  -8.0569      2.1377      7.9111   1.1652675842e+02   7.3120859635e+01    0.2003119    0.1625976 -46.13  0.001534067    1.434    0.303
        13  -8.7742    128.1913      7.9508   7.1069545136e+01   5.1751807368e+01    0.2237014    0.1355734  23.31 0.0007306453    1.942    0.485
        14  -7.7510     39.5116      8.4949   9.7772154111e+01   6.9163544405e+01     0.121024   0.09335437  -3.89 -4.108946e-05    1.040    0.038
        15  -8.2471    119.0375      7.4458   7.2657098280e+01   5.3974518391e+01    0.2076226    0.0781094  43.33 0.0008077084    2.538    0.606
        16  -8.4007     76.5240      6.9741   8.3148943168e+01   6.3190469052e+01    0.2541048    0.1449976  36.63  0.001352574    1.593    0.372
        17  -8.2170     84.5959      5.2062   7.9954945581e+01   6.1763004986e+01    0.3577512    0.1217401 -20.36  0.001420982    3.163    0.684
        18  -8.7458     68.6861      4.3241   8.4391526198e+01   6.4931567969e+01    0.2876429    0.1563918  -5.64  0.001451219    2.055    0.513
        19  -8.9768     56.7475      4.5988   8.8725667416e+01   6.6999811343e+01    0.3201901    0.1679721  19.29  0.001554999    2.218    0.549
        20  -9.8786     49.1021      4.7068   9.1752644005e+01   6.8220471556e+01    0.2538814    0.1796944   4.67 0.0003941691    1.253    0.202
        21  -8.9777    111.0347      4.5567   7.3189710350e+01   5.6084528593e+01    0.2232409    0.1858736  -6.66 0.0003783864    1.256    0.204
        22  -7.9204     13.2246      5.2010   1.0906286173e+02   7.2637072464e+01    0.2008289     0.093828 -14.91 0.0008629115    2.870    0.652
        23  -8.4502    125.2211      3.9810   7.0154213152e+01   5.2809358460e+01    0.2123445    0.1551564  35.05 0.0007181499    1.326    0.246
        24  -8.6104    104.2654      3.4797   7.4239122235e+01   5.7709003910e+01    0.3152671    0.1681283  20.50   0.00144587    2.266    0.559
        25  -7.8729    153.8139      3.2135   6.5288373312e+01   4.5854145791e+01    0.1833132    0.1364407  46.00  0.000292045    1.309    0.236
        26  -8.4348    134.4912      2.9928   6.8169006869e+01   5.0652640113e+01    0.1918142    0.1009216  19.98 0.0006202639    2.597    0.615
        27  -7.7860    182.2089      2.2114   6.1480786754e+01   3.8822567091e+01    0.1802188    0.1373066 -71.09 0.0003299862    1.298    0.229
        28  -7.8743    143.3117      2.0733   6.6444032904e+01   4.8562062628e+01     0.174697    0.1651902  53.74 0.0003257696    1.061    0.057
        29  -7.2374    176.3805      1.2279   6.1843888362e+01   4.0366935565e+01     0.137646   0.08496285  50.56 0.0005551837    1.615    0.381
        30  -7.8671      3.1404      1.2996   1.1275508382e+02   7.4067379150e+01    0.1256755   0.08671137  21.52            0    1.654    0.395
        31  -8.0231    194.9755    228.8406   1.1399608651e+02  -1.4010022033e-01    0.1945365    0.1423942  19.10 0.0009321888    1.289    0.224
        32  -8.1803    249.1486    250.1234   1.0797898214e+02  -1.0680069295e+01    0.1731947    0.1141317  12.72 0.0007250156    1.226    0.184
        33 -10.1305    200.6831    249.0943   1.1600038831e+02  -3.6745678582e+00    0.3765547    0.1969171  26.94  0.001438082    1.802    0.445
        34  -7.6789    185.3186    250.3166   1.1887329917e+02  -1.4932568665e+00    0.1172428   0.07847098  15.08   0.00070399    1.656    0.396
        35  -8.7613    151.0730    249.5257   1.2489975329e+02   3.9193096430e+00    0.2106902    0.1657043  16.54 0.0008961516    1.476    0.322
        36  -7.8464    123.6915    250.5739   1.2995275193e+02   7.9606292428e+00    0.2206624   0.09494731  37.59  0.001111053    2.047    0.512
        37  -7.4952    133.3336    229.2814   1.2567355816e+02   9.8795246833e+00     0.117242   0.09173096  16.84 0.0002506137    1.613    0.380
        38  -7.8869    101.9820    229.3343   1.3167450636e+02   1.4756560512e+01    0.1842623   0.09825129  21.41 0.0007047525    4.309    0.768
        39  -8.8969    247.4996    225.9244   1.0433301718e+02  -7.8111479816e+00    0.3272884    0.2109515 -33.33  0.002082906    1.734    0.423
        40  -8.5108    186.8711    226.9773   1.1519909571e+02   1.4418174698e+00    0.2276119    0.1654461  -4.14 0.0008998777    1.659    0.397
        41  -7.7542    229.8439    226.6284   1.0743702825e+02  -5.3077318457e+00    0.1663766    0.1280147   0.01 0.0005624354    1.173    0.148
        42  -7.3139    175.2961    227.7407   1.1747500725e+02   3.2352716762e+00    0.1155204   0.08881108  58.04 0.0002369675    1.502    0.334
        43  -7.7676    223.4961    225.4181   1.0833800422e+02  -4.1905104506e+00    0.2037874    0.1039615 -20.77  0.001019635    2.406    0.584
        44  -7.1592    142.2952    226.3097   1.2356143657e+02   8.9174999642e+00    0.1174543   0.09373454  10.95 0.0002701673    1.591    0.372
        45  -7.6731     70.4863    226.0171   1.3729312339e+02   1.9840521610e+01     0.145221   0.09073745 -45.81 0.0008096648    2.474    0.596
        46  -7.5566    237.3297    225.3155   1.0593665652e+02  -6.2632942200e+00    0.1244975    0.0763597   9.57 0.0005913339    1.679    0.404
        47  -7.6046    207.0087    222.4606   1.1078456757e+02  -1.2022589364e+00    0.1774566   0.09053981  21.87 0.0004774488    2.423    0.587
        48  -7.8028     51.8191    221.4100   1.4037931871e+02   2.3107408948e+01    0.1471986    0.1040317  32.01 0.0009475119    1.755    0.430
        49  -8.3258    239.9888    219.2654   1.0445387636e+02  -5.9188373918e+00    0.2007127    0.1533905 -15.68  0.000674024    1.255    0.203
        50  -8.4627    226.4795    219.0280   1.0674005658e+02  -3.8310582834e+00    0.3018812    0.1844263  -8.87  0.001547331    1.899    0.473
        51  -8.3302    182.3366    219.7543   1.1491903158e+02   3.2615042838e+00    0.2616605    0.1472341  31.93 0.0009066195    1.653    0.395
        52  -7.3994    130.3412    220.2846   1.2508560152e+02   1.1905325102e+01    0.1203845   0.09568843  14.22 0.0007016154    1.636    0.389
        53  -7.5070    217.4547    219.5111   1.0841587958e+02  -2.4756838925e+00    0.1248851    0.1005219  15.55 0.0003002913    1.038    0.037
        54  -7.5530    173.5952    219.1869   1.1649460049e+02   4.8256059817e+00    0.1619478    0.1177775 -24.41 0.0008933067    1.664    0.399
        55  -7.6465    203.8500    216.4014   1.1035476689e+02   1.5994196932e-01    0.1837114    0.1009246  29.43 0.0006087879    1.728    0.421
        56  -7.5981    210.4684    215.4354   1.0898184569e+02  -7.9186073428e-01    0.1263642    0.1038909  18.66 0.0004357659    1.019    0.019
        57  -8.3105    193.9193    215.2400   1.1200418347e+02   1.9865271488e+00    0.2389859    0.1523356  24.60   0.00123882    1.558    0.358
        58  -9.0665    249.2689    212.6436   1.0173570520e+02  -6.4786295661e+00    0.2572652    0.2302119  22.85  0.001707115    1.363    0.267
        59  -7.5865     83.9776    215.0000   1.3362415568e+02   2.0060555121e+01    0.1955201   0.06139514  38.94 0.0005004094    2.881    0.653
        60  -8.3665    232.4082    212.1822   1.0451740762e+02  -3.8623924649e+00    0.2553109    0.1652579   5.13 0.0009756996    1.636    0.389
        61  -7.9419    121.9918    213.4598   1.2584038156e+02   1.4496756990e+01    0.1960466    0.1116873  41.32 0.0004582021    1.552    0.356
        62  -7.4658    186.3093    210.3131   1.1262396020e+02   4.0340104563e+00    0.1306607   0.09340788   9.61 0.0007028148    1.627    0.386
        63  -7.8974    163.1965    207.8257   1.1672953574e+02   8.4703116323e+00    0.1808419    0.1443299  18.46 0.0006585369    1.342    0.255
        64  -9.2684    171.5479    206.5627   1.1486892533e+02   7.2142216539e+00    0.2399617    0.2143361  37.98 0.0005234649    1.052    0.050
        65  -8.0447    215.7834    205.6772   1.0631257904e+02  -2.8878923916e-01    0.2513776    0.1651673  18.46  0.001386178    1.541    0.351
        66  -8.0165    246.9908    205.0102   1.0074165932e+02  -5.1795512449e+00    0.1971032    0.1247216   5.53  0.001115817    1.638    0.390
        67  -8.3319    236.7080    204.3882   1.0237536045e+02  -3.5067104266e+00    0.2097425    0.1548443 -23.30 0.0006827015    1.320    0.243
        68  -7.8403    117.5548    205.2734   1.2563765612e+02   1.6761219454e+01    0.2107861    0.1497566  24.59  0.000584159    1.754    0.430
        69  -8.1176    250.3163    199.1705   9.9111565549e+01  -4.9327539579e+00    0.2506771   0.09951042 -26.28    0.0011044    2.683    0.627
        70  -7.7766    228.7937    199.7860   1.0291088995e+02  -1.6058942282e+00    0.2199644     0.121258   7.54 0.0009502388    2.780    0.640
        71  -7.8499    196.0847    200.4574   1.0904706840e+02   3.8715106784e+00    0.2036902    0.1166381  38.22  0.001021105    1.577    0.366
        72  -7.4699    184.5416    199.9868   1.1119348777e+02   5.9935559635e+00    0.1803712    0.1110971 -14.08 0.0008075837    2.467    0.595
        73  -7.6281     99.4796    198.5483   1.2851146984e+02   2.0990781425e+01     0.129124    0.1133547  64.78 0.0002677189    1.031    0.030
        74  -7.6805    244.1879    197.3453   9.9797176053e+01  -3.7433829259e+00    0.1749971    0.1344527  -4.64 0.0005893895    1.141    0.124
        75  -7.6261    140.6976    197.6483   1.1969124583e+02   1.4261134576e+01    0.1315348    0.1052519  -1.62 0.0005392139    1.701    0.412
        76  -7.9372    192.9254    194.0346   1.0849207211e+02   5.4608156573e+00    0.2698555    0.1731294  -4.09  0.001249694    2.281    0.562
        77  -7.6971    237.4995    193.9732   1.0030426951e+02  -2.2162876409e+00    0.1820512    0.0984295  -9.98 0.0008098162    2.542    0.607
        78  -7.3401      1.9819    194.2347   1.4781986193e+02   3.3727258950e+01    0.1248148   0.08067698  43.35 0.0007841361    1.592    0.372
        79  -7.8716    176.0528    204.4343   1.1362550988e+02   6.7714912331e+00    0.2047399    0.1161511  40.07 0.0004105167    1.567    0.362
        80  -7.1872    231.3732    191.2936   1.0086129196e+02  -8.2989423848e-01    0.1368748   0.08821206  10.25 0.0007025125    1.733    0.423
        81  -8.1664    166.1134    197.3586   1.1440644206e+02   9.7570247030e+00    0.2135773    0.1506695  29.33 0.0006218061    1.413    0.292
        82  -7.7745    224.4182    189.7478   1.0180029012e+02   5.7104191456e-01    0.1832173    0.1141596 -19.84 0.0009452344    1.703    0.413
        83  -7.6247    161.7468    190.0283   1.1402639932e+02   1.1868015754e+01    0.1674311    0.1192584 -46.61 0.0005032709    1.537    0.349
        84  -7.8373     65.0247    189.4774   1.3474114754e+02   2.7884886654e+01    0.1776504    0.1167824  39.30  0.001014778    1.564    0.361
        85  -7.8509    217.5027    184.4814   1.0203618534e+02   2.5718706750e+00    0.1343421    0.1164766   8.25 0.0002414389    1.016    0.016
        86  -7.7551    130.6266    182.8141   1.1942831949e+02   1.8952257306e+01     0.183372    0.1305224 -67.07 0.0009362891    1.595    0.373
        87  -7.4915    165.6295    182.6845   1.1189039613e+02   1.2493612740e+01    0.1455457    0.1069238   8.10 0.0007035121    1.784    0.440
        88  -7.2467    250.2751    181.7048   9.5777258342e+01  -2.5810683361e+00    0.1092544   0.09889492 -47.14 0.0002287209    1.526    0.345
        89  -7.6825     96.5367    178.4606   1.2635940877e+02   2.5664214415e+01    0.1330721    0.1220551  75.40 2.747443e-05    1.048    0.046
        90  -8.0929    148.4608    174.8702   1.1410803915e+02   1.7253441048e+01    0.2904349    0.1812283  25.98  0.001228303    2.004    0.501
        91  -7.4777    192.6766    173.6586   1.0462425788e+02   8.9464119434e+00     0.146843    0.1054456   4.90 0.0007050794    1.727    0.421
        92  -7.8740    184.3078    171.3430   1.0583701761e+02   1.0977875031e+01    0.1464362    0.1080946   3.05 0.0007043497    1.692    0.409
        93  -7.6450    177.3400    167.3356   1.0645562302e+02   1.3083150027e+01    0.1503923    0.1106677   5.12 0.0007051114    1.756    0.431
        94  -7.2032    150.6432    165.6998   1.1187041497e+02   1.8673913531e+01    0.1472838    0.1141969   5.77 0.0007036981    1.708    0.414
        95  -7.9214    168.7648    163.5631   1.0748927780e+02   1.5507450283e+01    0.2890713    0.1352359  39.17  0.001138001    2.145    0.534
        96  -7.8471    122.9544    162.7263   1.1762354107e+02   2.4561209021e+01    0.2068281     0.179843  43.20  0.001141367    1.145    0.126
        97  -7.2594    200.3295    161.3318   1.0056607381e+02   9.6128363201e+00    0.1494464    0.1073029   5.70 0.0007051845    1.718    0.418
        98  -7.2486    138.2766    158.3167   1.1320500520e+02   2.2614554628e+01    0.1413841     0.116179  -8.62 0.0002854725    1.569    0.363
        99  -7.6415     21.3430    157.3170   1.4108549264e+02   3.9927087717e+01    0.1166738   0.08090325 -49.20 0.0007048736    1.715    0.417
       100  -7.8640    205.3154    152.3281   9.7653307023e+01   1.0199216921e+01    0.1490714    0.1084915   4.84 0.0007044778    1.675    0.403
       101  -7.9698    168.5615    151.9448   1.0507055342e+02   1.7821351791e+01    0.2140205    0.1283995 -19.90 0.0008074022    2.623    0.619
       102  -7.3343    107.3046    152.2790   1.1942815592e+02   2.9683179911e+01     0.134997    0.1146162 -13.46 0.0003931618    1.550    0.355
       103  -7.4021    145.6596    151.6860   1.1013679704e+02   2.2556976574e+01    0.1507542    0.1186307   1.22 0.0006147618    1.701    0.412
       104  -7.8286    133.2976    147.9381   1.1224537509e+02   2.5814943001e+01    0.2122914    0.1907302 -52.72 0.0007992761    1.124    0.110
       105  -9.3718     67.0238    144.5711   1.2825697941e+02   3.7750004088e+01     0.490455    0.2832254  62.26  0.002292872    2.057    0.514
       106  -9.7675    229.6335    136.5865   8.9715753109e+01   8.0160518148e+00    0.2509324    0.2413796  -9.33  0.000450458    1.098    0.089
       107  -7.5610    139.6863    137.6928   1.0847700391e+02   2.6755742277e+01    0.1505247    0.1212505  -2.14 0.0007026325    1.624    0.384
       108  -7.4243    107.0601    137.3021   1.1652161712e+02   3.3141803065e+01    0.2300382     0.124049  18.61 0.0007036612    4.316    0.768
       109  -7.5612     55.4089    134.8219   1.2974040965e+02   4.1546784206e+01    0.1957595    0.1046537 -54.41 0.0009393605    1.722    0.419
       110  -8.4886      4.5614    133.9898   1.4285949874e+02   4.6555471852e+01    0.2143784    0.1380829 -22.27  0.001259094    2.447    0.591
       111  -8.3265     23.8052    130.0753   1.3749011155e+02   4.5958029586e+01    0.3192919    0.1662484 -29.59  0.001408982    3.487    0.713
       112  -7.8855     41.7651    129.3915   1.3257590588e+02   4.4388690749e+01    0.1609643     0.128171   8.75 0.0009563304    1.699    0.411
       113  -7.9566     67.3410    127.3241   1.2518711863e+02   4.1782171869e+01    0.1397628      0.10167 -32.05  0.000705098    1.728    0.421
       114  -7.7034    133.7145    124.2778   1.0678754527e+02   3.0902678633e+01    0.2491593     0.129638  32.99 0.0009137375    2.415    0.586
       115  -9.4144     13.7878    119.6268   1.3888064275e+02   4.9185351511e+01     0.366691    0.1634275 -39.09   0.00167019    3.082    0.676
       116  -7.9579    118.8493    119.3713   1.0938961788e+02   3.4996602398e+01    0.2216276    0.1424813  30.74 0.0009494348    1.845    0.458
       117  -7.9668    100.2451    118.8698   1.1426917913e+02   3.8599419794e+01    0.3007819    0.1754485  16.53  0.001071439    3.284    0.695
       118  -9.2642    247.9424    117.8839   8.2523087371e+01   7.4297156823e+00     0.254958    0.2196634  57.86 0.0003226011    1.359    0.264
       119  -7.5512     58.9833    114.0000   1.2501105150e+02   4.6033880538e+01    0.2055837   0.07876285  32.19 0.0008049448    2.960    0.662
       120  -7.8153    141.9878    112.0122   1.0164793823e+02   3.1771536249e+01    0.3115482    0.1936884   2.13 0.0009504518    4.063    0.754
       121  -9.2462      2.5724    109.3851   1.4075742507e+02   5.2282613578e+01    0.3681716    0.1610336 -50.47  0.001929366    2.102    0.524
       122  -8.2738    133.8965    106.6076   1.0222748352e+02   3.4672390107e+01    0.3630458    0.2018914 -34.85  0.001430651    1.985    0.496
       123  -9.3685     14.9108    105.0292   1.3659332123e+02   5.2473024775e+01     0.504853    0.2231127 -34.18  0.002219323    3.319    0.699
       124  -7.3512    124.0172    107.0000   1.0488005969e+02   3.6677488507e+01    0.2400951   0.08757333  44.64 0.0005608423    2.815    0.645
       125  -7.3591    109.5077    106.4573   1.0864812223e+02   3.9696257068e+01    0.1489061    0.1432914 -48.65 0.0002007248    1.009    0.009
       126  -7.4514     66.6731    104.6923   1.2073005551e+02   4.7200684070e+01    0.1406599    0.1014683 -28.74 0.0007037701    1.654    0.396
       127  -7.3565     64.4880    101.5047   1.2067340017e+02   4.8237360304e+01    0.1389037    0.1229404 -53.59 7.590544e-06    1.022    0.022
       128  -8.7932      7.6551     96.6855   1.3757381561e+02   5.4865379517e+01     0.180733     0.133496 -35.40 0.0007990857    1.508    0.337
       129  -8.8565     10.8070     95.5963   1.3643065948e+02   5.4913549080e+01    0.2152905    0.1548071  57.15  0.001368823    1.649    0.394
       130  -9.4140     21.0286     91.0103   1.3239137544e+02   5.5236652291e+01    0.3327286    0.1502327 -35.15  0.001500211    2.809    0.644
       131  -7.2497     83.4790     93.5506   1.1281750444e+02   4.7214777497e+01    0.1427831    0.1324816 -47.95 0.0008080857    1.013    0.013
       132  -8.8466     44.2545     92.0363   1.2497973357e+02   5.2871176423e+01    0.3266307    0.2058352 -31.76  0.001685402    1.839    0.456
       133  -7.3104     57.3051     92.2591   1.2077247415e+02   5.1296515972e+01    0.1309604   0.09667087 -28.15 0.0001472533    1.517    0.341
       134  -7.3398     53.3257     92.6708   1.2216224599e+02   5.1692969948e+01    0.1337151    0.1011048  81.43 0.0007050436    1.702    0.413
       135  -7.1820    108.6744     91.6622   1.0483499708e+02   4.3076511430e+01    0.1550097    0.1179158  -7.27 0.0006294629    1.723    0.420
       136  -8.0274     96.6930     90.3229   1.0793069658e+02   4.5637131243e+01    0.2933941    0.1828692  16.31   0.00117429    2.541    0.606
       137  -8.5460     67.7032     85.9994   1.1578783413e+02   5.1305689875e+01    0.3905331     0.192346  19.82  0.001479913    3.322    0.699
       138  -9.5989     35.9202     82.2230   1.2556908061e+02   5.5941742561e+01    0.6506466    0.2909975 -34.02  0.002708418    2.947    0.661
       139  -7.9941    126.4249     84.0262   9.7727437013e+01   4.0945820582e+01    0.3185435    0.1904301  14.42  0.001039991    3.542    0.718
       140  -8.4508     88.4619     79.0140   1.0712040354e+02   4.9508048925e+01    0.4491554    0.2560879  16.01  0.001658429    3.192    0.687
       141  -9.7950      8.3159     77.0939   1.3412730749e+02   5.9223194501e+01    0.4998204    0.2092201 -34.37  0.002351544    2.827    0.646
       142  -7.7477    184.5372     78.0205   8.2988190509e+01   2.8251505988e+01    0.2306564    0.1469605 -34.63 0.0005227728    1.545    0.353
       143  -8.9192     48.8709     76.6009   1.1964962893e+02   5.5809633584e+01    0.3272387    0.2313566 -35.98  0.001841293    1.348    0.258
       144  -7.3713    148.6698     76.2399   8.9881310575e+01   3.7311444290e+01    0.1486762    0.1202839 -87.50 0.0003186786    1.535    0.349
       145  -7.4108    119.7325     76.3143   9.7136251005e+01   4.3908232309e+01    0.1462349    0.1185213 -72.37 0.0002233828    1.549    0.354
       146  -8.4990     30.0283     68.5016   1.2435636187e+02   5.9501194438e+01    0.3145625    0.1583592   7.00  0.001434951    3.007    0.667
       147  -9.5174     24.4761     72.8610   1.2746605254e+02   5.9027406329e+01     0.487373    0.1795137 -44.68  0.001787597    2.369    0.578
       148  -8.0863     23.4443     69.4958   1.2705417908e+02   5.9842639011e+01    0.1920725     0.167897 -55.75 0.0005563198    1.103    0.093
       149  -8.2034     74.9040     74.8339   1.1021710719e+02   5.2632008079e+01    0.2175658    0.1752992 -15.56 0.0005154711    1.341    0.254
       150  -7.6872    129.0321     69.4652   9.2509868332e+01   4.3126597346e+01    0.2176562    0.1231257  29.08 0.0008087296    2.467    0.595
       151  -8.1424     42.9642     68.1634   1.1946232511e+02   5.8290235904e+01    0.2599858    0.1328924 -35.40  0.001222589    2.036    0.509
       152  -8.2977     80.5001     68.0168   1.0622361198e+02   5.3114260061e+01    0.2534033    0.1754709 -30.53 0.0004294298    1.438    0.304
       153  -8.6021     84.0621     63.8083   1.0366424518e+02   5.3326911136e+01    0.3774043    0.2427541   1.89  0.001593197    2.440    0.590
       154  -8.0527     61.6624     67.2065   1.1240764243e+02   5.6170807248e+01    0.2829965    0.1736092 -41.62 0.0007115184    1.452    0.311
       155  -9.5940     65.4529     61.2534   1.0914869724e+02   5.6826001095e+01    0.4290414    0.2949657 -20.94 0.0005681463    1.600    0.375
       156  -7.6334    106.5287     67.4284   9.7964161453e+01   4.8371383361e+01    0.1457081    0.1373462  -6.64 0.0001742734    1.023    0.023
       157  -9.6582     17.9168     62.1678   1.2737177369e+02   6.1832874500e+01    0.4430381    0.1987547 -43.17  0.001718879    1.885    0.469
       158  -9.9197    241.4906     62.0209   7.0242690769e+01   1.7312362174e+01    0.2507879    0.2451985 -49.40 -0.0001919401    1.127    0.113
       159  -8.9040     51.2590     60.3485   1.1403316034e+02   5.8938365223e+01    0.3400937     0.270623 -70.26  0.001645494    1.588    0.370
       160 -10.8050     38.3000     57.6787   1.1815433995e+02   6.0966774180e+01    0.5084996     0.288595 -16.36  0.000534927    2.448    0.591
       161  -9.3657    246.2905     57.9773   6.8725608560e+01   1.6836026803e+01    0.1938857    0.1631664 -41.65 0.0005668758    1.084    0.077
       162  -9.7685     17.4334     38.5963   1.2079010769e+02   6.6624009999e+01    0.4738738    0.1755217 -31.28  0.001977727    3.306    0.697
       163  -9.4961      2.3663     55.3709   1.3190058511e+02   6.4222406380e+01    0.4644776    0.2452399 -55.06  0.002791921    1.387    0.279
       164 -10.2374      9.6549     47.8866   1.2701266869e+02   6.5345761229e+01     0.680478    0.2702188 -32.12  0.002863713    2.762    0.638
       165  -7.9416     99.2912     54.0281   9.5477708702e+01   5.2245022270e+01    0.2053083    0.1770207 -24.43 0.0006792645    1.110    0.099
       166  -8.0934    118.2249     51.2900   8.9185547103e+01   4.8672627999e+01    0.2656638    0.1753985  54.79  0.001123416    1.571    0.363
       167  -7.8903     81.7448     51.6374   1.0015282804e+02   5.5978717096e+01    0.1863837    0.1289291  51.02 0.0009424827    1.709    0.415
       168  -9.0007     75.2678     50.2095   1.0182338362e+02   5.7348376389e+01    0.2546643    0.2113986   6.66 0.0002529143    1.208    0.172
       169 -10.2367     45.3456     49.0745   1.1255858981e+02   6.1870978724e+01    0.2635669    0.2047268 -17.64 0.0009037487    1.228    0.186
       170  -7.1873     91.6836     49.6443   9.6210640695e+01   5.4485627701e+01    0.1482345    0.1045268   2.39 0.0007045347    1.746    0.427
       171  -8.5742    106.9543     48.0625   9.1091091975e+01   5.1648829092e+01    0.2122483    0.1937072   9.46 0.0002894157    1.045    0.043
       172  -9.8013     24.4441     47.2457   1.2053947645e+02   6.4375643167e+01    0.4814175    0.2519115   1.33  0.002312126    2.715    0.632
       173  -8.8545     31.5216     44.1269   1.1651730755e+02   6.4325403102e+01    0.2788753    0.1707749  -5.30  0.001470241    2.018    0.504
       174  -9.6008      2.2651     45.5687   1.2955968376e+02   6.6237679814e+01    0.2606019    0.1930307 -56.20  0.001451603    1.125    0.111
       175  -9.4254     39.9606     41.3495   1.1198007246e+02   6.3943012607e+01    0.4522735    0.2149971  14.62  0.001959481    3.197    0.687
       176  -8.4687     94.2884     42.4895   9.2714329722e+01   5.5136317353e+01    0.5417776    0.1490236  44.43  0.001778703    3.589    0.721
       177 -10.1985     83.2959     40.0304   9.5229163840e+01   5.7633573132e+01    0.2870065      0.22009  24.10            0    1.299    0.230
       178  -9.4641      6.6271     34.1706   1.2429728980e+02   6.8221174688e+01    0.4206282    0.2431425 -21.42  0.002587678    1.754    0.430
       179  -7.4908    123.4984     40.5228   8.4015193780e+01   4.9095892576e+01      0.14543    0.1325569  23.23  0.000809523    1.060    0.057
       180 -10.3326    138.0005     37.0025   7.9477081252e+01   4.6123522880e+01    0.2460809    0.2365113  13.12            0    1.047    0.045
       181  -8.5965    106.4081     36.9364   8.7086918668e+01   5.3441946513e+01    0.3658853    0.2206917  22.40  0.001470965    2.123    0.529
       182  -8.6583     92.1724     36.8351   9.1160681130e+01   5.6414802885e+01    0.3329461    0.2239108  35.56 0.0008497558    1.466    0.318
       183  -9.4323     96.0154     33.2941   8.8607977311e+01   5.6145960382e+01    0.2707956    0.2225063   7.48 0.0002929671    1.192    0.161
       184  -8.8558     70.2767     35.9956   9.8063124422e+01   6.0564913578e+01     0.341412    0.1914255  19.43  0.001533697    2.386    0.581
       185  -9.5176     54.6716     36.5239   1.0413521375e+02   6.2899407595e+01     0.292762    0.2230596  11.94  0.001016316    1.320    0.242
       186  -9.0390     38.1611     35.3556   1.1046340117e+02   6.5222492489e+01    0.2792079      0.19254   2.03  0.001126929    1.560    0.359
       187  -8.4432     77.0273     34.2572   9.5000376784e+01   5.9662121152e+01    0.2553515    0.2350483  21.56  0.001611665    1.155    0.134
       188  -8.4846     81.7182     32.3975   9.2672377780e+01   5.9079001270e+01    0.3666978    0.2152026  -8.72  0.001188422    2.235    0.552
       189  -7.4693    143.9442     34.0092   7.7230177661e+01   4.5054287361e+01    0.1687921    0.1593497  50.75 0.0004038543    1.009    0.009
       190  -8.2065    104.9943     31.4820   8.5365410287e+01   5.4497152534e+01    0.2051734     0.129337  49.34 0.0005478679    1.526    0.345
       191  -8.0668     88.0056     31.1775   9.0168810960e+01   5.8049063160e+01    0.2326167    0.1362628  26.33  0.001081691    1.954    0.488
       192  -9.2082      1.5824     29.9326   1.2533012014e+02   6.9316823541e+01    0.2693973    0.1064676 -54.22  0.001299431    1.897    0.473
       193  -8.6634    127.9251     30.0951   7.9220322306e+01   4.9443063980e+01    0.2057428    0.1914249  28.44 0.0003304508    1.027    0.026
       194  -8.3438    112.5022     29.8693   8.2781682538e+01   5.3048743857e+01    0.3566102    0.1476735  41.08  0.001373655    2.508    0.601
       195  -7.4589    153.3104     27.2800   7.3229321955e+01   4.3541392999e+01    0.1449902    0.1012897  34.98 0.0002826461    1.563    0.360
       196  -9.6403     71.6861     25.9287   9.3325414190e+01   6.1813534602e+01     0.373779    0.2060147  41.13  0.001543575    1.794    0.443
       197  -8.5523     61.8280     26.8769   9.7315709781e+01   6.3332961882e+01    0.2203765    0.1700417   0.81 0.0005392969    1.209    0.173
       198  -8.8381     57.4844     25.1985   9.8240484779e+01   6.4260214424e+01    0.2708361    0.2047744  35.16  0.001009743    1.401    0.286
       199  -8.9451     47.8423     25.8857   1.0242244619e+02   6.5563035878e+01    0.3474154    0.1575474  26.86  0.001047684    2.590    0.614
       200  -7.3967    102.3569     25.2904   8.3625965283e+01   5.5861067153e+01    0.1460927    0.0941861  25.27 0.0007015869    1.685    0.406
       201  -8.7461     27.3251     22.9317   1.1023084764e+02   6.8511580520e+01    0.4135663    0.1503407 -29.55  0.001641553    3.505    0.715
       202  -8.8053    234.1237    243.5813   1.0943868304e+02  -7.9249046352e+00    0.2519481    0.1557992   2.24 0.0008127592    1.697    0.411
       203  -8.3068     74.2320    247.6122   1.3844469712e+02   1.5501815936e+01    0.1488857   0.09294131  36.69 0.0009419405    1.665    0.399
       204  -9.6932     83.4678     22.0404   8.7745769425e+01   6.0144849032e+01    0.5316573    0.2106991  43.78  0.001980277    2.371    0.578
       205  -8.7289     64.9787     23.1628   9.4505518772e+01   6.3345513844e+01    0.1908294    0.1604317  85.42  0.001100631    2.092    0.522
       206  -8.6492     92.1554     20.7561   8.4595412450e+01   5.8562432312e+01    0.3182372     0.212279 -13.69   0.00168867    1.544    0.352
       207  -7.5370     31.9851    247.4926   1.4555722518e+02   2.0687033490e+01    0.1137531     0.092207  10.75 0.0006655504    2.392    0.582
       208  -7.5225    116.8296     20.3674   7.8095561208e+01   5.3194925155e+01    0.1913146    0.1117354  47.12 0.0001037868    1.560    0.359
       209  -7.6505     45.8367     20.1854   1.0069878465e+02   6.6692829917e+01    0.1717211    0.1213494  -8.48 0.0004272063    1.309    0.236
       210  -8.0693    127.6860     16.9588   7.4475808027e+01   5.1000516850e+01    0.1798812    0.1727953   4.44 0.0003562443    1.091    0.083
       211  -8.4984    249.7689    244.9041   1.0706313135e+02  -1.0222292671e+01    0.2813033     0.118741 -16.05  0.001307145    3.429    0.708
       212  -7.2548    189.3251     16.3063   6.4640409206e+01   3.5654080319e+01     0.138778   0.09777724  39.81 0.0006176462    1.647    0.393
       213  -8.7652     50.5868     15.0827   9.6322767381e+01   6.6717762595e+01    0.2839513    0.1724395  25.20 0.0009694139    1.635    0.388
       214  -9.4042    224.6506    245.6203   1.1135244076e+02  -6.8019361029e+00    0.1952374     0.164323  17.05 0.0005614463    1.169    0.145
       215  -8.8795    218.6158    245.2377   1.1232521528e+02  -5.8794907322e+00    0.2426849    0.1481304  -0.79  0.001417975    1.979    0.495
       216  -9.7016    192.6982    244.3587   1.1672887038e+02  -1.8601164207e+00    0.2305407    0.2007814  19.21  0.001016138    1.124    0.110
       217  -8.2584    146.7858     14.0163   6.9931401279e+01   4.6615522818e+01    0.2068744    0.1663869  36.84 0.0004018423    1.259    0.206
       218  -9.6468    156.7460    245.1554   1.2332477798e+02   3.6646320011e+00    0.2701651    0.1694726  28.35  0.001301408    1.600    0.375
       219  -8.2704    243.3253    244.0913   1.0798926873e+02  -9.2624966981e+00    0.1789862    0.1149274   0.34 0.0006869537    1.489    0.328
       220  -8.9265    176.6699    243.9632   1.1954797171e+02   6.9334938633e-01    0.1631857    0.1433556  29.21   0.00114857    1.106    0.096
       221  -8.0436    106.2544     10.5835   7.6689598318e+01   5.6618923660e+01    0.1838656    0.1083907  46.77 0.0003132619    1.502    0.334
       222  -7.8523     95.5351    243.5211   1.3430961993e+02   1.3248760584e+01    0.1169108   0.09100743  57.99 5.279889e-05    1.003    0.003
       223  -7.7718     26.1417    241.3224   1.4617579524e+02   2.2402747725e+01    0.1529554   0.06522314  49.35 0.0009211556    1.773    0.436
       224  -8.7207    170.2207    239.6362   1.2012560259e+02   2.3215609867e+00    0.2322645    0.1588651  17.44 0.0008540791    1.682    0.405
       225  -8.9110    242.0522    237.0961   1.0708525849e+02  -8.3166250910e+00    0.3146122    0.1625039 -18.51  0.001773077    2.142    0.533
       226  -7.3977    214.5466    239.4442   1.1214539738e+02  -4.5800877395e+00    0.1187723   0.09218621  20.80 0.0001018661    1.021    0.021
       227  -8.3359    121.7329    239.0061   1.2903458584e+02   1.0097385135e+01    0.1679707    0.1421455  58.91  0.001171342    1.079    0.073
       228  -7.7838     79.7748    238.4153   1.3668822869e+02   1.6338001291e+01    0.1512839   0.09855846  35.72 0.0007494459    1.636    0.389
       229  -8.0836    230.8938    237.1146   1.0896464541e+02  -6.7230951225e+00    0.1613534    0.1107735  11.13 0.0003978049    1.303    0.232
       230  -7.3206    148.4708    237.5097   1.2386748236e+02   6.1238865336e+00    0.1220659    0.1004243  38.22 7.973638e-05    1.066    0.062
       231  -7.8351    195.8828    236.1215   1.1494690615e+02  -1.2751730199e+00    0.1698147    0.1210114  18.57 0.0005300338    1.335    0.251
       232  -9.8975    188.7182    234.4454   1.1599356156e+02   9.0100549567e-02    0.3218848    0.2603866  37.35   0.00140754    1.123    0.109
       233  -8.1290    162.0599    234.2954   1.2089855419e+02   4.4210664381e+00      0.18525    0.1611375   7.79 0.0006291794    1.281    0.219
       234  -8.2806    248.3817    233.2525   1.0541096266e+02  -8.7710376788e+00    0.1710362    0.1287728 -24.37 0.0006335646    1.450    0.310
       235  -7.4991    138.2378    234.6108   1.2541659713e+02   8.2189455308e+00    0.1707166    0.1002285  34.15 0.0008877481    1.616    0.381
       236  -7.6613     91.0527    234.7958   1.3428785507e+02   1.5392389070e+01    0.1602193   0.07759806  43.00 0.0008586916    1.720    0.419
       237  -7.5857    204.5045    230.9971   1.1260762862e+02  -1.9537243916e+00    0.1521647   0.09448016  -3.39 0.0007465306    2.164    0.538
       238  -7.7555     26.4331    231.4321   1.4557630117e+02   2.4148710450e+01     0.108525    0.0769838  70.40 0.0001169296    1.015    0.015
       239  -8.0229    249.7178    238.5394   1.0605471275e+02  -9.5369765737e+00    0.1449586   0.09345859  38.38 0.0009413469    1.584    0.369
       240  -7.7749    236.8969    229.1423   1.0664932936e+02  -6.6587322230e+00    0.1619823    0.1400316  16.70 0.0004542915    1.234    0.190
