#   1 NUMBER                 Running object number                                     
#   2 MAG_AUTO               Kron-like elliptical aperture magnitude                    [mag]
#   3 X_IMAGE                Object position along x                                    [pixel]
#   4 Y_IMAGE                Object position along y                                    [pixel]
#   5 X_WORLD                Barycenter position along world x axis                     [deg]
#   6 Y_WORLD                Barycenter position along world y axis                     [deg]
#   7 A_WORLD                Profile RMS along major axis (world units)                 [deg]
#   8 B_WORLD                Profile RMS along minor axis (world units)                 [deg]
#   9 THETA_WORLD            Position angle (CCW/world-x)                               [deg]
#  10 FWHM_WORLD             FWHM assuming a gaussian core                              [deg]
#  11 ELONGATION             A_IMAGE/B_IMAGE                                           
#  12 ELLIPTICITY            1 - B_IMAGE/A_IMAGE                                       
         1 -10.7180     33.8921     62.5872   1.0862788602e+02   6.0080725796e+01     1.677699    0.6253006 -36.73  0.006080382    4.087    0.755
         2 -10.3259      9.9415     19.1338   1.0625221984e+02   7.0992587454e+01     1.139556    0.3812194 -27.51  0.003612121    6.712    0.851
         3 -10.7156     37.2315      9.4842   8.7830981937e+01   7.0065227114e+01    0.8886019     0.351356 -46.23  0.002945565    2.611    0.617
         4 -10.1176     28.4518     11.1600   9.3079630172e+01   7.0821777015e+01     0.650525    0.5601386   2.81  0.004689515    1.222    0.182
         5 -10.3114     18.3241      5.5750   9.5771748251e+01   7.2780517537e+01    0.6306725    0.3793139 -52.77   0.00294441    1.751    0.429
         6 -11.0069     23.4048     33.1882   1.0455324570e+02   6.7211995985e+01      1.45709    0.3991448 -45.76  0.004626402    2.854    0.650
         7  -9.4163      2.3121     14.3520   1.0863519520e+02   7.2378018526e+01    0.4029015    0.2094525 -71.36  0.001896454    2.364    0.577
         8 -10.4928      5.0001      4.5002   1.0304890565e+02   7.4033992475e+01    0.4778455    0.3744573 -15.56  0.002392767    1.236    0.191
         9 -10.1847      5.0202     42.2233   1.1541243524e+02   6.6595009053e+01    0.9220907    0.3260939 -72.84  0.004037263    2.921    0.658
        10 -10.0225      7.2775     28.1129   1.1061446020e+02   6.9390379169e+01     0.321265    0.2663011  49.88 0.0009751815    1.623    0.384
        11 -10.8484    134.1044     30.8189   6.5087707110e+01   4.8005596260e+01    0.4401516    0.2981641  -6.22  0.002002391    1.757    0.431
        12 -10.6472     73.9805     16.7364   7.6055219254e+01   6.3235544994e+01      1.67214    0.5124767 -27.87  0.005578246    3.835    0.739
        13  -8.6388     78.8532      3.1229   6.7650893823e+01   6.4013249274e+01    0.2779966     0.206025 -28.99 0.0007117199    1.373    0.272
        14  -9.7461     60.1422     33.3598   8.8719190170e+01   6.2867270196e+01    0.6824856    0.2749341 -44.99  0.002563693    2.287    0.563
        15  -9.9075     63.1872     21.3414   8.2271147644e+01   6.4426175290e+01    0.7559251    0.3564658 -45.26  0.002360691    2.286    0.563
        16 -10.1374     64.5592     13.3609   7.7903742646e+01   6.5394586278e+01    0.5356917    0.3606055 -15.30  0.002173915    1.458    0.314
        17 -10.3828     50.4086     15.5776   8.4812910135e+01   6.7311747021e+01     1.382661    0.7482241  -0.21  0.005429175    3.755    0.734
        18  -9.8901     79.4639     23.9490   7.7467565499e+01   6.1155422293e+01    0.6658072    0.3213574  27.65  0.001994133    3.045    0.672
        19  -8.9735    119.6874     16.9816   6.2908187980e+01   5.3321877230e+01    0.4859811    0.2532882  11.87  0.001724396    3.251    0.692
        20  -9.0878    114.1338     10.1276   6.1309773928e+01   5.5435304722e+01    0.3708285    0.2162565  35.84 0.0002809638    1.753    0.430
        21  -8.7790    112.3852     15.5620   6.4057777241e+01   5.5238435823e+01    0.3066752     0.225339 -39.72  0.000593073    1.470    0.320
        22  -8.4786    110.2901      7.6856   6.1149865198e+01   5.6610307284e+01     0.206502    0.1961259 -39.60 0.0006285122    1.184    0.155
        23  -9.0102    109.7483      3.5822   5.9459915584e+01   5.7151491493e+01    0.4058681    0.2808456 -50.36  0.001957101    1.788    0.441
        24  -9.3727     96.2676     14.7857   6.7999100765e+01   5.8995396293e+01    0.6707249    0.2753468 -17.57  0.002424973    3.147    0.682
        25  -9.1649     96.8836      4.5571   6.3090785002e+01   6.0024298179e+01    0.4854495      0.30472 -43.32  0.001723103    1.892    0.471
        26  -8.5067    104.9267     14.2949   6.5404448328e+01   5.7121749697e+01    0.4976222    0.2227756 -16.91  0.001931008    2.644    0.622
        27  -8.7108    101.9755      7.9160   6.3312526299e+01   5.8519217220e+01    0.3415738    0.2112109 -43.80  0.000690488    1.906    0.475
        28  -9.5666    131.2978     17.0146   6.0368183594e+01   5.0440701772e+01    0.5269741     0.289616  71.08  0.001796308    2.068    0.516
        29  -9.1872    134.9613      2.5979   5.3965979228e+01   5.0978243226e+01    0.5451108    0.3039695  25.71  0.002346946    2.147    0.534
        30  -9.1305    133.1348     10.7814   5.7537435759e+01   5.0654360206e+01    0.5818712    0.1802163 -34.73  0.002007591    3.116    0.679
        31  -9.5432     85.2487     13.1122   7.0538379238e+01   6.1530305909e+01    0.4341079    0.2689064 -53.14  0.001431961    2.384    0.581
        32  -7.9519     80.4932     12.5448   7.1804004438e+01   6.2557544504e+01    0.2532637    0.1658749 -50.90 0.0009567829    2.080    0.519
        33  -9.0591     87.8951      4.2303   6.5439853665e+01   6.2020482419e+01    0.6075227    0.3305685  27.18  0.002785991    2.069    0.517
        34  -8.2212    141.5468     12.4786   5.6611847672e+01   4.8310298272e+01     0.252826    0.1175912 -35.97 0.0006041243    2.188    0.543
        35  -7.8135    137.4951      9.4920   5.6207587711e+01   4.9667122130e+01     0.141048    0.1363396  64.86 2.782034e-05    1.061    0.058
        36  -9.1527    127.0085      8.9972   5.8038015294e+01   5.2389194184e+01    0.2245177    0.1946792  37.98 0.0005540917    1.082    0.076
        37  -9.6415    125.9292      4.9644   5.6603570218e+01   5.3057964847e+01    0.4250497    0.2597899  19.91   0.00160467    1.916    0.478
        38  -8.9525    142.3425      4.6798   5.3505737145e+01   4.8873773342e+01    0.5295456    0.2562634 -43.48  0.002173556    2.323    0.569
        39  -8.7365    115.1688      4.3360   5.8574782709e+01   5.5776622662e+01    0.2503254     0.194879 -27.45 0.0007135081    1.341    0.254
        40  -9.6733     63.8671      2.9896   7.2792079273e+01   6.6881418317e+01    0.3661164    0.2600174 -52.68  0.001772766    2.086    0.521
        41  -8.2216    104.2447      2.2080   6.0134407647e+01   5.8578566621e+01    0.2743222    0.1798835  31.32  0.001394931    1.500    0.333
        42  -7.2526    172.9611      1.1903   4.7892259253e+01   4.1057325402e+01     0.181779    0.1042101  72.76 0.0008158392    1.644    0.392
        43  -7.7523    150.7027      1.6673   5.1057864159e+01   4.6947493622e+01    0.1516798   0.09772341  35.32 0.0007029593    1.644    0.392
        44  -8.1326    241.5332    131.2845   7.3728758947e+01   6.9607451684e+00    0.1825559    0.1198753 -14.32 0.0005945418    1.540    0.351
        45 -10.9705    203.6992    249.4177   1.0084056363e+02  -1.0181375747e+00    0.6671072     0.231737  42.83  0.003481989    2.192    0.544
        46 -10.7957    194.2391    248.1428   1.0220686970e+02   5.0780963156e-01    0.5177041    0.2580984  34.13  0.003175647    1.568    0.362
        47  -8.9862    155.2341    250.0103   1.0884601907e+02   6.1151472957e+00    0.1658594   0.09571554  54.10  0.001053376    1.638    0.390
        48  -9.7751     98.5285    128.6275   1.0311218312e+02   3.6527012602e+01    0.5993997     0.340046  71.04  0.002328875    2.791    0.642
        49  -7.9026     82.3190    130.8402   1.0766190067e+02   3.8629949849e+01    0.2651214    0.1190416 -68.85  0.001064734    2.577    0.612
        50 -10.4985    123.7129     90.1681   8.7459178977e+01   4.0005161110e+01     1.140317    0.5423955 -35.89  0.002939181    2.404    0.584
        51 -10.1187    117.3123    124.7959   9.7600600135e+01   3.3995037035e+01    0.8374808     0.570818 -68.08  0.002470809    1.683    0.406
        52 -10.0748    108.7474    114.6417   9.7564004761e+01   3.7775906183e+01    0.6883669    0.4128805 -79.84   0.00168137    2.820    0.645
        53 -10.5087    132.2426    119.8510   9.2832326612e+01   3.2099824133e+01     1.016287    0.5722998  72.36  0.003148219    3.708    0.730
        54 -11.2752    133.7009    109.4602   8.9993063862e+01   3.3933539650e+01     1.592465    0.7121683 -53.74  0.005770241    2.618    0.618
        55  -9.8880    127.5227    102.4141   8.9756830351e+01   3.6680641254e+01    0.4891253    0.4067895 -47.75  0.001721026    1.201    0.167
        56 -11.0567    121.1097    110.2493   9.3343771486e+01   3.6347483795e+01     1.172639    0.6191533 -50.30  0.002997376    1.907    0.476
        57 -10.7683    109.1310    101.1710   9.4271761084e+01   4.0621965537e+01      1.05077    0.7618253 -82.44   0.00493257    1.814    0.449
        58  -8.1348    238.2216    127.7317   7.3460185432e+01   8.0989196950e+00    0.1849345    0.1427462   5.65 0.0005603186    1.297    0.229
        59  -7.2425    176.6717    127.2505   8.4589505884e+01   2.1192631875e+01    0.1405473    0.1155081  81.38 0.0002318466    1.547    0.354
        60  -9.4536     41.5601    122.2205   1.1704348209e+02   4.5802925266e+01    0.4925008    0.2237446 -87.00  0.001734223    2.754    0.637
        61  -9.7307     27.4746    123.1378   1.2088167994e+02   4.6975922876e+01    0.5332963    0.2499045  69.67   0.00232887    2.569    0.611
        62  -8.2725    151.6192    121.7504   8.8727937126e+01   2.7658232196e+01    0.2007674    0.1396904 -53.21 0.0004682342    1.562    0.360
        63  -9.8886    140.7501    118.5722   9.0497464689e+01   3.0598639913e+01    0.4479636    0.3364041 -82.76  0.001205177    1.781    0.439
        64  -8.1313     98.9752    120.0248   1.0128367609e+02   3.8339274905e+01     0.282632    0.1770347 -15.14 0.0009690968    4.217    0.763
        65 -10.1679     91.9038    113.1486   1.0173251380e+02   4.1058383489e+01    0.5730131    0.4187326 -88.50  0.001780164    1.618    0.382
        66  -9.0211     92.3633    103.8936   9.9559348187e+01   4.3043652555e+01    0.5997757    0.3680432  17.02  0.002434748    2.872    0.652
        67  -8.2706      1.3928    116.2531   1.2700111147e+02   5.0503663454e+01     0.261311   0.08789374 -80.73 0.0009380715    2.432    0.589
        68  -9.0621    153.0133    115.5691   8.6930582643e+01   2.8557455562e+01     0.291142    0.2053989 -59.01 0.0007860319    1.654    0.395
        69 -10.1748     78.2256    113.0925   1.0548104490e+02   4.3227808249e+01    0.5324981    0.3173501 -86.35  0.001637624    2.373    0.579
        70  -8.3169    158.0036    122.0322   8.7361724853e+01   2.6225311103e+01     0.336185    0.2026118  69.54  0.001017327    2.583    0.613
        71  -8.9742     61.1725    105.6082   1.0888240782e+02   4.7305571310e+01    0.3002266    0.2366166 -12.95  0.001686578    1.804    0.446
        72  -8.9273     64.1659    101.8218   1.0726467240e+02   4.7779700101e+01    0.3667782    0.2691913  81.58  0.002005072    1.541    0.351
        73  -8.6996     69.2748    102.6448   1.0592676642e+02   4.6895369455e+01    0.2460204    0.1884924 -48.93  0.000920477    1.299    0.230
        74 -10.1971     65.6036    110.9793   1.0861598112e+02   4.5496098511e+01    0.6029529    0.4418041 -70.92  0.002158214    1.255    0.203
        75  -9.5265     59.4207    109.5021   1.1010624680e+02   4.6637888064e+01    0.2502365    0.1813307 -61.18 8.679384e-05    1.247    0.198
        76 -10.0345     14.3316    111.4570   1.2310373103e+02   5.0673418242e+01    0.5121757    0.2373884  69.37  0.002031933    2.507    0.601
        77  -8.5039     14.4528    105.4313   1.2240010714e+02   5.2014372357e+01    0.1955102    0.1559096 -62.13 0.0006553423    1.229    0.186
        78  -8.9235    159.0376    111.7179   8.4621499729e+01   2.7962788152e+01     0.255058    0.1999402 -54.47 0.0005410353    1.385    0.278
        79  -9.6185     33.9551    109.7912   1.1742503799e+02   4.9387879540e+01    0.4085515    0.2813897  63.06  0.002472886    1.504    0.335
        80  -8.7163    149.7029    110.0013   8.6309751590e+01   3.0370883924e+01    0.2159169    0.1861706 -42.46 0.0004588478    1.182    0.154
        81 -10.9009     44.8120    102.3780   1.1311798804e+02   4.9981130396e+01    0.8013608    0.3881314  72.48  0.003029726    3.821    0.738
        82  -8.8841     40.1261    107.1721   1.1527102447e+02   4.9375589951e+01    0.2169393    0.1525051  64.31 0.0004859336    1.499    0.333
        83 -10.4552     25.4362     78.1259   1.1497670539e+02   5.7349082413e+01    0.6122425    0.3947915  75.28  0.002071132    1.879    0.468
        84 -10.6947    186.4213    242.7735   1.0281545771e+02   2.2663285216e+00    0.5215422    0.3531672  76.18  0.002847463    3.414    0.707
        85 -10.8226     20.9684    100.9212   1.1996159426e+02   5.2536505618e+01      1.09401    0.4717806  82.96  0.003372523    3.401    0.706
        86  -9.6211     19.9330     85.5257   1.1806124691e+02   5.6105742238e+01    0.5625569    0.1688051 -59.41  0.002094178    2.439    0.590
        87  -9.9972     34.5203     90.8810   1.1428586099e+02   5.3653296868e+01    0.5151011     0.239389 -82.47  0.002085574    2.695    0.629
        88  -9.9627     36.7677     81.3115   1.1176264189e+02   5.5618062149e+01    0.6446643    0.3495955 -21.32  0.002774141    3.468    0.712
        89 -10.2283     49.8284     53.6275   1.0005967184e+02   6.0293239962e+01    0.6880516    0.3508315 -62.35  0.002217671    2.172    0.540
        90  -9.7061     56.0911     43.5894   9.4255647180e+01   6.1521545727e+01    0.7190372    0.4005653  -9.70  0.002655529    4.046    0.753
        91  -9.7834    139.3240    104.4760   8.7359566905e+01   3.3742769545e+01    0.4842372    0.2967517 -55.69 0.0007518065    1.851    0.460
        92  -9.3058    140.9947     99.4884   8.5647212632e+01   3.4373509747e+01    0.4278407    0.2421326  29.96   0.00161592    2.466    0.594
        93  -8.1049     78.2010    105.4436   1.0392391813e+02   4.4962936499e+01    0.2759162    0.1981592 -25.33  0.001218355    1.972    0.493
        94  -9.5133      6.3969    103.7688   1.2449405347e+02   5.2939281864e+01    0.4009114    0.1974263  66.19   0.00150582    2.217    0.549
        95  -9.6152    149.6110    103.2916   8.4608538515e+01   3.1701935463e+01    0.4009759    0.3016404 -62.86 0.0009520411    1.562    0.360
        96  -9.2555    164.4217    103.9619   8.1447839899e+01   2.8197615832e+01    0.4654151    0.2334582  50.90  0.001435971    1.978    0.494
        97  -8.4358    158.9917    101.4248   8.1977820751e+01   2.9924494536e+01    0.2769313    0.2042186 -56.86 0.0004125919    1.537    0.349
        98  -8.2844     73.7270    102.4060   1.0457350308e+02   4.6314692865e+01    0.3563657    0.1728633 -63.92 0.0009756152    2.084    0.520
        99  -9.5143     81.4549    100.1371   1.0182084950e+02   4.5661193286e+01    0.3844599    0.2543225 -77.92  0.001053343    1.825    0.452
       100  -8.2443     81.9050     94.2187   1.0030819427e+02   4.6918276423e+01    0.3608377    0.2448649  -5.17  0.001532129    2.701    0.630
       101  -9.1679    245.3244     99.4595   6.5789305457e+01   1.0590529853e+01    0.2550479     0.116543 -29.99  0.001084932    1.996    0.499
       102  -9.7665    219.6348     98.0006   6.9378092604e+01   1.6383428093e+01    0.2551546    0.2346057  33.89  0.000417561    1.101    0.091
       103  -9.3721     94.3971     97.2859   9.7409493780e+01   4.4158160299e+01    0.3206561    0.2354424 -70.20 0.0007029374    1.485    0.327
       104  -8.7287     95.9288     91.0569   9.5389766258e+01   4.5253618943e+01    0.4663124     0.308615  -9.05  0.001853328    2.934    0.659
       105 -10.3478     62.9300     95.5975   1.0635068650e+02   4.9364099057e+01    0.5361542    0.3212397 -88.34  0.001524366    2.390    0.582
       106  -9.0185     64.6974     86.3009   1.0371638659e+02   5.1235233625e+01    0.6229003    0.3790829 -12.84  0.002472454    3.521    0.716
       107  -8.1153     63.5499     81.8101   1.0300243920e+02   5.2399774430e+01    0.2088016    0.1218387 -57.59 0.0006961696    1.540    0.351
       108  -8.9039    150.2652     96.5302   8.2651234640e+01   3.2863015382e+01    0.3064815    0.2333044  -2.22  0.001391779    1.758    0.431
       109  -8.8781    240.6871     96.0610   6.5639779776e+01   1.2039988085e+01     0.382024     0.136251  40.62  0.001300001    3.554    0.719
       110  -7.4032    171.0351     95.9797   7.7904360712e+01   2.8109802242e+01    0.1798831    0.1766437  24.68  0.000344556    1.004    0.004
       111  -8.7252    164.5067     94.6028   7.8923763990e+01   2.9906059316e+01    0.2909294    0.2411852 -60.85 0.0007223759    1.350    0.259
       112  -8.4003    224.3559     94.2989   6.7682512335e+01   1.5874485832e+01    0.2564127    0.1628234  41.76 0.0006440452    1.645    0.392
       113  -9.3829    138.8152     92.7553   8.4347067821e+01   3.6193614006e+01    0.3841126    0.2870646 -73.47 0.0009867481    1.744    0.427
       114  -8.2374    139.2557     87.8534   8.2858941997e+01   3.7056828416e+01    0.3955197    0.2341629  32.56  0.001330626    2.112    0.526
       115  -9.0096    140.5234     83.1970   8.1200471241e+01   3.7667309405e+01    0.4626471    0.3229893 -85.02  0.001783644    2.271    0.560
       116  -9.4710    140.2156     76.0865   7.9145760750e+01   3.9084582578e+01    0.7854456    0.3607599 -37.34  0.001690037    2.189    0.543
       117 -10.1596      4.3939     89.4899   1.2350380588e+02   5.6246818601e+01    0.5802208    0.2738016  80.92  0.001870372    2.380    0.580
       118  -9.4493      5.9520     78.7987   1.2163648478e+02   5.8544006258e+01    0.7390217     0.290568 -30.88  0.003020635    4.553    0.780
       119  -7.9547    157.7407     91.7621   7.9630434431e+01   3.2028261675e+01    0.2111492    0.1809906 -82.16  0.001023715    1.372    0.271
       120  -9.4844    150.4555     89.6787   8.0706636789e+01   3.4128039736e+01    0.4760821    0.2885115 -24.01  0.001737884    2.094    0.522
       121  -8.0624    116.3224     85.3265   8.8068465347e+01   4.2542970600e+01    0.3914386    0.2642314  -0.62  0.001534776    2.696    0.629
       122  -8.4493    106.9842     92.0000   9.2492924096e+01   4.3001644596e+01    0.3700176    0.2068003  40.57  0.001348652    1.885    0.470
       123  -9.1468    111.7737     89.7006   9.0541590519e+01   4.2553354221e+01    0.5514756    0.3213691  32.90  0.001585222    2.078    0.519
       124 -10.3301     47.9287     84.4238   1.0871106148e+02   5.3743851821e+01    0.6706946    0.3607056 -74.69  0.002000662    2.068    0.517
       125  -9.6156     48.9464     77.0338   1.0671604244e+02   5.5297780045e+01    0.7629441    0.4108449 -48.60  0.003840332    1.674    0.403
       126 -10.1314     85.3344     86.6035   9.7368862306e+01   4.8051854123e+01    0.4631193    0.3319146  88.05  0.000874628    1.939    0.484
       127  -9.6451     87.3655     78.9068   9.4654459176e+01   4.9383518312e+01    0.5870808    0.3845823  10.41  0.001643218    2.584    0.613
       128  -7.8187    174.6715     88.7182   7.5153159857e+01   2.8526211572e+01    0.1566081    0.1179383  20.49  0.000282723    1.603    0.376
       129  -7.9419    163.4736     87.0819   7.7049563978e+01   3.1521477389e+01    0.2272843    0.1514654 -35.93 0.0004407472    1.509    0.337
       130 -10.3729    104.0637     82.7091   9.0753769170e+01   4.5532924527e+01    0.4914205    0.3169757 -59.19 0.0008587822    1.712    0.416
       131  -7.3139     78.4660     89.4918   1.0019462459e+02   4.8513471567e+01    0.1387152    0.1267284 -69.34 0.0004366134    1.041    0.039
       132  -7.9161    170.5777     83.7858   7.4603732049e+01   3.0384642067e+01    0.2193685    0.1396532 -47.25 0.0006963022    1.664    0.399
       133  -8.9260    157.8588     83.1072   7.7138909948e+01   3.3593221050e+01    0.5256683     0.224948 -34.15  0.001386183    2.452    0.592
       134  -8.5575    156.9942     76.5540   7.5394496642e+01   3.4981805536e+01    0.4370061     0.210595 -36.56  0.001615246    2.067    0.516
       135  -8.9158    246.4522     81.0678   6.1158576561e+01   1.2872220117e+01    0.2510902    0.1808449  33.70 0.0008595038    1.553    0.356
       136  -8.7981    119.0353     80.4923   8.5923090072e+01   4.2960806060e+01    0.3610196    0.2429971 -57.91 0.0007603391    1.681    0.405
       137  -8.1671    119.8279     76.1578   8.4402796744e+01   4.3657025873e+01    0.2335839    0.2188273  -5.36 0.0005244833    1.122    0.109
       138  -9.0497     74.2022     80.2855   9.9174240516e+01   5.1209642805e+01    0.3391427    0.2227825 -72.11   0.00078096    1.831    0.454
       139  -7.2606     74.5060     74.9827   9.7634212942e+01   5.2323495978e+01    0.1996258    0.1056168 -33.77 0.0008092499    2.443    0.591
       140  -7.9917     68.6834     79.5593   1.0076372583e+02   5.2184887853e+01    0.2519716    0.1149923 -55.23  0.001076459    1.992    0.498
       141  -9.1205    150.2262     79.3734   7.7767339454e+01   3.6106780965e+01    0.5655329    0.2691978 -30.36    0.0015127    2.412    0.585
       142  -8.6741    165.3308     78.2552   7.4097323811e+01   3.2638106834e+01    0.3935077    0.2876903 -88.28  0.001709335    1.907    0.476
       143  -7.8242    184.2871     77.9385   7.0212251386e+01   2.7994847410e+01    0.2097377    0.1962595 -15.25 0.0004829823    1.075    0.070
       144  -8.4631    162.8734     73.3631   7.3159639647e+01   3.4094353090e+01    0.2935852    0.2030311 -52.36 0.0007686898    1.604    0.377
       145  -9.1245    130.1022     57.2968   7.5588050775e+01   4.4859623398e+01    0.6216741    0.2338971 -33.90  0.001119004    2.735    0.634
       146  -8.3843    130.4764     64.0459   7.7752355849e+01   4.3573955180e+01    0.5323476    0.2859512 -47.46  0.002132836    1.995    0.499
       147  -9.4744    127.3224     75.2413   8.2131455555e+01   4.2195002136e+01    0.4279386    0.2681552 -52.61 0.0006959632    1.755    0.430
       148  -9.0822    128.7937     69.7636   8.0033543511e+01   4.2906369009e+01    0.8034011    0.3742888  29.90  0.002299936    4.410    0.773
       149 -10.1733     62.9696     60.7426   9.7397629189e+01   5.7072519256e+01     1.027894    0.2913823  33.58  0.002374079    4.322    0.769
       150 -10.1676     73.4051     57.1144   9.2556258681e+01   5.6257217050e+01     1.078149    0.3707216 -41.30     0.002575    2.888    0.654
       151  -8.7588     87.5237     58.3635   8.8232982004e+01   5.3605192564e+01      0.42454    0.2244247 -47.63  0.001516745    1.828    0.453
       152 -10.5377     54.9231     70.8492   1.0311963866e+02   5.5958892479e+01    0.6916469    0.4403124  68.66  0.001198718    2.449    0.592
       153  -9.0504     55.2251     63.3517   1.0095476899e+02   5.7554990606e+01    0.4538281     0.297106  14.15   0.00203715    2.054    0.513
       154 -10.5480     85.2404     48.1022   8.5352092869e+01   5.5987610039e+01    0.7292488    0.5125553 -80.59 0.0009444699    2.623    0.619
       155  -9.1948     80.1248     46.3257   8.6423226740e+01   5.7235099779e+01    0.3411418    0.2172114 -35.36 0.0005295828    1.488    0.328
       156  -9.3948    105.0621     70.9998   8.6956672757e+01   4.7747373726e+01    0.7675864    0.3784949 -37.56  0.002653993    2.096    0.523
       157  -9.9563     81.4804     72.3437   9.4617278601e+01   5.1778189593e+01    0.5253616    0.3158975 -62.93  0.001320871    1.947    0.486
       158  -9.0815     84.7684     63.4846   9.0821893584e+01   5.3067109976e+01    0.5278319    0.3444958 -13.23  0.002281789    2.405    0.584
       159  -9.9532    174.4998    249.5029   1.0560219226e+02   3.3008080012e+00    0.3326997   0.08062788  39.63   0.00138737    3.204    0.688
       160  -9.4612     15.9665     70.5751   1.1689486385e+02   5.9754127771e+01    0.3596598    0.1867132 -66.96  0.001226271    1.523    0.343
       161  -7.6504    141.6529    131.1557   9.3139362352e+01   2.7892058544e+01    0.2001407    0.1343856 -35.89 0.0004453057    1.692    0.409
       162  -9.5873     17.2216     61.1909   1.1461831287e+02   6.1749897118e+01    0.6884249    0.1955197 -63.37  0.002925285    2.602    0.616
       163  -9.2034    242.0382    247.5528   9.4581366263e+01  -6.2875915402e+00    0.1675096    0.1309022   2.70 0.0005559318    1.284    0.221
       164  -9.7068    188.1431    233.7857   1.0136469230e+02   3.0312115024e+00    0.2021106    0.1790438 -46.05  0.001383464    1.562    0.360
       165 -10.8039     21.9871     53.6340   1.1104907051e+02   6.3051760402e+01    0.7471528    0.3957426  89.49  0.002785073    3.423    0.708
       166  -9.9352     13.2736     45.4173   1.1262313865e+02   6.5432425523e+01    0.6461636    0.3307195 -22.42  0.003233551    2.620    0.618
       167 -10.1411    135.7223    233.4839   1.1037767916e+02   1.1219066411e+01     0.194586    0.1670004  49.01 0.0002435288    1.135    0.119
       168  -7.0739    212.2996    225.3199   9.6126637359e+01   2.2838754253e-01    0.1163023    0.0728911  17.35  0.000238621    1.621    0.383
       169  -7.8290      7.8903    221.3084   1.3150504826e+02   2.9335603175e+01    0.1341423   0.09342559  59.50 0.0004604049    1.153    0.133
       170  -7.6535    137.6938    219.0303   1.0836841360e+02   1.3007665787e+01    0.1517285    0.1296595  56.12  0.000297518    1.113    0.102
       171  -9.4099      6.9158     32.5178   1.1207396123e+02   6.8515319819e+01    0.2301331     0.176975 -31.12 0.0008002284    1.273    0.214
       172  -7.6895      2.5198    217.4744   1.3223762910e+02   3.0473106437e+01   0.09942367    0.0665062  68.64 6.084513e-05    1.003    0.003
       173  -8.0709    169.4963     71.1071   7.1105087661e+01   3.2825128774e+01    0.2316877    0.1505311 -35.00 0.0007698244    1.529    0.346
       174  -9.1998    147.0391     69.3577   7.5439238711e+01   3.8684677330e+01    0.4338171    0.2767349 -60.15  0.001104867    2.070    0.517
       175  -8.3594    156.4905     69.5973   7.3385019829e+01   3.6326321010e+01    0.3102498    0.1514954 -34.96 0.0006865498    2.046    0.511
       176  -9.7260     94.8546     68.2188   8.9142198087e+01   5.0281998608e+01    0.4717612    0.2488918 -49.27 0.0008536046    1.859    0.462
       177  -9.3570     96.7518     58.9102   8.5497870311e+01   5.1767929338e+01    0.7514282    0.4435999 -12.89  0.002713531    3.281    0.695
       178  -7.1647    163.6417     68.6966   7.1577868384e+01   3.4698403195e+01    0.1636338    0.1180394  22.93 0.0007038865    1.719    0.418
       179  -9.2014    138.2220     65.0456   7.6154416206e+01   4.1572052878e+01     0.620021    0.2538351 -31.86  0.001294111    2.689    0.628
       180  -9.0351    121.1738     65.9555   8.0812058913e+01   4.5332734944e+01    0.3608689    0.2601958 -57.71 0.0009248042    1.600    0.375
       181  -8.7586    121.6408     61.6537   7.9262300696e+01   4.6026860734e+01    0.3646003    0.2615896  24.48 0.0009979751    1.692    0.409
       182  -9.2295    115.2921     71.9104   8.4329183280e+01   4.5462008110e+01    0.5684695    0.2708898 -36.99   0.00152186    2.170    0.539
       183  -9.2689    109.6635     63.7058   8.3268900696e+01   4.8240040195e+01    0.3259057    0.2659794 -63.17 0.0006215087    1.401    0.286
       184  -9.0061    110.5863     58.2364   8.1155395004e+01   4.9075545363e+01    0.4074446    0.3112953  -3.41  0.001085913    1.625    0.385
       185  -7.8552    170.8363     64.1694   6.8727707038e+01   3.3626555118e+01    0.2379464    0.2057842 -60.58 0.0007967699    1.247    0.198
       186  -7.9071    147.4839     63.8844   7.3596608614e+01   3.9533581217e+01     0.264528    0.2083329  30.05 0.0008745548    1.390    0.280
       187  -8.4434    157.5166     62.9811   7.1089318605e+01   3.7193112625e+01    0.2328186    0.1508692 -34.35 0.0006768344    1.540    0.351
       188  -7.9827    152.7935     60.8018   7.1414068700e+01   3.8739841276e+01    0.2122446    0.1793042 -65.76 0.0005909093    1.337    0.252
       189  -8.1244      9.8255     60.0451   1.1720297653e+02   6.2479056904e+01    0.2347853     0.142781 -73.74  0.001421768    1.405    0.288
       190  -7.8371    164.9334     60.3367   6.8711635720e+01   3.5747276975e+01    0.2126924    0.1989064  58.31 0.0005848904    1.070    0.066
       191  -9.0488    146.4944     58.9756   7.2224278321e+01   4.0611787456e+01     0.410325    0.2706737 -25.36  0.001481321    1.627    0.385
       192  -8.5904    147.7035     52.6638   6.9850820545e+01   4.1345016848e+01    0.3880649    0.2371691 -20.51  0.001613588    1.892    0.472
       193  -9.1747    138.7842     55.9980   7.3021467119e+01   4.3003606617e+01    0.6373175    0.2218769 -39.11  0.001571215    2.792    0.642
       194  -8.9805    141.9490     48.7369   6.9798949130e+01   4.3407861651e+01    0.3612936    0.2477331 -20.27 0.0009172005    1.600    0.375
       195  -8.4007    122.7401     41.2599   7.1733026641e+01   4.9247406732e+01    0.5379198    0.2852402  21.60  0.001732119    3.722    0.731
       196  -9.3851    118.3958     54.6067   7.7719251708e+01   4.8022986523e+01    0.6425241    0.3437833 -35.51  0.001572174    1.849    0.459
       197  -8.9357    121.1349     46.9823   7.4260798647e+01   4.8702373973e+01    0.3339872    0.2269843 -46.08 0.0004747912    1.558    0.358
       198  -8.7402    162.7103     54.1350   6.7179226900e+01   3.7295795504e+01    0.4241257    0.2107292 -32.37  0.001488361    2.002    0.500
       199  -9.1430    157.4989     48.8105   6.6483377672e+01   3.9453340205e+01    0.5881763    0.2698475 -53.37  0.001910726    3.228    0.690
       200  -7.9591    152.9798     54.0205   6.9156094497e+01   3.9798023001e+01    0.1828678    0.1781941 -19.35   0.00037222    1.030    0.029
       201  -9.3504    105.5412     51.8071   8.0351560428e+01   5.1316234221e+01    0.5971587    0.2727998 -35.50  0.001659455    2.183    0.542
       202  -7.6971     23.1580     69.1386   1.1404608940e+02   5.9549046790e+01    0.1581829    0.1235524 -84.96  0.000336748    1.278    0.217
       203  -9.0312    217.3650     49.5670   5.6807877709e+01   2.3917963377e+01    0.3656675    0.2542388 -20.79  0.001009086    1.486    0.327
       204  -7.2591    172.4681     50.5071   6.4143938952e+01   3.5318679932e+01    0.1512658    0.1476958 -69.87 9.507313e-05    1.040    0.038
       205  -8.8955    139.4061     39.8975   6.7249328413e+01   4.5391895775e+01    0.4364656    0.3262275 -31.69  0.001544097    1.344    0.256
       206  -9.5061    130.3905     46.2820   7.1659633970e+01   4.6630344295e+01     0.854346    0.3624481 -23.42  0.001299525    3.163    0.684
       207  -8.9166    132.9807     36.0191   6.7289097728e+01   4.7557761170e+01    0.4408296    0.2216802 -42.72 0.0004842104    2.123    0.529
       208  -9.9812     10.7171    207.0497   1.3045671998e+02   3.1533410759e+01    0.4817263    0.2778234  28.66  0.003292977    2.291    0.563
       209  -9.2830    149.8205     47.3774   6.7598156640e+01   4.1636956859e+01    0.4415863    0.2034328 -38.35  0.001156944    2.146    0.534
       210  -8.7518    111.9459     47.0568   7.6779804295e+01   5.0767452584e+01    0.3067868    0.2344149 -51.40 0.0004248541    1.445    0.308
       211  -8.5032    114.3025     40.7733   7.3771500816e+01   5.1276066318e+01    0.6122532    0.3186734 -12.24  0.002062795    3.424    0.708
       212  -7.6615    162.7114     46.5418   6.4698478928e+01   3.8443000100e+01    0.2091575    0.1486011  78.45 0.0008421192    1.643    0.391
       213  -8.5812    245.3072    205.2871   8.7571176595e+01  -2.7279501144e+00    0.1890322    0.1541781  21.89 0.0001964544    1.161    0.139
       214  -7.0402    123.7727    205.9803   1.0938487330e+02   1.7274997682e+01    0.1238427    0.1001759 -64.73 0.0008197214    1.455    0.312
       215  -9.3190    191.5665    193.8248   9.4812694550e+01   7.5725511376e+00    0.6485955    0.3786854 -64.94  0.002557238    4.667    0.786
       216  -9.6044    243.1843    187.1824   8.4746529223e+01  -4.0865229876e-01    0.2813281    0.2513205 -85.40  0.001835145    2.045    0.511
       217  -9.1195    231.4908    182.2213   8.5763186527e+01   2.1294914599e+00    0.2693956    0.1772015  40.59 0.0002189833    1.406    0.289
       218 -10.3225     45.6900     29.3181   9.3049677060e+01   6.5603055557e+01    0.4655518    0.3961169 -83.53  0.002757384    1.742    0.426
       219  -7.5526     13.5695    179.2706   1.2856079616e+02   3.6430829559e+01    0.1388669   0.08156306 -73.09 0.0004316001    1.598    0.374
       220  -9.9980     69.3411     41.2182   8.8326299066e+01   6.0000521794e+01    0.7753245    0.2951002 -44.72  0.002240495    2.427    0.588
       221 -10.1857     76.1214     32.2338   8.2242036500e+01   6.0443177416e+01    0.6231124    0.4135522  47.54  0.001859115    1.679    0.404
       222  -9.0337    232.1884    177.4311   8.4754949428e+01   2.6025833579e+00    0.2184564    0.1837796   5.53 0.0002514144    1.073    0.068
       223  -8.9009     84.7090     21.9144   7.4787796728e+01   6.0443605534e+01    0.2655273    0.1896802 -28.46 0.0006574429    1.331    0.249
       224  -9.9601     37.8097     41.9951   1.0114668135e+02   6.4061574581e+01    0.4194441    0.2975432  81.78  0.001418273    2.431    0.589
       225 -10.5422     35.9142     37.9867   1.0059318229e+02   6.5068222398e+01    0.5913308    0.3156004 -25.81 0.0003494922    2.403    0.584
       226  -7.9658    110.6570     26.6532   6.9156174897e+01   5.4216637863e+01    0.3050899    0.2436193  40.58  0.001629136    1.215    0.177
       227  -9.0748    110.1049     32.8644   7.1827803746e+01   5.3448061060e+01    0.4211495    0.2308249 -39.86 0.0009846175    1.859    0.462
       228  -9.4153    105.0480     41.3202   7.6585257585e+01   5.3232189312e+01    0.4145809    0.2446367 -53.11  0.001115418    2.169    0.539
       229  -8.6461    106.3474     36.1533   7.4189638010e+01   5.3781559698e+01    0.3005134    0.2437443  24.71 0.0008739837    1.270    0.213
       230  -7.4561    190.8519     41.8216   5.8347611123e+01   3.1727933376e+01    0.2011156    0.1639563 -54.79 0.0002665295    1.264    0.209
       231 -10.2978     89.6012     38.4109   8.0192183221e+01   5.6888565542e+01    0.8655537    0.3720216  33.79  0.003129155    3.156    0.683
       232  -8.9385    153.1326     40.6243   6.4592445271e+01   4.1786205854e+01    0.3626617    0.2891507 -37.94  0.001082078    1.272    0.214
       233  -8.4351     53.6799     39.3096   9.3636034775e+01   6.2680196980e+01    0.2443669    0.1558798 -46.74 0.0008486586    1.402    0.287
       234  -8.8083     54.4931     35.4971   9.1840958887e+01   6.3290835283e+01    0.2452517    0.1901959 -23.46 0.0007086649    1.222    0.181
       235  -8.2609    160.5174     38.5864   6.2456967323e+01   4.0149784825e+01    0.3940106    0.1599842 -21.94  0.001311781    2.967    0.663
       236  -8.5651    144.0295     36.6066   6.5060069886e+01   4.4695608932e+01    0.2790191    0.2074957 -40.79 0.0006557945    1.386    0.278
       237  -8.7401    118.9200     34.8607   7.0274844917e+01   5.1120791457e+01    0.3155482    0.1957853 -37.89 0.0005882349    1.623    0.384
       238  -8.5154    153.5018     34.9177   6.2537671209e+01   4.2484880556e+01    0.2328117    0.1988412  62.73 0.0007031107    1.159    0.137
       239  -7.0964     50.3132     35.2997   9.3478215281e+01   6.3892542737e+01    0.1304128   0.08966307 -18.55 0.0002291983    1.607    0.378
       240  -7.8350    175.4924     72.4993   7.0324285062e+01   3.1088275573e+01    0.1514565    0.1506624 -39.74 4.059779e-05    1.017    0.017
       241  -9.3596    101.0881     32.0056   7.4039835535e+01   5.5564733688e+01    0.4228152    0.2173671 -40.45 0.0009993013    1.976    0.494
       242  -7.3745    147.6557     28.7274   6.1480466148e+01   4.4822421124e+01    0.1572168    0.1065532  33.38 0.0002549606    1.618    0.382
       243  -9.1148     91.2132     26.1388   7.4566844997e+01   5.8517866621e+01    0.3713057    0.2279851 -47.17  0.001264584    1.907    0.476
       244  -8.8488     92.0065     20.9914   7.2058179773e+01   5.9090706203e+01    0.3497167    0.2228335  24.36  0.001111182    1.793    0.442
       245  -9.4631    154.4651     25.4636   5.9027653072e+01   4.3450114890e+01    0.5256508    0.2649473 -15.01  0.002021981    2.424    0.587
       246  -8.6281    144.1793     25.6949   6.1059310254e+01   4.6107131477e+01    0.2492041    0.1931396 -39.64 0.0005225185    1.342    0.255
       247  -8.7701    128.3702     25.8388   6.4468531164e+01   5.0094493242e+01    0.3206668    0.2404119 -36.66 0.0006953984    1.376    0.273
       248  -8.2743    129.3035     21.3706   6.2509978307e+01   5.0425884173e+01    0.2777068    0.1613405  28.77  0.001158093    2.084    0.520
       249  -7.6587    149.5279     25.4535   5.9937066585e+01   4.4746585145e+01    0.1462294    0.1419777  89.81 0.0008072327    1.069    0.064
       250  -8.0135    140.3345     22.6970   6.0709450927e+01   4.7467440471e+01    0.1508089    0.1119321 -66.18 0.0005702415    1.661    0.398
       251  -9.2753    119.0616     21.4195   6.4879323344e+01   5.2932019240e+01    0.3174536    0.2682929 -48.62 0.0005037299    1.326    0.246
       252 -10.1233    100.9995    175.9996   1.1014411406e+02   2.6279176048e+01    0.1799754    0.1534113  64.09            0    1.004    0.004
       253  -9.3952    231.9651    172.1729   8.3792966611e+01   3.3041988364e+00     0.274928    0.2232297 -63.95  0.001079691    2.084    0.520
       254  -8.0532    111.5282     20.6496   6.6429364334e+01   5.4814363602e+01    0.4079201    0.1789019 -22.67  0.001581222    2.467    0.595
       255  -8.9578     86.5756    172.2848   1.1276430184e+02   2.9207365047e+01    0.1962463    0.1774031  63.55 0.0002586182    1.139    0.122
       256  -8.4345    153.1733    172.1614   9.8568460427e+01   1.7954409628e+01    0.1842538    0.1649266  30.97 0.0002476589    1.118    0.106
       257 -10.3431    200.4165    169.7615   8.8894423876e+01   9.4040515233e+00    0.2447929    0.2204145  24.34 0.0004207898    1.057    0.054
       258  -9.2840    103.1042     21.2859   6.8947913789e+01   5.6653652590e+01    0.3394179    0.2206131 -35.96 0.0006392559    1.565    0.361
       259  -7.3215     13.3471    170.7149   1.2810716397e+02   3.8133141840e+01    0.1164009   0.05880931  63.84 0.0004812473    1.650    0.394
       260  -8.6844     85.9885    157.0614   1.1086481379e+02   3.2409894872e+01    0.1816228    0.1616529  73.51            0    1.048    0.046
       261  -8.7056    220.0974    152.9128   8.1979271067e+01   8.0883385340e+00    0.1935446       0.1719  14.94 0.0003034528    1.027    0.026
       262  -7.2284    130.4262    153.4819   1.0014164417e+02   2.5652863682e+01    0.1362021    0.1263594  58.47  0.000128062    1.022    0.021
       263  -8.6033     40.9282     21.0300   9.1622186977e+01   6.7683205186e+01     0.216668    0.1504025 -28.91 0.0004483089    1.258    0.205
       264  -8.1708    140.1533     17.8765   5.8923905534e+01   4.8080699682e+01    0.2064239    0.1635492  22.75 0.0005077999    1.339    0.253
       265  -7.8084    206.1966    151.2146   8.4120373334e+01   1.1058031400e+01     0.174384    0.1617477  68.69  0.000493277    1.333    0.250
       266  -7.9057    239.6678    149.6684   7.7995398830e+01   4.8396952081e+00    0.1401643   0.09049276  12.35 0.0007052135    1.725    0.420
       267  -7.6302    148.4429    149.4521   9.5397647956e+01   2.2980975498e+01    0.1397417    0.1295648  49.96 4.787354e-05    1.003    0.003
       268  -7.3839    189.4521     15.4913   5.0433942802e+01   3.5261918780e+01    0.1418673    0.1364171  80.36 9.063118e-05    1.027    0.026
       269  -8.3588    133.6103    146.5820   9.8138287911e+01   2.6413739843e+01    0.4043227    0.1365997 -52.82  0.001396779    3.366    0.703
       270  -8.7931     68.6604    145.3103   1.1331096508e+02   3.7391523941e+01    0.2466093    0.1990936  85.01  0.000898639    1.108    0.098
       271  -9.2434     65.5067    143.4682   1.1382363133e+02   3.8213834590e+01    0.4922054    0.2314188 -66.12    0.0023718    1.995    0.499
       272  -8.6622    247.5581    140.7850   7.4854169948e+01   4.5508796270e+00     0.175913    0.1143318 -35.59 0.0004220647    1.578    0.366
       273  -8.7997    125.3117     13.0780   6.0053457404e+01   5.2382295468e+01    0.2598194    0.2097034  74.32 0.0005803921    1.345    0.257
       274  -8.1612    241.6815    137.6633   7.5107625813e+01   6.0663567281e+00    0.1412345   0.09331725  11.11 0.0007049098    1.703    0.413
       275  -8.6130    112.4040    133.9741   1.0068688733e+02   3.2950311422e+01    0.3341066    0.2267132  85.55  0.001222825    2.013    0.503
       276  -8.3009    136.0000    131.4853   9.4522991534e+01   2.8967749650e+01    0.5623215    0.1171155 -49.08  0.001474833    5.263    0.810
       277  -9.1183    132.4385    131.7271   9.5410919796e+01   2.9626819762e+01    0.4524224    0.2957639 -88.01  0.001852466    2.586    0.613
       278  -7.4308     87.4286    134.0000   1.0690727201e+02   3.7148608636e+01    0.2754424   0.07436106  38.31 0.0009110318    3.746    0.733
       279 -10.1527     58.1656    124.5105   1.1294567482e+02   4.3377825021e+01    0.7760153    0.3790919  77.99  0.002684263    3.669    0.727
       280  -9.8085     66.6445    129.0637   1.1142257777e+02   4.1257777395e+01    0.3575486     0.305767  37.83  0.002234375    1.326    0.246
       281 -10.0120     71.2238    125.7592   1.0968526924e+02   4.1375723600e+01    0.5279304    0.3143941 -85.28  0.001425658    2.006    0.502
