#   1 NUMBER                 Running object number                                     
#   2 MAG_AUTO               Kron-like elliptical aperture magnitude                    [mag]
#   3 X_IMAGE                Object position along x                                    [pixel]
#   4 Y_IMAGE                Object position along y                                    [pixel]
#   5 X_WORLD                Barycenter position along world x axis                     [deg]
#   6 Y_WORLD                Barycenter position along world y axis                     [deg]
#   7 A_WORLD                Profile RMS along major axis (world units)                 [deg]
#   8 B_WORLD                Profile RMS along minor axis (world units)                 [deg]
#   9 THETA_WORLD            Position angle (CCW/world-x)                               [deg]
#  10 FWHM_WORLD             FWHM assuming a gaussian core                              [deg]
#  11 ELONGATION             A_IMAGE/B_IMAGE                                           
#  12 ELLIPTICITY            1 - B_IMAGE/A_IMAGE                                       
         1 -13.4487    207.1599     19.8517   4.8875897961e+01   2.9929280182e+01     1.317232    0.8944549  19.57  0.006298251    1.871    0.465
         2 -13.6790    196.0637     32.9304   5.4099764424e+01   3.1313310501e+01     1.957633     1.307446  22.20  0.007906029    1.907    0.476
         3 -10.0969    164.0000     17.9453   5.3474052930e+01   4.1647318211e+01    0.4980196   0.08546645 -22.54  0.001155337    5.925    0.831
         4 -10.7095    164.0061     12.9994   5.1686232198e+01   4.2176861741e+01    0.4031469    0.2651529  87.17  0.001820484    1.642    0.391
         5  -8.9164     63.3676      8.6756   7.5128107150e+01   6.8261553134e+01      0.13562    0.1094006 -70.80 0.0007036394    1.801    0.445
         6 -10.0585     51.8257      2.3242   7.6665042261e+01   7.1391313523e+01    0.1898555    0.1628877 -27.91  0.001149862    1.149    0.130
         7  -9.7516     84.3837    233.7503   1.1775811866e+02   1.9317004909e+01    0.1974994    0.1713485  30.62 0.0007987218    1.384    0.278
         8 -14.4758     72.3188    151.9947   1.1284812157e+02   3.5517642001e+01     3.937102     1.930717  67.20   0.01198412    2.653    0.623
         9 -10.9923     75.9944    175.2287   1.1453246954e+02   3.0312865935e+01    0.2546773    0.2301168 -30.25 0.0008671817    1.535    0.348
        10  -9.0216     99.8890    180.3656   1.0970190574e+02   2.5983997050e+01    0.1792854    0.1321691  42.70 0.0004985692    1.141    0.124
        11  -8.9044    211.4987    178.9552   8.7079684518e+01   7.9966560692e+00    0.1671147    0.1126911 -25.58 0.0008180022    1.577    0.366
        12 -14.7894      7.0313    177.5100   1.3016686102e+02   3.7239759242e+01    0.8910011     0.564023  53.87  0.005712491    1.191    0.160
        13 -17.6507     11.8651    152.1899   1.2808946877e+02   4.1955351532e+01     9.952306     1.956719 -82.37   0.03583274    4.708    0.788
        14  -9.7347    195.6637    169.9810   8.8316673735e+01   1.1761252292e+01    0.2567498    0.2156071  -0.15  0.001046634    1.156    0.135
        15  -9.6446    137.0489    170.4791   1.0016278725e+02   2.1823808362e+01    0.2079487    0.1115841  39.67 0.0008249914    1.586    0.370
        16  -9.5386    189.1224    155.1324   8.6784728283e+01   1.4986002706e+01    0.2172876    0.1655266  14.17  0.001257958    1.287    0.223
        17 -10.3887    133.7727    144.3566   9.6461514731e+01   2.7106573786e+01    0.9056752    0.2404269 -54.85  0.002430993    6.304    0.841
        18  -9.2012    174.7733    148.9861   8.8404111131e+01   1.8580609811e+01    0.2421118    0.1653151  53.40 0.0007402361    1.602    0.376
        19 -11.5761     91.3998    142.5091   1.0664258740e+02   3.4754986228e+01    0.3175889    0.2673228   8.49  0.001829583    1.550    0.355
        20 -10.3308    104.1002    141.9084   1.0328329477e+02   3.2830254628e+01    0.5144691    0.3266096 -28.72  0.002299645    2.606    0.616
        21  -9.6271    112.7185    131.6291   9.9242894345e+01   3.3475708256e+01    0.3016357    0.2293491  11.91 0.0006838959    1.779    0.438
        22  -9.6220    105.8099    130.7100   1.0087151570e+02   3.4889443518e+01    0.2886357    0.2327133  61.40  0.001157314    1.218    0.179
        23 -10.3854    161.5910    128.4164   8.6896463058e+01   2.4600403772e+01    0.4596654    0.3553376  34.32  0.002442813    1.225    0.184
        24  -9.6565    136.0000    129.0126   9.2901385752e+01   2.9624490328e+01    0.2273243   0.08275524 -46.90 0.0008054923    2.964    0.663
        25 -10.8312    118.3609    126.8262   9.6847244108e+01   3.3440863564e+01     0.506922    0.2903716 -50.07   0.00228265    1.859    0.462
        26 -15.3865     24.6066    129.8546   1.2339721799e+02   4.5788075937e+01     2.222022    0.8372436  68.00  0.009306776    2.978    0.664
        27 -10.2590     99.9816    128.0582   1.0193562860e+02   3.6461242503e+01    0.2772347    0.2409003 -20.09 0.0007858154    1.462    0.316
        28 -15.7168     46.4692    199.2933   1.2287483344e+02   2.9392591024e+01     9.887918     1.284415  46.80   0.03816543    3.920    0.745
        29 -12.1188     40.3974    109.8945   1.1664426962e+02   4.8951178059e+01    0.7579039    0.1881011 -63.56   0.00278042    3.235    0.691
        30 -10.3788    163.3893    120.4345   8.4704155550e+01   2.5631116805e+01    0.3659829    0.2195609 -41.00  0.001679691    1.759    0.432
        31  -9.0761    108.5777    120.0454   9.8046393466e+01   3.6677298443e+01    0.2082927     0.178734  47.64 0.0002082835    1.104    0.094
        32  -8.7536    107.7756    113.7880   9.6942797967e+01   3.8178129829e+01     0.361785    0.1615412  60.29  0.001073054    4.272    0.766
        33  -9.8135    167.8523    112.4553   8.1848926710e+01   2.6074129459e+01     0.279739    0.2309425 -69.36  0.001136252    1.562    0.360
        34 -10.2734    119.8742    110.7959   9.2976514464e+01   3.6497530824e+01    0.2875233    0.1982632 -81.22  0.001249474    2.121    0.528
        35 -11.9513     53.1857    108.2224   1.1232423097e+02   4.7919560791e+01    0.7232174     0.280421 -72.96  0.002829427    2.718    0.632
        36  -9.2113     64.1354    223.6646   1.2086743708e+02   2.3282936975e+01    0.1699046    0.1133058  61.85 0.0006226778    1.257    0.204
        37  -9.8852    134.5197    103.9620   8.7503062183e+01   3.4884603690e+01    0.4708118     0.145414 -47.46  0.001452572    3.504    0.715
        38  -9.2370     86.4862     99.4616   1.0003712506e+02   4.5179097337e+01    0.2531656    0.1858871  54.96 0.0005097904    1.387    0.279
        39 -10.0772    243.6017     98.1940   6.5280052512e+01   1.2306994845e+01    0.1914645    0.1121973 -13.76 0.0009495308    1.697    0.411
        40  -9.4345    205.3465    110.0970   7.4021595840e+01   1.8415247320e+01    0.3014322    0.2000974  40.82  0.001016006    1.472    0.321
        41 -11.1029    194.0273    194.9312   9.2777681655e+01   8.8352734533e+00    0.7289155    0.4839198 -59.62  0.003890997    3.164    0.684
        42  -8.9705     24.9776     82.3293   1.1826998194e+02   5.7048936869e+01    0.1658864    0.1538218  71.68 0.0003993938    1.133    0.117
        43  -9.4658     61.6404     68.7910   1.0111086710e+02   5.6295454678e+01    0.2683076    0.2201777  63.31 0.0007727243    1.336    0.252
        44  -9.4734    164.3799    206.4364   9.9877380632e+01   1.1971502083e+01    0.2290017    0.1155028 -50.08  0.001236921    2.784    0.641
        45  -9.5983    164.0000     59.9610   6.7885458637e+01   3.5914048603e+01    0.2602102   0.08726644 -31.49 0.0008067064    2.972    0.664
        46  -9.8513    156.6228     58.9289   6.9060749289e+01   3.7970438838e+01    0.2835267      0.22802  71.78 0.0006075271    1.351    0.260
        47 -10.1029    159.1300     52.8402   6.6532747460e+01   3.8288639580e+01    0.3196142    0.2519127  78.92 0.0005049702    1.429    0.300
        48  -9.6477    174.0733    248.5740   1.0328139065e+02   5.6582981220e+00     0.159887    0.1390925  54.09  0.001027919    1.592    0.372
        49 -12.4932    186.8462     39.7872   5.7497149830e+01   3.2861329714e+01    0.7460389    0.5753953  38.19  0.001180332    1.400    0.286
        50  -8.9456     95.1331    200.2720   1.1286747750e+02   2.3176161650e+01     0.216102     0.124862  68.54  0.001199805    2.073    0.518
        51  -8.3935    179.6732    192.3298   9.4990050807e+01   1.1437718791e+01     0.113543   0.09021781  60.19 0.0004970146    1.706    0.414
        52 -17.2094      9.4328    225.2661   1.3099793142e+02   2.8618984700e+01     2.896978     1.443276  69.07   0.02110565    1.574    0.365
        53  -9.3211    189.5294     15.0015   4.9232441673e+01   3.5019967503e+01    0.2228727    0.1400512 -22.94  0.001027932    1.580    0.367
        54 -11.1391     71.7216    180.5141   1.1601785138e+02   2.9859516446e+01    0.3375906    0.2445004 -38.91  0.001413914    2.082    0.520
