#   1 NUMBER                 Running object number                                     
#   2 MAG_AUTO               Kron-like elliptical aperture magnitude                    [mag]
#   3 X_IMAGE                Object position along x                                    [pixel]
#   4 Y_IMAGE                Object position along y                                    [pixel]
#   5 X_WORLD                Barycenter position along world x axis                     [deg]
#   6 Y_WORLD                Barycenter position along world y axis                     [deg]
#   7 A_WORLD                Profile RMS along major axis (world units)                 [deg]
#   8 B_WORLD                Profile RMS along minor axis (world units)                 [deg]
#   9 THETA_WORLD            Position angle (CCW/world-x)                               [deg]
#  10 FWHM_WORLD             FWHM assuming a gaussian core                              [deg]
#  11 ELONGATION             A_IMAGE/B_IMAGE                                           
#  12 ELLIPTICITY            1 - B_IMAGE/A_IMAGE                                       
         1 -10.3533    126.9266     32.4335   8.0238025627e+01   4.9148896759e+01     0.386374    0.2409119   9.73  0.001421381    2.303    0.566
         2 -12.0854     76.5572     24.4560   9.0843781503e+01   6.0236654088e+01    0.4342839    0.2986233 -39.17  0.001085434    1.718    0.418
         3 -11.3832     90.3667     15.9685   8.3492395014e+01   5.8644062231e+01    0.3510827    0.2151935 -10.16 0.0005005625    1.794    0.443
         4 -10.6485     87.1680     12.1258   8.2901746617e+01   5.9635051547e+01    0.2477395     0.207258  -7.90 0.0009190157    1.221    0.181
         5 -10.5878    100.2682     18.6499   8.1861504516e+01   5.6412997903e+01    0.4000252    0.2268481 -52.04  0.001844676    2.924    0.658
         6 -10.3836     38.7162      2.2801   9.4896754572e+01   6.8428393795e+01    0.3219629    0.1387194 -25.25  0.001800138    2.183    0.542
         7 -11.5859     30.1988      7.2750   1.0068044447e+02   6.8935983230e+01    0.2982433    0.2225932   8.98  0.001093851    1.134    0.118
         8 -11.6186     34.8826     13.1404   1.0130075458e+02   6.7689239252e+01    0.3407862    0.2485307 -31.59  0.001395681    1.467    0.318
         9 -11.7498     39.6591      9.8549   9.7926643600e+01   6.7487687420e+01     0.566584    0.3055138  -2.70  0.002527043    2.148    0.535
        10 -10.8279    144.0305     14.4869   7.1141607583e+01   4.7139248662e+01    0.2098186    0.1944583 -17.28 0.0003217269    1.237    0.192
        11 -10.4717    156.2076     13.8363   6.8929579568e+01   4.4306860523e+01    0.2840507    0.2039429  42.74  0.001378472    1.414    0.293
        12 -10.3099     68.8504     12.6164   8.8579287916e+01   6.2864149514e+01     0.221692    0.1281616 -32.31  0.001277036    1.872    0.466
        13  -9.9155    119.1349     11.9057   7.5085589008e+01   5.3070163745e+01     0.181567    0.1661979  73.30 0.0003456348    1.205    0.170
        14 -10.2685    148.3996      9.8446   6.9010793164e+01   4.6547270916e+01    0.2066548    0.1793996   1.41  0.001046869    1.362    0.266
        15 -11.4874    151.2658      7.2666   6.7797310603e+01   4.6102911573e+01    0.3196106    0.2378141 -32.63  0.001271488    1.538    0.350
        16  -9.6356     61.0206      3.2118   8.7181717294e+01   6.5065763682e+01    0.2105201    0.1295575  37.91 0.0008180709    1.405    0.288
        17 -10.9451     22.2027      9.2752   1.0505285222e+02   6.9564353770e+01     0.286266    0.1700947   1.49  0.001163484    1.592    0.372
        18 -10.3872     10.0261      1.4602   1.0717067889e+02   7.1680091703e+01    0.1696789    0.1160194  -0.97 0.0004114955    1.160    0.138
        19 -11.6724      4.0648      8.7749   1.1327046046e+02   7.1221693790e+01    0.3105727     0.274437  18.05  0.001355576    1.683    0.406
        20 -10.1650      2.0151      2.9945   1.1178426284e+02   7.2140166632e+01    0.1869613    0.1166558 -16.32  0.001350185    1.206    0.171
        21 -10.3477     12.5035      8.5279   1.0915434044e+02   7.0575680353e+01    0.2882486    0.1672474  23.23    0.0015025    1.748    0.428
        22 -10.7953      8.7436      5.3898   1.0956013781e+02   7.1300849058e+01    0.4327306    0.1570512  32.86  0.002380876    3.184    0.686
        23 -10.6266    210.1513      7.7062   6.0562412807e+01   3.1975182691e+01    0.2145152    0.1522858 -54.76 0.0009790632    1.363    0.266
        24 -11.3942     68.9642      6.4298   8.5982295447e+01   6.3451996555e+01    0.5658027    0.2148871  46.28  0.002771066    2.293    0.564
        25 -10.9184     93.0884      8.4386   7.9909545579e+01   5.8830693180e+01    0.3762718    0.1824368 -19.43  0.000673295    2.266    0.559
        26 -11.6287    130.8624      3.9999   7.0203869622e+01   5.1128388888e+01    0.3622785    0.2345105 -57.67  0.001947716    2.058    0.514
        27 -10.4721    136.9476      5.0142   6.9456220788e+01   4.9649881087e+01    0.2137516    0.1292771  36.83  0.001134731    1.714    0.416
        28 -11.0025    194.7572      3.8695   6.1263325074e+01   3.6007042939e+01    0.2384166    0.1537288 -57.50  0.001343506    1.567    0.362
        29 -10.2074    160.4321      3.2831   6.5315082841e+01   4.4275299176e+01    0.2127204    0.1315188 -14.99  0.001103038    2.085    0.520
        30  -9.9553    120.8678      4.1909   7.2137457559e+01   5.3355622455e+01    0.1761152    0.1573082  66.23 0.0004716486    1.151    0.131
        31 -10.3822     16.2722      3.0965   1.0497127382e+02   7.0905337359e+01    0.1937699    0.1764177  -2.76  0.001617285    1.637    0.389
        32 -10.5486     20.1713      1.8419   1.0260120584e+02   7.0660218953e+01    0.1979596    0.1331072  -3.83  0.000981849    1.153    0.132
        33 -10.4666    176.4856      2.3678   6.2980230276e+01   4.0516664709e+01    0.2347308    0.1779605  23.79  0.001385333    1.751    0.429
        34 -11.5754     80.2119      1.7847   8.0752573583e+01   6.1859188511e+01    0.3269383    0.1478224  48.92  0.001397158    1.857    0.461
        35 -11.9942     55.6874      6.5668   9.0458036015e+01   6.5584192670e+01    0.4781456    0.4089269  -2.87  0.002133303    1.226    0.184
        36  -9.5903    113.2626      2.4399   7.3070316569e+01   5.5157334624e+01    0.2292585   0.09688166  55.74  0.000574782    1.899    0.473
        37  -9.4389    104.7569      1.9882   7.4731252455e+01   5.6998587869e+01    0.1416651    0.1014357 -12.60 0.0003658826    1.545    0.353
        38  -9.1239     28.9282      1.4512   9.8556032692e+01   6.9733847364e+01    0.1485356   0.09041183  29.52  0.001012107    1.557    0.358
        39  -9.2834    132.0482    114.2827   1.0348214328e+02   3.3640699563e+01    0.1850714    0.1385172  43.90 0.0004382098    1.365    0.267
        40 -11.9175     17.4565    249.2849   1.4887685083e+02   2.1134700177e+01    0.4985766    0.1397195  36.87  0.002279739    3.982    0.749
        41 -10.9526      1.8673    248.8779   1.5126437040e+02   2.2864256340e+01    0.3514433    0.1747597 -86.54  0.002360722    1.580    0.367
        42 -12.2444      5.4011    240.7222   1.5029682453e+02   2.4028130257e+01     0.481102    0.2058952  60.94  0.002929717    1.841    0.457
        43 -11.2673      6.0908    247.0651   1.5052657871e+02   2.2766192924e+01    0.3351212    0.1531873 -84.89  0.002110719    1.773    0.436
        44 -12.2653     10.6052    245.1236   1.4971936797e+02   2.2655586615e+01    0.3235779    0.1915127  71.16  0.001922778    1.228    0.186
        45 -10.0967    249.1768    111.8112   7.9315096842e+01   7.6089455407e+00    0.1886458    0.1648993 -12.30  0.001072712    1.338    0.253
        46  -9.4524     65.6875    110.3588   1.2107855214e+02   4.6288683712e+01    0.1395269    0.1046332  85.57 0.0007042935    1.744    0.427
        47 -11.7656      5.1435    108.7200   1.3850015742e+02   5.2484534793e+01    0.3283562    0.2190625  13.69  0.002131355    1.989    0.497
        48 -10.4148     58.3354    107.4009   1.2260812663e+02   4.7915354501e+01    0.2097477    0.1466431 -29.37  0.001100676    1.624    0.384
        49  -9.0879     79.6398    106.7095   1.1608290852e+02   4.5101541616e+01    0.1441782     0.107038 -17.58 0.0007027151    1.693    0.409
        50  -9.8240    113.4965    102.5154   1.0528646970e+02   4.0037876647e+01    0.1493603    0.1444457 -34.69 0.0001482603    1.015    0.014
        51  -9.9178     66.6235    101.8202   1.1879951753e+02   4.8085618900e+01    0.1992322    0.1216753 -62.72 0.0009487975    1.702    0.412
        52 -11.0088     57.6642    101.6372   1.2149927776e+02   4.9293485853e+01    0.2563176    0.2273569 -76.89  0.001402748    1.223    0.182
        53 -12.0362     17.7696     95.1874   1.3251084094e+02   5.4608256325e+01     0.502421    0.3287536 -40.98  0.003046372    1.407    0.289
        54  -9.3299    129.5125     97.5038   9.9626592562e+01   3.7764122663e+01    0.1507497    0.1490815 -33.80 0.0008105457    1.006    0.006
        55  -9.0907     38.1649     92.9470   1.2562262765e+02   5.3365207322e+01    0.2777518    0.1083952 -47.91 0.0005230477    2.105    0.525
        56 -10.5081     78.9219     94.9322   1.1329029776e+02   4.7802188673e+01    0.2082551    0.1886586 -34.77 0.0003243444    1.026    0.025
        57  -9.7396      3.4949     95.4741   1.3691906443e+02   5.5466357121e+01    0.1169404   0.08981311 -61.90 3.124051e-05    1.026    0.025
        58 -10.1245     84.3497     93.7757   1.1132942673e+02   4.7188393743e+01    0.2690506    0.1773454 -38.30  0.001316396    1.469    0.319
        59 -11.0493     27.4150     90.8514   1.2860403022e+02   5.4793115164e+01    0.4888861    0.3101599  58.99  0.002577795    2.367    0.578
        60  -9.7860     25.5984     85.0689   1.2794365578e+02   5.6175204756e+01    0.2086379    0.1625346 -85.10 0.0009056106    1.574    0.365
        61 -10.4774     58.1839     91.5171   1.1888309250e+02   5.1442115504e+01    0.2813965    0.1840318  -3.21  0.001102722    2.168    0.539
        62 -11.4506     11.2248     88.1452   1.3323112872e+02   5.6566068328e+01    0.5326461     0.201977 -61.36   0.00194492    1.998    0.500
        63 -10.2074     17.5400     88.3808   1.3126029923e+02   5.6088095539e+01    0.3840968    0.1976702 -22.02  0.001926961    2.661    0.624
        64 -11.3355     76.3496     89.2713   1.1255701730e+02   4.9398383610e+01    0.2564808     0.219722 -32.94 0.0003513418    1.082    0.076
        65 -10.5372      1.7745     89.7110   1.3647749207e+02   5.6790995467e+01    0.2036145    0.1179606 -61.43 0.0002510787    1.290    0.225
        66 -10.7703     98.5153     89.4795   1.0591128497e+02   4.5639017227e+01    0.2641845    0.1371003  29.69  0.001038601    2.440    0.590
        67  -9.5042     44.1650     89.4174   1.2287457828e+02   5.3514360930e+01    0.1672866    0.1171028  42.72 0.0009505748    1.739    0.425
        68 -10.6699     54.5288     84.8925   1.1836030081e+02   5.3295536701e+01    0.3825621    0.1944315 -45.93   0.00156027    1.694    0.410
        69  -9.7448    123.9205     86.8599   9.8064191347e+01   4.1110519351e+01    0.2290426    0.2035978   5.08 0.0007309268    1.227    0.185
        70 -10.5102      3.9807     82.7875   1.3454079518e+02   5.8125023437e+01    0.2135007    0.1321862 -59.25 0.0008845507    1.224    0.183
        71  -9.7926    100.4798     82.0417   1.0317062979e+02   4.6768957542e+01    0.2282824    0.1366993 -42.23 0.0007677787    1.615    0.381
        72 -11.7729     63.7070     80.6380   1.1419992545e+02   5.2996398459e+01    0.4754338    0.3967572 -43.46  0.002878183    1.099    0.090
        73  -9.7972     65.9560     75.2808   1.1192440251e+02   5.3757955754e+01    0.1770959    0.1610282  -5.18            0    1.096    0.087
        74  -9.6779    250.2497     80.9949   7.2366509091e+01   1.2631311421e+01    0.1817856    0.1053828 -41.15 0.0005373714    1.552    0.355
        75 -10.1298     89.2850     80.2948   1.0599403494e+02   4.9126439081e+01    0.2724246    0.1854423 -53.27 0.0008312122    1.577    0.366
        76  -9.1929    124.5723     79.2681   9.5654569048e+01   4.2425072274e+01     0.152113    0.1169797  85.02 0.0004996056    1.808    0.447
        77 -10.2719    176.5813     77.2451   8.3205347841e+01   3.0557380911e+01    0.3053286    0.2464851  43.26   0.00152946    1.313    0.238
        78 -10.7499     14.6483     76.5841   1.2973860131e+02   5.8753561685e+01    0.3747158    0.1077293 -48.06  0.001673195    2.494    0.599
        79  -9.6059     74.9669     75.5275   1.0905941365e+02   5.2390699828e+01    0.1957123    0.1645873 -33.99 -2.258379e-06    1.083    0.077
        80 -11.2818     55.6902     75.4870   1.1541137626e+02   5.5072843493e+01    0.3005552    0.2474341  -4.68  0.001857685    1.257    0.205
        81 -12.1206     33.2510     72.8464   1.2241127853e+02   5.8029698542e+01    0.4362504     0.286247  11.52            0    1.785    0.440
        82  -9.8845    224.0037     74.1408   7.4394874243e+01   1.9610976882e+01    0.2079286     0.185854 -75.59 0.0003297771    1.023    0.022
        83  -9.8484    136.5009     74.1381   9.1099340022e+01   4.0706818270e+01    0.2209266    0.1965901  46.50 0.0006181432    1.099    0.090
        84 -10.8817      3.4464     73.6815   1.3293358485e+02   6.0025005820e+01    0.2564033    0.1853765  -2.08 0.0007494549    1.646    0.392
        85  -9.3245     96.1211     73.3726   1.0182795956e+02   4.9236010430e+01     0.187084    0.1312711  52.36 0.0003946136    1.637    0.389
        86  -9.0034    216.7190     72.2944   7.5028284634e+01   2.1624963828e+01    0.1466229     0.102614 -69.77  0.000352524    1.535    0.349
        87 -10.1633    105.8250     71.5116   9.8414973899e+01   4.7731699787e+01    0.2379148    0.1941747 -31.28 0.0005178998    1.205    0.170
        88 -10.1861     81.1752     72.5024   1.0615817444e+02   5.1990814195e+01    0.2640377    0.1790015 -60.86  0.001187298    1.943    0.485
        89  -9.1509     90.6699     69.3190   1.0220750329e+02   5.0967257374e+01    0.1331962    0.1125694 -86.25 0.0003785057    1.688    0.408
        90 -10.4445     45.9168     68.9715   1.1691285654e+02   5.7505466040e+01    0.2823058    0.2243076  42.17   0.00165335    1.579    0.367
        91  -9.5250     10.1858     69.3243   1.2965826019e+02   6.0509519280e+01    0.1818021    0.1207482 -30.13  0.001192509    1.414    0.293
        92  -9.6500    114.2515     66.4146   9.4462999576e+01   4.6926753452e+01    0.1866714    0.1365451  57.09 0.0003248328    1.507    0.337
        93 -12.0027     34.1541     65.1745   1.2001837551e+02   5.9452430212e+01    0.2556172    0.1944529 -34.82 0.0003929853    1.081    0.075
        94 -11.6970     39.1973     62.8663   1.1753344338e+02   5.9393795966e+01    0.6731917     0.240158 -35.91  0.002634918    3.054    0.673
        95 -10.5179    131.3506     64.6038   8.9467533725e+01   4.3518341501e+01    0.4037587    0.2612621  58.85  0.001356914    1.634    0.388
        96 -10.3959     16.3701     63.9801   1.2615776327e+02   6.1152193328e+01    0.3331018    0.2153744  11.70  0.001596833    1.799    0.444
        97 -10.5621      2.9060     53.5505   1.2854093225e+02   6.3979372658e+01    0.4296328    0.1383236 -35.18  0.001991347    2.971    0.663
        98 -11.0671     10.6250     48.5409   1.2419462293e+02   6.4438066229e+01    0.4706808    0.2645075  17.11  0.002982539    2.029    0.507
        99 -11.1055     16.7095     45.0480   1.2074011230e+02   6.4631876589e+01    0.3712264    0.2559925  27.36  0.002536835    1.752    0.429
       100  -9.1348     23.8277     61.8760   1.2287218230e+02   6.0993363289e+01     0.229723    0.1776974 -44.22 0.0006225053    1.090    0.082
       101 -12.5921     20.5862     56.7998   1.2268014339e+02   6.2209251889e+01    0.3373005     0.313448  -0.46 0.0008413411    1.293    0.227
       102 -10.7410     20.3683     51.0909   1.2111988772e+02   6.3275290099e+01    0.3372272    0.1646027 -40.48 0.0009771106    1.618    0.382
       103  -9.4230     72.7653     63.7551   1.0612845983e+02   5.4935208600e+01    0.2051275    0.1023506 -52.52 0.0008790371    2.427    0.588
       104 -11.1259      2.5249     60.0651   1.3027223865e+02   6.2764401564e+01    0.2739094    0.1898825  83.10  0.001684546    2.380    0.580
       105 -11.4345      9.5749     59.9790   1.2764831661e+02   6.2374670975e+01    0.2492136    0.1935112 -27.30  0.000383642    1.183    0.155
       106  -9.5027    101.0083     61.7830   9.6700317952e+01   5.0376097505e+01    0.1941437    0.1530948 -59.54 0.0006158351    1.613    0.380
       107 -10.9213     54.6792     57.6388   1.1035301949e+02   5.8569655289e+01    0.4124456    0.2781599 -53.02  0.002326638    1.677    0.404
       108 -11.9805     83.4696     56.9585   1.0042524457e+02   5.4382282319e+01    0.3037764    0.2446223 -33.69 0.0002964259    1.213    0.175
       109 -11.9173     87.9829     53.8666   9.7967653741e+01   5.4102566685e+01    0.5601188    0.3947553  43.68    0.0026007    1.468    0.319
       110  -9.8095    118.8593     59.0550   9.0889295903e+01   4.7179001686e+01     0.209163    0.1908436 -72.02 0.0004430537    1.299    0.230
       111  -9.6040     71.4225     57.7098   1.0459912809e+02   5.6206200103e+01    0.1694941    0.1133171 -28.83 0.0002741969    1.418    0.295
       112 -10.4429     60.5496     57.6865   1.0830370346e+02   5.7785224516e+01    0.2281142    0.2193642 -86.77 0.0008106163    1.435    0.303
       113  -9.7913     99.6432     56.1965   9.5255816875e+01   5.1562501469e+01    0.1870736    0.1237063 -24.42 0.0003829664    1.595    0.373
       114 -10.6977     62.6338     62.3714   1.0909628104e+02   5.6661425448e+01    0.2602388    0.1938953 -23.42  0.001368152    1.253    0.202
       115 -10.7457    114.7933     54.0226   9.0327663603e+01   4.8838879558e+01    0.3257012    0.2607535  40.88   0.00129057    1.189    0.159
       116  -9.7181    164.6396     54.3600   7.9139375716e+01   3.7222948066e+01    0.3615576    0.1380272  62.93  0.001250465    2.788    0.641
       117 -11.9893     66.5081     52.4055   1.0447420072e+02   5.7843061984e+01    0.6006474    0.2196001  35.30  0.002445797    2.887    0.654
       118  -9.4307    176.0497     52.2211   7.6448035362e+01   3.4722225091e+01    0.1904141    0.1111448  60.24 0.0003552122    1.601    0.376
       119 -10.1873    106.4304     53.2664   9.2347312148e+01   5.0685261808e+01    0.2740119      0.23765  85.64  0.001069355    1.533    0.348
       120  -9.6411    147.3644     49.4098   8.1149165875e+01   4.2143107010e+01    0.2825792     0.154169 -54.23  0.001139328    2.415    0.586
       121  -9.1757    212.0080     48.9886   7.0056111366e+01   2.6361678375e+01    0.1665747    0.1417763  84.88 0.0003213052    1.076    0.071
       122 -10.8262     77.6686     46.4328   9.8657928599e+01   5.7047800796e+01    0.4168268     0.272745  -1.46  0.002143606    1.859    0.462
       123  -9.9044     38.1422     49.0246   1.1362146563e+02   6.2006673503e+01    0.1851261    0.1291275 -22.44 0.0006629545    1.270    0.212
       124  -9.5343     66.9853     60.5264   1.0701908888e+02   5.6375470958e+01    0.1811249    0.1242946  30.87 0.0004533572    1.515    0.340
       125  -9.8352     53.5781     48.2970   1.0762707395e+02   6.0315979570e+01    0.2053547    0.1361425   1.81 0.0006847525    1.679    0.404
       126  -9.8112     34.5948     53.1934   1.1630509767e+02   6.1636413985e+01    0.2379607    0.1348438 -29.18 0.0007626318    1.649    0.393
       127  -9.7792     68.5247     46.5962   1.0176209862e+02   5.8480648259e+01    0.1770815    0.1300595   4.83 3.548814e-05    1.383    0.277
       128  -9.4807     64.9758     46.2198   1.0284921091e+02   5.9072878795e+01    0.1771592     0.123863  32.03 0.0003945877    1.445    0.308
       129  -9.3139     47.3016     47.3131   1.0959647526e+02   6.1263058377e+01    0.1261121   0.08115302 -14.84 0.0003401591    1.611    0.379
       130  -8.5385     30.5014     46.9666   1.1589144840e+02   6.3127235545e+01    0.2553918    0.1543662 -40.97 0.0008082741    1.367    0.268
       131  -9.6135     32.7353     43.6745   1.1392744195e+02   6.3470793839e+01    0.1912579    0.1331668 -20.87 0.0004397893    1.248    0.199
       132 -10.2079     36.2492     41.5579   1.1182484825e+02   6.3461044906e+01    0.2256648    0.1564601   2.91  0.001212585    1.439    0.305
       133 -10.8823     25.4417     43.5388   1.1676801127e+02   6.4178807507e+01    0.2700988    0.2270845 -58.98  0.001463455    1.573    0.364
       134 -10.5787     22.8228     38.6276   1.1618916699e+02   6.5232299133e+01    0.2222311    0.1773129  31.58 0.0008968149    1.633    0.388
       135 -11.1531     26.5071     35.5268   1.1360648187e+02   6.5405041461e+01    0.3363528     0.198364 -25.83   0.00148791    1.472    0.321
       136  -9.4759     91.4375     44.5355   9.3683508027e+01   5.4907772476e+01    0.1326301     0.117194   8.15 8.519214e-05    1.014    0.014
       137  -9.0553    194.6702     42.6877   7.0927451431e+01   3.1472079416e+01    0.1393316    0.1047296  36.37 0.0007043278    1.672    0.402
       138 -10.8194     70.3718     41.2041   9.9196868338e+01   5.9017666652e+01    0.3196702    0.2351562 -18.09 0.0009092262    1.269    0.212
       139  -9.8084      2.2714     42.4278   1.2580362815e+02   6.6036528937e+01    0.1638188   0.09727751   2.84 0.0005762908    1.865    0.464
       140 -10.0758    181.8990     40.9055   7.2399489565e+01   3.4865329100e+01    0.3322069    0.1964963  73.98 0.0009597971    1.714    0.416
       141 -11.0712    139.5445     40.3086   8.0004172243e+01   4.5248781120e+01    0.3082017    0.2256203 -43.93   0.00144731    1.502    0.334
       142 -11.1226    134.1865     33.9732   7.9146635373e+01   4.7302647194e+01    0.2216566    0.1731794  45.63  0.000288066    1.171    0.146
       143  -9.5652    134.2644     39.8025   8.0987227700e+01   4.6544174115e+01    0.2017629    0.1806288  71.63  0.001176609    1.168    0.144
       144  -9.9542    131.0679     37.6329   8.1001438043e+01   4.7560085228e+01     0.235347    0.2280953  40.79 0.0006756751    1.066    0.062
       145  -8.9439     43.2768     40.6864   1.0879622689e+02   6.2819892088e+01    0.1019488   0.09401672 -55.87 0.0002598492    1.564    0.360
       146 -10.3755     13.0061     38.8157   1.2029278547e+02   6.5977905800e+01    0.3393426   0.08253725 -51.83  0.001413545    3.430    0.708
       147 -11.9419    121.4811     36.7962   8.2938015155e+01   4.9822478919e+01    0.4910175     0.422245  76.12  0.002302645    1.344    0.256
       148  -9.9391     34.1652    247.1517   1.4604443939e+02   1.9603832396e+01    0.1619922   0.09523977  68.08 0.0004638734    1.315    0.240
       149 -10.4129      1.8129     35.8157   1.2404160294e+02   6.7208431125e+01    0.2139253    0.1530536 -26.56  0.001511513    1.126    0.112
       150  -9.8076     90.9875     36.0000   9.0767648867e+01   5.6181551449e+01    0.2112086   0.06910454  48.13 0.0008007173    2.931    0.659
       151 -11.3417    145.1026     33.0117   7.6609275789e+01   4.4859969952e+01     0.217207    0.2039047  52.11            0    1.041    0.039
       152 -10.9532     50.8293     33.8643   1.0341622220e+02   6.2922154883e+01     0.334657    0.1882506  41.87  0.001782363    2.104    0.525
       153  -9.8320    166.5628     31.5037   7.2294314862e+01   3.9849745250e+01    0.3073557    0.1202772 -36.17  0.001237658    2.625    0.619
       154 -10.8326     19.5274     31.6683   1.1513956245e+02   6.6639089883e+01    0.3600326    0.1944705  -2.12  0.002073522    2.160    0.537
       155 -11.4892     43.9502     29.3735   1.0431656422e+02   6.4445537584e+01    0.4289754    0.2610776 -21.89  0.001620825    1.493    0.330
       156  -9.4160    187.4758     29.5231   6.8568038297e+01   3.4951760499e+01    0.1366772    0.1207342  77.78 0.0002542544    1.038    0.037
       157 -10.3318    150.1900     29.5345   7.4585534495e+01   4.4060446631e+01    0.3743995    0.1302896  64.10  0.001351102    2.842    0.648
       158 -10.1600    140.9374     27.1436   7.5612112474e+01   4.6535076618e+01    0.3146372    0.2590625  57.66  0.001383332    1.088    0.081
       159 -10.5644     69.1291     27.8466   9.4582326311e+01   6.1059862686e+01    0.2882574    0.2346652 -60.14  0.001752545    2.015    0.504
       160  -9.8784      7.5215     28.0198   1.1903167981e+02   6.8134714748e+01    0.1736558    0.1352513  23.84  0.000803674    1.631    0.387
       161  -9.7484    217.4778    245.0000   1.1178897982e+02  -8.9428323318e+00    0.2764179   0.06070659  40.61 0.0009386463    3.966    0.748
       162 -10.0230    154.0279     25.8366   7.2794411904e+01   4.3563357101e+01    0.2834091    0.1635413  68.54    0.0011528    1.658    0.397
       163 -10.4906    113.9669     25.2044   8.0800471032e+01   5.2846752267e+01    0.2116617    0.1884427  -7.29 0.0006583386    1.181    0.154
       164  -9.1957     18.3472     26.3225   1.1369254642e+02   6.7566578373e+01    0.1189562   0.06560858 -18.29 0.0007049548    1.740    0.425
       165  -9.6819    218.5645     25.5341   6.3735177352e+01   2.7947946522e+01    0.1352593    0.1081381 -77.61 8.707977e-05    1.087    0.080
       166  -9.9681     59.0830     24.3901   9.6693782914e+01   6.3056512950e+01     0.230054    0.1433786 -13.10  0.001018582    1.595    0.373
       167  -9.8614     51.7674     24.3427   9.9343760675e+01   6.4110430394e+01    0.2338982    0.1805524 -81.74  0.001148065    3.992    0.750
       168  -9.2329    193.0110     24.0026   6.6413420652e+01   3.4261154667e+01    0.1599021    0.1383635  86.54 -0.007547014    1.006    0.006
       169  -9.6368     89.3908     22.8216   8.6358821883e+01   5.8098225115e+01    0.2110788    0.1505914 -23.92  0.001255821    1.447    0.309
       170  -9.5805     74.2643    243.8955   1.3881994581e+02   1.4901173303e+01    0.1598291    0.1265579  74.18 0.0002822934    1.052    0.050
       171 -10.7370     37.9996    242.2217   1.4505542119e+02   2.0079773773e+01    0.3517847     0.121941  66.88    0.0014491    3.589    0.721
       172 -10.6020    124.9842     21.3423   7.7006588937e+01   5.0839924058e+01    0.2150249    0.1906413 -12.19 0.0002228714    1.234    0.190
       173 -10.6308     19.8420     16.7995   1.0930353280e+02   6.8809178893e+01     0.215349    0.1405398  12.82 0.0004071489    1.447    0.309
       174 -11.2236     13.2657     20.3909   1.1367378227e+02   6.8872139536e+01    0.2621102    0.2151958 -22.08 0.0007064831    1.231    0.187
       175 -10.5873     12.5158     15.9685   1.1226386775e+02   6.9567713627e+01    0.3103742    0.1493055  21.72  0.001338244    2.133    0.531
       176  -9.6545     84.9306     21.2229   8.7043076320e+01   5.9111427577e+01    0.2058128    0.1130778  29.43 0.0006609193    1.837    0.456
       177 -11.0957     41.2038     17.9862   1.0080189167e+02   6.6315739973e+01    0.3535315    0.2216373  29.13  0.002287291    1.539    0.350
       178 -10.3705     31.0252     20.4582   1.0598108748e+02   6.7182190232e+01    0.2039287    0.1299465 -27.77 0.0006205825    1.320    0.242
       179  -9.8278    175.2611     20.5862   6.7944188214e+01   3.8984207728e+01     0.193031    0.1075329  57.45 0.0008611419    1.594    0.373
       180  -9.3601    101.5222     39.5187   8.9009446094e+01   5.3669426584e+01    0.1356663     0.117202  18.67 0.0003793282    1.063    0.059
       181  -9.5996    202.5047    240.0974   1.1378416848e+02  -5.7983079799e+00    0.1691258      0.12413 -34.70 0.0007306087    1.526    0.345
       182  -9.4860    148.5761     18.8257   7.1660507494e+01   4.5627808709e+01    0.1662158    0.1208601 -45.32 0.0003634671    1.548    0.354
       183 -10.1262    199.8074     17.1612   6.3892826244e+01   3.3402430575e+01    0.2007892    0.1551805 -77.15 0.0005149002    1.197    0.165
       184 -10.1651     26.2900     16.4740   1.0634815060e+02   6.8219051967e+01    0.1841271    0.1527415 -22.57 0.0007292488    1.322    0.244
       185  -9.0190    108.4316     16.5313   7.9083289619e+01   5.4938475392e+01    0.1270873    0.1100491  35.76 0.0001696429    1.012    0.012
       186  -9.4107     60.5162    241.0000   1.4103260698e+02   1.7396580212e+01    0.2463719    0.0585122  39.73 0.0009290833    3.889    0.743
       187 -12.5906     25.9908    235.8162   1.4663921477e+02   2.2748515117e+01    0.3713523    0.3077133  87.90   0.00268612    1.290    0.225
       188 -12.2484      4.2457    232.5805   1.5003268439e+02   2.5706984696e+01    0.4867884    0.2018431  83.95 0.0004244799    2.122    0.529
       189 -13.1876      9.7451    229.3368   1.4894291049e+02   2.5784896892e+01    0.6525421    0.3674665  81.90  0.003234401    1.364    0.267
       190  -9.8190    249.1752    234.1412   1.0421440163e+02  -1.2321757888e+01    0.1825087    0.1353113   8.22 0.0005607393    1.176    0.149
       191 -10.3492    190.5125     14.0000   6.4223837253e+01   3.5989153193e+01    0.2089616    0.1566971  77.11 0.0006959636    1.147    0.128
       192  -9.6172    140.2383    227.2008   1.2402940054e+02   7.3368778265e+00    0.1912623    0.1422778  65.15  0.000815713    1.374    0.272
       193 -10.0867     33.1044    225.0917   1.4462369449e+02   2.4068273246e+01    0.2793873    0.1052888  49.03  0.001430662    2.245    0.555
       194 -10.0297     25.5183    225.0420   1.4596404956e+02   2.4950025494e+01    0.1692825    0.0911449 -78.62 0.0007432724    1.565    0.361
       195 -11.9364      7.8598    217.7604   1.4853968501e+02   2.8292536002e+01    0.3282469    0.2138622  75.87  0.001717746    1.152    0.132
       196  -9.5311    246.4673    216.5205   1.0151042238e+02  -9.4702477665e+00    0.1277716      0.10471   2.32 0.0001485137    1.047    0.045
       197 -10.7069     16.0336    211.9628   1.4670352166e+02   2.8661232064e+01    0.1799427    0.1342247  84.02 0.0007229504    1.044    0.042
       198  -9.5446    209.5181    211.5258   1.0745957245e+02  -2.4978981439e+00    0.1347364    0.1205152  16.52 0.0008098483    1.001    0.001
       199  -9.8089     20.6059    209.7753   1.4570819208e+02   2.8642228427e+01    0.1619521   0.08518939  89.57 0.0003705385    1.612    0.380
       200  -9.8156    246.9660    207.0478   9.9641923902e+01  -8.1484598628e+00    0.1993685    0.1660201  -8.66 0.0006798935    1.056    0.053
       201  -9.3920    197.2408    204.0123   1.0848084510e+02   1.0438684667e+00    0.1725174     0.116749 -40.15 0.0004965094    1.558    0.358
       202 -11.1184      9.3456    203.3261   1.4729588829e+02   3.1137539348e+01    0.2308177     0.156941  69.57 0.0007944346    1.221    0.181
       203  -8.9732    181.4963    199.5074   1.1084680269e+02   4.8748656826e+00    0.1415896    0.1327127  40.02 0.0008104105    1.033    0.032
       204  -9.4774     23.0538    197.4795   1.4425005477e+02   3.1016368765e+01    0.1602052    0.1085937  44.50 0.0006162336    1.587    0.370
       205  -9.9870      1.7717     22.0201   1.1949070118e+02   6.9451215642e+01    0.2028786    0.1231291 -53.38  0.001363892    1.809    0.447
       206  -9.8033      6.6273    191.3864   1.4692242428e+02   3.3936841705e+01    0.1727258   0.09745378  72.96  0.000483471    1.551    0.355
       207  -9.5693     15.3753    185.1900   1.4470793649e+02   3.4476509672e+01    0.1731598   0.08766035 -87.02 0.0009402259    1.695    0.410
       208  -9.2592      1.1883    183.0852   1.4733892340e+02   3.6203683290e+01    0.1524884   0.06705719 -75.74 0.0005591551    1.732    0.423
       209 -10.7372      4.6269    167.3650   1.4534981652e+02   3.9374603526e+01    0.2796221    0.1755188  61.58  0.001377166    1.571    0.364
       210  -8.8557     41.6814    158.3109   1.3600943840e+02   3.7919106830e+01    0.1335647    0.0863957  75.45 0.0007034868    1.643    0.391
       211  -9.0814    247.4554    155.5328   8.9124061413e+01   2.2258733408e-01    0.1381281    0.1235404 -26.55 0.0001213454    1.002    0.002
       212 -10.2644      3.1325    153.6522   1.4439706763e+02   4.2554679225e+01    0.2068241   0.08653267  38.99  0.001102595    2.604    0.616
       213  -9.7891     14.8487    150.8013   1.4142587760e+02   4.2276001845e+01    0.1681209    0.1192386  81.03 0.0007035442    1.320    0.242
       214 -10.2642     21.9118    143.3163   1.3883791195e+02   4.3392414262e+01    0.2221774    0.1420497 -80.70  0.001015921    1.344    0.256
       215  -9.6207      3.1137    138.6422   1.4284457456e+02   4.5929799862e+01     0.203556   0.09028063  37.44  0.001101418    2.571    0.611
       216 -10.8838     12.8197    130.6051   1.3947593639e+02   4.7050823879e+01    0.3732787    0.1887273  65.98  0.001254667    2.700    0.630
       217  -9.4750     21.2094    126.1723   1.3667262538e+02   4.7403437267e+01    0.1609569    0.1246427  86.90 0.0003959983    1.297    0.229
       218 -11.6470     23.6502    121.4193   1.3529453718e+02   4.8289307416e+01    0.5063283    0.2441022 -84.10 0.0008235447    2.646    0.622
       219 -10.5683      3.3967    118.9115   1.4039505564e+02   5.0333769212e+01    0.1819118     0.164961 -44.69 0.0004334476    1.288    0.224
