#   1 NUMBER                 Running object number                                     
#   2 MAG_AUTO               Kron-like elliptical aperture magnitude                    [mag]
#   3 X_IMAGE                Object position along x                                    [pixel]
#   4 Y_IMAGE                Object position along y                                    [pixel]
#   5 X_WORLD                Barycenter position along world x axis                     [deg]
#   6 Y_WORLD                Barycenter position along world y axis                     [deg]
#   7 A_WORLD                Profile RMS along major axis (world units)                 [deg]
#   8 B_WORLD                Profile RMS along minor axis (world units)                 [deg]
#   9 THETA_WORLD            Position angle (CCW/world-x)                               [deg]
#  10 FWHM_WORLD             FWHM assuming a gaussian core                              [deg]
#  11 ELONGATION             A_IMAGE/B_IMAGE                                           
#  12 ELLIPTICITY            1 - B_IMAGE/A_IMAGE                                       
         1 -13.8974    203.4714     36.5705   5.3785300796e+01   2.9084859139e+01     1.058946    0.7887404 -19.52  0.002399945    1.340    0.254
         2 -14.2630    204.9869     22.5328   4.9427920644e+01   3.0304432708e+01      1.43188     1.029091 -65.87  0.007293985    1.467    0.318
         3 -15.2214    218.4512     23.2834   4.8297301396e+01   2.6882342290e+01     2.268327     1.540363  22.76   0.01115849    1.885    0.469
         4 -14.7195    218.8998     76.8681   6.2957043715e+01   2.0224056720e+01     2.436893    0.6235979 -42.55  0.006972618    4.638    0.784
         5 -17.1359    201.1517     71.6898   6.4253288250e+01   2.4998466631e+01     9.054846     3.617902  66.39   0.03019327    3.507    0.715
         6 -15.4795    243.1089    106.0321   6.6632770723e+01   1.1518393986e+01       2.0743     1.229154 -24.09   0.01088485    1.503    0.335
         7 -14.9702    245.2004      7.3916   4.1959320528e+01   2.2249877239e+01     1.480222    0.5200598 -56.44  0.005717811    3.188    0.686
         8 -17.0225    244.6032     37.9179   4.9785039126e+01   1.9303444721e+01     7.831623     3.343515  42.90   0.02783423    3.089    0.676
         9 -14.4151    242.6251     17.8746   4.4809413798e+01   2.1817837841e+01    0.5981606    0.3726862 -18.19   0.00217371    1.558    0.358
        10 -15.1554    233.6534     28.6585   4.8365295760e+01   2.2730665896e+01     1.169901     0.749662  23.43  0.005702416    2.088    0.521
        11 -11.4375    162.7508     34.2502   5.8981231509e+01   4.0056004743e+01    0.6381826    0.4414503 -12.08  0.001416669    1.634    0.388
        12 -10.1387    188.8573     24.6100   5.1914778846e+01   3.4249435691e+01    0.4901244    0.2607214 -46.11  0.002070163    1.879    0.468
        13 -11.5866    134.3210     21.3334   5.9427438296e+01   4.9440919651e+01    0.6949537    0.3062422 -18.63  0.002445982    2.673    0.626
        14 -10.4011     92.2035     22.2574   7.0873930327e+01   6.0016252833e+01    0.3786749    0.2283965 -35.27 0.0009069471    1.630    0.387
        15 -15.2446     86.1391      6.6299   6.4748353771e+01   6.3604692183e+01     6.665287      1.04114  59.12   0.01567451    6.634    0.849
        16 -11.9892    205.2769      5.6002   4.4342399842e+01   3.1931156154e+01    0.3906097    0.2255193  -2.31  0.001129839    2.169    0.539
        17 -10.5754    210.5519      2.7256   4.3075546653e+01   3.0858633528e+01    0.2718594    0.1988964   0.92  0.001428415    1.599    0.375
        18  -9.1080    158.7124      2.8792   4.8190827554e+01   4.4693949912e+01    0.1981904    0.1835987 -32.83 0.0007821165    1.108    0.097
        19 -12.1058    150.8650    148.2196   9.2785019253e+01   2.3172258949e+01    0.7156342    0.4842753 -87.89  0.003049892    3.013    0.668
        20 -11.5765    146.4934    142.5021   9.2661074176e+01   2.5020885894e+01    0.6347898    0.3091843 -27.89  0.002249082    3.740    0.733
        21 -12.9072     68.8090    144.1844   1.1234063770e+02   3.7599887084e+01     1.128983    0.8151747  46.82  0.005300666    1.248    0.199
        22 -12.1147     44.7715    157.3642   1.1989177704e+02   3.7662798677e+01    0.3461021    0.3088052  12.51  0.001145679    1.488    0.328
        23 -13.1290     52.0449    153.1233   1.1768416813e+02   3.7748450099e+01    0.7878586     0.687758  81.93  0.003443529    1.113    0.102
        24 -12.2415     59.2267    149.3310   1.1545350664e+02   3.7707659947e+01     0.564722    0.3268146  85.33  0.001445037    1.879    0.468
        25  -8.6759     83.0082    158.2521   1.1048284069e+02   3.2640932889e+01    0.1567111   0.09894016  39.47 0.0002451792    1.424    0.298
        26 -10.6013    243.8355    156.4595   7.7136658856e+01   5.4187467026e+00    0.2759986     0.199596  51.40 0.0009921524    1.855    0.461
        27 -12.4444    248.6380    174.9717   7.9830044124e+01   2.7042803259e+00     1.169374    0.4768894 -33.96  0.006022362    2.650    0.623
        28 -10.2496    235.9227    153.6355   7.7817496671e+01   7.0139705718e+00    0.2193567    0.2132195  18.00  0.001104749    1.460    0.315
        29  -9.5298    203.8698    153.0593   8.3113018208e+01   1.2590289862e+01    0.2226948    0.1681667 -10.63  0.000830969    1.319    0.242
        30 -10.5439    192.0919    153.2869   8.5330406395e+01   1.4684197489e+01    0.2600712    0.1831961  41.90  0.001111784    1.334    0.250
        31  -8.6969    190.3362    149.6700   8.4951301572e+01   1.5535457733e+01    0.1872175    0.1198379 -58.69  0.000847492    2.731    0.634
        32 -11.1322    133.6881    144.9231   9.6074573529e+01   2.6963403435e+01     1.050094    0.2912831 -55.61  0.002824123    6.296    0.841
        33 -11.5093    191.4120    192.1146   9.2279509901e+01   9.5243967965e+00    0.4692661    0.3094054 -66.22  0.002174561    4.176    0.761
        34  -9.2711    233.9524    145.3303   7.6481121668e+01   8.3299660476e+00    0.1767852    0.1368491  25.40 0.0007220592    1.170    0.145
        35 -11.1126    178.7940    142.6169   8.5784066923e+01   1.8793900926e+01    0.4193235    0.2632942 -56.60  0.001439433    2.393    0.582
        36  -9.0994    192.2606    144.2020   8.3482392123e+01   1.5985412004e+01     0.159902    0.1573509  81.82 0.0003693652    1.315    0.239
        37 -11.6756    157.7513    141.2364   8.9907333379e+01   2.3089018401e+01    0.6171079     0.399987  83.12  0.002287246    3.836    0.739
        38 -10.7632    189.7315    138.5187   8.2783881957e+01   1.7322045551e+01    0.4919738     0.246146  41.59  0.002122476    1.853    0.460
        39 -10.0882    131.9451    235.4915   1.0874275074e+02   1.2716109251e+01    0.1629068    0.1469095  42.10 -7.395136e-05    1.251    0.200
        40 -11.0030    239.1937    212.1708   8.7405882822e+01   3.8390489411e-01    0.1700775     0.110013  14.28 0.0005355478    1.200    0.166
        41 -10.6441    248.1390    211.4280   8.5932132400e+01  -7.2312865720e-01    0.2989502   0.08225748  39.23  0.001424454    3.037    0.671
        42 -12.8714    199.7795    173.9727   8.7742814153e+01   1.0496571436e+01     0.906593    0.4757543  47.87  0.004616617    2.014    0.503
        43 -13.2536    228.8921    185.4858   8.4755322963e+01   4.5148777179e+00     1.107282    0.4750368  46.04  0.005514925    2.543    0.607
        44 -14.3603    215.8667    190.1231   8.7684765541e+01   5.9668654054e+00     3.470724     1.350666  48.32   0.01518183    3.259    0.693
        45  -9.3607    200.7323    124.6728   7.7701181464e+01   1.7240172223e+01    0.3874376    0.2546129 -67.41  0.001583354    3.274    0.695
        46  -9.7429    183.3858    124.2577   8.0898254249e+01   2.0819611648e+01    0.3362857    0.2821753 -79.01  0.001795186    1.697    0.411
        47 -11.6828    141.3303    121.8238   8.9540561062e+01   2.9927597231e+01    0.5508638    0.3254938  71.27  0.001971985    3.307    0.698
        48 -10.6787    167.3598    114.6359   8.1949095806e+01   2.5800017477e+01    0.5302703     0.412117   9.61  0.001788353    1.496    0.332
        49 -11.2397    157.1397    113.4252   8.3903076162e+01   2.8207573624e+01    0.4944433    0.3272133 -81.14  0.001868742    3.126    0.680
        50 -11.4627    161.8466    119.2780   8.4242588499e+01   2.6150449100e+01    0.4643793    0.3395196 -71.24  0.001379594    2.040    0.510
        51 -10.2103    110.9276    110.0849   9.4738707767e+01   3.8366112979e+01    0.3804503    0.2592226 -10.05  0.001535561    2.708    0.631
        52  -9.6452    191.7085    107.6892   7.5368444594e+01   2.1701937151e+01    0.2356793    0.1872386 -68.94 0.0002608591    1.760    0.432
        53  -9.3006    160.8535    106.1945   8.1289880411e+01   2.8714485083e+01    0.1977915    0.1677631  12.39 0.0003008478    1.277    0.217
        54 -10.1650    202.3762    101.7468   7.1968790840e+01   2.0310784199e+01     0.255831    0.2306415  35.45  0.000895207    1.118    0.106
        55 -12.0380    156.3986     97.9297   8.0151175217e+01   3.1213542342e+01    0.6206602    0.3738986  44.05  0.002719055    1.625    0.385
        56  -8.7356    174.5203    129.4578   8.3854493945e+01   2.1776928752e+01    0.1419827    0.1280728  21.38 0.0001386414    1.022    0.022
        57 -11.4878    214.4673    167.8280   8.4048924408e+01   8.8389214373e+00    0.6625029    0.3632295  59.84  0.002707796    4.041    0.753
        58 -11.1878    170.9196     90.7222   7.5061371305e+01   2.9149784843e+01    0.6187789    0.3939624  34.40  0.002723943    1.734    0.423
        59 -11.8715    154.3876     89.0541   7.8190504092e+01   3.3301150696e+01    0.3548675    0.3449938 -79.59 0.0005897612    1.095    0.087
        60 -10.0871    149.8044     90.8726   7.9758928276e+01   3.4026407928e+01    0.2827981    0.2097093 -57.84 0.0009772354    1.567    0.362
        61  -9.9355    105.2285     85.0089   9.0072504022e+01   4.4969397442e+01    0.2075699    0.1904629 -52.37 -0.000430966    1.088    0.081
        62 -13.7404    225.7234    174.6326   8.3384914572e+01   6.2124207493e+00       1.7766    0.9353085   1.23  0.008491432    2.677    0.626
        63 -13.3047    235.0210    174.7595   8.1903117791e+01   4.7594384141e+00     1.534642     1.272286 -41.40   0.01048558    1.806    0.446
        64  -9.5254    166.9055    134.4779   8.6535702538e+01   2.2460346479e+01    0.2134781    0.1295849  44.18 0.0005907639    1.533    0.348
        65 -13.4458     15.7277    171.9462   1.2766507948e+02   3.7484417857e+01    0.7869716    0.5826153  61.46  0.003744537    1.031    0.030
        66 -13.1143    152.6171    125.3455   8.7688664419e+01   2.6963016940e+01    0.9717997    0.4721406 -35.86  0.003939979    2.362    0.577
        67 -11.3744    155.0795    132.2281   8.8630514799e+01   2.5212154823e+01    0.3484654    0.2766457  84.19  0.001468904    1.763    0.433
        68 -10.4674    158.7200     26.1000   5.6761988862e+01   4.2196475449e+01    0.4287496    0.3998339 -33.63  0.001578685    1.079    0.073
        69  -8.7307    101.0118    175.9812   1.0844570469e+02   2.6522198331e+01    0.1400716    0.1183878  52.49            0    1.020    0.020
        70  -9.0551    163.2113     27.7555   5.6617239826e+01   4.0767313544e+01    0.2165931    0.1774361  25.12 0.0004581499    1.356    0.262
        71 -12.0033    160.4967    128.4889   8.6622794113e+01   2.4790297793e+01     0.507898    0.4169512  12.91  0.002746222    1.320    0.242
        72 -12.1545    245.3100    126.9384   7.0933178461e+01   8.5888414445e+00     1.032053     0.396673  50.66  0.004521582    2.919    0.657
        73 -11.9868    194.9981    198.7131   9.2661690697e+01   8.1530465465e+00    0.3501278    0.2696279  46.22  0.002303982    1.482    0.325
        74  -9.4848    171.3276     25.0506   5.4422597380e+01   3.8891558088e+01    0.4480661    0.1239981 -26.92  0.001378303    3.310    0.698
        75 -10.4236    179.4494     23.9178   5.2902429713e+01   3.6832242901e+01    0.4853929    0.3935368  63.69  0.002514781    1.231    0.188
        76  -8.6861     82.9843    173.7449   1.1230873536e+02   2.9547454471e+01    0.1469985    0.0927228  39.76 0.0002447178    1.373    0.272
        77 -10.1093    196.5247    159.0245   8.5606224450e+01   1.3072576990e+01     0.235886     0.165255  77.38    0.0010348    3.446    0.710
        78 -10.1869     78.5757     22.3198   7.5785759180e+01   6.3018221645e+01    0.2698358    0.1313225 -39.31 0.0008168419    2.000    0.500
        79  -9.4202    144.1486     20.7955   5.7308643274e+01   4.6833490729e+01    0.4128145    0.1484883 -29.99   0.00132051    2.614    0.617
        80  -8.9434    164.6521     21.2958   5.4096510966e+01   4.1149759143e+01    0.2006036    0.1428474  -9.31 0.0009087868    1.571    0.363
        81 -11.4085    128.3977     18.1708   5.9340185861e+01   5.1431423944e+01    0.3408647    0.3223011 -56.04 0.0006405268    1.102    0.093
        82 -11.1563    155.6578    147.3361   9.1566191445e+01   2.2426872212e+01     0.406492    0.2781459  84.95  0.001740085    2.939    0.660
        83  -9.8145    159.0341    157.7423   9.2789854250e+01   2.0037600880e+01    0.2742147    0.1953207 -64.56  0.001353681    2.040    0.510
        84  -9.8891    155.7899    153.7697   9.2752730878e+01   2.1297570880e+01    0.2425477    0.1661331  47.39  0.000499368    1.376    0.273
