#   1 NUMBER                 Running object number                                     
#   2 MAG_AUTO               Kron-like elliptical aperture magnitude                    [mag]
#   3 X_IMAGE                Object position along x                                    [pixel]
#   4 Y_IMAGE                Object position along y                                    [pixel]
#   5 X_WORLD                Barycenter position along world x axis                     [deg]
#   6 Y_WORLD                Barycenter position along world y axis                     [deg]
#   7 A_WORLD                Profile RMS along major axis (world units)                 [deg]
#   8 B_WORLD                Profile RMS along minor axis (world units)                 [deg]
#   9 THETA_WORLD            Position angle (CCW/world-x)                               [deg]
#  10 FWHM_WORLD             FWHM assuming a gaussian core                              [deg]
#  11 ELONGATION             A_IMAGE/B_IMAGE                                           
#  12 ELLIPTICITY            1 - B_IMAGE/A_IMAGE                                       
         1 -15.1358    158.6180    110.3308   7.6491110548e+01   2.8060733885e+01     2.721058     1.500246  37.94  0.006167953    1.995    0.499
         2 -14.5985    215.6270    126.4509   6.8636819028e+01   1.2016336410e+01     2.823899     1.811239 -59.89   0.01195549    2.205    0.546
         3 -17.5492    168.3976    150.9405   8.4233478300e+01   1.7389056626e+01      4.66074     3.178021  46.80   0.02070464    1.472    0.321
         4 -12.8154    238.6087     13.1525   3.7674770220e+01   2.4071845533e+01    0.8274336    0.5456728 -45.97  0.003908178    1.347    0.258
         5 -12.3035    247.9127     11.7575   3.6634436723e+01   2.2173488676e+01    0.9011154    0.5347881 -14.16  0.004546474    2.511    0.602
         6 -12.7615    243.9004      6.3038   3.5742605297e+01   2.3651939993e+01    0.8292094    0.5481291 -64.47  0.004964671    1.316    0.240
         7 -12.0302    228.2388     11.7976   3.8234480154e+01   2.6588044860e+01    0.4808212    0.3218341 -14.70  0.002591455    1.971    0.493
         8 -12.3012    210.4745      8.0977   3.8946268303e+01   3.1192397181e+01    0.5684654    0.3784544 -20.63  0.003076863    1.780    0.438
         9 -12.0063    194.4738      7.6622   4.0445130678e+01   3.5166272776e+01    0.4628915    0.3796936 -35.43  0.001547118    1.304    0.233
        10 -12.3975    221.6842      3.7636   3.6893593600e+01   2.8968404625e+01    0.6289277    0.4576087 -68.56  0.003180777    1.228    0.186
        11 -11.3668    170.7031      7.4746   4.3196444724e+01   4.1180981142e+01     0.289042    0.2261761  73.24 0.0003419101    1.147    0.128
        12 -12.6857    180.4969      3.5578   4.0859599949e+01   3.9063937817e+01     1.015317    0.4672854  63.23  0.004627178    1.875    0.467
        13 -10.9790    134.8732      5.8662   4.8117804144e+01   5.0368072408e+01    0.2738704    0.1872202   9.88  0.001419996    1.726    0.421
        14 -12.1279    203.2392      4.3991   3.8699041974e+01   3.3325826756e+01    0.5899132    0.4248072  35.23  0.003260174    1.787    0.440
        15 -10.6947    113.4312      3.1712   5.1282472169e+01   5.5766403421e+01    0.3300182    0.2416605  44.51  0.001883503    1.176    0.150
        16  -9.2703     70.9980      3.9596   6.3134034200e+01   6.4751199700e+01    0.1567073    0.1271509  13.79 0.0006449583    1.030    0.030
        17 -12.1880    158.9255      3.9659   4.3703052554e+01   4.4492043451e+01    0.5595345    0.4358497 -10.04  0.001905972    1.501    0.334
        18  -9.9757    100.6159      2.7616   5.4041173549e+01   5.8732698522e+01    0.2124786    0.1666793  89.25  0.001198967    1.725    0.420
        19  -9.2443     32.8171      3.5781   7.8775071276e+01   7.0867690519e+01    0.1423567     0.103802  33.77 0.0005030693    1.609    0.378
        20 -10.4937    164.5749    230.9593   9.9715760679e+01   3.3395076836e+00    0.2476756    0.2154873  64.29 0.0007556086    1.370    0.270
        21 -11.5959    235.4324    249.9915   8.9482814506e+01  -1.0080248449e+01    0.3314373    0.1570184  34.74 0.0003743987    1.736    0.424
        22 -10.6233    182.8778    248.1972   9.8690656638e+01  -2.1083853476e+00    0.2546373    0.1773986  37.50 0.0006535018    1.177    0.150
        23 -11.1093    191.6409    248.9044   9.7169395161e+01  -3.5538324411e+00    0.3424872    0.1966027  32.51  0.000850884    1.395    0.283
        24  -9.6133    187.0511    249.7712   9.8139785485e+01  -2.9631927025e+00    0.1845423    0.1433909  29.56 0.0004177341    1.022    0.021
        25  -9.9008    169.4089    249.8625   1.0142981372e+02  -2.3864291212e-01    0.2084004    0.1336928  42.56 0.0004946284    1.300    0.231
        26  -8.9742    154.9976    250.7979   1.0424552657e+02   1.8798372811e+00    0.1578683   0.07707778  39.52 0.0008281874    1.614    0.380
        27  -9.1611    135.2611    250.7009   1.0792565030e+02   4.9613601959e+00    0.1646191   0.08897094  36.77 0.0005417643    1.558    0.358
        28  -9.1656    125.0443    250.0100   1.0975489734e+02   6.6359546106e+00    0.1876827    0.1208122  62.45  0.001096747    1.651    0.394
        29 -11.4338      7.3416    248.9625   1.3013183817e+02   2.1883587256e+01    0.2551263    0.1784834  68.26   0.00209002    1.060    0.056
        30  -9.9622    142.5497    230.2659   1.0397003426e+02   7.0837354024e+00    0.2355759    0.1694409  59.81 0.0009591362    1.480    0.324
        31 -10.0439    210.9336    224.0726   8.9686681423e+01  -3.2260165786e+00    0.2005714    0.1722336  18.02 0.0003722548    1.122    0.108
        32 -10.8228    243.1836    222.5964   8.3575901707e+01  -7.9479228412e+00    0.3209664    0.1868809  25.18 0.0009256985    1.489    0.328
        33 -10.0503    183.9832    221.0383   9.4366042456e+01   1.6430287974e+00    0.4232132      0.23001  43.01  0.001670342    1.663    0.399
        34  -9.9666    128.5465    222.3976   1.0573326060e+02   1.0746225832e+01    0.3206604      0.17667  52.30  0.001026907    1.730    0.422
        35 -10.1080    133.8049    221.6778   1.0456554475e+02   1.0009288675e+01    0.3754258    0.2283223  59.41  0.001918167    1.840    0.457
        36  -9.2838    198.6031    221.2325   9.1551935336e+01  -8.2306011014e-01    0.2245158    0.1330998  21.72 0.0007829108    1.729    0.422
        37  -8.7702    176.3332    220.2793   9.5757737205e+01   3.0558162896e+00    0.1314799   0.09215387  13.43 0.0002614582    1.608    0.378
        38 -10.2004    168.8846    217.9698   9.6882379939e+01   4.7015851607e+00    0.3367659    0.1549423  42.35 0.0008529639    1.894    0.472
        39  -9.1894    135.5305    218.4978   1.0377254641e+02   1.0291989276e+01    0.1704382     0.124642 -40.19 0.0005529141    1.671    0.402
        40 -10.7558    138.4808    214.6234   1.0260949435e+02   1.0496432090e+01    0.2927935    0.2779903 -51.75  0.001254406    1.215    0.177
        41 -11.5120    123.7987    215.3587   1.0576711547e+02   1.2818917701e+01    0.4965074    0.4023913 -58.26  0.003046386    1.401    0.286
        42  -9.9592    128.2209    211.0676   1.0424644509e+02   1.2891576402e+01    0.2893293    0.1966607  52.23 0.0007610733    1.360    0.265
        43  -8.8182     73.5697    218.5575   1.1640056632e+02   1.9828720971e+01    0.1243387   0.09707254  66.69 0.0002230207    1.054    0.051
        44 -12.2539    217.1575    214.6895   8.6896196861e+01  -2.9075548107e+00    0.3796689     0.264946   6.07  0.001115107    1.417    0.295
        45 -10.2772    147.6479    216.9204   1.0105085566e+02   8.5232818523e+00    0.2212414     0.196271  51.31 0.0006420547    1.100    0.091
        46 -12.4011    177.3958    208.6030   9.3616233317e+01   4.7780410003e+00    0.7082055     0.602845 -59.72  0.004238649    1.510    0.338
        47 -12.2360    191.9874    211.3238   9.1155117896e+01   1.7971793791e+00    0.5621305    0.4878116  -0.64  0.001349487    1.131    0.116
        48 -10.5231    168.1144    213.1851   9.6271038623e+01   5.6326085207e+00    0.3588953    0.2254183 -37.63  0.001059209    1.831    0.454
        49 -11.3879    167.7992    204.0215   9.4811638100e+01   7.2680235025e+00    0.3748829    0.3318529  74.33 0.0004909477    1.400    0.286
        50  -9.7488    165.5290    208.4771   9.6030974027e+01   6.8924319849e+00    0.2439506    0.2067275  37.15 0.0006760119    1.051    0.049
        51 -11.7590    163.1150    205.3299   9.6009821441e+01   7.8733898140e+00    0.6852586    0.5057092   2.64 0.0002610257    1.737    0.424
        52  -8.7419    229.7524    209.6882   8.3664260057e+01  -4.2173344881e+00    0.1258358   0.08396728   1.35  0.000272729    1.512    0.339
        53  -9.9772    153.0561    207.6066   9.8490053720e+01   9.2480395978e+00    0.4193363    0.1923086 -40.65  0.001793916    2.641    0.621
        54 -11.5468     58.2974    205.4493   1.1822390003e+02   2.4508669955e+01     0.270142    0.1900942  50.94 0.0005937645    1.270    0.213
        55 -10.0528    224.7558    204.0143   8.3536870122e+01  -2.6107324457e+00    0.2910493    0.1845848  -8.61 0.0008721933    1.737    0.424
        56 -10.2888    218.3157    203.6478   8.4674418786e+01  -1.4949219090e+00    0.4177955    0.2154086 -17.54  0.001412885    2.636    0.621
        57  -9.3590     11.2614    204.5653   1.2734236359e+02   2.9861305069e+01    0.1217964    0.1039492  39.59  0.000426623    1.517    0.341
        58 -13.2816    220.1560    188.6760   8.1458986103e+01   4.7611796943e-01     2.406466      1.62018  24.11   0.00727126    1.422    0.297
        59 -14.2080    181.6053     98.3083   6.8081776495e+01   2.5022396433e+01     2.507053     1.723229  80.37   0.01022982    2.141    0.533
        60 -14.4297    180.2118    197.4588   9.1078206960e+01   6.1758016892e+00     2.660027     1.233545  48.58   0.00532082    2.311    0.567
        61  -9.7734    198.0900    247.1021   9.5719829483e+01  -4.3054893574e+00    0.1758288    0.1369014  23.20  0.000309575    1.018    0.018
        62 -11.1709    176.9440    244.6097   9.9295019108e+01  -6.8577344314e-01    0.4448227    0.2391906  35.25  0.001890149    1.510    0.338
        63 -15.3303    177.3842    127.8587   7.6737051203e+01   2.0165244798e+01     3.172525     1.293835  46.67   0.01101251    2.481    0.597
        64 -14.7113    155.3242    160.3805   8.9290079455e+01   1.8118949218e+01     1.532178     1.012369  75.14  0.006021834    2.612    0.617
        65 -15.1321    151.2423    148.0042   8.7569143056e+01   2.1595600917e+01    0.8901184    0.8083715  63.73  0.001977355    1.172    0.146
        66 -14.9033    172.0337    164.5329   8.6380109259e+01   1.3892194656e+01     1.037548    0.6253817 -37.51  0.004610397    1.739    0.425
        67 -10.7146    171.3909    244.2231   1.0028888677e+02   2.4758107983e-01    0.2821368     0.175559  35.09 0.0007890951    1.299    0.230
        68  -9.6798    244.1769    192.5208   7.7824957155e+01  -4.0905784580e+00    0.2062179    0.1668948  25.10 0.0007910641    1.232    0.188
        69  -8.9420    235.6381    192.0756   7.9260729499e+01  -2.6518456192e+00     0.177082    0.1426581  -7.25 0.0003808703    1.080    0.074
        70  -8.8702    112.2232    191.9021   1.0493841097e+02   1.9416019029e+01    0.1725905    0.1120837 -62.55 0.0008653664    1.648    0.393
        71  -9.3390     53.4082    192.3733   1.1798522692e+02   2.7905367327e+01    0.1667082    0.1038163 -87.61 0.0007473407    1.510    0.338
        72  -9.8344    106.0006    190.6651   1.0615611357e+02   2.0707892484e+01    0.3491293    0.1904768  51.86   0.00162457    1.784    0.439
        73  -9.6890     95.4022    189.6724   1.0840589486e+02   2.2618578793e+01    0.2174604    0.1449561  71.12 0.0006894171    1.654    0.395
        74  -9.4996     56.5155    189.1137   1.1698452460e+02   2.8232838584e+01    0.2344813    0.1392954  57.45 0.0007695863    1.559    0.359
        75  -9.1428     81.8428    188.0780   1.1125071942e+02   2.5020542301e+01    0.2020648    0.1532013  70.47 0.0004310072    1.243    0.196
        76 -10.7705    111.6140    184.9470   1.0401796792e+02   2.1000222454e+01     0.393711    0.2723148  83.20  0.001224172    1.818    0.450
        77  -8.8215     91.6912    186.6769   1.0883440136e+02   2.3848217488e+01    0.1428443    0.1217223  71.21 0.0004186383    1.065    0.061
        78  -8.9654     92.5053    183.5538   1.0821201254e+02   2.4410559502e+01     0.192862    0.1232617 -52.40 0.0004344522    1.685    0.407
        79  -8.6486    234.2768    180.2999   7.7160002881e+01  -6.5926354238e-01    0.1351032   0.09253526   1.27  0.000220645    1.538    0.350
        80 -10.3462    120.7674    179.0300   1.0093770434e+02   2.0695148858e+01    0.2563123    0.1977378 -38.18  0.001246022    1.517    0.341
        81  -9.4169     84.6363    180.3887   1.0959115084e+02   2.6317451932e+01    0.2106957    0.1675526  30.44 0.0006439572    1.443    0.307
        82  -9.2987    244.8002    175.4137   7.4290369247e+01  -1.6926868194e+00    0.1863335    0.1479269  11.69 0.0003816291    1.154    0.133
        83  -8.9827    243.6379    178.8019   7.5186085360e+01  -2.0068728387e+00    0.2709471    0.1738873 -44.28 0.0006310559    1.868    0.465
        84  -9.9331    240.0690    178.3951   7.5732849815e+01  -1.3502374224e+00    0.2776149    0.1913617 -17.64 0.0006159334    1.348    0.258
        85 -10.3342     94.5526    178.0486   1.0693553492e+02   2.5317769630e+01    0.3027108    0.2370816  19.46 0.0004906378    1.637    0.389
        86  -9.0246     73.5119    177.1176   1.1174336916e+02   2.8669723774e+01     0.186091      0.12191 -67.75 0.0004099413    1.455    0.313
        87 -10.2296    113.1567    173.8179   1.0185083886e+02   2.3174683135e+01    0.3496074    0.2414174 -80.98  0.001668497    1.773    0.436
        88 -10.8071    234.3555    170.6991   7.5164316713e+01   8.2259134454e-01    0.4319112     0.279182  58.60 0.0006840774    2.418    0.586
        89  -9.9423    100.1345    169.4888   1.0426315948e+02   2.6358000331e+01    0.3433851    0.1981554 -65.28  0.001196411    1.815    0.449
        90 -11.4542    221.8197    165.7338   7.6424549926e+01   3.8997262129e+00     0.709333    0.4924528  65.73  0.002856392    2.408    0.585
        91 -10.1437    218.9879    158.5351   7.5400271809e+01   5.6566006180e+00    0.3378853    0.2006589 -38.51  0.001110165    1.644    0.392
        92  -9.9259    220.5351    154.4030   7.4196025081e+01   6.0701054169e+00    0.3663203    0.2395791  54.18  0.001733556    1.883    0.469
        93 -10.2287    156.3001    201.1273   9.6743219160e+01   9.8537298052e+00     0.314413    0.2607918 -82.89  0.001546149    1.570    0.363
        94  -9.1214     65.6125    165.2190   1.1204392868e+02   3.2502900061e+01    0.1809255     0.112809 -58.78 0.0002849051    1.544    0.352
        95  -9.2778    237.2900    160.7546   7.2527926480e+01   1.8860881582e+00    0.2214953    0.1465298 -34.06 0.0006946647    1.413    0.292
        96  -9.0284     88.8049    161.5258   1.0575599041e+02   3.0024144298e+01    0.3310934    0.1052688  45.27 0.0008154593    3.147    0.682
        97 -13.0296    102.1451    154.9687   1.0124467665e+02   2.9391601504e+01    0.4280868     0.352816 -72.11  0.000670414    1.207    0.171
        98  -9.7892     78.5848    157.2743   1.0765026289e+02   3.2575075577e+01    0.2338068    0.2029501  74.46 0.0002276707    1.097    0.088
        99  -9.4784    234.8788    155.8911   7.1901186000e+01   3.1126581456e+00    0.2363875    0.1922954  45.18  0.001323067    1.408    0.290
       100 -12.4310    250.4288    151.3040   6.8235662704e+01   1.0533796365e+00    0.2600683    0.1550416 -32.29 0.0008036325    1.483    0.326
       101  -8.6734    228.6605    152.2622   7.2219049873e+01   4.8770731180e+00     0.128299    0.1144712 -80.69 0.0004408131    1.589    0.371
       102  -9.3296     89.1540    151.5090   1.0396927289e+02   3.2344781989e+01    0.2098697    0.1857955 -38.87 0.0004501267    1.279    0.218
       103 -10.9851    217.3258    149.3790   7.3676737002e+01   7.5740081497e+00    0.3641423    0.2841094  41.34  0.001917708    1.337    0.252
       104 -13.9026    203.6075    134.1951   7.2802660564e+01   1.3162561580e+01     1.537203     1.112187  54.65  0.006894331    1.555    0.357
       105 -10.0432     14.1276    146.0414   1.2241072838e+02   4.2465175142e+01    0.2184476    0.2117826 -84.44  0.001306628    1.297    0.229
       106 -13.7109    203.7612    158.4866   7.8362686057e+01   8.6453556384e+00    0.8165637    0.5984976   3.94  0.002073951    1.586    0.370
       107 -10.0217    225.9339    143.4138   7.0723947043e+01   6.9120533789e+00    0.4222474    0.2025405 -30.39  0.001721142    2.077    0.519
       108 -10.2476    230.1778    142.8570   6.9834178963e+01   6.1776565612e+00    0.2851926    0.2568117 -19.39 0.0007486761    1.050    0.048
       109 -10.3883    228.2368    138.7954   6.9252100370e+01   7.2525201672e+00    0.3864381    0.3053501 -17.02  0.001340267    1.213    0.176
       110 -11.1400     73.9615    144.6728   1.0679048538e+02   3.6272738830e+01    0.2792469    0.2377469  40.87 0.0006552082    1.267    0.210
       111 -10.8986    111.9699    141.9178   9.6127007674e+01   3.0730685535e+01    0.6130561    0.4174466  12.21  0.001727927    2.259    0.557
       112 -10.6159     97.3105    142.0591   1.0005069399e+02   3.3278512630e+01    0.2668869    0.2376435 -60.18 0.0002678541    1.085    0.079
       113 -11.5729     84.2422    139.2169   1.0303498613e+02   3.6075086424e+01    0.2956865    0.2881066  10.32 0.0003064035    1.174    0.149
       114 -10.2548    206.1176    200.1888   8.6372043598e+01   1.1084849403e+00    0.3265069    0.2203912  47.61   0.00148224    1.645    0.392
       115  -8.5241     55.2461    138.3294   1.1080293001e+02   4.0270625364e+01    0.1339384   0.09265061 -45.99  0.000130955    1.543    0.352
       116 -14.6093    177.0987    144.6381   8.0843116253e+01   1.6829064539e+01    0.6138613    0.4661157  39.19  0.001553714    1.308    0.236
       117 -11.2457    110.6649    134.3716   9.4851428548e+01   3.2753260224e+01    0.4947745    0.3189043  17.75  0.000997016    2.298    0.565
       118 -12.2566    238.8037    144.4475   6.8684009839e+01   4.2647320389e+00     0.456313    0.3234779 -15.47 0.0006385523    1.413    0.292
       119 -10.1997    102.6214    133.2517   9.6792837172e+01   3.4473243925e+01    0.2638929    0.1828395 -46.53 0.0005253159    1.432    0.301
       120 -10.6708    122.4125    185.1105   1.0156778841e+02   1.9103047546e+01    0.3919639    0.2775314 -32.97  0.001938616    1.841    0.457
       121  -9.8332     65.7219    130.7934   1.0662645308e+02   4.0790888185e+01    0.2227321    0.1921109  12.24 0.0007571074    1.425    0.298
       122 -12.3296     77.4159    126.9980   1.0256650549e+02   4.0082529043e+01    0.3413801    0.2894304 -60.93 0.0002807134    1.082    0.076
       123 -10.8304     80.4349    123.5351   1.0098330379e+02   4.0474680728e+01    0.2569081     0.230164 -85.59 7.168283e-05    1.129    0.114
       124 -10.0279    101.3944    128.4845   9.6087927577e+01   3.5830613536e+01    0.3063025    0.2109745 -70.95 0.0005563299    1.664    0.399
       125  -9.8142     95.6943    127.0158   9.7361049961e+01   3.7171768319e+01    0.2648918    0.2295408  72.94 0.0003149224    1.248    0.198
       126  -9.6540     92.5205    125.4293   9.7912505079e+01   3.8089042769e+01     0.269484    0.2255838 -20.81 0.0007209611    1.419    0.295
       127 -11.7619     43.8774    125.5915   1.1196301884e+02   4.4658531589e+01     0.241849    0.2209406 -74.86 0.0003076284    1.084    0.077
       128 -10.0066    203.4968    123.1590   7.0137125896e+01   1.5249934851e+01    0.2609108    0.2096172  44.45 0.0004659157    1.294    0.227
       129 -10.6104    229.4081    121.4307   6.4981075351e+01   1.0009255705e+01    0.3628907    0.3069633 -57.88  0.001103073    1.352    0.260
       130  -9.7625    223.9053    121.4097   6.5929273272e+01   1.1160341600e+01    0.3705988    0.2070258 -44.18  0.001252252    1.765    0.433
       131  -9.2484    225.0410    118.0000   6.4909311159e+01   1.1517078344e+01    0.2404298    0.1906615  49.40  0.000616944    1.376    0.273
       132  -9.1263    235.7342    118.5806   6.3245831353e+01   9.1980982983e+00    0.1746576       0.1423  67.46 0.0004727153    1.530    0.346
       133 -10.9555    104.4550    116.0134   9.2304513924e+01   3.8243883216e+01    0.3411109    0.2959882 -69.66 0.0004086216    1.202    0.168
       134 -11.2104    226.9936    109.2026   6.2440101460e+01   1.2626243356e+01    0.5733072    0.2887757 -45.45  0.002325534    1.976    0.494
       135  -9.0243     73.7302    110.9712   1.0025152211e+02   4.4516011912e+01    0.2018665    0.1675957 -53.95 0.0003110776    1.091    0.084
       136  -9.2763    102.4489    109.8209   9.1333386589e+01   4.0065871688e+01    0.2184676    0.1444969 -51.37 0.0004477742    1.448    0.309
       137 -10.1738     87.5135    109.2178   9.5632996217e+01   4.2807715487e+01     0.245163    0.2215032 -13.55 0.0003059931    1.215    0.177
       138 -14.0833    194.1205    155.6400   7.9700479805e+01   1.1116656671e+01     1.415912    0.6051946 -36.36  0.002794245    2.406    0.584
       139 -10.6178     66.3422    102.1750   1.0054870329e+02   4.7661396314e+01    0.4422475    0.2331812 -67.11 0.0009394806    2.145    0.534
       140 -10.1520    217.8001    101.9123   6.2187230385e+01   1.5908320095e+01    0.3203127    0.2355758 -50.15 0.0009461383    1.386    0.278
       141 -14.7004    200.4693    147.3620   7.6522823565e+01   1.1362275407e+01     1.186642    0.8635008  62.57  0.002068199    1.788    0.441
       142 -10.7605    113.4918     99.0382   8.5220605833e+01   4.0403912719e+01    0.7099987    0.3335685 -51.90  0.002594787    2.249    0.555
       143 -10.5350    126.3818    101.2820   8.2227597440e+01   3.7228553460e+01    0.3539689    0.3101428 -41.78 0.0007639777    1.114    0.102
       144 -11.9869    121.4030    100.1142   8.3276276581e+01   3.8539861094e+01    0.2856395    0.2788001  25.16 0.0002105005    1.048    0.045
       145  -9.6303    117.1790     97.3826   8.3694014652e+01   4.0019099536e+01     0.262031    0.1984778  51.62  0.000578467    1.423    0.297
       146 -11.4061    120.0052     93.9937   8.1913932867e+01   4.0168190741e+01    0.3692958    0.3195719 -57.94 0.0008862904    1.226    0.184
       147  -8.9578    213.0017    102.5522   6.3183996222e+01   1.6877753283e+01    0.1989937    0.1498624  53.31 0.0002989719    1.419    0.295
       148 -10.2239    237.8440     99.2762   5.8304341078e+01   1.1988579071e+01    0.3056191    0.1940947 -28.07   0.00046268    1.524    0.344
       149 -13.5527    142.1152    109.6003   8.0362942854e+01   3.1970566081e+01     1.740847       1.0098 -49.98  0.001621878    1.793    0.442
       150 -14.4834    187.3618    180.3058   8.6324000301e+01   7.8881250957e+00     1.534803     1.090021  56.24  0.007575153    1.710    0.415
       151 -10.8480    194.5961     95.3446   6.4684231165e+01   2.2463365403e+01     0.282563    0.2705305   5.64 0.0003315708    1.082    0.076
       152 -10.8843    118.7121    191.2466   1.0338155076e+02   1.8454845378e+01    0.4426555    0.3179625 -34.46   0.00130574    1.815    0.449
       153 -10.2982    246.0088     96.4424   5.6427550659e+01   1.0748934312e+01    0.2766024    0.2423128 -66.03  0.001168249    1.247    0.198
       154  -8.9409     84.5110     96.9219   9.3430206130e+01   4.6186552522e+01    0.2256109    0.1370999 -51.52  0.001011763    1.530    0.346
       155  -9.7228    149.2520     96.0282   7.4773419755e+01   3.3196446758e+01    0.2224505    0.2070485 -35.24 0.0002889383    1.060    0.056
       156  -9.9246    205.1775     94.4318   6.2478343751e+01   2.0122821705e+01    0.3813766    0.2064887 -26.60 0.0008911085    2.069    0.517
       157  -9.4324    218.1013     92.8813   5.9847617109e+01   1.7401219759e+01     0.238077    0.2005448  74.71 0.0004060995    1.345    0.256
       158  -9.9354    158.2723     92.7470   7.1662888697e+01   3.1717120474e+01     0.341138    0.2424289 -15.58 0.0007724158    1.763    0.433
       159  -9.5207    210.2988     92.0638   6.0956941486e+01   1.9340875357e+01    0.4008831    0.2492596  77.00  0.001621561    2.359    0.576
       160 -14.7891    141.0449    191.4662   9.8428861523e+01   1.4464490102e+01     2.590677     2.088172 -55.60    0.0077157    1.362    0.266
       161 -12.5121    143.7998     88.7702   7.4005291103e+01   3.5941999911e+01    0.6300655    0.4293894  17.93   0.00254358    2.060    0.515
       162  -9.3884    227.4308     90.2947   5.7701038578e+01   1.5734239707e+01    0.2208343    0.1704621 -84.47  0.000247545    1.629    0.386
       163 -11.1891    198.5886     86.9299   6.1672187529e+01   2.3013213211e+01    0.5420244     0.324871  31.88  0.001698779    2.259    0.557
       164  -9.4480    112.4851    196.3062   1.0552666595e+02   1.8453392628e+01    0.2137994    0.1580179  19.76 0.0004879966    1.744    0.426
       165  -9.6943    109.8969    103.3244   8.7446829965e+01   4.0152302957e+01    0.2101218    0.2012883  26.85 0.0005127718    1.082    0.076
       166  -9.4884    248.4577     88.3032   5.4169493068e+01   1.1538541803e+01    0.2185481    0.1922139  56.31 0.0005848255    1.289    0.224
       167 -13.7233    208.6062    175.5309   8.1037624399e+01   4.7091388208e+00     1.273544     1.015133 -19.25  0.002837338    1.216    0.178
       168  -8.8922    134.0000     86.9671   7.5990320376e+01   3.8569452274e+01    0.2784078    0.1643804 -19.47 0.0009950557    2.519    0.603
       169  -9.8322    136.9726     84.9535   7.4600369713e+01   3.8293555724e+01     0.228762    0.2243585  -9.51 0.0003210161    1.011    0.011
       170  -9.0483     90.7102     86.9412   8.8665204003e+01   4.7397410545e+01    0.2079728     0.180608 -44.89 0.0003682417    1.094    0.086
       171  -9.3272    220.9125     86.1271   5.7672151679e+01   1.7898967016e+01     0.220471     0.188547 -66.20 0.0005605066    1.239    0.193
       172  -8.8949    112.6107     85.4638   8.1498098149e+01   4.3529957183e+01    0.1538256    0.1428987 -23.06  0.000164161    1.039    0.037
       173  -9.8225    109.5725     82.8896   8.1605596462e+01   4.4692210233e+01    0.2206428    0.2114235  73.06 0.0003866351    1.176    0.150
       174 -10.4007    204.3877     82.1887   5.9371546516e+01   2.2439455067e+01    0.3842509    0.2311215 -41.85  0.001527435    1.580    0.367
       175  -9.0952    156.4780     83.1183   6.9253448089e+01   3.4014115175e+01    0.2417133    0.1540011 -38.62  0.001017768    1.554    0.356
       176  -8.5347     71.7264     82.3220   9.3608794646e+01   5.1498672810e+01    0.1352122     0.111823 -84.90 0.0002122462    1.574    0.365
       177  -9.3404    239.2622     81.0748   5.3703616410e+01   1.4625003430e+01    0.1986151    0.1615866 -38.47 0.0004287207    1.103    0.093
       178  -9.0476    129.1823     80.8097   7.5385339430e+01   4.0898841664e+01     0.205183    0.1768355   0.53            0    1.266    0.210
       179  -8.7034    120.2991     80.3162   7.7685598634e+01   4.2966001306e+01    0.1574546    0.1208988   0.82  0.000392372    1.612    0.380
       180 -12.1637    177.6500     76.7280   6.2806441409e+01   2.9948776858e+01    0.3672968    0.2642475 -39.28 0.0005147431    1.365    0.268
       181  -9.7614    248.5285     78.0738   5.1754586008e+01   1.3113953710e+01    0.2007564    0.1868693  79.88 0.0008021065    1.189    0.159
       182  -9.5012    222.9136     77.1961   5.5090940363e+01   1.8902207395e+01    0.2251668    0.1870001 -64.27 0.0006599625    1.242    0.195
       183  -8.8856    138.1263     76.3302   7.1632166491e+01   3.9704306435e+01    0.3895115     0.252726  83.54  0.001390528    2.918    0.657
       184  -9.1598    111.5760     76.7488   7.9075732217e+01   4.5541485495e+01    0.2116023    0.1419782 -51.10 0.0004405148    1.611    0.379
       185  -8.8051     12.3038     72.6808   1.1274617103e+02   5.9746106142e+01    0.1146553   0.08734675  80.56  0.000397157    1.629    0.386
       186  -9.5890    170.6045     70.8562   6.2502447369e+01   3.2731149998e+01    0.2654684    0.2074132  44.07 0.0005262742    1.306    0.234
       187 -10.9798    247.0254     68.5609   4.9703337227e+01   1.4873809392e+01    0.3978114    0.3140338 -46.08  0.002283139    1.110    0.099
       188  -9.1508     63.9785     66.7189   9.1638725484e+01   5.5992436808e+01    0.1866889    0.1666272  -5.48  0.000449847    1.118    0.105
       189 -10.1315    100.4929    195.5119   1.0806898246e+02   2.0567677884e+01     0.365007    0.2341564  19.72   0.00171387    2.318    0.569
       190 -10.0995    175.1983     64.9212   5.9823029258e+01   3.2570182591e+01    0.5175872    0.3175932  18.49  0.001890664    2.816    0.645
       191  -8.9881    133.0146     65.0114   6.9286575407e+01   4.2987739911e+01    0.2226178    0.1853599 -76.41 0.0003335938    1.521    0.343
       192  -8.7137     37.8197     65.6350   1.0127160006e+02   5.9336331441e+01    0.1473134     0.120154  32.91 0.0001188212    1.474    0.321
       193  -8.9375    191.5069     68.0207   5.7720513317e+01   2.7961208781e+01    0.2370573    0.1101736 -52.83 0.0008100669    2.726    0.633
       194  -9.1188    128.6577     67.7393   7.1327320553e+01   4.3513185593e+01    0.2224477    0.1377395 -44.45 0.0008844645    1.677    0.404
       195 -10.6312    164.5569     60.0843   6.0464735796e+01   3.6052111315e+01    0.4544651    0.3148373  -3.38  0.001372432    1.978    0.494
       196 -10.3012     10.4620     62.6050   1.1130741152e+02   6.2081238680e+01    0.3079755    0.1638048 -83.43  0.001473811    2.642    0.621
       197  -8.7890    193.5351     62.4320   5.5799879461e+01   2.8349591950e+01     0.145747    0.1439988  41.54 8.845183e-05    1.073    0.068
       198  -9.2657    155.2882     61.9351   6.2997940898e+01   3.8084002747e+01    0.2083533    0.1958305 -33.88 0.0003848728    1.078    0.072
       199 -12.4417    132.5606     59.8249   6.7670409802e+01   4.3996389864e+01     0.286776     0.268918  33.48 0.0003209867    1.039    0.038
       200  -9.7839    177.1434     58.9251   5.7673391253e+01   3.3039917548e+01    0.2534841    0.2029777 -37.22 0.0004379358    1.249    0.200
       201  -8.6439    113.6946     56.7374   7.1698396034e+01   4.8842213592e+01     0.148673    0.1112269  15.13 0.0002956819    1.524    0.344
       202 -11.1840    141.4015     53.3661   6.3342937705e+01   4.2920846959e+01    0.2761025    0.2654616  -8.33 0.0003943495    1.049    0.047
       203  -9.0977    201.6063     51.7797   5.1564985762e+01   2.7948818937e+01    0.1941281     0.127171 -44.67 0.0002083579    1.475    0.322
       204 -13.9157    117.3241    115.7321   8.8603291654e+01   3.5844831025e+01      1.76448     1.639804 -22.73  0.005392319    1.117    0.104
       205  -9.9702    222.6721     50.5856   4.8349705483e+01   2.3004099697e+01    0.2716932    0.2244214 -63.86 0.0008994802    1.152    0.132
       206  -9.6178    250.1635     49.9082   4.4999068947e+01   1.6885956233e+01    0.2008512    0.1521941 -56.83 0.0003217336    1.180    0.152
       207  -9.1559    153.3016     42.0193   5.6990267484e+01   4.1632039206e+01    0.1970735    0.1864906 -43.56 0.0003418668    1.105    0.095
       208  -9.0257     41.3757     41.2497   9.1849379911e+01   6.3896831154e+01    0.1675724     0.109083 -49.97 0.0004208491    1.555    0.357
       209  -8.8175    165.8335     40.4019   5.4086865250e+01   3.8653982432e+01    0.2257999    0.1225775  50.14  0.000951305    1.777    0.437
       210  -8.7708     11.5240     40.3927   1.0502594253e+02   6.6664712608e+01    0.1185811   0.09040185 -38.47 7.142429e-05    1.023    0.022
       211  -9.3274    177.4826     36.9907   5.1060996149e+01   3.6117349432e+01    0.2132619    0.1430199 -30.72 0.0005555165    1.549    0.354
       212  -9.0001    127.4623     37.5359   6.1136733454e+01   4.8650125279e+01    0.1454668     0.135525  30.70 0.0001094061    1.003    0.003
       213  -8.6444    182.7231     33.6967   4.9273105334e+01   3.5199713765e+01    0.1404612    0.1076051  31.44 0.0002397008    1.544    0.352
       214  -8.7796    125.6928     31.6738   5.9420117973e+01   4.9852729082e+01    0.1520414      0.10292  24.85 0.0003262275    1.652    0.395
       215  -9.1799     58.7079     31.6413   8.0652901616e+01   6.3272333425e+01    0.1381585   0.08902938  -7.20 0.0007029123    1.693    0.409
       216  -8.9873    108.6454     30.2997   6.3233647278e+01   5.3984620318e+01    0.1364969    0.1127002 -75.52 0.0007036935    1.701    0.412
       217  -9.5966    245.8107     26.4159   4.0060797966e+01   2.0907967476e+01    0.2276563    0.1850197 -86.88  0.001331324    1.170    0.145
       218 -11.5354    241.7847     24.9507   4.0087776176e+01   2.1978672356e+01    0.5742367    0.2237515 -50.09   0.00247146    2.360    0.576
       219 -10.4667    218.2048     26.7584   4.2850305069e+01   2.7222231199e+01    0.2389513    0.2033052  75.22 0.0004152658    1.159    0.137
       220 -10.6104    209.2260     25.3348   4.3483864284e+01   2.9571853967e+01    0.2764369    0.2198746  68.60 0.0004040856    1.225    0.184
       221  -9.3806    199.0205     22.3476   4.3885782957e+01   3.2449520813e+01    0.1969452    0.1626334  76.68 0.0004553111    1.132    0.116
       222  -9.2985    189.5891     22.2610   4.5034821398e+01   3.4831988647e+01    0.1777891    0.1373317 -10.28  0.000487317    1.578    0.366
       223  -9.2449    141.7774    245.7416   1.0610815874e+02   4.7124859822e+00    0.2370597    0.1681045   9.18  0.001359903    2.029    0.507
       224 -10.2522     29.9380    245.0815   1.2631989196e+02   2.0214105117e+01     0.135828    0.1232768 -66.38 0.0004672264    1.659    0.397
       225  -9.3507    121.9434    244.5253   1.0972877760e+02   7.9927027937e+00    0.1889914   0.09781218  41.35 0.0005419236    1.558    0.358
       226 -11.2526    220.6014     18.1325   4.0460167022e+01   2.7669059025e+01    0.5969604   0.09722571  61.10   0.00185555    4.520    0.779
       227 -11.5560    233.6411    227.1283   8.6050303989e+01  -7.1186098976e+00    0.2886509    0.1909211  17.55 0.0004258197    1.286    0.222
       228  -9.2013    224.3228    241.6536   9.0120346195e+01  -7.5429174881e+00    0.1038268   0.09190507  51.15 0.0007049789    1.739    0.425
       229 -11.0040    208.4569    240.6408   9.2834600194e+01  -5.0532093587e+00    0.3104612    0.1823898  29.40  0.000707939    1.396    0.284
       230 -11.4056    192.0871    238.8349   9.5598681221e+01  -2.2747385514e+00    0.2417968    0.1919841  13.45 -0.000430966    1.159    0.137
       231 -12.8626    191.0947    231.5751   9.4668068327e+01  -1.0979421997e+00    0.2984108    0.2723185  19.53 0.0004546432    1.176    0.150
       232 -11.1377    244.5053    238.0784   8.5990143589e+01  -9.9852441627e+00     0.289174    0.2076697  17.54  0.000939652    1.084    0.078
       233 -10.6811    181.5579    237.8987   9.7451282920e+01  -4.6835713950e-01    0.3242137    0.2094411  19.22    0.0012171    1.615    0.381
       234 -10.1300    185.8569    235.3188   9.6245175624e+01  -7.8946126632e-01    0.2046138    0.1981277  30.36 0.0007042538    1.294    0.227
       235 -10.3865     68.7601    236.4689   1.1892468846e+02   1.7072032710e+01    0.1977022    0.1587896  75.26 0.0003443642    1.108    0.098
       236 -10.6821    125.9057    234.9251   1.0784782183e+02   8.9783996856e+00    0.3091849    0.1904112  54.82   0.00173846    1.527    0.345
       237  -8.7623    101.6619    235.3069   1.1260196466e+02   1.2643603150e+01    0.1288509   0.07728046  63.10  0.000704191    1.678    0.404
       238 -13.1525    173.4382    228.5712   9.7621702276e+01   2.2428053334e+00    0.3343448    0.3083489 -33.28 0.0005404904    1.294    0.227
