#   1 NUMBER                 Running object number                                     
#   2 MAG_AUTO               Kron-like elliptical aperture magnitude                    [mag]
#   3 X_IMAGE                Object position along x                                    [pixel]
#   4 Y_IMAGE                Object position along y                                    [pixel]
#   5 X_WORLD                Barycenter position along world x axis                     [deg]
#   6 Y_WORLD                Barycenter position along world y axis                     [deg]
#   7 A_WORLD                Profile RMS along major axis (world units)                 [deg]
#   8 B_WORLD                Profile RMS along minor axis (world units)                 [deg]
#   9 THETA_WORLD            Position angle (CCW/world-x)                               [deg]
#  10 FWHM_WORLD             FWHM assuming a gaussian core                              [deg]
#  11 ELONGATION             A_IMAGE/B_IMAGE                                           
#  12 ELLIPTICITY            1 - B_IMAGE/A_IMAGE                                       
         1  -9.0117     80.6044     13.1222   9.0593170195e+01   6.1166681784e+01    0.3153978    0.1964584 -41.25  0.001068134    1.954    0.488
         2 -10.2236     50.1954     11.5887   1.0079761152e+02   6.6358354179e+01    0.2901715    0.2478982 -48.49 0.0003952168    1.734    0.423
         3  -8.9765    106.7160     11.0012   8.2310276534e+01   5.6102738816e+01    0.3067047    0.1232369  35.95  0.001181335    2.702    0.630
         4  -9.9252    234.6291      8.9726   6.2291191179e+01   2.5020693500e+01     0.360851    0.2228418  52.24  0.001664829    1.756    0.430
         5 -10.8032    235.3046      2.6834   6.0715705168e+01   2.5491756574e+01     0.720266    0.3370461  71.04  0.003131215    2.034    0.508
         6  -8.7851     28.6458      8.0708   1.0846715705e+02   6.9549721707e+01    0.2289779   0.09322874 -44.97 0.0009833729    2.587    0.614
         7  -9.0459     40.2226      7.4726   1.0297643697e+02   6.8263713106e+01    0.2288433    0.1794577  55.62 0.0008755777    2.307    0.566
         8  -9.5561    246.4114      1.9509   5.9671012470e+01   2.3032327623e+01    0.5886417    0.2068211  79.02   0.00238329    3.090    0.676
         9  -8.0943    179.2185      5.7894   6.7315273371e+01   3.8971218584e+01    0.2045008    0.1116399  -2.11 0.0008703311    2.478    0.596
        10  -7.7386    155.7088      6.6925   7.0936641147e+01   4.4847190554e+01     0.144237   0.09415083  34.92 0.0003646199    1.579    0.367
        11  -8.7979     57.2871      5.7113   9.5192142155e+01   6.6050369479e+01    0.2276066    0.1966711  75.37  0.001424841    2.111    0.526
        12 -10.4607     60.0706      2.8004   9.2721787017e+01   6.5941525501e+01    0.2272537    0.1841483  14.71  0.000283355    1.101    0.092
        13 -10.1260     14.1299      3.7990   1.1349757175e+02   7.1602313830e+01    0.4286633    0.1960214 -33.62  0.002477897    1.714    0.417
        14  -7.9672     18.5031      2.5417   1.1067511895e+02   7.1391140821e+01     0.147296   0.09213534   6.78 6.692471e-05    1.601    0.376
        15  -9.0913    105.8638      3.7280   7.9497896014e+01   5.6993697901e+01    0.2282331    0.1412796  38.05  0.001188896    1.444    0.308
        16  -8.3566     75.4764      3.5174   8.7809487142e+01   6.3182396853e+01    0.1290888    0.1049162  11.53 0.0008099476    1.008    0.008
        17  -8.6867     39.7779      2.3359   1.0059647236e+02   6.8997631530e+01    0.1608523   0.09418208  24.19   0.00094796    1.681    0.405
        18  -7.8749    115.8104      1.3782   7.6288439210e+01   5.4965156596e+01    0.1982483    0.1030305  48.94 0.0009422313    1.652    0.395
        19  -8.1020     67.7707      1.6275   8.9432280092e+01   6.4764759389e+01    0.1555365    0.1144109  50.79 0.0004336645    1.613    0.380
        20  -8.0156    210.4797    242.0030   1.1800497273e+02  -2.7680038936e+00    0.1439451    0.1088835 -20.49 0.0004511991    1.518    0.341
        21  -9.7924    239.6297    249.7197   1.1431687896e+02  -7.8867380827e+00    0.4468049    0.2003749  11.62  0.001833529    4.397    0.773
        22 -10.1375    246.1878    244.1375   1.1241098316e+02  -8.2705977401e+00    0.3046866    0.1715139 -13.98  0.001919869    1.919    0.479
        23  -9.2691    249.0249    249.7447   1.1281292764e+02  -9.2034572101e+00    0.2854846    0.1850712  24.98  0.002032451    1.130    0.115
        24  -9.2841    248.6969    246.6238   1.1239005530e+02  -8.8627505578e+00     0.471249    0.2133086  -3.11   0.00204195    4.215    0.763
        25 -10.0841    230.5409    250.6694   1.1593320895e+02  -6.6810450875e+00    0.2832471    0.2364284  45.26  0.002135898    1.601    0.375
        26  -8.7961    226.2243    250.4035   1.1660099614e+02  -6.0282453487e+00     0.214182   0.08222324  36.84 0.0005557385    2.004    0.501
        27 -10.1832    218.4461    249.2738   1.1772140549e+02  -4.7670436712e+00    0.3767145    0.1827761  28.69  0.002140584    1.796    0.443
        28  -9.4766    208.3166    249.7964   1.1948339589e+02  -3.3096690405e+00    0.2897651    0.1283592  41.56  0.001603622    1.795    0.443
        29  -9.2179    202.2785    249.1078   1.2040132159e+02  -2.3200507912e+00    0.3174788    0.1248972  32.49  0.001400462    2.320    0.569
        30 -10.5638    187.0109    244.9660   1.2243221177e+02   5.1534462471e-01     0.494093    0.2036836  37.70  0.002552666    1.936    0.484
        31  -8.0734    180.6904    249.6261   1.2413036294e+02   9.2594140264e-01    0.1794872    0.1292161   2.91 0.0008283532    1.769    0.435
        32  -8.6122    187.5299    250.4929   1.2308111546e+02  -2.2872960466e-01    0.2138053    0.1197971  46.21 0.0008643958    1.550    0.355
        33  -8.4994    184.4768    249.4930   1.2346828531e+02   3.5924260770e-01    0.2336286    0.1413955  24.55 0.0008705182    1.669    0.401
        34  -8.7582    176.2479    250.1966   1.2496056983e+02   1.5398761578e+00    0.2393049    0.1245696  46.40  0.001399372    1.608    0.378
        35  -8.5778    170.5228    250.5015   1.2597493536e+02   2.3824535844e+00    0.2137305   0.08333089  48.75  0.001033529    2.370    0.578
        36  -9.2070    153.4699    250.5354   1.2888973424e+02   4.9904628378e+00    0.2871757   0.08954832  39.26  0.001136653    2.644    0.622
        37 -10.3665    157.1950    245.6231   1.2766522912e+02   5.0730733214e+00    0.3499182    0.2785687 -17.52  0.002400222    1.710    0.415
        38  -9.2654    144.0163    250.0000   1.3044233605e+02   6.4973294071e+00     0.221024    0.1059752  46.36   0.00126116    1.633    0.388
        39  -9.6900    169.1303    241.7365   1.2510148672e+02   3.7265062288e+00    0.2220719    0.1331074  30.71  0.000920479    1.552    0.356
        40  -8.9369    113.9763    242.5237   1.3480014961e+02   1.2040748513e+01    0.1723711   0.08940997  43.04 0.0006037182    1.551    0.355
        41  -7.8339     29.1669    242.4091   1.4868607529e+02   2.2740665072e+01    0.1356612   0.06433871  52.93 0.0005750551    1.574    0.365
        42  -9.0667    153.6344    240.8721   1.2770496486e+02   6.2754943368e+00    0.2239936    0.1338929  26.75 0.0009286215    1.905    0.475
        43  -8.2676     20.1379    241.4701   1.5000867175e+02   2.3816685547e+01    0.1360766   0.07662062  45.91  0.001018843    1.556    0.357
        44  -7.6307    206.3113    240.3458   1.1847291732e+02  -1.9350826235e+00    0.1194637   0.07533891  14.98 0.0004130751    1.708    0.414
        45  -8.5259    201.7605    240.1713   1.1922721926e+02  -1.2072844533e+00    0.1662771     0.112215  20.74 0.0009087761    1.384    0.278
        46  -7.8983    214.7549    239.3999   1.1689546545e+02  -3.1289766547e+00     0.166288    0.0845833  31.38 0.0004864271    1.631    0.387
        47  -9.1720    184.7568    235.3484   1.2149478039e+02   2.0780704766e+00    0.2519932    0.1350238  41.75 0.0008854505    1.502    0.334
        48 -10.1319    189.0334    234.7374   1.2065586617e+02   1.4719721879e+00    0.2827804    0.2538702  89.69   0.00201544    1.644    0.392
        49  -9.0279    188.8034    230.3911   1.2006617341e+02   2.0694378908e+00     0.266315    0.1508739  23.76    0.0010338    1.949    0.487
        50  -9.2047    248.4433    237.4749   1.1100253985e+02  -7.9320588590e+00    0.2218407    0.1318447  -0.70  0.001380136    1.739    0.425
        51  -8.4928    248.6095    233.2411   1.1029633212e+02  -7.5271585497e+00    0.1904691    0.1157206  -0.55 0.0008589086    1.663    0.399
        52  -9.0180    187.1769    239.5352   1.2165838447e+02   1.1607127464e+00    0.1806112    0.1360793   2.10 0.0005029349    1.544    0.352
        53  -7.9808    146.7415    242.4029   1.2909637608e+02   7.1326922963e+00    0.1604379   0.09024074  36.50 0.0005494487    1.546    0.353
        54  -8.2818      3.4787    238.4780   1.5235233874e+02   2.5896150233e+01   0.09633461    0.0640965  70.90 0.0003864022    1.010    0.010
        55  -8.6279    194.9114    236.8708   1.1993503782e+02   2.6828816554e-01    0.1835799    0.1298861  20.48 0.0006882517    1.338    0.253
        56  -9.1516    234.4966    239.9570   1.1367389257e+02  -6.1611847923e+00    0.1816221    0.1206813  30.09 0.0006554398    1.167    0.143
        57  -7.4664     18.6428    237.2609   1.5003173990e+02   2.4654664269e+01    0.1041056   0.04886379  62.29 0.0005463381    1.623    0.384
        58  -8.7928    159.8591    235.5611   1.2593352775e+02   6.0338676381e+00    0.2693715    0.1656565  26.20  0.001547673    1.797    0.443
        59  -8.1278    244.1372    234.8561   1.1128635613e+02  -7.0441239696e+00    0.1587498     0.104421  12.42 0.0004455096    1.312    0.238
        60  -8.1816    204.2115    234.7967   1.1801627264e+02  -9.4968891320e-01    0.1659939    0.1158205  17.99  0.001063291    1.358    0.264
        61  -7.8669    130.6942    234.6824   1.3102421765e+02   1.0735058623e+01    0.1072529   0.08603302  16.24 0.0007028493    1.629    0.386
        62  -8.4229    170.5958    233.1913   1.2370440049e+02   4.6410667264e+00    0.1417969    0.1100435 -18.61 0.0005722552    1.634    0.388
        63  -7.7391    100.4657    233.4883   1.3624875031e+02   1.5398578419e+01     0.112757   0.09024709  57.24 9.360103e-05    1.028    0.028
        64  -7.1871     91.6594    233.6952   1.3780741520e+02   1.6597039234e+01    0.0980132   0.08619505  15.11 0.0007040755    1.680    0.405
        65  -8.1885    178.9772    235.0044   1.2246600046e+02   3.0492732514e+00    0.1843178    0.1243211  19.06 0.0006765989    1.638    0.389
        66  -9.1287      9.1952    238.8250   1.5152370606e+02   2.5309659156e+01     0.201355   0.07785171 -57.09  0.001092306    4.191    0.761
        67  -7.8772     85.6605    231.7051   1.3866824259e+02   1.7743652978e+01   0.09628234   0.08619664  16.06 0.0005826538    1.655    0.396
        68  -8.3411     10.9878    231.7761   1.5093996972e+02   2.6307104759e+01    0.1189432   0.06515078  44.47 0.0005856947    1.658    0.397
        69  -8.4359    246.7178    230.2116   1.1011257134e+02  -6.9382817773e+00    0.1673959    0.1050915  15.84   0.00103169    1.375    0.273
        70  -9.1594    241.1301    229.9584   1.1099187437e+02  -6.0860116393e+00     0.199046    0.1117911  15.33  0.001135616    1.799    0.444
        71  -8.0112    131.0074    230.2485   1.3044978154e+02   1.1367306915e+01    0.1565995   0.08324675  42.82 0.0006060395    1.538    0.350
        72  -8.1539    115.9853    231.0000   1.3323771079e+02   1.3536612045e+01    0.1952352   0.05472205  41.26 0.0008027906    2.945    0.660
        73  -9.5831      5.4710    229.7882   1.5169130299e+02   2.7153054580e+01    0.1979216    0.1116787  60.87   0.00111651    1.305    0.233
        74  -7.4757    208.3172    229.3346   1.1647429415e+02  -9.3893016930e-01    0.1235173   0.07857412  14.46 0.0003564832    1.695    0.410
        75  -7.6585    152.4861    227.4810   1.2620223240e+02   8.3830017574e+00    0.1209564   0.09876998  41.31 6.786676e-06    1.024    0.023
        76  -8.1014    184.9756    226.0355   1.2010725002e+02   3.2720991651e+00    0.1910454    0.1290771  16.83  0.000770443    1.656    0.396
        77  -9.2652    248.6623    223.9964   1.0876351931e+02  -6.5664855747e+00    0.2856825    0.1497975   9.11   0.00147562    2.326    0.570
        78  -8.1770    127.4461    224.7934   1.3044619332e+02   1.2780623769e+01    0.1893037    0.1266173  39.04  0.001165565    1.339    0.253
        79  -9.6378      7.7949    221.5503   1.5095734777e+02   2.8347636400e+01    0.3872802    0.1218075 -72.58  0.002212897    2.748    0.636
        80  -7.6989    168.1960    224.6578   1.2294775040e+02   6.2294465385e+00    0.1747333   0.09402416  34.61 0.0004842304    1.668    0.401
        81  -7.6071    218.6694    223.7022   1.1378401975e+02  -1.9078116247e+00    0.1246906   0.07761877  16.06  0.000702894    1.641    0.391
        82  -7.6344    206.4942    222.4312   1.1571225751e+02   2.1441196987e-01    0.1235287   0.09670066  25.48  0.000280137    1.029    0.028
        83  -7.7380     40.3020    222.6014   1.4572404081e+02   2.4890229819e+01    0.1165133   0.05788966  68.97 0.0007000749    1.825    0.452
        84  -7.3385     89.7132    224.6520   1.3728997733e+02   1.8375442056e+01   0.09744283   0.08978353 -13.96 0.0004840474    1.656    0.396
        85  -8.2109    242.7756    220.1646   1.0909184308e+02  -5.2625203720e+00    0.1669221    0.1100734  12.97 0.0005340686    1.347    0.258
        86  -7.7858    237.3226    220.3296   1.1003467076e+02  -4.4443259157e+00    0.1259342   0.07553463  12.69   0.00070494    1.696    0.410
        87  -8.0186    141.3242    219.2736   1.2717522185e+02   1.1454916766e+01    0.1157778   0.08888227  19.31 0.0002934228    1.579    0.367
        88  -7.9723    194.9515    218.5206   1.1715573183e+02   2.6332353282e+00     0.177319   0.08972526  24.48 0.0006297288    2.417    0.586
        89  -7.8617    171.4665    217.4746   1.2129860711e+02   6.7289861256e+00    0.1247321     0.103756  37.27 4.681139e-05    1.015    0.015
        90  -7.5722    151.4355    216.4473   1.2489278632e+02   1.0240988265e+01    0.1233294    0.1036914  43.38   5.4328e-05    1.003    0.003
        91  -7.9698    248.8470    215.1846   1.0722725019e+02  -5.6297360815e+00    0.1651823    0.1107999  14.35 0.0004700228    1.269    0.212
        92  -7.8761    204.7707    215.4378   1.1488988746e+02   1.4047597066e+00    0.1731825   0.09819662  31.38 0.0004302651    1.552    0.356
        93  -7.3807    144.2922    215.3219   1.2608331856e+02   1.1601568152e+01    0.1163567   0.09262909  10.66 0.0005785598    1.610    0.379
        94  -9.9723     36.3778    213.5929   1.4578229275e+02   2.6924188355e+01    0.2490574    0.1018782  44.63  0.001457285    2.056    0.514
        95  -8.2832    187.3725    209.8754   1.1715834635e+02   5.1258834009e+00    0.2817176    0.1722208  -2.77 0.0007704068    2.748    0.636
        96  -7.9001      3.7224    211.3619   1.5112033537e+02   3.0505507117e+01    0.1074164   0.05157853  69.66 0.0007009894    1.668    0.400
        97  -8.3129    170.7654    210.2344   1.2032688898e+02   7.9321082471e+00    0.1719472    0.1304757  23.01 0.0004644547    1.330    0.248
        98  -7.9546    146.8680    208.4025   1.2461486982e+02   1.2298085555e+01    0.1746134    0.1058193  32.71 0.0003783299    1.654    0.395
        99  -8.8622     11.6644    206.0290   1.4953153130e+02   3.0759696282e+01    0.2771752    0.1083384 -73.95  0.001653569    2.186    0.543
       100  -7.9114    163.4823    207.0152   1.2121324525e+02   9.6862826977e+00    0.1682524    0.1270381 -40.01 0.0006254212    1.543    0.352
       101  -8.0888    247.8238    205.9121   1.0575694500e+02  -4.4114215464e+00    0.1944357    0.1340106  10.45  0.001037507    1.275    0.216
       102  -7.4273    213.7012    206.3078   1.1174445241e+02   1.1140071835e+00    0.1107495   0.09914052  64.72 0.0004247038    1.594    0.373
       103  -7.9590      4.4284    204.2004   1.5064795954e+02   3.1738144230e+01    0.1390605   0.07054915  83.28 0.0004476388    1.589    0.370
       104  -7.6738    175.5259    202.4925   1.1818564689e+02   8.2941472709e+00    0.1296757    0.1112465  33.39   0.00054551    1.002    0.002
       105  -9.1100    250.0897    198.1181   1.0395453878e+02  -3.8442690299e+00    0.3256566    0.1792377 -19.00  0.001767141    1.838    0.456
       106  -8.6093    243.6839    197.3676   1.0489210339e+02  -2.7250620711e+00     0.275209    0.1508005   2.73  0.001302013    2.432    0.589
       107  -8.6761    230.5490    197.9728   1.0726605051e+02  -6.3389355557e-01    0.2499029    0.1442156  26.01 0.0008163609    1.635    0.388
       108  -8.1698    151.1155    198.2833   1.2226266633e+02   1.3262575465e+01    0.2358647    0.1398783  38.78 0.0009428706    1.518    0.341
       109  -8.2164    191.4692    196.0485   1.1405054594e+02   6.4479162261e+00    0.1749127    0.1081905  -9.01 0.0005028609    2.424    0.587
       110  -7.7328    203.2947    195.2923   1.1169602865e+02   4.4506389668e+00    0.1305441   0.09074439  12.75 0.0003454375    1.556    0.357
       111  -7.7579    184.3146    194.7012   1.1517987600e+02   7.9390318859e+00    0.1236078    0.1016565  69.37 0.0001944302    1.608    0.378
       112  -7.8539    237.4213    191.8306   1.0492712588e+02  -9.9248189245e-01    0.1702825    0.1087542 -13.60  0.000686102    1.600    0.375
       113  -7.7887    191.8056    189.4009   1.1279713062e+02   7.4025257293e+00    0.1901067    0.1102704  31.99 0.0004498851    1.653    0.395
       114  -8.1909    243.5490    187.4369   1.0303849310e+02  -1.4520399006e+00    0.2177763    0.1091296 -18.09  0.001018099    2.280    0.561
       115  -7.9934    173.1402    188.1069   1.1620188661e+02   1.1028689202e+01    0.2019622    0.1667007  17.26 0.0006884446    1.240    0.193
       116  -8.2066    238.2468    185.0298   1.0348288738e+02  -2.4276842367e-01    0.2511671    0.1333361 -10.36  0.001126111    2.499    0.600
       117  -7.2693      4.6661    186.6994   1.4964888021e+02   3.5001758465e+01    0.0932114   0.07073805 -58.80 0.0005727543    1.655    0.396
       118  -8.8338    230.2711    184.8183   1.0483531654e+02   1.1626469821e+00    0.2353289    0.1777122  20.52 0.0004881275    1.160    0.138
       119  -8.7076    250.0752    182.4048   1.0096024728e+02  -1.8939383479e+00    0.2268542    0.1515245  -3.09 0.0005236238    1.460    0.315
       120  -8.0264    211.5231    181.5468   1.0759691571e+02   4.9828335626e+00    0.1364267    0.1138313  15.79  0.000458239    1.059    0.056
       121  -7.5549    199.4967    180.5303   1.0966570881e+02   7.3592862667e+00    0.1373178    0.1176139  18.81 0.0007007385    1.044    0.042
       122  -8.0254    182.8311    180.1726   1.1283840777e+02   1.0539975995e+01    0.1885857    0.1496726  14.30 0.0005953618    1.316    0.240
       123  -7.6778    189.9684    176.2155   1.1067783032e+02   9.8396899748e+00    0.1824559    0.1025612  42.83 0.0005021982    1.639    0.390
       124  -7.9029    176.3211    173.2892   1.1283367205e+02   1.2935928385e+01     0.139533    0.1031181  12.07 0.0007008441    1.603    0.376
       125  -7.6940    250.6036    172.1947   9.8837494786e+01  -6.5542390556e-01    0.1767463    0.1090231 -15.90 0.0009361917    1.584    0.369
       126  -8.1963    242.0000    176.9575   1.0124845868e+02   1.8836878139e-01    0.1998185   0.06872869 -32.45 0.0007903171    2.874    0.652
       127  -9.5860    246.1184    167.1758   9.8563238820e+01   7.9533041926e-01    0.2695336    0.1855922  28.37 0.0004383978    1.358    0.263
       128  -7.7997    237.3409    167.2971   1.0008950592e+02   2.3409270696e+00    0.1402274   0.09160641  11.67 0.0002696474    1.663    0.399
       129  -7.3771     35.6982    155.3276   1.4093748362e+02   3.8574758126e+01    0.1228366   0.07490048  73.53 0.0005891824    1.643    0.391
       130  -8.1911    133.4707    147.4939   1.1700085812e+02   2.6069570742e+01    0.2594736    0.1298165 -37.93  0.001031993    2.398    0.583
       131  -9.1045     67.2261    143.4197   1.3209401671e+02   3.7587717288e+01    0.4825076    0.2427992  68.10  0.001942872    3.221    0.690
       132  -8.0658    131.6637    140.6753   1.1601473003e+02   2.7819031557e+01    0.1463525    0.1148773  -3.24 0.0007051245    1.717    0.418
       133  -8.5025    248.1920    135.2327   9.1323620700e+01   4.9390552231e+00    0.2179676    0.0878647 -39.17 0.0008659651    2.461    0.594
       134  -8.2018    241.4889    132.5051   9.1802058015e+01   6.6376027359e+00    0.2644349    0.1255158 -20.46  0.001037503    2.507    0.601
       135  -7.9699    232.3189    128.3537   9.2386482401e+01   9.1032576038e+00    0.2245489    0.1550111  10.56  0.001080146    1.703    0.413
       136  -8.5728    239.8678    123.2747   8.9936764731e+01   8.3496873323e+00    0.3853504    0.1943706 -13.35  0.001422587    2.970    0.663
       137  -8.1744    248.6075    123.1611   8.8506721910e+01   6.6267937168e+00    0.1995565    0.1203359 -18.89 0.0006546898    1.682    0.406
       138  -9.0628    247.6638    116.7105   8.7156034358e+01   7.7660269698e+00     0.280112    0.1934195   8.60   0.00139062    1.717    0.418
       139  -8.2301    218.7110    113.8521   9.1277228395e+01   1.4280037415e+01    0.2437761    0.1802041  -5.90  0.001186655    1.504    0.335
       140  -8.8931    134.6746    110.3224   1.0822286465e+02   3.3537898435e+01    0.4048561    0.1892291 -55.56  0.001410109    2.806    0.644
       141  -8.7670    134.6665    107.2918   1.0744313068e+02   3.4161696749e+01    0.2777022     0.243714 -35.53  0.001459863    1.124    0.110
       142  -7.7456    209.5985    110.6964   9.2133542545e+01   1.6813463373e+01    0.1610664    0.1101133  17.22 0.0003059052    1.839    0.456
       143  -8.3637    249.3163    107.0245   8.4623005657e+01   8.8632853680e+00    0.2310276    0.1092009 -11.05  0.000704847    4.308    0.768
       144  -9.0469      5.0456    106.5196   1.4284944466e+02   5.1706330879e+01    0.1367421    0.1156192  20.91 0.0005857692    1.561    0.359
       145  -8.1834    241.8355    105.2255   8.5333868420e+01   1.0673730007e+01    0.2000699    0.1565711   3.95 0.0007275227    1.376    0.273
       146  -8.0877    248.8109     96.4181   8.2166569544e+01   1.0524384063e+01    0.1900739    0.1256467  39.90 0.0009481811    1.652    0.395
       147  -9.8659      5.6213     94.8489   1.4120187807e+02   5.4222571795e+01    0.2223786    0.1400918 -58.09  0.001448032    1.279    0.218
       148  -7.8570    248.3159     92.3171   8.1249702441e+01   1.1226622263e+01     0.141645     0.103374  11.26 0.0007038137    1.651    0.394
       149  -8.1431     22.8174     91.8260   1.3569878232e+02   5.3734737575e+01    0.1560266    0.1248791 -89.02 0.0004079266    1.290    0.225
       150  -8.5649    212.6029     84.4711   8.4812595080e+01   2.0392991536e+01    0.2619836    0.2295677 -36.42 0.0007070742    1.111    0.100
       151  -8.6874      2.8245     81.1664   1.4005405701e+02   5.7350434078e+01    0.1584103    0.1031218 -50.12 0.0003833441    1.326    0.246
       152  -8.7850    184.3792     77.4322   8.7967330440e+01   2.8306467680e+01    0.2709142    0.2356085 -18.59 0.0006786805    1.156    0.135
       153  -7.8112     87.2966     68.2747   1.0945605642e+02   5.1088585916e+01    0.1377236    0.1036714  -9.34 -0.0001541599    1.528    0.345
       154  -7.9766     36.4771     67.5425   1.2618645976e+02   5.7865761468e+01    0.1254602    0.1023743 -47.52 0.0001749574    1.007    0.007
       155  -8.4425      1.4088     59.2501   1.3671093819e+02   6.2080752039e+01    0.1547647    0.0896139 -73.24 0.0003735636    1.572    0.364
       156  -9.1212     33.0492     57.6324   1.2480271486e+02   6.0242261592e+01    0.2126307    0.1415537 -46.16 0.0004231458    1.198    0.166
       157  -7.5943    105.2961     56.3138   1.0006538608e+02   5.0027452954e+01    0.1467125    0.1076136   2.00 0.0002435188    1.601    0.375
       158  -8.7247     94.9379     52.8059   1.0192543756e+02   5.2624800494e+01    0.2349218    0.1870086 -35.52 0.0005195282    1.206    0.171
       159  -8.3506     44.1687     51.8507   1.1898286411e+02   6.0297643302e+01    0.1738363    0.1584745 -45.38 0.0003493041    1.199    0.166
       160  -9.3038     95.6485     45.8187   9.9190319989e+01   5.3680361941e+01    0.2550755    0.2329255  23.34  0.001040462    1.131    0.115
       161  -9.6329      3.8824     44.8752   1.3261110951e+02   6.4900406079e+01    0.2082516    0.1438644  -0.96  0.001439612    1.734    0.423
       162  -7.9162     54.4968     44.4577   1.1266032055e+02   6.0483146008e+01    0.1300674    0.1073487 -25.34 7.449715e-05    1.012    0.012
       163  -7.7091    115.7160     43.7095   9.2679425937e+01   4.9940762183e+01    0.1448784    0.1055114  12.93 0.0001817985    1.533    0.348
       164  -7.5820    136.9966     44.2336   8.7558258796e+01   4.5046102848e+01    0.1877439    0.1200529  52.88 0.0003463399    1.543    0.352
       165  -8.1278     76.9170     40.3616   1.0315569629e+02   5.7911128411e+01    0.1823199    0.1161803  24.78 0.0004368693    1.710    0.415
       166  -9.0092     21.0671     39.9518   1.2428936820e+02   6.4762351163e+01    0.1931033    0.1491058 -58.78 0.0004332622    1.340    0.254
       167  -9.3111    202.2412     38.3760   7.3734398441e+01   2.9559463093e+01    0.4331101    0.2154418 -55.99  0.001651122    2.652    0.623
       168  -9.5926     52.0485     38.4367   1.1139691513e+02   6.1881851275e+01    0.2244792    0.1628808 -31.51 0.0006104785    1.155    0.134
       169  -7.7001     41.3634     39.6945   1.1600836916e+02   6.2917699879e+01    0.1109131   0.09843276  89.31 0.0007037916    1.738    0.425
       170  -8.5976    229.9029     36.8764   6.9767205290e+01   2.2989674248e+01    0.2520989    0.2064113 -85.15  0.001425602    1.272    0.214
       171  -8.1169     92.4688     36.9343   9.6805780271e+01   5.5696770268e+01    0.2016132    0.1265158 -32.02  0.000458644    1.513    0.339
       172  -8.2896     95.0312     33.6699   9.4750604638e+01   5.5693494310e+01     0.209949      0.16315  10.98  0.000367779    1.268    0.211
       173  -7.7665     73.5182     37.5106   1.0321848648e+02   5.8937659120e+01    0.1344744    0.1146666 -12.43 0.0002492971    1.002    0.002
       174  -7.7043     24.3606     37.6537   1.2219884895e+02   6.4936217959e+01    0.1085569   0.09142964  86.95 -0.0001324299    1.847    0.459
       175  -7.7540    248.6803     35.6797   6.7418094334e+01   1.8811294443e+01    0.1298223   0.09990829  25.54 0.0003120291    1.667    0.400
       176  -7.3484    124.7169     34.6604   8.7067534212e+01   4.9246264165e+01    0.1501516    0.1041085  16.70 0.0003662978    1.630    0.386
       177  -9.1505      4.1536     33.9343   1.2958801158e+02   6.7036666621e+01    0.2613583    0.1332228  -6.89  0.001492193    2.490    0.598
       178 -10.1886      9.1370     32.1824   1.2691295825e+02   6.7080154612e+01     0.393383    0.1616308 -66.34  0.001727193    3.339    0.700
       179  -9.7703      6.5168     27.5676   1.2660993867e+02   6.8106291134e+01    0.4913996    0.1810445 -24.50   0.00206444    3.992    0.750
       180  -9.3311     21.7906     32.0110   1.2138456241e+02   6.6202104680e+01    0.1656545    0.1185129 -38.47   0.00110529    1.071    0.067
       181  -8.5845    239.9553     27.4599   6.6308195440e+01   2.1766504966e+01    0.4336991    0.1383476  56.85  0.001663495    3.033    0.670
       182  -8.9741    210.0497     29.5095   7.0217968823e+01   2.8695856289e+01      0.21146    0.1340221  67.95 0.0007721186    1.561    0.359
       183  -9.3243    143.1717     26.9933   8.0185708156e+01   4.5846874007e+01    0.2283406    0.1929001  47.18 0.0003265325    1.113    0.101
       184  -8.7614    173.0239     24.8340   7.4085905696e+01   3.8603425503e+01    0.2442759    0.1604014 -74.64 0.0007254386    2.029    0.507
       185  -8.9774     91.4853     25.0602   9.2350645770e+01   5.7591002571e+01     0.236077    0.1860155  35.16 0.0003939688    1.231    0.187
       186  -8.9499      2.8942     23.5107   1.2693649282e+02   6.9065610271e+01    0.2296495     0.174305 -76.81  0.001585499    1.838    0.456
       187  -8.5089     76.4811     24.4567   9.6890187122e+01   6.0435900694e+01    0.1332458    0.1118754  -1.22 0.0001612049    1.011    0.011
       188  -9.3200     84.7170     21.5801   9.2981062516e+01   5.9342774197e+01    0.2243457    0.1801312  -6.92  0.000458262    1.115    0.103
       189  -7.5241     59.6612     22.7220   1.0214905339e+02   6.3400784080e+01    0.1300111   0.08596397   1.19 0.0004618023    1.617    0.382
       190  -8.2636     11.5415     21.4231   1.2218894956e+02   6.8895483414e+01     0.218152   0.06514882 -43.77  0.000732125    2.365    0.577
       191  -7.9796    137.4269     21.5761   7.9433299430e+01   4.7873038536e+01    0.1430104    0.1265374  30.82 7.413476e-05    1.048    0.046
       192  -8.2755    161.8819     18.7119   7.3927010413e+01   4.2108585781e+01    0.2396005     0.153013  46.32 0.0008525281    1.488    0.328
       193  -8.2248     16.0703     18.7093   1.1903635319e+02   6.9029224450e+01    0.1539015    0.1173375 -21.24 0.0004409449    1.114    0.102
       194  -7.8803     19.9625     18.3187   1.1706347447e+02   6.8773437264e+01    0.1596188   0.07875001  45.98 0.0007045509    4.409    0.773
       195  -7.6782    151.9635     17.7653   7.5311088186e+01   4.4706001337e+01    0.1824844    0.1110517  60.24 0.0003399478    1.532    0.347
       196  -9.2680     75.0624     16.4294   9.3876613360e+01   6.1763590612e+01    0.2347713    0.1735033 -27.98  0.000545103    1.333    0.250
       197  -7.6248     27.7152     17.6985   1.1324718216e+02   6.8156507780e+01    0.1198725   0.07183731 -20.19            0    1.555    0.357
       198  -9.0532    229.9182     15.9659   6.4454184599e+01   2.5395130282e+01    0.2375514    0.1817886 -77.65 0.0007151784    1.300    0.231
       199  -7.2315    174.3247     16.3104   7.1218234142e+01   3.9195100121e+01    0.1494523    0.0981588  35.39 0.0002540323    1.656    0.396
       200  -8.2492    189.4660     15.0693   6.8755426637e+01   3.5467208292e+01    0.2022897    0.1380274 -21.72 0.0007563105    1.570    0.363
       201  -8.6923    235.6196     13.6502   6.3342428947e+01   2.4303589335e+01    0.2464041    0.1511417  78.04  0.000672005    1.636    0.389
       202  -8.5971    146.3044     14.2134   7.5099534768e+01   4.6480840517e+01    0.2348853    0.1663222  48.04 0.0003290946    1.288    0.224
       203  -9.3353    192.8522    248.5166   1.2191461719e+02  -8.1219801300e-01    0.2233623    0.1487357  30.84 0.0007775294    1.203    0.169
       204  -9.7929    164.9215    246.3421   1.2641807611e+02   3.7800956673e+00    0.2487328    0.1628266  30.84 0.0003474465    1.395    0.283
       205  -8.1851    151.0438     12.6852   7.3733942400e+01   4.5452934013e+01    0.1946578    0.1667337  52.86 0.0004708544    1.074    0.069
       206  -8.5513    127.0416    249.0000   1.3322721212e+02   9.1733067582e+00    0.3204669   0.05040743  41.46  0.001054734    4.965    0.799
       207  -7.7068     15.6815     10.7155   1.1589085225e+02   7.0389428697e+01    0.1164688   0.06669012 -21.12 0.0002150727    1.588    0.370
       208  -8.0265     64.0314    247.4594   1.4353760502e+02   1.7972155691e+01    0.1559579   0.08088283  44.76  0.001026383    1.581    0.367
       209  -8.1997     36.2016    247.4310   1.4788201971e+02   2.1184210636e+01    0.1427456   0.06350053  52.19 0.0009460825    1.659    0.397
       210  -7.9946      9.6953    247.3336   1.5180822342e+02   2.3894143847e+01    0.1020216   0.04582468  65.77 0.0005438994    1.663    0.399
       211  -9.3840    224.5959    245.8901   1.1620871281e+02  -5.3210685707e+00    0.2245475    0.1150253  23.64  0.001267577    1.873    0.466
       212  -9.8697    171.8325    245.5199   1.2512066733e+02   2.8115764536e+00    0.2723741    0.1511911  26.29  0.001066911    1.996    0.499
       213  -7.8232    120.0203    246.2140   1.3413735240e+02   1.0608657902e+01    0.1547124   0.07231564  42.73 0.0004626777    1.692    0.409
       214  -8.2771    103.9887    246.2281   1.3686127539e+02   1.2905368377e+01    0.1477533   0.07238576  43.83 0.0004661023    1.618    0.382
       215  -9.5761    219.4467    244.2862   1.1682946097e+02  -4.3821197416e+00    0.1840001    0.1549483  25.05 0.0009011836    1.201    0.168
       216  -8.5209    206.4901    245.4574   1.1917857073e+02  -2.5489605848e+00    0.1169608   0.08658187  26.97 3.195085e-05    1.051    0.048
       217  -8.0817     26.2112    250.3739   1.4953272131e+02   2.1775352861e+01     0.138074   0.06046658  51.30  0.000784027    1.662    0.398
       218  -8.3805     45.0465    244.6380   1.4635631317e+02   2.0653636303e+01    0.1402607   0.09839841  57.76 0.0005016309    1.130    0.115
       219  -9.8208    237.1943    242.9725   1.1369364563e+02  -6.8664037742e+00    0.2270032    0.1155821  16.61  0.001227811    2.197    0.545
       220  -9.9944    240.1589    238.8941   1.1257692382e+02  -6.8804337155e+00    0.2057712    0.1421155 -25.11  0.001423169    1.635    0.388
       221  -8.3616    229.2927    243.3074   1.1504536514e+02  -5.7442365768e+00    0.1147954   0.06965493  15.42 0.0004205555    1.582    0.368
       222  -7.5001      5.3901    243.2664   1.5226563319e+02   2.4946425441e+01   0.07429396    0.0696649 -84.78 0.0006982692    1.708    0.415
