#   1 NUMBER                 Running object number                                     
#   2 MAG_AUTO               Kron-like elliptical aperture magnitude                    [mag]
#   3 X_IMAGE                Object position along x                                    [pixel]
#   4 Y_IMAGE                Object position along y                                    [pixel]
#   5 X_WORLD                Barycenter position along world x axis                     [deg]
#   6 Y_WORLD                Barycenter position along world y axis                     [deg]
#   7 A_WORLD                Profile RMS along major axis (world units)                 [deg]
#   8 B_WORLD                Profile RMS along minor axis (world units)                 [deg]
#   9 THETA_WORLD            Position angle (CCW/world-x)                               [deg]
#  10 FWHM_WORLD             FWHM assuming a gaussian core                              [deg]
#  11 ELONGATION             A_IMAGE/B_IMAGE                                           
#  12 ELLIPTICITY            1 - B_IMAGE/A_IMAGE                                       
         1 -13.3258      2.2871    108.8151   1.2992313459e+02   5.2037437609e+01     1.672102     0.147371 -72.33  0.004543192    6.679    0.850
         2 -13.1568    203.9528     34.3399   5.6530966236e+01   2.9909825244e+01      1.17436      1.09263 -85.21  0.006343747    1.036    0.035
         3 -13.6769    221.7642     16.0213   4.9677149266e+01   2.7695846793e+01     1.078026    0.8663581  34.16  0.003170851    1.537    0.349
         4 -12.5331      4.4201      3.8606   1.0384576063e+02   7.3728118969e+01    0.6920337    0.4582836  21.58  0.004870953    1.741    0.426
         5 -12.5961      2.9883     15.5708   1.0981065049e+02   7.1825670746e+01     0.801721    0.2476356 -47.53  0.004006451    2.212    0.548
         6 -11.5384    180.5100    243.5734   1.0756003587e+02   1.1505416310e+00    0.4787444    0.1758639  31.64  0.002067788    2.866    0.651
         7 -11.7311    169.9654    247.6014   1.0996667205e+02   2.2346814704e+00    0.4114082    0.2769776 -13.36  0.002506753    2.168    0.539
         8 -12.0309    177.0309    249.6299   1.0897881421e+02   9.0217229739e-01     1.005123    0.2524149  33.50  0.003153088    5.533    0.819
         9 -11.8361    150.4408    247.4312   1.1342922437e+02   5.2256575010e+00     0.325088    0.2952971  20.21  0.002063545    1.230    0.187
        10 -11.9496    119.4099    236.2993   1.1780256226e+02   1.1583258174e+01    0.6884333    0.4706433 -14.49  0.003436502    3.165    0.684
        11 -11.5120    131.6787    249.1807   1.1697931645e+02   7.7878243900e+00    0.7029076    0.1540202  44.82  0.002694006    3.567    0.720
        12 -12.5945    124.0908    245.2998   1.1792108203e+02   9.4865479405e+00    0.6962484    0.4952089 -48.89  0.004724224    1.813    0.449
        13 -11.3140    115.7160    248.9361   1.1979006616e+02   1.0155961957e+01    0.4249378    0.4009458 -37.62  0.003370873    1.445    0.308
        14 -10.7821    110.0896    247.8312   1.2067870911e+02   1.1130988102e+01     0.304014    0.2211726  46.90  0.002143986    1.088    0.081
        15 -11.5393    100.0343    247.9584   1.2246644905e+02   1.2526807328e+01     0.645515     0.379992  37.09  0.004032759    1.561    0.359
        16 -10.6007     84.2456    229.9985   1.2367046939e+02   1.7676486119e+01    0.2585849    0.1935291 -59.77 0.0009565919    1.615    0.381
        17 -11.7509    112.0987    231.7660   1.1866741994e+02   1.3409268160e+01    0.5109899    0.3520271  26.06  0.002747959    1.748    0.428
        18 -10.5567     97.1282    239.3259   1.2218553161e+02   1.4317937437e+01    0.2657643    0.1622141  63.90  0.001243659    1.586    0.369
        19 -10.3396     81.4033    248.1466   1.2573135825e+02   1.5016148284e+01    0.2683416    0.1784434  87.16  0.001243052    1.591    0.371
        20 -12.4298    102.7038    238.1400   1.2105990138e+02   1.3724515230e+01    0.6371729    0.4471849  59.19  0.002723841    1.226    0.185
        21 -11.4576     86.8305    247.9108   1.2477184248e+02   1.4334948705e+01     0.431044    0.2979958  53.05  0.002207491    1.104    0.094
        22 -12.1007     89.1306    238.8296   1.2358123581e+02   1.5506238744e+01    0.6902488    0.3655244  70.23  0.003693027    2.248    0.555
        23 -10.8499     68.2795    245.5904   1.2779376455e+02   1.7119236874e+01    0.2811664    0.1873938  68.29  0.001033129    1.267    0.211
        24 -11.3709     60.3568    246.3322   1.2919486333e+02   1.7976316046e+01    0.5047505    0.2695056  55.32  0.003329069    1.440    0.306
        25  -9.3974     56.6738    250.4765   1.3008566714e+02   1.7740850466e+01    0.1882673    0.1075863  42.67 0.0007754936    1.500    0.333
        26 -11.9140     44.9290    200.8989   1.2862773937e+02   2.8089324699e+01    0.7063838    0.6159479   8.93  0.004757989    1.765    0.433
        27 -14.3495      8.1031    211.6883   1.3613852016e+02   2.9752959895e+01     2.488036     1.043313 -82.56   0.01494863    2.035    0.508
        28 -10.7513    164.4985    241.9946   1.1022411400e+02   3.8280352637e+00    0.2035645    0.1558959 -80.84  0.001290403    2.094    0.522
        29 -12.3191    134.9294    234.5872   1.1472737043e+02   9.4975707619e+00    0.4247666    0.3416391 -85.13  0.002884617    1.552    0.356
        30 -14.0149      6.1697    245.3759   1.3789624039e+02   2.3981324175e+01     1.145977    0.9354584  75.34   0.01039992    1.308    0.236
        31 -10.0034    244.6707    241.3263   9.6215781086e+01  -7.9873801317e+00   0.09507427   0.08487605  38.83 0.0004434697    1.704    0.413
        32  -9.3408     66.0808    239.5288   1.2772521106e+02   1.8409149547e+01    0.2606273    0.1241824  67.94  0.001440443    2.219    0.549
        33 -11.4624     74.7680    235.0441   1.2583467259e+02   1.8065162894e+01    0.7141513    0.3446688 -61.87  0.004173282    2.327    0.570
        34  -9.7619     77.1573    220.8210   1.2414975254e+02   2.0269894519e+01    0.1835905    0.1460427  79.58 0.0003857999    1.150    0.130
        35  -9.9982     79.8146    227.7187   1.2428228219e+02   1.8675108102e+01    0.2928337    0.2220493  -1.11  0.001472981    2.613    0.617
        36  -9.8940     78.7737    224.8091   1.2421212069e+02   1.9332423298e+01    0.2942748    0.2311775  -9.26  0.001811533    2.415    0.586
        37  -8.9764     60.9553    239.1886   1.2859240702e+02   1.9102387387e+01    0.1478221    0.0676219  41.73 0.0008569869    1.818    0.450
        38 -12.9385     26.4971    247.3442   1.3480953042e+02   2.1637348684e+01     0.956096    0.5789464  41.60  0.007125273    1.572    0.364
        39 -10.4412    129.8566    235.6898   1.1579980890e+02   1.0103207540e+01    0.1781778    0.1625723 -38.05 0.0009723275    1.402    0.287
        40  -9.6318     55.0708    235.5269   1.2935647211e+02   2.0445903210e+01    0.2305958    0.1068531  55.92  0.001332053    1.751    0.429
        41 -11.1803     82.7995    239.9770   1.2481351454e+02   1.6169936579e+01    0.5117598    0.2087613  57.27  0.001709765    2.406    0.584
        42 -13.2937     22.7084    224.8940   1.3429328162e+02   2.5917503292e+01    0.4822882    0.3679374 -58.44  0.002576123    1.817    0.450
        43  -9.1963    153.5115    230.0052   1.1067309996e+02   7.2857470693e+00    0.1557649    0.1225898 -49.84 0.0004404626    1.559    0.359
        44  -9.2729     56.2131    227.9849   1.2861137954e+02   2.1638684078e+01    0.1738525    0.1110346  65.84 0.0007179967    1.290    0.225
        45 -10.4795    136.1250    224.4893   1.1325151981e+02   1.0918646766e+01    0.2921194    0.1681284 -46.97  0.001002524    2.112    0.527
        46 -10.3060     92.2144    225.9305   1.2179527864e+02   1.7285085607e+01    0.2873328    0.1501999  53.67  0.001217521    1.662    0.398
        47  -9.2767     87.8066    223.7942   1.2241684172e+02   1.8280341819e+01     0.228436    0.1263932  54.66  0.001231095    1.561    0.359
        48  -9.7806    117.0619    224.6635   1.1692996676e+02   1.3855795348e+01    0.1746124    0.1382118  46.35 0.0005608604    1.074    0.069
        49  -9.2385     64.9633    224.3623   1.2673703500e+02   2.1210473183e+01    0.2021623    0.1220371 -45.08  0.001139987    2.702    0.630
        50  -9.0807     45.8793    225.3120   1.3026958343e+02   2.3339104775e+01    0.1436277    0.1125191  64.83 0.0004121901    1.080    0.074
        51  -8.7990    132.2647    224.3812   1.1397845788e+02   1.1546219679e+01    0.1130638   0.09258175  -1.98 0.0003031113    1.684    0.406
        52 -10.8120     98.7048    222.9650   1.2025819530e+02   1.6880322597e+01    0.2887335    0.2114011  53.62  0.001295894    1.125    0.111
        53 -10.3517    141.7652    219.3461   1.1148572586e+02   1.0856354570e+01    0.2858726     0.197477 -46.35  0.001315654    1.727    0.421
        54 -10.3437     70.5986    218.6040   1.2519063872e+02   2.1542621904e+01    0.3013195    0.2191067 -78.56  0.002048828    1.388    0.279
        55 -10.0029     90.9722    220.0302   1.2143542524e+02   1.8511751847e+01    0.1852711    0.1433623  61.34 0.0004135061    1.081    0.075
        56  -9.7193    116.6861    215.9946   1.1596620623e+02   1.5415169916e+01    0.2877071    0.2036379  11.98  0.001438976    2.232    0.552
        57  -9.8581     86.8788    212.1431   1.2141228312e+02   2.0541628109e+01    0.3708831    0.1811773  68.15  0.001688678    2.768    0.639
        58  -9.1337     58.5132    212.5428   1.2696340509e+02   2.4211647814e+01    0.1913183    0.1065758  61.54 0.0007783939    1.593    0.372
        59 -10.4087     55.9157    208.8417   1.2714935517e+02   2.5239206191e+01    0.3980325    0.1645296 -72.67  0.002034605    2.417    0.586
        60  -9.5678     99.4888    210.0063   1.1866878200e+02   1.9116882885e+01    0.2668854    0.1200505  63.82  0.001049613    3.453    0.710
        61 -10.4617     62.9045    209.0734   1.2581481200e+02   2.4329568429e+01    0.4750038    0.2933281 -56.71  0.002883909    1.900    0.474
        62  -8.5053     74.2771    208.3249   1.2351195464e+02   2.2997162762e+01     0.103327   0.09285781 -36.86 0.0003336152    1.587    0.370
        63  -8.4002     89.2773    205.2724   1.2018529158e+02   2.1505575003e+01    0.1037736   0.09671778  -5.17 0.0002006106    1.490    0.329
        64 -10.1046    106.9306    203.4917   1.1636954489e+02   1.9214489579e+01     0.217796    0.1772721 -70.78 0.0005201438    1.321    0.243
        65 -10.2020     74.6058    200.1403   1.2261200056e+02   2.4552336202e+01    0.1975391    0.1753021  68.76 0.0005018198    1.114    0.102
        66  -9.0041     96.9293    199.2848   1.1791071163e+02   2.1544299263e+01    0.1700131    0.1420671  52.52 0.0002153635    1.085    0.079
        67 -12.4631     48.7221    216.5689   1.2912566592e+02   2.4623489656e+01     1.648246    0.5597104  61.55  0.006336819    3.506    0.715
        68 -11.7196     52.9760    193.1113   1.2634155584e+02   2.8721449546e+01    0.3431083    0.2650385  35.31 0.0007498409    1.489    0.328
        69 -10.2300    250.0832    194.3123   8.7252243827e+01  -3.3797629475e+00    0.2196159    0.1474562 -11.42  0.001324086    1.365    0.268
        70 -10.3479     30.8389    193.1949   1.3079952324e+02   3.1163992647e+01     0.214506    0.1533778  86.13 0.0002581588    1.144    0.126
        71  -9.3982     25.9787    192.6955   1.3171794844e+02   3.1756844735e+01    0.2180959    0.1514216  77.50 0.0009021655    1.147    0.128
        72  -9.9467     21.6053    192.6066   1.3256373503e+02   3.2202673063e+01    0.3777445     0.153774  65.63 0.0009780109    2.423    0.587
        73  -8.5197     91.7520    192.3557   1.1814021936e+02   2.3688696990e+01    0.1284704   0.08708199  76.03 0.0002145996    1.597    0.374
        74  -8.2802     38.6099    192.2601   1.2918099648e+02   3.0532311414e+01    0.1244145   0.06649312  62.14 0.0006971927    1.694    0.410
        75  -9.3246    191.7679    191.6390   9.7259906964e+01   6.7747086838e+00    0.2034472    0.1681834 -15.73 0.0006487807    1.253    0.202
        76  -9.2937     76.3656    187.0323   1.2078841109e+02   2.6974454576e+01    0.3100047    0.1518418 -77.31  0.001241254    2.377    0.579
        77 -10.6840     71.0688    187.0671   1.2192985662e+02   2.7684315843e+01    0.2358648    0.1543414  46.39 0.0003247168    1.411    0.291
        78 -11.7512     59.6211    185.3850   1.2419450363e+02   2.9511303133e+01    0.2437546    0.2091131 -75.35 0.0003468748    1.214    0.176
        79  -8.7118    107.4400    185.5311   1.1383867746e+02   2.2653612101e+01    0.1299113    0.1180147  63.19 0.0001114709    1.027    0.026
        80  -9.4280     29.5255    184.1415   1.3037408103e+02   3.3156709914e+01    0.2555407    0.1680773 -46.53  0.001288777    2.131    0.531
        81 -13.7264     37.2285    243.6944   1.3288732211e+02   2.1097061284e+01     1.465096    0.9405746  82.20   0.01103013    1.335    0.251
        82 -10.3397     36.9124    180.4679   1.2853806227e+02   3.3164045687e+01    0.2860766    0.1420915 -67.18  0.000460105    1.830    0.454
        83  -9.5737     27.0541    179.7119   1.3053482967e+02   3.4328768667e+01    0.1888724    0.1256086  85.78 0.0003288567    1.248    0.199
        84  -8.3493     47.6738    179.6864   1.2617654518e+02   3.2143753128e+01    0.1112221   0.08969574 -43.96 0.0007042522    1.666    0.400
        85  -9.1428    105.7569    176.0027   1.1280292287e+02   2.4884803012e+01    0.1792614    0.1615473 -87.74  0.001095152    1.092    0.084
        86 -11.5161    248.4461    172.3162   8.3253156896e+01  -2.2660584600e-01    0.4662915    0.3243055 -12.48  0.002715071    1.323    0.244
        87 -11.7528    245.1795    163.2303   8.1940246754e+01   1.5927319519e+00    0.4389181    0.2370508 -39.80  0.002161762    1.949    0.487
        88 -11.8800    247.1973    158.4511   8.0610108638e+01   1.9264502738e+00    0.6995558     0.535957 -75.44  0.003532377    2.675    0.626
        89 -10.6887     71.2066    173.3516   1.2027009308e+02   3.0581282974e+01    0.2236655     0.206668  78.05 0.0003783174    1.119    0.107
        90 -14.1482     28.1576    218.5395   1.3298571009e+02   2.6522334733e+01    0.9426273     0.761023  82.75  0.005392608    1.178    0.151
        91  -9.7424     55.8586    172.7649   1.2365844488e+02   3.2669429543e+01    0.2308845    0.1772884  71.29 0.0005694742    1.161    0.139
        92  -9.7631     51.7842    171.1469   1.2439325790e+02   3.3507898020e+01    0.2362385     0.159422  47.74 0.0006195229    1.427    0.299
        93  -9.7773     18.0090    172.2382   1.3184801852e+02   3.6757850377e+01    0.1986334    0.1383077 -87.46 0.0009774335    1.154    0.133
        94 -10.8849     12.1430    153.5857   1.3166844215e+02   4.1291544330e+01    0.2741351    0.1665346 -85.08  0.001714709    1.326    0.246
        95 -11.5019      9.7764    157.2171   1.3248490991e+02   4.0685629697e+01    0.5452595    0.1911968  75.98   0.00210947    4.024    0.751
        96 -11.2369      2.4342    172.3035   1.3506789342e+02   3.8046730005e+01    0.4922156    0.1891517  88.26  0.002489132    2.375    0.579
        97 -11.7031     12.0791    167.3089   1.3273691998e+02   3.8321903129e+01    0.3666981    0.2364714  25.60  0.002183176    1.997    0.499
        98 -10.9907      5.1516    166.6391   1.3415021157e+02   3.9025365017e+01    0.2709707    0.2164436  14.89  0.001368773    1.823    0.451
        99 -11.4775      9.2964    164.7059   1.3314193001e+02   3.9107476054e+01    0.4302681    0.1637084 -57.87  0.002160906    2.657    0.624
       100 -10.2683     27.2667    171.5383   1.2982323598e+02   3.6045571296e+01    0.2767377    0.1814492 -52.82 0.0004312797    1.804    0.446
       101 -10.8811     39.1154    167.6045   1.2686291008e+02   3.5698512268e+01     0.222084    0.2103755  50.63 0.0003980204    1.310    0.237
       102 -11.7808     79.2182    165.4691   1.1737259523e+02   3.1199600491e+01    0.4695038    0.3841847  26.17  0.002217196    1.476    0.322
       103 -10.2207     68.1216    166.1017   1.2005487956e+02   3.2580913556e+01    0.2070914     0.165218 -77.97 0.0004400928    1.153    0.133
       104  -9.5165     29.7068    165.0302   1.2871679789e+02   3.7219645454e+01    0.1663489    0.1295812 -86.73 0.0004830504    1.065    0.061
       105 -10.2705     44.8945    165.1415   1.2530333113e+02   3.5613602459e+01    0.2677512    0.1447951 -44.91  0.001210952    2.531    0.605
       106  -9.8240     24.0113    161.9865   1.2971290926e+02   3.8425889659e+01    0.1745006    0.1390962  84.75  0.000339552    1.018    0.018
       107  -8.9862     66.7936    161.3986   1.1974888296e+02   3.3802176125e+01    0.1555261    0.1251672  26.64   0.00025688    1.515    0.340
       108  -9.3670     28.5557    161.0031   1.2860215425e+02   3.8215315896e+01    0.1735381   0.09835652 -77.27 8.806058e-05    1.493    0.330
       109  -9.9603     81.2733    157.4344   1.1570424316e+02   3.2694213216e+01    0.3412205    0.1834687 -73.89  0.001547335    2.086    0.521
       110 -10.5800     32.0049    154.3272   1.2715081902e+02   3.9366593283e+01    0.2776052     0.176601 -53.83  0.001172988    1.679    0.404
       111 -10.7017     26.0122    155.1664   1.2863200552e+02   3.9747791748e+01    0.2194238    0.1756517  47.75 0.0008374456    1.344    0.256
       112 -10.8676    249.6370    151.0830   7.8653409400e+01   2.5596340427e+00    0.3586386    0.2370591 -33.46  0.001965222    1.422    0.297
       113  -9.7390     54.0690    151.8676   1.2156123751e+02   3.7544931696e+01    0.2159192    0.1650424 -60.40  0.001305873    1.288    0.223
       114 -10.5200     93.3717    150.0732   1.1152977873e+02   3.2520907625e+01    0.2991305    0.2659521 -50.83 0.0008577023    1.195    0.163
       115  -8.8257     87.1096    151.1636   1.1327306405e+02   3.3243479284e+01    0.1860732    0.1474646  82.73  0.001028069    1.303    0.233
       116 -11.1725     22.1258    149.2800   1.2897624725e+02   4.1412239093e+01    0.4669344    0.1291411  40.01  0.002049502    3.264    0.694
       117  -9.6255     81.4465    148.4915   1.1424900823e+02   3.4695048438e+01    0.2770687    0.2125633  58.13  0.001547678    1.306    0.234
       118 -11.8994     68.1923    144.0560   1.1690475283e+02   3.7566608264e+01     0.679095    0.4327535  79.99  0.002977227    1.888    0.470
       119 -10.1528     59.1612    146.8606   1.1961522947e+02   3.8076759497e+01    0.3373632    0.1946338 -34.94  0.001520312    2.750    0.636
       120 -13.4777      8.7897    143.6991   1.3161934333e+02   4.3737137655e+01    0.7183676    0.6471126 -68.99  0.005256591    1.277    0.217
       121 -11.9789    247.8004    142.4012   7.7072512219e+01   4.1535978379e+00    0.6096864    0.4841601  17.83  0.003595041    1.250    0.200
       122 -12.7576    248.3438    133.5079   7.5022051698e+01   5.3733781818e+00     1.315287    0.6155578 -25.20  0.005658112    2.163    0.538
       123  -9.1968    235.9872    145.9982   7.9807965150e+01   5.7866797173e+00    0.2141095    0.1507113   7.05  0.000480786    1.576    0.366
       124  -8.9717     96.8886    146.1702   1.0995626407e+02   3.2839855064e+01     0.177658    0.1646078 -21.51 0.0003386129    1.278    0.218
       125 -10.0148    133.1816    141.0213   9.9923789742e+01   2.7472882942e+01      0.31601    0.2333495 -59.84  0.000856252    1.458    0.314
       126 -11.7082    243.6971    120.0234   7.2686729395e+01   8.2953046705e+00    0.4917737    0.2759655 -51.78  0.002149726    2.340    0.573
       127  -9.9818     37.0089    140.0097   1.2431131313e+02   4.2129972642e+01    0.1916949    0.1568798 -89.17 0.0003994701    1.052    0.049
       128  -9.6387    107.0393    135.9023   1.0538000433e+02   3.3450791805e+01    0.4080048    0.2642803 -13.88  0.001565074    3.094    0.677
       129 -13.4295      9.1057    111.1976   1.2827805100e+02   5.1077688918e+01    0.8170508    0.2748061 -70.00     0.003666    2.233    0.552
       130 -13.1825     13.4589    100.8111   1.2567278912e+02   5.3176318453e+01    0.7567603    0.5831068  27.63  0.003587751    1.607    0.378
       131  -9.9952     32.5068    126.5292   1.2375760675e+02   4.5688215375e+01    0.1261148    0.1041854 -80.14 3.137302e-05    1.016    0.015
       132  -8.3075     41.3853    123.2584   1.2085939673e+02   4.5587431641e+01    0.1246471   0.09058928 -35.17 0.0006971031    1.680    0.405
       133 -12.3788     16.4256    120.6432   1.2737047604e+02   4.8397767218e+01    0.4749253    0.2559241  86.26    0.0025085    1.915    0.478
       134 -10.3411    238.7124    121.6759   7.3854983638e+01   9.0212623317e+00    0.2649747    0.1595308 -20.96   0.00124068    1.709    0.415
       135  -8.6367     50.5064    122.4952   1.1819142891e+02   4.4786346477e+01    0.1320442    0.1137787 -76.51 -0.0002236024    1.021    0.021
       136 -10.6903     30.2850    119.1191   1.2335206932e+02   4.7617769534e+01    0.1964438    0.1765595 -20.85  0.001329189    1.400    0.286
       137 -12.8921    248.0407    101.9523   6.7818643330e+01   1.0174613351e+01     1.163867    0.5495605 -26.56  0.004947939    2.096    0.523
       138 -11.9335    247.6006    112.9984   7.0465613499e+01   8.5987635629e+00    0.5530388    0.3803626  41.13  0.002943694    1.585    0.369
       139  -9.5666    167.9767    113.0018   8.5067456579e+01   2.5880517572e+01    0.3621519    0.2530789 -80.34  0.001448638    2.399    0.583
       140 -10.6303    231.9516    116.6222   7.3759568540e+01   1.1178108100e+01    0.2496779    0.1852601 -19.03 0.0007495515    1.315    0.240
       141 -11.4016    142.8578    248.8848   1.1495374604e+02   6.1642309895e+00     0.346314    0.1903147  55.68   0.00196406    1.920    0.479
       142  -9.6397     66.4974    126.5027   1.1442396691e+02   4.1886551995e+01    0.1357814    0.1213487 -73.21 0.0008106801    1.006    0.006
       143  -8.4775     71.7189    100.2988   1.0750993081e+02   4.7300255316e+01    0.1343954    0.1059813  85.70 0.0002512462    1.543    0.352
       144 -10.1256    249.8016    117.7869   7.1241210012e+01   7.4512722668e+00    0.2647958    0.2168124 -38.36 0.0007049967    1.199    0.166
       145  -9.6158     44.4688    130.0034   1.2101593786e+02   4.3685696763e+01    0.1951001    0.1111161 -69.76 0.0004709871    1.530    0.346
       146  -9.2461     93.7744    133.1852   1.0829733633e+02   3.6309189807e+01    0.1828174    0.1613843 -29.91 0.0003525176    1.297    0.229
       147 -11.6264      2.2418     37.5207   1.1745095749e+02   6.7675634164e+01    0.4490363   0.09744018 -63.42  0.001644429    4.017    0.751
       148 -12.0502    102.5668    230.6193   1.2032773709e+02   1.4997063206e+01    0.6229442    0.3733847  27.85  0.002929358    2.067    0.516
       149 -11.0757     74.0393    244.0399   1.2668326560e+02   1.6643050880e+01    0.2969237    0.2551052  80.20   0.00236647    1.227    0.185
       150 -11.1181    197.8254    245.5936   1.0478683302e+02  -1.7263834948e+00    0.2340526    0.1618684  31.31   0.00143486    1.120    0.107
