#   1 NUMBER                 Running object number                                     
#   2 MAG_AUTO               Kron-like elliptical aperture magnitude                    [mag]
#   3 X_IMAGE                Object position along x                                    [pixel]
#   4 Y_IMAGE                Object position along y                                    [pixel]
#   5 X_WORLD                Barycenter position along world x axis                     [deg]
#   6 Y_WORLD                Barycenter position along world y axis                     [deg]
#   7 A_WORLD                Profile RMS along major axis (world units)                 [deg]
#   8 B_WORLD                Profile RMS along minor axis (world units)                 [deg]
#   9 THETA_WORLD            Position angle (CCW/world-x)                               [deg]
#  10 FWHM_WORLD             FWHM assuming a gaussian core                              [deg]
#  11 ELONGATION             A_IMAGE/B_IMAGE                                           
#  12 ELLIPTICITY            1 - B_IMAGE/A_IMAGE                                       
         1 -12.2516    201.2395     33.7025   4.8943979351e+01   3.0682011990e+01     1.135027    0.9600679  34.89  0.005908562    1.389    0.280
         2 -12.0861    215.5264     18.3577   4.3155093703e+01   2.8991007474e+01    0.7599058    0.6791695 -53.75  0.002847229    1.106    0.095
         3  -9.5002     32.5298     11.9660   8.5455733709e+01   6.9893628590e+01    0.2615085     0.101048 -43.96  0.001200053    2.658    0.624
         4  -8.1672     59.3294      7.3297   7.1343450290e+01   6.6713554551e+01    0.1326077   0.08142131  11.27            0    1.713    0.416
         5 -15.0019      7.3134    202.6658   1.2891839439e+02   3.1111874488e+01     8.155267     1.341438 -77.72    0.0114087    5.060    0.802
         6 -14.1074     79.3933    246.2428   1.1901069346e+02   1.4499684066e+01     6.351665     1.922812  39.86   0.02641631    2.790    0.642
         7  -8.4778    192.7543    193.0031   8.9850400835e+01   4.9765617123e+00    0.1745137    0.1149671 -38.29  0.000786403    1.638    0.389
         8  -8.7515     73.5979    188.1584   1.1449332207e+02   2.6545847628e+01     0.244784    0.1622468  71.00 0.0007267129    1.446    0.309
         9 -10.1816     66.8665    180.2835   1.1504874922e+02   2.9195864961e+01    0.3405616    0.2490641 -44.34  0.001937928    1.821    0.451
        10 -10.2372     71.9136    174.5276   1.1321053526e+02   2.9789667944e+01    0.4016671    0.2561868 -43.41  0.001032403    2.116    0.527
        11  -8.2749     99.4929    180.5301   1.0775970426e+02   2.4291937171e+01    0.1364643    0.1209954  72.37  0.000433756    1.010    0.010
        12 -10.6614    167.0451    223.8180   1.0002163228e+02   4.5343508169e+00    0.3162509    0.2893819 -49.61  0.002138747    1.321    0.243
        13  -8.5492    104.3380    171.6665   1.0529910731e+02   2.5442808787e+01    0.1499696    0.1002325  73.36 0.0007051865    1.745    0.427
        14  -9.8328     33.6574    167.0377   1.2103532862e+02   3.6141148502e+01    0.4419759    0.1964806 -70.82  0.002235568    1.895    0.472
        15  -8.0562    193.7535    166.5555   8.4453129183e+01   9.3736208895e+00    0.1957681    0.1352359  52.22 0.0007019088    1.568    0.362
        16 -10.9599     58.3185    130.9120   1.1029022827e+02   4.1846711793e+01    0.9830211    0.3345333 -72.96   0.00303912    4.220    0.763
        17 -12.0862     69.3822    145.7167   1.0974391657e+02   3.6841613925e+01      1.52163    0.7573938  87.67  0.005339739    3.650    0.726
        18 -10.3356     81.0058    164.6407   1.0973566660e+02   3.0733532847e+01    0.3888538    0.2912247 -56.57 0.0005774624    1.381    0.276
        19 -10.7900     87.1083    157.9192   1.0722704303e+02   3.1363845928e+01     0.650411    0.4201648 -34.03  0.001665764    2.328    0.570
        20 -11.5935     68.3079    161.0119   1.1226597696e+02   3.3381712136e+01    0.4245421    0.2862633 -48.07  0.001093182    1.717    0.418
        21 -12.0712    140.3361    230.4217   1.0608390234e+02   7.9366854478e+00     1.002604    0.3741463  31.60  0.003615383    3.858    0.741
        22  -9.2034    133.8899    145.0903   9.3243861703e+01   2.5966251255e+01    0.7024909     0.099472 -51.16  0.001347584    8.608    0.884
        23  -9.7598     32.7549    144.8564   1.1891164266e+02   4.1344550902e+01    0.5645723    0.1099899 -73.42  0.001531238    6.028    0.834
        24  -8.5645     39.2216    146.8596   1.1754529960e+02   4.0217626412e+01    0.2006979    0.1472466  81.14 0.0007724508    1.243    0.196
        25  -9.2606    101.4903    142.1757   1.0080439577e+02   3.2702256210e+01      0.57194    0.3178377 -32.92  0.002140134    2.954    0.661
        26  -8.5306     84.7052    144.3526   1.0555717216e+02   3.4932227597e+01    0.2821885    0.1644275  69.20  0.001182285    2.328    0.570
        27 -10.4467     89.0460    142.1184   1.0402736887e+02   3.4783034304e+01    0.2868974    0.2521226 -43.08 0.0004583689    1.273    0.214
        28 -12.5392     46.5012    220.0940   1.2288292726e+02   2.3516335807e+01      1.47788    0.9453331  26.51  0.005740752    2.271    0.560
        29  -8.2319    110.7616    131.8679   9.6254441267e+01   3.3465707139e+01    0.2276116    0.2056863 -19.82 0.0008359546    1.295    0.228
        30  -8.4333    106.1730    130.8886   9.7258245838e+01   3.4535196638e+01    0.2420634    0.2022149  87.49  0.001244175    1.292    0.226
        31 -10.2906     32.6196    128.8564   1.1696061981e+02   4.5140823580e+01    0.5861559   0.09337345 -67.69  0.001739934    4.755    0.790
        32 -11.0865     20.5806    124.7790   1.1967190095e+02   4.7156076284e+01    0.5109042    0.2100609 -61.27   0.00250255    1.924    0.480
        33  -7.7637    107.7031    119.9898   9.4389029224e+01   3.6815499262e+01    0.2057492    0.1837947 -54.00 0.0003826518    1.077    0.072
        34  -9.2320     98.3027    127.9059   9.8736534660e+01   3.6632119916e+01    0.2561255    0.2314368  -1.43 0.0006038985    1.347    0.258
        35  -8.5277    116.6724    125.6848   9.3301343894e+01   3.3787469149e+01    0.1526272    0.1220854 -11.47 0.0004265192    1.673    0.402
        36  -7.4469    205.6812    110.3108   6.8974111078e+01   1.7210582607e+01    0.1538516    0.1190946 -71.08  0.000336155    1.643    0.391
        37 -10.4690     20.2770    108.6503   1.1763385362e+02   5.0979215038e+01    0.3918508      0.19651   6.48  0.001862186    3.265    0.694
        38  -9.3242     33.0000    106.4079   1.1349319027e+02   5.0454626728e+01    0.4297324   0.06154965 -65.97  0.001134785    5.722    0.825
        39  -8.9555     41.4747    104.1415   1.1050036644e+02   5.0183600795e+01    0.2534145    0.1534023  50.23  0.001269536    1.959    0.489
        40  -8.3969    134.4566    102.4844   8.2699379452e+01   3.5331433825e+01    0.1559793    0.1519233 -55.65 0.0001452855    1.016    0.016
        41  -9.0916     32.7475     99.4293   1.1236069990e+02   5.2129366279e+01    0.2485624    0.1393477 -75.82  0.001252167    1.725    0.420
        42  -8.4299    238.3234     92.6479   5.9097935862e+01   1.2928959949e+01    0.1521271    0.1033574 -61.60 0.0007047815    1.755    0.430
        43 -11.9395     41.5038    208.2366   1.2293290788e+02   2.6444373508e+01    0.6018987    0.5423114 -34.95  0.001343403    1.793    0.442
        44  -7.4572     54.3292     65.6853   9.6894071912e+01   5.7533536877e+01    0.1264296    0.1046492  86.00 0.0007044842    1.676    0.403
        45 -10.1635     13.3728     60.1123   1.1115417133e+02   6.2494210235e+01    0.2299876    0.1689375 -51.50 0.0007017562    1.050    0.047
        46  -9.3914    145.7804     50.1742   6.3690351529e+01   4.2569011802e+01    0.5582941     0.337299 -78.96  0.001934246    3.307    0.698
        47  -8.4336    147.7985     44.0686   6.1197889505e+01   4.2987212837e+01    0.2199216    0.1973462 -72.11 0.0005121636    1.224    0.183
        48 -11.4039    193.0075     40.0083   5.1875116398e+01   3.1942317940e+01    0.5724287    0.4066414  54.76  0.001713939    1.411    0.291
        49 -13.4546     50.7090    197.7277   1.2026276821e+02   2.7506499604e+01     2.451729     1.149447  59.66   0.01044776    2.001    0.500
        50 -10.7175    210.1620     24.7000   4.5399173987e+01   2.9567171698e+01    0.4489251    0.3571525  31.14  0.001099939    1.596    0.373
        51 -15.0652      8.6052    241.4603   1.3051180154e+02   2.3712880214e+01     14.65113     1.500398 -78.65   0.04399654    9.599    0.896
        52 -11.4028    127.0213    230.7869   1.0868298078e+02   1.0036145720e+01    0.4076364    0.3190727 -39.26  0.002595467    1.710    0.415
        53 -11.9241    135.3616    238.8366   1.0807009273e+02   7.3774278114e+00    0.7047585    0.2883678  32.35  0.002980319    2.939    0.660
