#   1 NUMBER                 Running object number                                     
#   2 MAG_AUTO               Kron-like elliptical aperture magnitude                    [mag]
#   3 X_IMAGE                Object position along x                                    [pixel]
#   4 Y_IMAGE                Object position along y                                    [pixel]
#   5 X_WORLD                Barycenter position along world x axis                     [deg]
#   6 Y_WORLD                Barycenter position along world y axis                     [deg]
#   7 A_WORLD                Profile RMS along major axis (world units)                 [deg]
#   8 B_WORLD                Profile RMS along minor axis (world units)                 [deg]
#   9 THETA_WORLD            Position angle (CCW/world-x)                               [deg]
#  10 FWHM_WORLD             FWHM assuming a gaussian core                              [deg]
#  11 ELONGATION             A_IMAGE/B_IMAGE                                           
#  12 ELLIPTICITY            1 - B_IMAGE/A_IMAGE                                       
         1 -10.1752      8.8456     25.9350   9.8863508076e+01   6.9873751717e+01    0.4320717    0.2809572 -32.46  0.001373322    1.167    0.143
         2 -10.2402    183.2481     10.6406   4.0259200508e+01   3.8219350372e+01    0.8074546    0.2767662 -37.76  0.002598966    2.742    0.635
         3 -10.4924    190.2930     23.3413   4.2887348150e+01   3.5144971827e+01    0.7956205    0.4357581  76.23  0.001902025    1.831    0.454
         4 -11.3383    186.3344      3.5403   3.7989561432e+01   3.8145759939e+01    0.2943968    0.2697223 -41.53 0.0001879018    1.202    0.168
         5  -9.0561    181.6985      3.5174   3.8479058380e+01   3.9272697648e+01    0.2461035    0.2096697 -46.18  0.001323709    1.229    0.186
         6 -11.3544    218.9371     25.1819   4.0123329325e+01   2.8114303622e+01    0.3129094    0.2597722  87.73 0.0004860196    1.129    0.114
         7  -9.0700    134.5239     10.3239   4.7230920574e+01   5.0237509374e+01    0.3206056    0.2906638 -83.21  0.001152398    1.209    0.173
         8  -9.3814    140.9350     19.9968   4.9384564396e+01   4.7725394590e+01     0.720059    0.3045857 -47.37   0.00273797    3.087    0.676
         9  -8.4044    126.9628     14.4643   5.0140006530e+01   5.1665649857e+01    0.2726008    0.1920913 -56.77 0.0006391878    1.797    0.443
        10 -10.3749    141.4009     13.1709   4.6992434077e+01   4.8297496836e+01    0.4411065    0.3606013  65.81 0.0006987209    1.127    0.113
        11 -10.4130    134.4488     18.1728   4.9983215237e+01   4.9494879850e+01    0.6863145    0.3477576  26.23  0.002729541    2.843    0.648
        12  -8.8901    162.9726     11.1666   4.2996447505e+01   4.3165837550e+01    0.3837336    0.2299343  82.91  0.001216455    1.748    0.428
        13  -9.0792    152.5996     22.3450   4.8092134030e+01   4.4597622954e+01    0.6302372    0.1964264 -32.21  0.002309276    3.105    0.678
        14  -8.8939    157.5213     15.9745   4.5274691654e+01   4.4045088992e+01    0.4570774    0.3347342  29.25  0.002459171    1.569    0.362
        15 -10.2101    210.6238     19.0798   3.9476410629e+01   3.0751453443e+01    0.5762576    0.4486118 -81.94  0.003175991    1.189    0.159
        16  -9.8562    204.6131     12.5912   3.8463840155e+01   3.2872665930e+01    0.3014395    0.2461633  87.65 0.0007234428    1.103    0.093
        17  -9.9873     24.7150      9.6811   8.3146187976e+01   7.1155164413e+01    0.4021354    0.3290187  25.55  0.002441777    1.535    0.349
        18  -8.1722     23.9915      3.0126   8.0017389146e+01   7.2146334668e+01    0.1856524    0.1438634 -45.84  0.001164731    2.011    0.503
        19  -9.3764     13.1651      9.8468   8.9582351792e+01   7.2256664087e+01    0.3308148    0.1892636 -37.27  0.001403612    1.439    0.305
        20  -9.4167     17.4445      8.9761   8.6742378225e+01   7.2000330972e+01    0.5515782    0.1996903 -30.46  0.002576956    2.635    0.621
        21  -9.0460     15.1972      3.3000   8.5077588772e+01   7.3034615980e+01    0.2331135    0.1649408  10.30  0.001021074    1.305    0.234
        22  -9.9015     16.2724     18.5495   9.1889793014e+01   7.0602233016e+01    0.4494564    0.1963088 -43.61  0.001430629    1.883    0.469
        23 -10.3378     22.6673     17.4694   8.8004045833e+01   7.0194116951e+01     0.659686    0.2789343  32.10  0.003232749    2.620    0.618
        24 -11.2485     90.2681     14.2709   5.8954583462e+01   5.9939531217e+01    0.7252317     0.379413  26.32  0.001334033    2.159    0.537
        25 -11.9897    101.0257     12.9676   5.5467172096e+01   5.7771695415e+01    0.4754283    0.3320743 -27.42  0.001506212    1.540    0.351
        26  -9.7464     94.7764      4.9748   5.3726774309e+01   5.9869033876e+01    0.6151862    0.2841706  62.43  0.002784292    2.262    0.558
        27  -9.4726    196.9590     18.2136   4.0723720735e+01   3.4098675979e+01    0.3764861    0.2396212 -60.18  0.001230691    1.601    0.376
        28  -9.6217    193.2291     12.9622   3.9755394159e+01   3.5557492325e+01    0.4712349    0.3664101  37.41  0.001818806    1.548    0.354
        29  -8.7601    195.8469      5.3074   3.7483895267e+01   3.5691208836e+01    0.3302409    0.2493262  63.50   0.00153621    1.282    0.220
        30  -9.1573     63.9957     17.7928   6.9336154196e+01   6.4538938643e+01    0.4001014    0.2683106   4.02  0.002259482    1.486    0.327
        31  -8.4272     66.6772     11.8715   6.5538473610e+01   6.4772212437e+01    0.2912586    0.1769707  23.82 0.0007100095    1.576    0.365
        32  -9.1146     60.5492     11.5115   6.7663342906e+01   6.5881764044e+01    0.4277892    0.3095991  73.44  0.001982178    3.021    0.669
        33 -11.1841     64.6628      5.9200   6.3384147128e+01   6.5767759068e+01    0.5789652    0.2805765  42.15  0.001030848    1.820    0.450
        34  -9.1988     74.1842      5.2789   5.9818975857e+01   6.4056231579e+01    0.3376338    0.2539111 -31.47  0.001622668    1.548    0.354
        35  -8.2898     48.0764      9.8982   7.1976199714e+01   6.8076924279e+01    0.3456972    0.1471101  40.79  0.001615958    2.313    0.568
        36  -9.9319     32.2692      6.4428   7.7564212582e+01   7.0705762830e+01    0.3326114    0.2264502   1.64 0.0005468256    1.255    0.203
        37  -9.3162     34.0225      1.7849   7.4175260600e+01   7.1052105620e+01    0.2830777    0.1527623  40.89 0.0003381361    2.088    0.521
        38  -9.8854     51.7245     17.9945   7.4388255590e+01   6.6488268425e+01    0.3446154    0.2426229 -26.10  0.001052102    1.329    0.248
        39  -9.7697     45.4046     17.7706   7.7047010223e+01   6.7438117966e+01    0.4364993    0.2543694  18.93  0.002167048    1.738    0.425
        40 -10.1481     40.3216     15.0026   7.8033272964e+01   6.8516949546e+01    0.4810434    0.2474709 -19.92  0.001985506    1.983    0.496
        41  -9.6554     33.7048     12.7607   8.0101597831e+01   6.9677121683e+01    0.4402133    0.1782654  29.69   0.00215478    2.499    0.600
        42  -9.2366     30.0508     16.4794   8.3742078409e+01   6.9568790629e+01    0.2352905    0.1836194 -22.94 0.0004962964    1.161    0.139
        43  -8.8721    247.4906     17.1898   3.5762571920e+01   2.2754981757e+01    0.3177606    0.1380951 -52.02   0.00156108    2.015    0.504
        44  -9.9421    121.7031     17.3560   5.2299023734e+01   5.2623202860e+01    0.3541947    0.2291949 -34.96  0.001829235    1.691    0.409
        45  -8.1723    122.9636     10.5665   4.9521154059e+01   5.2983360916e+01    0.2674936    0.1260465  48.75  0.001213777    1.834    0.455
        46 -10.9413    113.1174     12.9498   5.2534125335e+01   5.5056251187e+01    0.4342755    0.3023704 -22.17  0.001375892    1.540    0.351
        47 -10.3657    236.7829     12.7625   3.5637399025e+01   2.5539051509e+01    0.4177789    0.4019373 -71.89  0.001663113    1.240    0.193
        48  -9.0823    233.2835      5.8981   3.4393516607e+01   2.7038381676e+01    0.2871441    0.2105414  63.16  0.001808538    1.473    0.321
        49  -9.4284    234.8940      1.5112   3.3317453349e+01   2.7139467370e+01    0.1957044    0.1266014 -82.25  0.000371435    1.393    0.282
        50  -9.0810     85.0028      8.8903   5.8135101992e+01   6.1564467699e+01    0.4733562    0.2783239  10.27  0.002385872    1.942    0.485
        51  -8.8060     80.5450     12.4403   6.1091975857e+01   6.2100998723e+01    0.2296801    0.1837757  33.73 0.0004918305    1.112    0.101
        52  -8.8022    172.5973     12.1255   4.1987363825e+01   4.0691638389e+01    0.5573961    0.2694242 -87.08  0.002182049    2.913    0.657
        53  -8.6130      6.4715     12.5183   9.4670400538e+01   7.2354131987e+01    0.2352834    0.1652536 -55.95  0.001083276    1.829    0.453
        54  -8.7453      1.5003      2.4928   9.2903354550e+01   7.4289770047e+01    0.2383338    0.1105507 -34.52  0.001011983    1.623    0.384
        55  -9.7260      6.6763      7.1510   9.2046963861e+01   7.3197266423e+01    0.3254433    0.2200717 -37.20  0.001692777    1.291    0.225
        56  -8.9501      5.1682      3.3589   9.1072433694e+01   7.3891816293e+01     0.298945    0.1624831  16.63  0.001229665    1.848    0.459
        57  -8.2909    228.5603     11.8042   3.6089548140e+01   2.7451462892e+01    0.1972274    0.1356599 -86.86 0.0007276665    1.348    0.258
        58  -8.8761    149.7603      9.7904   4.4508102743e+01   4.6560531978e+01    0.5164395    0.1821793 -45.09  0.001890903    3.476    0.712
        59  -8.6970    144.8374      5.8141   4.3978318468e+01   4.8122882206e+01    0.2513807    0.1793695  85.85 0.0003225968    1.473    0.321
        60  -8.7996    128.5108      9.9565   4.8212715591e+01   5.1718785454e+01    0.2824875    0.1702116 -34.31  0.001003175    1.821    0.451
        61  -8.1543    130.4777      5.4899   4.6259544441e+01   5.1636208487e+01    0.3137102    0.1526902  34.04  0.001368308    2.356    0.576
        62  -8.8201    130.0826      2.1957   4.5164690872e+01   5.1999327159e+01    0.4821555    0.2039303  73.92  0.001806845    2.617    0.618
        63  -8.9572    250.3228      7.7244   3.3564256261e+01   2.3219362871e+01    0.1977608    0.1347859 -47.08 0.0006056456    1.265    0.210
        64  -9.8579    224.1449      4.0465   3.4680901567e+01   2.9251043130e+01    0.4547474    0.2854433 -35.84  0.002338709    1.572    0.364
        65  -9.9895    209.4451     11.3884   3.7692385618e+01   3.1862082966e+01    0.3295073    0.2168852 -61.70 0.0009609119    1.450    0.310
        66  -8.2488    108.4474      6.3642   5.1006889865e+01   5.6721961558e+01    0.2749635    0.1792422 -61.53  0.001051322    2.343    0.573
        67 -10.1325    243.5918      4.1132   3.3269314614e+01   2.5010680361e+01    0.4694965    0.2033058 -58.96   0.00231666    2.166    0.538
        68  -8.7592    248.2203      1.9046   3.2501149781e+01   2.4272228329e+01    0.1924962    0.1467292  84.73  0.000439666    1.252    0.201
        69  -9.1600    168.8134      5.0271   4.0403228369e+01   4.2291249648e+01    0.2149963    0.2053786 -58.70 0.0004293584    1.134    0.118
        70  -9.4255    113.4504      4.1866   4.9066748251e+01   5.5759040386e+01    0.3825637    0.2792615  26.94  0.001354499    1.350    0.259
        71  -8.1674     40.8099      6.2309   7.3337727234e+01   6.9585783095e+01    0.1666515     0.138117  -3.78 0.0008067427    1.173    0.148
        72  -8.7844    218.0352      3.2132   3.4977536672e+01   3.0713906156e+01    0.2115494    0.1598858 -51.51 0.0004845884    1.224    0.183
        73  -8.8777    122.0229      3.5271   4.7106918766e+01   5.3810987440e+01    0.3363632    0.1675969  46.70  0.001522063    1.753    0.430
        74  -8.9093    203.6217      3.1033   3.6190023010e+01   3.4059663439e+01    0.3652767    0.1630642  77.11  0.001264481    2.091    0.522
        75  -8.5237     78.0480      2.3241   5.7217981869e+01   6.3567972086e+01     0.208373    0.1677258 -19.15   0.00060967    1.346    0.257
        76  -9.2578    150.6179      2.2113   4.1956629012e+01   4.7008199682e+01    0.3669527    0.1900767  48.95   0.00177444    1.797    0.443
        77  -7.6016     82.0128      2.2524   5.6009179494e+01   6.2776911263e+01    0.1735311    0.1407069  29.97 0.0004949024    1.020    0.019
        78  -7.8710    158.0079      1.4181   4.0703383017e+01   4.5259181935e+01     0.199152    0.1142392  70.74  0.000399648    1.543    0.352
        79  -8.7035    232.8742     74.3511   5.0397555940e+01   1.8172683022e+01     0.252123     0.168079 -47.88 0.0009598272    1.371    0.270
        80  -7.7776    249.5365    249.9626   8.4122444163e+01  -1.1393354341e+01    0.1569869   0.07750901  -8.43 0.0008083721    2.448    0.592
        81  -8.3661    110.5936    249.7231   1.0997299119e+02   8.6972809019e+00    0.2451749    0.1613549  76.15  0.001437404    1.899    0.473
        82  -8.2991    219.5872     74.2764   5.2241774860e+01   2.1116590629e+01     0.346743    0.2414161 -82.89  0.001663918    1.836    0.455
        83  -8.8055    249.0505     73.4463   4.8126648076e+01   1.4919581366e+01    0.2916849    0.1718382 -15.63   0.00128623    2.505    0.601
        84  -8.0457    189.0791     73.4839   5.6966148733e+01   2.8380573639e+01    0.2141832     0.146926  57.55 0.0004699144    1.493    0.330
        85  -8.5217    147.7217     72.5858   6.5194535811e+01   3.8542467339e+01    0.2820646    0.2504562 -21.55  0.001458326    1.147    0.128
        86  -7.8221     49.8981     80.0000   9.7941108695e+01   5.5199468822e+01    0.1983516   0.07829856  27.65 0.0007917019    2.869    0.651
        87  -7.9526     57.2234     66.5478   9.1254965597e+01   5.7239078505e+01    0.2204066    0.1603347  -1.51  0.000913659    1.536    0.349
        88  -8.8663     59.4832     71.5306   9.1950884754e+01   5.5887336022e+01     0.442683    0.2327088 -49.42  0.001830486    1.706    0.414
        89  -8.2625     55.9621     71.0290   9.3121024184e+01   5.6450450746e+01    0.2114218    0.1839998 -30.45 0.0005342806    1.018    0.018
        90  -9.4225    243.4778     71.3874   4.8332529963e+01   1.6376395407e+01    0.2940446    0.2228132  29.03 0.0005602844    1.798    0.444
        91  -8.8097    152.4730     71.8688   6.3876622493e+01   3.7532952340e+01    0.2530106    0.2076765  53.91 0.0002648995    1.227    0.185
        92 -11.2731    129.1750     70.8635   6.9269504189e+01   4.3173847813e+01    0.6829916    0.3044123  42.05  0.000459861    2.335    0.572
        93  -8.8505     67.9060     72.0620   8.9012510758e+01   5.4603178912e+01    0.2193997    0.1938785  15.22  0.001275323    1.187    0.157
        94  -9.6837     28.8680     71.5509   1.0373717484e+02   5.9157222100e+01     0.227543    0.1746821 -51.59 0.0002843975    1.087    0.080
        95  -8.0585    160.6848     71.0513   6.1817824292e+01   3.5690416043e+01    0.2455665    0.1740572 -50.67 0.0005842583    1.507    0.336
        96  -7.8919     80.2119     71.6530   8.4512639570e+01   5.2770996821e+01    0.1988541    0.1319122  24.77 0.0009457211    1.661    0.398
        97  -8.1481     37.5639     71.1197   1.0022698797e+02   5.8477773629e+01    0.2383664    0.1635014   4.92 0.0003627541    1.691    0.409
        98  -8.6259    210.3083     69.5054   5.2407265045e+01   2.3994822699e+01    0.3671201    0.2311333  89.23  0.001586312    2.228    0.551
        99  -9.4415    192.6003     69.4401   5.5238560261e+01   2.8197127599e+01    0.2627957    0.2493096  31.17 0.0007426183    1.144    0.126
       100 -10.8193    100.9541     63.1110   7.4775353770e+01   5.0641308872e+01    0.7184209    0.5760341  54.36  0.003725759    1.438    0.304
       101  -8.2269    204.1138     68.7016   5.3152993328e+01   2.5571611028e+01    0.1967821    0.1778926  59.42 0.0003432412    1.158    0.136
       102  -9.6927    113.5283     70.2625   7.3411006114e+01   4.6720130350e+01    0.4373042    0.3767473 -50.41  0.002061453    1.262    0.207
       103 -10.1457    234.5064     63.9519   4.7696303154e+01   1.9397410780e+01    0.5812119    0.3385683 -47.57  0.002867366    1.559    0.359
       104  -8.1286    222.0385     67.9609   5.0313915280e+01   2.1550715265e+01    0.2045948    0.1865212 -53.75            0    1.006    0.006
       105  -8.2821    173.8391     66.3453   5.7755957083e+01   3.3265702904e+01    0.2819426    0.2044195 -36.44 0.0006868111    1.365    0.267
       106  -8.0247    169.3565     67.8000   5.9057961779e+01   3.4124532339e+01    0.4600475    0.2053704  68.76  0.001451752    3.487    0.713
       107  -8.3704      3.4753     67.7750   1.1285183569e+02   6.1608168947e+01    0.2264514    0.1016061 -71.39  0.001079513    2.030    0.507
       108 -10.5479     48.7636     65.3849   9.4172992892e+01   5.8528083727e+01    0.3919638    0.2810276  12.56 0.0005031427    1.536    0.349
       109  -8.1313     39.0872     66.7800   9.8419078745e+01   5.9276388721e+01      0.33056     0.162981   7.96   0.00141956    2.939    0.660
       110  -9.6080     14.9871     66.2459   1.0795872623e+02   6.1331690607e+01    0.3088312    0.2015479  -8.73 0.0004176831    1.760    0.432
       111  -8.8550     19.2406     62.9803   1.0543757374e+02   6.1769501811e+01    0.3820484    0.1460506 -61.02  0.001719447    2.222    0.550
       112  -8.6554    150.4183     65.7375   6.2441248451e+01   3.9086114647e+01    0.5621027    0.2315584  36.51  0.001685642    3.747    0.733
       113  -8.9196    208.9489     64.2875   5.1257076176e+01   2.5123872753e+01    0.3759957    0.2606813  30.15  0.001287714    1.956    0.489
       114  -9.3123    144.0886     64.1017   6.3377369415e+01   4.0883952062e+01    0.3119398    0.2670779 -53.05 0.0007058218    1.257    0.204
       115  -8.4016     89.9265     65.5099   7.9158167529e+01   5.2300820739e+01     0.217895    0.1413053  38.31   0.00082696    1.587    0.370
       116  -8.3521    201.8230     63.9223   5.2242810912e+01   2.6862624655e+01    0.2088474    0.1951163   4.85  0.000430262    1.219    0.180
       117  -8.5679    126.7660     64.1967   6.7719206451e+01   4.4914887216e+01    0.2454327    0.2067401  63.34 0.0006907163    1.324    0.245
       118  -9.0321      8.0093     63.1579   1.1007634087e+02   6.2405933341e+01    0.2889552    0.2392084 -16.87  0.001436294    1.309    0.236
       119  -7.9223    161.2132     62.7137   5.9180168821e+01   3.6957008440e+01    0.2068933    0.1743633   7.29  0.001040925    1.371    0.270
       120  -9.8142    243.1149     59.4796   4.5619292066e+01   1.8206915699e+01    0.3928758    0.2809531 -31.08  0.001565912    1.378    0.274
       121  -8.7914     82.2515     61.7659   8.0471920954e+01   5.4388380662e+01    0.4449401    0.2335984  18.49   0.00163135    3.122    0.680
       122  -9.0007     40.5602     61.5476   9.6276484400e+01   6.0240944795e+01     0.243148    0.2115327 -70.16 0.0007712232    1.422    0.297
       123  -7.7049      1.2886     62.6524   1.1268995222e+02   6.2832707953e+01    0.1108606   0.08438451  82.54  0.000297353    1.659    0.397
       124  -7.5350    117.2648     61.6732   6.9452047979e+01   4.7478199044e+01    0.1432358    0.1177872 -67.33 0.0001921312    1.568    0.362
       125  -8.0414     60.1785     61.6062   8.8510172705e+01   5.7858716674e+01    0.1912743    0.1246007  13.93 0.0009522032    1.770    0.435
       126  -9.6862     24.6599     58.7745   1.0205821027e+02   6.2275144981e+01      0.42497    0.2734172 -37.15  0.002492803    1.306    0.234
       127  -8.6567     28.8127     53.9873   9.8879218692e+01   6.2933337035e+01    0.2942322    0.1367452 -36.04 0.0009426082    1.958    0.489
       128  -9.1213    188.2053     51.8532   5.1086528287e+01   3.1967934243e+01      0.36328    0.2227171 -56.38 0.0008990101    1.821    0.451
       129 -10.6792    192.8368     56.8595   5.1740929350e+01   3.0099826352e+01     0.386643    0.3167144  28.56 0.0003213474    1.458    0.314
       130 -10.3383    193.2161     49.2452   4.9587152375e+01   3.1116659466e+01    0.6126546    0.3972792 -66.89  0.002841946    1.829    0.453
       131  -8.7501    197.5097     48.5352   4.8758635033e+01   3.0173945869e+01    0.2791499    0.1895286 -85.74 0.0006843955    1.737    0.424
       132  -8.7638    134.6666     58.8442   6.3924873535e+01   4.3996069276e+01    0.4494236    0.2608655 -55.85  0.001774461    2.386    0.581
       133  -8.7938     34.8990     59.4775   9.7975377204e+01   6.1239157465e+01    0.2528884    0.1882692  -1.72  0.000822044    1.431    0.301
       134  -8.3319     36.8041     56.1624   9.6153411152e+01   6.1741167931e+01    0.2069056    0.1383713 -31.60 0.0002269404    1.315    0.239
       135  -8.5018    249.8888     58.3991   4.4618273065e+01   1.6948714116e+01     0.261413    0.1705317 -18.84  0.001335414    1.930    0.482
       136  -8.6471    175.4390     58.2670   5.5096466889e+01   3.4153914971e+01    0.3417241    0.2127691  43.69  0.001183415    1.723    0.420
       137  -8.7501     89.7662     57.5421   7.6414844308e+01   5.3820184054e+01    0.2875785    0.1868957 -32.40 0.0004974407    1.485    0.327
       138  -8.2162      5.4417     58.4768   1.1007938948e+02   6.3551115572e+01    0.2724325    0.1362697 -27.40 0.0009489666    2.051    0.512
       139 -10.4168      9.6750     52.5762   1.0682290535e+02   6.4587186453e+01    0.3674815    0.3202765  29.00   0.00218354    1.487    0.328
       140  -9.3803    235.1405     56.7869   4.5916971607e+01   2.0304442447e+01    0.3776772    0.2180465 -62.65  0.001140559    1.954    0.488
       141  -8.0434    159.5180     58.3990   5.8204557675e+01   3.8063190477e+01    0.2632973    0.2127808  50.09 0.0006561741    1.217    0.178
       142  -8.8192    155.9828     56.4935   5.8340967723e+01   3.9230722268e+01    0.4270083     0.218644  57.39  0.001642315    1.931    0.482
       143  -8.0221    224.3340     56.9894   4.7292072431e+01   2.2672479788e+01    0.1936889     0.161809 -44.58 0.0004640773    1.104    0.094
       144  -9.4100     62.6445     55.1345   8.5318309343e+01   5.8782474596e+01    0.4769493    0.3480608  81.04  0.002113447    3.139    0.681
       145  -8.8029    141.6782     54.8885   6.0951974483e+01   4.2963494591e+01    0.4032954    0.2736571  30.50  0.001836052    1.688    0.408
       146  -9.3992    113.2637     54.3895   6.8043104291e+01   4.9592729339e+01    0.5009714    0.3629919  31.22  0.001223235    1.409    0.290
       147  -9.8485    120.0919     49.5486   6.4455339658e+01   4.8850736836e+01    0.5111258    0.2491109 -35.23 0.0009480445    2.066    0.516
       148  -7.8930    207.4821     55.4973   4.9178056342e+01   2.6787511201e+01    0.2442799     0.118309  50.88  0.001019337    2.201    0.546
       149  -9.3195    205.0308     51.6238   4.8508374938e+01   2.7929456429e+01    0.4106337    0.2997422  16.87  0.001488655    1.989    0.497
       150  -9.3239    125.2933     54.6070   6.4858580703e+01   4.6864463924e+01     0.405941    0.2757861  50.79  0.001324554    1.453    0.312
       151  -8.3245     41.9747     53.4354   9.3086361347e+01   6.1751132056e+01    0.2994684    0.1619089 -32.97  0.001195444    1.728    0.421
       152  -9.4002     41.8114     46.4976   9.0735043417e+01   6.3121257691e+01    0.4952644    0.3745871  87.18  0.002501719    2.823    0.646
       153  -7.2130    173.3571     53.6841   5.4125093735e+01   3.5363015707e+01    0.1561741    0.1103591 -71.03 0.0007044629    1.748    0.428
       154  -8.5686     94.5195     51.5150   7.2657111662e+01   5.3963975920e+01    0.3615485    0.2528683  -8.72  0.001426405    1.639    0.390
       155  -8.3139     92.5513     48.4927   7.2162451700e+01   5.4853813905e+01    0.2335334    0.2020646 -30.47 0.0006684643    1.177    0.151
       156  -7.9587    181.4160     51.8238   5.2185612899e+01   3.3643044180e+01    0.1988291    0.1414608 -14.88   0.00093902    1.704    0.413
       157  -7.9526    221.0205     54.4726   4.7092749552e+01   2.3788073291e+01    0.1918093    0.1336198  69.90  0.000329426    1.497    0.332
       158  -7.5477    100.6511     52.6842   7.1157120046e+01   5.2539541841e+01    0.1532982    0.1071028  10.31 0.0006282686    1.727    0.421
       159  -9.5045    244.3925     50.0519   4.3317030372e+01   1.9263321606e+01     0.418696    0.2504022  45.16  0.002104843    2.195    0.544
       160  -9.2063    246.6776     44.6218   4.1854400557e+01   1.9517823202e+01     0.268115    0.2088456 -29.28 0.0002376529    1.360    0.265
       161  -8.7483    250.0489     40.5122   4.0612854300e+01   1.9356217078e+01    0.2502062    0.2055736 -66.60 0.0009786519    1.079    0.073
       162  -9.3442    247.9982     37.0436   4.0039102399e+01   2.0234076493e+01     0.350405    0.2436508 -53.62  0.001588588    1.233    0.189
       163  -9.4874    212.9136     49.2906   4.6835632522e+01   2.6398065300e+01    0.3817121    0.3299072  48.67   0.00187428    1.296    0.229
       164  -9.3426     81.3882     49.9533   7.6479063633e+01   5.6692837996e+01    0.5579035    0.3248802  45.34  0.002638079    1.867    0.464
       165  -8.0341     72.2595     50.9989   8.0160755150e+01   5.8067729351e+01    0.2716125    0.1936498 -51.57 0.0008902604    1.676    0.403
       166  -8.4125     74.1939     48.3956   7.8464369121e+01   5.8208546741e+01    0.2654792    0.2092454  46.12 0.0009670257    1.504    0.335
       167  -9.0399    232.0619     41.4883   4.2647259037e+01   2.3092938264e+01    0.3335516    0.1986221 -74.08   0.00119912    1.941    0.485
       168  -9.3090    237.4397     48.2484   4.3649255125e+01   2.1001468848e+01     0.341744    0.2115274 -33.73  0.001432459    1.537    0.349
       169  -9.3887    234.1326     45.0956   4.3272480135e+01   2.2153257552e+01    0.2768168    0.2323887 -72.13 0.0007755003    1.107    0.097
       170  -8.4083    237.7317     42.9617   4.2390321557e+01   2.1652514300e+01     0.227519    0.2108747  52.01 0.0004762685    1.299    0.230
       171  -8.6863    226.2140     45.8925   4.4353090231e+01   2.3809389096e+01    0.3246562    0.2045172  27.60  0.001169341    2.733    0.634
       172  -9.6250    222.3620     49.8900   4.5789788808e+01   2.4131337536e+01     0.312851    0.2511067  89.10 0.0009816206    1.264    0.209
       173  -8.8513    220.8922     45.9990   4.5007911743e+01   2.5005165648e+01     0.258909    0.2297013  56.09 0.0004179177    1.255    0.203
       174  -7.9199     67.7951     50.2193   8.1542540820e+01   5.8921781945e+01    0.1941426    0.1461482  -6.42 0.0006613741    1.337    0.252
       175  -7.7958    181.8558     46.8496   5.0685469130e+01   3.4245074048e+01    0.1927595     0.159381 -70.57 0.0003824737    1.263    0.208
       176  -9.8448    174.1107     45.0770   5.1449148561e+01   3.6413312399e+01    0.3388261    0.3170569   3.43  0.001192847    1.183    0.155
       177  -8.4961    164.7211     46.4644   5.3522488148e+01   3.8555790792e+01     0.247102    0.1902059 -38.37 0.0005303032    1.321    0.243
       178  -7.3830    155.4664     47.4699   5.5604560233e+01   4.0708935039e+01    0.1453801    0.1386814  42.42 0.0003293194    1.037    0.035
       179  -8.1516     88.1207     46.4788   7.2853579452e+01   5.6037991149e+01    0.2804207    0.2336038  23.77 0.0009556382    1.144    0.126
       180  -9.5573    137.2402     44.7197   5.8569824490e+01   4.5556581180e+01    0.4628235    0.3648542  35.95  0.002052989    1.267    0.211
       181  -9.4080    140.3141     39.7873   5.6222054365e+01   4.5498856816e+01    0.7704277    0.2987553  54.11  0.002911541    2.338    0.572
       182  -8.3283    111.8290     46.7293   6.5689460220e+01   5.1128486542e+01    0.3084913    0.1256206  52.95  0.001144922    2.530    0.605
       183  -9.2400     29.3887     44.7688   9.5622923753e+01   6.4727574366e+01    0.3224302    0.2412738 -57.90 0.0005749695    1.506    0.336
       184 -10.3954     34.4194     43.6331   9.2956679647e+01   6.4459640808e+01     0.452871    0.2679908 -31.92  0.000903161    1.468    0.319
       185  -8.1066      8.6867     44.1287   1.0494804382e+02   6.6384801822e+01    0.3792499   0.09958324 -42.17  0.001600167    2.799    0.643
       186  -8.8736    162.3283     42.3682   5.2699468724e+01   3.9719056574e+01    0.6480759     0.160088  52.98  0.001269167    3.487    0.713
       187  -9.8529    153.6543     33.5188   5.1499061956e+01   4.3030269028e+01    0.4354436    0.2762245 -18.11 0.0006260051    1.829    0.453
       188  -9.3994    157.8542     28.5920   4.9185446948e+01   4.2582951687e+01    0.5471582    0.2580453  61.33   0.00233328    1.938    0.484
       189  -8.5849    155.8732     43.8936   5.4391348319e+01   4.1113292052e+01    0.2782246    0.1988054  75.35 0.0003917437    1.546    0.353
       190  -8.6196    152.5751     40.7780   5.4037953324e+01   4.2356208110e+01    0.3195243    0.2212837 -51.61  0.001544204    1.619    0.382
       191  -8.8923     95.7186     43.5639   6.9275129440e+01   5.5013492533e+01     0.392187    0.2584492   6.48  0.001402117    1.919    0.479
       192  -9.5774     99.8696     37.7971   6.5773834354e+01   5.5019290677e+01    0.3419893    0.2699866  -9.46 0.0009818405    1.268    0.211
       193  -8.6728      2.6741     43.2928   1.0750997119e+02   6.6864641457e+01    0.4198361    0.1521819 -58.98  0.002066963    2.102    0.524
       194  -8.6186      1.5052     36.9814   1.0627999090e+02   6.8184379893e+01    0.2585012    0.1680349 -57.00  0.000712151    1.326    0.246
       195  -9.7449      5.1077     33.5055   1.0342552974e+02   6.8680173361e+01    0.5696421    0.2169485 -59.17  0.002504731    2.356    0.576
       196  -9.7136     13.1991     29.9882   9.8118265718e+01   6.8837913763e+01    0.4350376    0.1841759  18.22  0.002260469    2.600    0.615
       197  -8.7857     74.9954    248.6109   1.1656059188e+02   1.3808771511e+01    0.2160823    0.1132242  85.69   0.00114107    2.442    0.591
       198  -9.1516    185.3691     41.5719   4.8633431887e+01   3.4099710372e+01    0.4301485     0.249329 -66.47  0.001817303    2.268    0.559
       199  -8.2574    108.0038     43.4745   6.5566889147e+01   5.2455512053e+01    0.3157526     0.142223  57.07 0.0009142433    2.619    0.618
       200  -8.3737    147.6121     41.5895   5.5293000666e+01   4.3470086132e+01    0.2709161    0.2242347  25.42 0.0006768943    1.298    0.230
       201  -8.6729    127.5603     41.6876   5.9782361377e+01   4.8288402222e+01    0.3325983    0.2513342  43.44  0.001718934    1.253    0.202
       202  -8.7125     20.6826     47.1226   1.0034289384e+02   6.4989977080e+01    0.2066455    0.1529859 -16.23 0.0004009871    1.291    0.225
       203  -8.5127     67.1794     41.9604   7.8583122126e+01   6.0459904336e+01    0.3092734    0.1824212  44.31 0.0009076592    1.944    0.486
       204  -8.8225     59.2681     33.7167   7.8315335442e+01   6.3039860503e+01    0.2720008    0.2378064 -24.73  0.001170446    1.220    0.180
       205  -9.3290     62.9607     38.7159   7.8915700222e+01   6.1664471585e+01    0.6363872    0.2839498  29.99  0.002748393    2.472    0.595
       206  -9.6219     68.1315     36.1561   7.5856748035e+01   6.1247700408e+01    0.6592338      0.35504 -17.97  0.002941814    2.266    0.559
       207  -9.9087     51.9595     37.3567   8.2856666165e+01   6.3499549438e+01    0.3736418    0.2799343 -38.86 0.0008340039    1.336    0.251
       208  -8.4671     56.2690     36.4155   8.0670432500e+01   6.3049034605e+01    0.2325595    0.1643308  22.85 0.0006813894    1.396    0.283
       209  -9.9203    224.4146     37.7713   4.2590909314e+01   2.5296739034e+01    0.5314167     0.345141 -28.68  0.002805666    1.620    0.383
       210  -8.1566     78.7295     41.0195   7.3945214487e+01   5.8653057128e+01     0.195467    0.1665733 -11.60 0.0006399807    1.063    0.059
       211  -9.1367     18.7147     39.8727   9.8896523864e+01   6.6569464016e+01    0.4480885    0.1986855  28.57  0.002195257    2.587    0.613
       212  -8.3928     12.4873     36.1020   1.0062639810e+02   6.7736625895e+01    0.1975283    0.1829827 -17.68   0.00104188    1.295    0.228
       213  -8.6457     20.4750     36.4964   9.6879235953e+01   6.7077453062e+01    0.2959633    0.2366026   3.46   0.00203049    1.307    0.235
       214  -9.0468     24.6917     32.7108   9.3425548296e+01   6.7416968700e+01     0.269824    0.1717286 -55.01  0.001560983    1.771    0.435
       215  -9.2089     21.2483     31.2044   9.4534184233e+01   6.7990474921e+01    0.3826905    0.2493131 -31.08  0.001365643    1.217    0.179
       216  -8.0871    106.6497     39.8923   6.4604856293e+01   5.3274535670e+01    0.1901861    0.1680088 -16.55  0.000473318    1.129    0.114
       217  -8.1607     90.3513     40.3728   6.9745636328e+01   5.6571263848e+01    0.2237837    0.1535796  12.20  0.001103815    1.649    0.394
       218  -8.8208    216.7798     38.8586   4.3724272480e+01   2.6908806680e+01    0.4257333    0.2408785 -34.66  0.001799745    1.696    0.411
       219  -9.3875    212.9650     37.4921   4.3832015031e+01   2.7976585316e+01    0.2864403    0.2422218  65.70  0.001016343    1.216    0.178
       220  -9.8472    211.8728     32.8781   4.2795393711e+01   2.8820422740e+01    0.4608867    0.2882533 -56.95  0.001435337    1.582    0.368
       221  -9.0687    119.9999     38.8906   6.0647971308e+01   5.0434550204e+01    0.2461178    0.2022085  45.71  0.000417445    1.152    0.132
       222 -10.4110    124.4482     35.5430   5.8338533296e+01   4.9853649277e+01    0.4327662    0.3852086  82.48  0.001093405    1.304    0.233
       223  -8.8718    110.3348     36.6576   6.2355022377e+01   5.2922559219e+01     0.375465    0.2508656  76.65  0.001674467    2.328    0.570
       224  -8.6165    114.4472     35.4770   6.0815368015e+01   5.2163054594e+01    0.3663246      0.19522  41.77  0.001625379    1.802    0.445
       225  -8.1403     25.4317     37.9405   9.5033868767e+01   6.6388118907e+01    0.1985754    0.1349501 -21.47 0.0004697756    1.303    0.232
       226  -8.3870    241.0924     36.7523   4.0629441579e+01   2.1738413985e+01    0.2002411    0.1480434 -64.84 0.0005677887    1.231    0.188
       227  -8.6710    232.9444     35.8035   4.1221091735e+01   2.3637750037e+01    0.3359235    0.2252209  13.43  0.001582813    2.768    0.639
       228  -8.2118    236.7928     35.6210   4.0792562283e+01   2.2815286936e+01    0.2479488     0.150591  77.81 0.0006960346    1.710    0.415
       229  -8.7607    192.9599     36.5157   4.6133528049e+01   3.2897932378e+01     0.238093    0.2053377  33.80 0.0006315989    1.351    0.260
       230  -9.6226     91.5047     34.4245   6.7005182555e+01   5.7213555965e+01    0.4145844    0.3681353  65.57  0.001774275    1.439    0.305
       231  -8.2330     33.1996     33.8491   8.9807411719e+01   6.6381825431e+01    0.2447956    0.1562429 -51.18  0.001325105    1.724    0.420
       232  -7.7581    157.5390     34.5059   5.1107325127e+01   4.1941193777e+01    0.1409485    0.1331375  58.13 0.0008093117    1.016    0.016
       233  -8.9581     39.3227     32.7869   8.6538289699e+01   6.5884913335e+01    0.3066112    0.2055175  -7.03  0.001610539    1.476    0.322
       234  -9.4308    134.1988     32.1097   5.4903982882e+01   4.7974293104e+01    0.4381391    0.2584076  77.61  0.001849389    2.322    0.569
       235  -8.5541     10.5007    248.3331   1.2777965270e+02   2.1231764144e+01    0.1720628   0.07935005  38.67  0.001090314    1.986    0.496
       236  -9.1713    186.9686     29.2277   4.4940610588e+01   3.5272035572e+01    0.5004178    0.2721025 -45.72  0.001669494    1.846    0.458
       237  -8.8447    234.4857    243.6205   8.5707114756e+01  -8.7046926992e+00    0.3317588    0.1613097  -4.34  0.001449231    3.384    0.704
       238  -9.2178    216.0905    244.4511   8.9142201358e+01  -6.2692346984e+00    0.5640272    0.1211803  34.83  0.001968843    4.223    0.763
       239  -8.4525    194.3701    242.9840   9.2952210578e+01  -2.9080826196e+00    0.2686651    0.1092578  28.85  0.001194514    2.432    0.589
       240  -8.3245     97.2633     30.1335   6.3514594088e+01   5.6614368869e+01    0.3185254    0.1595671 -27.95  0.001262202    2.040    0.510
       241  -9.5970     84.3471     29.4852   6.7286454730e+01   5.9306283797e+01    0.2924512    0.2159526 -16.65 0.0005949879    1.315    0.240
       242  -8.4638     47.4134     30.5679   8.1972150190e+01   6.5237979640e+01    0.2139161    0.1003649 -30.40 0.0002281876    2.035    0.509
       243  -8.9631    224.6484     28.6228   4.0369828465e+01   2.6394773511e+01    0.4096647    0.1809209 -37.00  0.001659874    2.041    0.510
       244  -9.3440    247.2110    239.6729   8.2841284454e+01  -9.9107576690e+00    0.2370266    0.1365359 -16.96  0.001438518    1.640    0.390
       245  -8.3776    178.6645     23.7287   4.4521741495e+01   3.7963296220e+01    0.2570362    0.2095068  -8.27  0.001052664    1.469    0.319
       246  -8.2166    175.3570     27.0627   4.5954972996e+01   3.8401205265e+01    0.3461144    0.1518055 -47.16  0.001392532    2.487    0.598
       247  -9.5779    168.2785     27.5224   4.7156547483e+01   4.0109887607e+01     0.816427     0.316925  44.31  0.002955255    3.033    0.670
       248  -8.3915    168.5090     22.9819   4.5757910283e+01   4.0569649867e+01    0.2404217    0.1633592  56.85 0.0006126714    1.371    0.271
       249  -8.8400    104.9750     26.9331   6.0052608357e+01   5.5364301689e+01    0.3506307    0.2055963  -9.64  0.001030692    2.060    0.515
       250  -9.1481     67.9623     27.2339   7.2107918604e+01   6.2605164189e+01    0.4317394    0.2686417   0.62  0.001587466    1.883    0.469
       251  -7.5368    247.8188     28.3949   3.8155973837e+01   2.1357423885e+01    0.1542466    0.1096801  64.50 0.0006284447    1.531    0.347
       252  -9.7707    123.8758     26.4337   5.5162566586e+01   5.1117958861e+01    0.2597768    0.2203382  -9.61 6.323072e-05    1.237    0.192
       253  -8.2115     61.8409     27.4267   7.4560873491e+01   6.3592592279e+01    0.2795698    0.1708289  -6.64  0.001407665    1.870    0.465
       254  -8.5724     51.5146     28.5185   7.9302076481e+01   6.4995520401e+01    0.2135196    0.1184395  35.81 0.0005370005    1.865    0.464
       255  -9.0023     51.7105     24.7966   7.7557172706e+01   6.5529804355e+01    0.3101937    0.2634192 -26.91  0.001822385    1.288    0.223
       256  -8.2732     89.1857     25.9484   6.4249317064e+01   5.8813150527e+01    0.3127693     0.193168  15.64  0.001503737    1.897    0.473
       257  -7.5141     31.1208     27.3498   8.8119851514e+01   6.7721525916e+01    0.2945021    0.1286701  34.09  0.001454649    2.585    0.613
       258  -7.6856     29.9987     24.4756   8.7427655507e+01   6.8317613874e+01     0.280742    0.1313884 -11.43 0.0009998335    3.761    0.734
       259  -7.8850    234.6018     25.7171   3.8732414730e+01   2.4523506086e+01    0.2267899    0.1195037 -27.92  0.001115163    2.036    0.509
       260  -9.8220    136.9544     25.3794   5.1994687366e+01   4.8107212791e+01    0.3658743    0.2911778  75.24 0.0005017963    1.328    0.247
       261  -8.6908    228.0346    239.9427   8.6257816767e+01  -7.3691088356e+00    0.1996115    0.1201371   3.82   0.00113875    1.729    0.422
       262  -7.9294     71.9449    239.5120   1.1636516690e+02   1.5858381626e+01    0.1786118   0.09831452  40.73 0.0008334747    1.577    0.366
       263  -9.5773    171.6743    233.7422   9.5948448878e+01   1.9541402652e+00    0.3559255    0.2833596 -21.58  0.002247151    1.405    0.288
       264  -8.0704    152.9760    233.6530   9.9663126242e+01   4.9338601981e+00    0.2296569    0.1357167 -29.86  0.001150936    2.351    0.575
       265  -8.0114    102.4796    229.4877   1.0936817943e+02   1.3487220923e+01    0.1253411    0.1059339  54.57 6.694327e-05    1.003    0.003
       266  -9.4725    127.7198     18.9636   5.1611778162e+01   5.1031362820e+01    0.4189769    0.2520447  54.64  0.001321462    1.475    0.322
       267  -8.2221     41.8442     25.1574   8.2094882159e+01   6.6823354348e+01    0.1979919    0.1538145  23.89 0.0005899225    1.353    0.261
       268  -8.1713     38.2080     25.0535   8.3735177729e+01   6.7291823369e+01    0.2269801    0.1399547 -24.64  0.001021686    1.417    0.294
       269  -8.9096    238.9694     24.7083   3.8111441598e+01   2.3691561122e+01    0.2702578    0.1797493 -46.92 0.0005913684    1.313    0.238
       270  -7.9644    237.8983     20.4406   3.7249982253e+01   2.4427105661e+01    0.2975498    0.1382147  65.40  0.001471692    2.134    0.531
       271  -8.9962     78.8688     24.1666   6.6850538922e+01   6.1054950113e+01    0.3892772    0.3114365  14.21  0.002339043    1.110    0.099
       272  -8.5897    247.2229    215.9855   7.8737563233e+01  -6.9315628431e+00    0.1594672   0.08793779 -30.10 0.0008830475    1.698    0.411
       273  -8.2330    239.3142    216.3185   8.0187756449e+01  -5.8575502138e+00    0.1295874   0.08041881   1.93 0.0007037854    1.650    0.394
       274  -8.3292    234.1476    209.7001   7.9911719998e+01  -4.1792305227e+00    0.2802322    0.1269882 -17.18   0.00109135    3.393    0.705
       275  -8.5140    152.4120     15.4437   4.5907177084e+01   4.5364452977e+01    0.2761276    0.2210346  70.54 0.0009909262    1.161    0.138
       276  -8.6252    113.3848     22.5467   5.6176675676e+01   5.3995444699e+01    0.4119165     0.197599  32.61   0.00146581    2.474    0.596
       277  -8.7688    246.0244     23.1524   3.7165490678e+01   2.2367945795e+01    0.1826938    0.1511557 -68.22 0.0003479207    1.030    0.029
       278  -9.1821    231.5841     21.2296   3.7980249446e+01   2.5720255514e+01    0.3201294    0.2437434  19.85 0.0005570433    2.017    0.504
       279  -8.3796    161.2418     21.9756   4.6563313141e+01   4.2489905509e+01    0.2952087      0.17795  58.06  0.001446583    1.503    0.335
       280  -8.0826    157.0470     22.5423   4.7413051107e+01   4.3471604285e+01    0.2579312    0.1833496  85.28  0.000778064    1.527    0.345
       281  -8.0113     96.1156     23.3937   6.1105665021e+01   5.7696384617e+01    0.1863682    0.1264683  65.06 0.0009344731    1.837    0.456
       282  -9.0009     28.9754    199.5181   1.2159552069e+02   2.9010860704e+01    0.2686516    0.2158719  34.62  0.001365569    1.484    0.326
       283  -7.3357     39.6231    135.7620   1.1235086576e+02   4.2837603717e+01    0.1270047   0.09361767 -34.35 0.0006921371    1.623    0.384
       284  -8.8645    103.5292     21.2326   5.8170903154e+01   5.6349964373e+01    0.2957205     0.232239 -34.65  0.001085522    1.419    0.296
       285  -8.7874     58.0420     21.4374   7.3377223970e+01   6.5043451042e+01    0.2101025     0.159409 -21.84  0.001292351    1.228    0.186
       286  -9.6727     65.6994    131.7515   1.0424482573e+02   4.0838056843e+01    0.4021918    0.2860083  20.25  0.001176917    1.715    0.417
       287  -8.3975     13.2949    132.9831   1.1923723905e+02   4.5745358105e+01    0.1860317    0.1717819  87.27 0.0006261346    1.181    0.153
       288  -8.4338     25.2555    128.0188   1.1532910646e+02   4.6036443731e+01    0.2227543    0.1534408  54.02  0.001097685    1.611    0.379
       289  -7.6706    197.9481    126.5334   6.9152942074e+01   1.6663377126e+01     0.211906    0.1502667  45.36 0.0004200628    1.483    0.326
       290  -9.6635     69.2664    122.7919   1.0145863402e+02   4.2578956096e+01    0.2425327     0.225061 -67.18 0.0002768347    1.034    0.033
       291  -9.1216    244.8268    115.1657   5.8264918156e+01   9.1166716348e+00    0.2976541    0.1677376 -24.73  0.001349119    1.873    0.466
       292  -9.0743     12.0390    115.0113   1.1745881984e+02   5.0147272836e+01    0.2431216    0.1958329 -63.81 0.0004574784    1.081    0.075
       293  -8.7280     70.8727     20.1092   6.7849467851e+01   6.3043096984e+01     0.249021    0.2004652 -31.24  0.001287699    1.389    0.280
       294  -7.7875     73.2088     16.9098   6.5563861646e+01   6.3005848326e+01    0.2295063    0.1724057  -6.77 0.0009576333    1.244    0.196
       295  -8.8905     15.4313    112.3082   1.1608209555e+02   5.0574759450e+01    0.2336044    0.1464594 -70.58 0.0007550647    1.280    0.219
       296  -8.2290     22.5759    113.7850   1.1412132455e+02   4.9709164243e+01    0.2424196   0.09871325 -64.89 0.0005797038    1.905    0.475
       297  -8.6905      5.9972    113.0081   1.1899385710e+02   5.0991225414e+01    0.2961566    0.1876768  18.35  0.001775334    2.012    0.503
       298  -8.2395      2.2043     20.3930   1.0034609384e+02   7.1272908425e+01    0.1896537   0.09816559   4.92  0.001126606    2.073    0.518
       299  -7.8207     44.3305    104.7865   1.0565159017e+02   4.9968968140e+01    0.1956868    0.1015707 -53.88 0.0003665517    1.602    0.376
       300  -8.5068     25.8369    103.3219   1.1142611489e+02   5.1988119049e+01    0.2196701    0.1532157 -72.95 0.0005407726    1.275    0.216
       301  -8.9438    119.5746    102.2644   8.1429513503e+01   3.8850184623e+01    0.4300299    0.2833102 -59.76  0.001059951    1.793    0.442
       302  -9.4194    169.1646     18.1630   4.4224920630e+01   4.0927567758e+01    0.2869456    0.2231681  51.56 0.0004684941    1.260    0.207
       303  -8.8377    173.0684     17.2011   4.3400472858e+01   4.0059947008e+01    0.2584139    0.1777123  58.69 0.0006005273    1.350    0.259
       304  -7.9707    217.6590    102.7115   5.9643025222e+01   1.6782304075e+01    0.1459088    0.1129093  10.70 0.0007021932    1.644    0.392
       305  -9.5624     10.0838    101.1662   1.1616734558e+02   5.3572363077e+01    0.4026139    0.1389892  34.35  0.001798324    3.294    0.696
       306  -7.7903     56.1798    100.1733   1.0073238504e+02   4.9763783194e+01    0.1879658     0.159932  85.20 0.0005175699    1.380    0.275
       307  -8.0036     16.5709     99.0624   1.1374426441e+02   5.3671184182e+01     0.167476    0.1509824 -50.31 6.472409e-05    1.157    0.135
       308  -8.2220    203.8383     97.5262   6.0736279970e+01   2.0757767296e+01    0.2995054    0.1606265 -54.26  0.001155702    2.275    0.560
       309  -8.0192    130.5983     97.6785   7.7085910510e+01   3.7526162998e+01    0.2102247    0.1469058 -51.14 0.0005686461    1.489    0.328
       310  -9.1630     71.9523     95.2593   9.4247108547e+01   4.8842514828e+01    0.3696722    0.3060248  56.30  0.001944687    1.450    0.310
       311  -8.3768     38.7427     94.5818   1.0542272638e+02   5.2970908615e+01    0.3322614     0.144984 -42.94  0.001433564    2.185    0.542
       312  -8.1566    212.6651     94.3700   5.8399302354e+01   1.9331012930e+01    0.2419175    0.1739662 -52.30 0.0008995621    1.416    0.294
       313  -8.7876    209.7853     91.3668   5.8121460719e+01   2.0496131726e+01    0.3002258    0.1481775  53.90  0.001039186    2.153    0.535
       314  -7.8513    165.4241     94.1589   6.7514313511e+01   3.0314992721e+01    0.2951282    0.1098028  48.19 0.0008478528    2.716    0.632
       315  -8.9435    248.8768     91.6398   5.2306961084e+01   1.2144398567e+01    0.4636546    0.1143327 -47.20  0.001271036    5.124    0.805
       316  -7.6089    174.5815     93.1961   6.5263767653e+01   2.8342425109e+01    0.2152343    0.1477901 -25.64 0.0009367224    1.590    0.371
       317  -8.6079     33.9525     16.5103   8.1818744603e+01   6.9109451418e+01    0.2127638    0.1744667 -10.21 0.0006691855    1.129    0.114
       318  -7.8965    145.7331     92.9617   7.1802551597e+01   3.5128448184e+01     0.206609    0.1984618 -24.03 0.0003762107    1.017    0.017
       319  -9.4957     19.6895     90.7263   1.1125720996e+02   5.5435727686e+01    0.3496877    0.2791873 -78.80  0.002001067    1.243    0.196
       320  -9.1279    242.3952     87.3166   5.2181420049e+01   1.4132827675e+01    0.3892233    0.1721824 -32.62  0.001027919    2.111    0.526
       321  -8.1542     99.8416     90.9124   8.4018979905e+01   4.5211701883e+01    0.2328722    0.1950506 -19.93  0.000441202    1.235    0.190
       322  -9.1711    109.8009     15.6116   5.4348937943e+01   5.5550347976e+01    0.2596534    0.2110518  48.05 0.0006275174    1.116    0.104
       323  -8.8796     56.2230     89.7380   9.8204523335e+01   5.2222284375e+01    0.3562778    0.2404586  65.84  0.001278418    2.296    0.565
       324  -8.4011    137.1204     87.9763   7.2514928427e+01   3.8087259475e+01    0.3766718    0.1971615 -36.75  0.001107086    1.925    0.480
       325  -9.1280    189.2940     88.0094   6.0902418658e+01   2.5820912258e+01    0.2687896    0.2241569  58.83 0.0002074408    1.257    0.204
       326  -9.1670      5.5671     87.6720   1.1561220278e+02   5.6985122323e+01    0.2551563    0.2127118 -25.90  0.001003527    1.348    0.258
       327  -8.3454     79.0764     15.4910   6.2939089048e+01   6.2057111454e+01    0.2120231    0.1570791   3.30 0.0003904156    1.286    0.223
       328  -8.5097      1.4741     85.9686   1.1675301822e+02   5.7573997803e+01    0.3082266    0.1025774 -73.67  0.001300383    2.628    0.620
       329  -7.5756     40.5304     87.4966   1.0322060732e+02   5.4467640241e+01    0.1398871    0.1092086 -42.15 0.0001240969    1.131    0.116
       330  -7.5573    102.9628     86.2073   8.1653181289e+01   4.5640682187e+01    0.1939685    0.1215914  40.97 0.0005207243    1.661    0.398
       331  -7.9903    230.3471     84.6821   5.3242137939e+01   1.7080022197e+01    0.2641028    0.1761583  54.97   0.00133037    1.648    0.393
       332  -7.5257    159.7023     85.7179   6.6380564861e+01   3.3278328887e+01    0.1537356    0.1216966  12.82 0.0002312885    1.543    0.352
       333  -7.3336     97.3015     85.2969   8.3141027796e+01   4.6901829052e+01    0.1511924    0.1143525  -9.47 0.0002359701    1.578    0.366
       334  -7.7256      1.5033     13.5352   9.7990800695e+01   7.2506912901e+01    0.1146823   0.08107407 -28.73 7.554299e-05    1.016    0.016
       335  -9.1532     87.2662     83.0821   8.5708306681e+01   4.9167763104e+01    0.4179765    0.2959971 -68.12  0.001516064    1.910    0.477
       336  -9.3333    199.7516     76.8924   5.6038941661e+01   2.5270525065e+01    0.3402334    0.3167169 -61.47 0.0007264244    1.051    0.049
       337  -8.2133    195.4987     77.5060   5.6932863553e+01   2.6173580411e+01    0.2115995    0.1339884 -45.16 -2.793652e-05    1.531    0.347
       338 -10.6555    188.7754     82.1925   5.9416194297e+01   2.6969586528e+01    0.2808637    0.2684139  49.74 0.0002905609    1.088    0.081
       339 -10.0919    195.5982     82.0424   5.8136533067e+01   2.5379399124e+01    0.4047467    0.2823327  63.05  0.000557359    1.549    0.354
       340  -9.4992     64.8691     83.7145   9.3557200953e+01   5.2484860249e+01    0.3637249    0.2951234  50.42 0.0006340429    1.501    0.334
       341  -8.7559     69.3140     82.6670   9.1697066058e+01   5.2095083663e+01    0.4347641    0.1719951 -55.70  0.001589335    2.655    0.623
       342  -9.2320     12.4733     81.8868   1.1217731136e+02   5.7950285522e+01    0.5434703    0.1519529 -40.71  0.002037628    3.602    0.722
       343  -7.6554    154.7888     83.3996   6.6822076426e+01   3.4879781002e+01    0.2115011    0.1437577  39.76  0.000317016    1.548    0.354
       344  -8.0053    146.0717     82.7159   6.8686135549e+01   3.7059875431e+01    0.2085807    0.2004478   6.69 0.0003384428    1.041    0.040
       345  -8.6899     27.4912     88.8079   1.0815232489e+02   5.5312458649e+01    0.2387063    0.1906349  69.17  0.001439156    1.562    0.360
       346  -7.8748    125.5630     81.8536   7.3727390444e+01   4.1879800996e+01     0.367808    0.1724638  33.25  0.001240932    2.835    0.647
       347  -8.1261     37.7188     82.1623   1.0298206919e+02   5.5973448728e+01    0.2091777     0.161309 -78.56  0.001191752    1.490    0.329
       348 -10.1097    152.7828     78.0726   6.5693559126e+01   3.6344822005e+01    0.3520288    0.2509321  51.70 0.0007565232    1.415    0.293
       349  -9.5220     72.5149     76.5164   8.8743273975e+01   5.2968267933e+01    0.3736557    0.2126092  54.31  0.001528818    2.735    0.634
       350  -9.1268    106.8898     75.8138   7.7199049331e+01   4.7014070040e+01    0.3937725    0.2614361 -47.48  0.001803106    1.551    0.355
       351  -9.0905     31.3870     77.1175   1.0413429731e+02   5.7694373643e+01    0.3837822    0.1894938   9.86  0.001670929    2.703    0.630
       352  -7.7186     86.4964     75.9889   8.3764883675e+01   5.0807767101e+01    0.2266282    0.1350046 -41.50  0.001019426    1.570    0.363
       353  -9.7738     18.8444     74.0744   1.0821614243e+02   5.9336618942e+01    0.5695007    0.3766565  34.85   0.00335776    1.874    0.466
       354  -8.2351     20.6508     68.9593   1.0633829271e+02   6.0358591637e+01     0.178219    0.1274989 -52.91 0.0003710313    1.118    0.105
       355  -8.4752      9.9605     76.1790   1.1201692004e+02   5.9397457193e+01    0.2227031    0.1446259 -33.17  0.001340404    1.507    0.337
