#   1 NUMBER                 Running object number                                     
#   2 MAG_AUTO               Kron-like elliptical aperture magnitude                    [mag]
#   3 X_IMAGE                Object position along x                                    [pixel]
#   4 Y_IMAGE                Object position along y                                    [pixel]
#   5 X_WORLD                Barycenter position along world x axis                     [deg]
#   6 Y_WORLD                Barycenter position along world y axis                     [deg]
#   7 A_WORLD                Profile RMS along major axis (world units)                 [deg]
#   8 B_WORLD                Profile RMS along minor axis (world units)                 [deg]
#   9 THETA_WORLD            Position angle (CCW/world-x)                               [deg]
#  10 FWHM_WORLD             FWHM assuming a gaussian core                              [deg]
#  11 ELONGATION             A_IMAGE/B_IMAGE                                           
#  12 ELLIPTICITY            1 - B_IMAGE/A_IMAGE                                       
         1  -8.8403    111.8680     34.3816   6.0634601595e+01   5.2757369539e+01    0.3259419    0.1894519 -36.31 0.0009081854    1.814    0.449
         2  -7.9871    130.8963     22.5184   5.1870838900e+01   4.9739987131e+01    0.2143909     0.124009  57.87  0.001018073    1.558    0.358
         3  -8.5704    236.0833     11.1778   3.5161131608e+01   2.5704816819e+01    0.1726055    0.1581826  66.75 0.0005352282    1.319    0.242
         4  -8.5349     55.7271     10.1390   6.8345459806e+01   6.6763471558e+01    0.1860349    0.1608089  35.35 0.0007204463    1.354    0.262
         5  -7.8584     47.4525     10.2430   7.1841162488e+01   6.8060103648e+01    0.1579627    0.1047542 -35.41 0.0009370794    1.690    0.408
         6  -7.7609     28.2101      9.9875   8.0814017831e+01   7.0683250381e+01    0.1482759   0.07975068 -33.28  0.000389403    1.649    0.394
         7  -8.1901     90.9880      9.1023   5.6107877426e+01   6.0181778711e+01    0.1856391    0.1547393 -63.27 0.0006084396    1.686    0.407
         8  -8.1085     12.8427      8.8105   8.8549508827e+01   7.2433053329e+01    0.1387124    0.1186574 -19.01 0.0003942231    1.322    0.244
         9  -8.1819      5.8146      8.5715   9.2512675252e+01   7.3041120748e+01    0.1350198   0.09493746  21.83 0.0007027811    1.645    0.392
        10  -8.7870     33.2638      4.9842   7.5664262774e+01   7.0709515176e+01    0.2615434    0.1660622 -45.36  0.001498945    2.369    0.578
        11  -8.3235     79.1175      4.0897   5.7289943039e+01   6.3085541566e+01    0.1769926    0.1474167 -49.42  0.001100793    1.655    0.396
        12  -7.9780     44.5287      3.4974   6.9634875484e+01   6.9285049181e+01    0.1196837    0.0952551   6.00 2.616351e-05    1.051    0.048
        13  -7.9077    101.4851      8.4626   5.3124832054e+01   5.7966501166e+01    0.1294817    0.1150903  39.61 0.0001963795    1.058    0.055
        14  -8.2955     62.1553      1.4758   6.1593970126e+01   6.6553533992e+01    0.1701362    0.1075387  45.77 0.0004794546    1.489    0.328
        15  -7.5747     39.4452      1.4906   7.0839892589e+01   7.0262691186e+01    0.1182963   0.09227213   4.10 6.028754e-05    1.039    0.037
        16  -9.0901      9.7589    244.1951   1.2735911398e+02   2.2068327380e+01    0.2721907   0.08821829  83.39  0.001255586    3.427    0.708
        17  -9.2163    211.3975    247.1622   8.9887462663e+01  -6.2123862755e+00    0.3277965     0.259149 -80.34  0.001823126    3.172    0.685
        18  -8.3202    183.9662    250.4791   9.5488029170e+01  -2.6452588900e+00    0.1892471   0.09813188  35.93 0.0006531428    1.573    0.364
        19  -8.8681     93.9377    249.5733   1.1264855041e+02   1.0961528419e+01    0.2829648    0.1559433  73.14  0.001467101    2.377    0.579
        20  -8.0151     26.0053    250.2744   1.2493343769e+02   1.9300499409e+01    0.1331999   0.07637924  44.06 0.0007634058    1.507    0.336
        21  -9.8032    248.5775    242.4614   8.2542081990e+01  -1.0678282716e+01    0.3442138    0.1828779 -31.57  0.001663066    1.904    0.475
        22  -9.1728    247.7300    234.6835   8.1391575307e+01  -9.6386308862e+00    0.2616485    0.1711566 -21.72  0.001175127    1.410    0.291
        23  -9.3790    246.4353    229.0570   8.0655923510e+01  -8.7693287884e+00      0.42845    0.1814879 -32.28  0.001880935    2.289    0.563
        24  -8.6857    201.9488    243.5061   9.1071592896e+01  -4.3573292630e+00    0.1957906    0.1678974 -49.58 0.0008334001    1.679    0.404
        25  -8.5722    169.0567    243.3169   9.7323475746e+01   6.6268419579e-01    0.1969136     0.183945 -59.04  0.000650241    1.396    0.284
        26  -8.4132    139.4751    244.0324   1.0321061880e+02   5.1416460080e+00    0.1636592    0.1247697 -55.64 0.0006602809    1.596    0.374
        27  -9.2769     77.6318    243.1811   1.1515384944e+02   1.4348580373e+01    0.3086331    0.1503696  64.47  0.001423272    2.275    0.560
        28  -7.6164     50.3406    244.6599   1.2033608316e+02   1.7558313489e+01    0.1255605   0.06329207  63.45 0.0007049683    1.770    0.435
        29  -7.6481     34.4635    244.4709   1.2315422882e+02   1.9433256108e+01    0.1128967   0.08072471  66.46 0.0001282348    1.041    0.039
        30  -8.8340    213.4703    242.6951   8.8810066727e+01  -5.9272823111e+00    0.2176666    0.1552388  17.95 0.0005486496    1.148    0.129
        31  -9.1686    194.6210    241.2566   9.2105394476e+01  -2.9531841322e+00    0.3455046     0.214012 -51.22  0.001200167    2.328    0.570
        32  -9.1376    183.0849    240.2469   9.4158876490e+01  -1.0485299357e+00    0.3619014    0.2508225  64.71  0.001564253    2.513    0.602
        33  -9.5104    160.1505    240.5455   9.8675251856e+01   2.4789257837e+00    0.3108525    0.2275283 -76.94  0.001297468    2.220    0.550
        34  -8.4038    153.3994    242.2143   1.0023327427e+02   3.2712945687e+00    0.1551825    0.1209659 -69.75 0.0009514155    1.762    0.433
        35  -8.1389     88.0144    242.2794   1.1308377900e+02   1.3088512579e+01     0.166642    0.1302985  59.60 0.0004790122    1.061    0.057
        36  -8.7884    240.5710    240.2600   8.3561339298e+01  -9.3722867298e+00    0.2387541   0.09778455 -30.50  0.001019018    2.464    0.594
        37  -8.4980    145.9887    239.9250   1.0139127375e+02   4.8013538319e+00    0.1920237    0.1372477  61.60  0.000568345    1.655    0.396
        38  -9.3408    135.9424    239.1285   1.0328666111e+02   6.5057706536e+00    0.2419737    0.1488828  53.29  0.001323313    1.629    0.386
        39  -7.9454     41.0000    239.0276   1.2164696271e+02   1.9708690168e+01    0.1701786   0.05697884 -73.90 0.0008046533    2.958    0.662
        40  -8.8566    230.9475    237.1304   8.4742747568e+01  -7.6771761676e+00    0.2132381     0.188575 -60.82  0.001138197    2.082    0.520
        41  -8.4269    128.8400    238.5872   1.0463604730e+02   7.7020232409e+00    0.1867948   0.09596334  47.29 0.0007131633    1.718    0.418
        42  -9.7682    175.6706    233.4483   9.4578677529e+01   1.1399466587e+00    0.4619427      0.26225 -58.66  0.002226244    2.846    0.649
        43  -8.9860    216.6879    235.3683   8.7040160399e+01  -5.4182451912e+00    0.2020068    0.1848707 -40.66 0.0009364524    1.575    0.365
        44  -9.2421    213.7164    231.8511   8.7011923988e+01  -4.5006022202e+00    0.2824471    0.2527887  81.57  0.001082093    1.989    0.497
        45  -8.9590    203.2618    234.9070   8.9472069880e+01  -3.3615774771e+00     0.247371    0.2058341 -70.44  0.001123983    2.128    0.530
        46  -8.2010    170.3326    236.0942   9.6028377932e+01   1.5730943561e+00    0.1537898    0.1186145 -58.91 0.0006025754    1.754    0.430
        47  -7.9682     25.2415    236.2709   1.2430426111e+02   2.1971373528e+01    0.1668925   0.07081225  85.98 0.0006346971    2.372    0.578
        48  -8.5480    152.5969    234.8586   9.9380340889e+01   4.5917791160e+00    0.3440652     0.201554 -68.12  0.001141209    2.926    0.658
        49  -9.1805    151.3369    229.0057   9.8802791615e+01   5.7783261850e+00    0.3295826    0.2130432  89.13   0.00132136    3.430    0.708
        50  -9.5211    148.7004    224.6930   9.8717044750e+01   6.9546992976e+00    0.4383063    0.2972691  80.31  0.001618673    2.587    0.613
        51  -9.3791    108.5786    234.4299   1.0820396198e+02   1.1537784734e+01    0.3091839     0.197996  64.97  0.001179107    1.705    0.414
        52  -8.9080     99.6810    234.5315   1.1000068360e+02   1.2840265931e+01    0.2463378    0.1570287  70.83  0.001231546    1.776    0.437
        53  -9.3051     78.5236    234.4686   1.1418775180e+02   1.5850952866e+01    0.2542353    0.1690969  80.10 0.0009167055    1.552    0.355
        54  -7.7177      8.2864    235.3755   1.2720770630e+02   2.3848781854e+01    0.0950917   0.07296916 -62.60 0.0007017385    1.720    0.419
        55  -8.2287    161.4749    234.4951   9.7551927416e+01   3.2348118313e+00    0.1281082    0.1074829  28.63 0.0008099701    1.028    0.028
        56  -9.3586     67.9575    232.0290   1.1603175235e+02   1.7732131066e+01    0.4805664    0.2070159  70.36  0.001968066    3.498    0.714
        57  -8.5038    194.6247    233.0368   9.0819993993e+01  -1.7718259532e+00    0.1666737    0.1579371 -55.31  0.000765352    1.480    0.324
        58  -9.0689    141.5601    231.1068   1.0109091997e+02   6.9921198901e+00    0.5579451    0.2340252  55.42  0.002001254    3.877    0.742
        59  -9.3523    186.4682    230.6182   9.2017787905e+01  -1.3454145769e-01    0.3113588    0.2474192 -79.56  0.001510834    2.244    0.554
        60  -8.5447    122.9639    234.2683   1.0528155530e+02   9.3696907296e+00     0.222607     0.160189  72.06 0.0008204792    1.651    0.394
        61  -8.1812    132.4750    232.5096   1.0312832800e+02   8.1924705194e+00    0.1290283    0.1076796  48.22 0.0007908482    1.069    0.065
        62  -8.4127     92.2218    231.8336   1.1120696637e+02   1.4430052337e+01    0.2549277    0.1537718  68.75  0.001253328    1.839    0.456
        63  -8.8561    235.9926    230.8468   8.2791536527e+01  -7.5712060264e+00    0.1964631    0.1475814 -18.40 0.0005714938    1.267    0.211
        64  -8.6715      1.6779    230.8475   1.2813254370e+02   2.5325306824e+01    0.2010015   0.09986066  75.87 0.0007350852    1.605    0.377
        65  -7.9812    229.6531    228.8379   8.3583628260e+01  -6.4148020658e+00     0.151225    0.1059022 -36.43 0.0005621096    1.648    0.393
        66  -8.7292    162.2851    228.0713   9.6440703453e+01   4.1578463974e+00    0.2923774    0.1872979  52.33  0.001199241    1.724    0.420
        67  -9.1153    127.8523    227.2002   1.0337718516e+02   9.8768426354e+00    0.3119673    0.2150516  70.06  0.001162864    1.819    0.450
        68  -8.2593    120.0505    228.0063   1.0509192971e+02   1.0959500562e+01    0.2114858     0.138679  65.23  0.001126254    1.770    0.435
        69  -8.9188      8.2295    227.9673   1.2686739983e+02   2.5270395515e+01    0.1392195   0.07221004 -85.51 0.0004917889    1.632    0.387
        70  -8.3154    223.1435    227.1399   8.4478057657e+01  -5.2429603429e+00    0.1909137    0.1402302   2.08  0.000499356    1.209    0.173
        71  -8.6498    206.0397    226.1224   8.7503269295e+01  -2.5234009645e+00    0.2147831    0.1774763 -45.66 0.0007815372    1.596    0.373
        72  -8.0663    110.7807    227.5901   1.0695043673e+02   1.2472656267e+01    0.1948397   0.09873313  47.38 0.0009573775    1.729    0.422
        73  -8.2500     49.0343    226.7780   1.1926832370e+02   2.1137000636e+01    0.2123162    0.1249117  81.49  0.001194627    1.630    0.386
        74  -8.1684    200.0206    226.3317   8.8690836851e+01  -1.6195875407e+00    0.1745146    0.1442631  22.54 0.0005497238    1.074    0.069
        75  -9.0853     94.2999    224.4153   1.0997855245e+02   1.5555746251e+01    0.4513995     0.192974  57.99  0.001861724    2.874    0.652
        76  -8.7023    180.5738    224.4159   9.2191624723e+01   1.7789772565e+00    0.2337192    0.1873749  45.89 0.0006960779    1.330    0.248
        77  -8.8850    104.7065    223.6686   1.0773550832e+02   1.4147318406e+01    0.3229746    0.2050837  79.13  0.001407404    2.045    0.511
        78  -8.7554    216.3215    223.5687   8.5129793440e+01  -3.7264035907e+00    0.2186567    0.2028154  71.07 0.0006847476    1.736    0.424
        79  -8.5536    172.9889    223.4249   9.3556205390e+01   3.1780907776e+00    0.2162393    0.1845503 -71.65 0.0007396076    1.633    0.388
        80  -8.0439    113.7378    224.1670   1.0591573614e+02   1.2663541122e+01    0.1967265    0.1500171  77.35 0.0007451075    1.464    0.317
        81  -7.2848    233.3052    223.6730   8.2036753804e+01  -6.2453356419e+00    0.1022085    0.1001134  45.96 0.0007035218    1.649    0.394
        82  -9.3606    192.3647    221.2695   8.9337063120e+01   3.6830605547e-01    0.2901563    0.2469568 -67.70  0.001061132    1.773    0.436
        83  -8.4825    140.3183    222.5294   1.0014315424e+02   8.7137116205e+00    0.2075435    0.1569919 -89.77 0.0008732425    1.828    0.453
        84  -7.8474     59.4866    223.5187   1.1695444487e+02   2.0500956754e+01    0.1245861   0.09500861  66.89 0.0004201535    1.078    0.072
        85  -8.9211    238.9406    221.5338   8.0657899962e+01  -6.7606778295e+00    0.1981355    0.1593944 -33.57 0.0005678773    1.512    0.339
        86  -9.0156    225.5789    221.9059   8.3129175865e+01  -4.8776165673e+00    0.2368136    0.1864843  45.81  0.001063654    1.674    0.402
        87  -9.2013    159.8942    221.0395   9.5855630941e+01   5.7442297500e+00    0.4846675    0.2388956  55.54  0.001762742    3.019    0.669
        88  -9.2768    120.3342    219.2199   1.0388744676e+02   1.2569113303e+01    0.4428629    0.2366548  64.49  0.001726132    2.823    0.646
        89  -8.6376     82.9984    220.7711   1.1191580863e+02   1.7905034940e+01    0.2916197    0.1483735  65.81   0.00134393    2.388    0.581
        90  -8.1879     72.9934    220.9473   1.1399224151e+02   1.9252158592e+01    0.2108926    0.1226675  67.41 0.0009215605    1.763    0.433
        91  -7.9071     27.5932    221.2494   1.2296665434e+02   2.4661773690e+01    0.1513213   0.09061585 -69.91 0.0009454978    1.650    0.394
        92  -8.4480    210.0395    219.4656   8.5606369475e+01  -2.1631035704e+00     0.186878    0.1542561 -14.71 0.0004405631    1.182    0.154
        93  -8.1160    202.6782    220.1243   8.7131617296e+01  -1.1043126057e+00    0.1773594    0.1591584 -44.71 0.0007376613    1.458    0.314
        94  -8.7825    248.3151    217.7126   7.8341027019e+01  -7.5634750266e+00    0.3364347    0.2147919  57.54  0.001545587    3.945    0.747
        95  -9.2491    132.9903    216.3018   1.0079132165e+02   1.1071357478e+01     0.454074    0.2801328  75.50  0.001973288    2.838    0.648
        96  -8.6013     62.3953    217.5528   1.1583271421e+02   2.1342120931e+01    0.3288239    0.1450775  58.77  0.001499816    2.323    0.570
        97  -9.2328     51.9114    217.3145   1.1793519372e+02   2.2702840700e+01    0.3340749    0.1925803  76.99    0.0018664    1.718    0.418
        98  -8.7231    169.3490    216.3078   9.3152650974e+01   4.9804836267e+00    0.2508088    0.2070443  70.39 0.0008808269    1.632    0.387
        99  -8.7163    143.0220    216.6744   9.8715792711e+01   9.3376978206e+00    0.2733702    0.1968973  80.11  0.001110855    2.043    0.510
       100  -7.9585    111.9737    217.4665   1.0543150215e+02   1.4233635148e+01    0.1883932   0.09171751  56.03 0.0005818144    2.343    0.573
       101  -8.6808    232.1418    214.6930   8.0656857218e+01  -4.8380539142e+00    0.2101759    0.1659891 -38.01  0.000708894    1.544    0.352
       102 -10.0139    235.1335    209.1253   7.9105935142e+01  -4.4928791263e+00    0.3979739    0.2634608  -2.46  0.001375787    1.504    0.335
       103  -8.4873    185.6608    214.2660   8.9486145026e+01   2.5918734300e+00    0.2090647    0.1951385  49.46 0.0007297882    1.298    0.230
       104  -8.3474    154.1019    215.0478   9.6126780020e+01   7.7743310199e+00    0.2048016     0.157582  69.75 0.0007532579    1.704    0.413
       105  -7.8161     41.3619    215.6711   1.1990792733e+02   2.4286443421e+01    0.1329622   0.06859639  64.34  0.000704027    1.798    0.444
       106  -9.5456    213.9129    212.2684   8.3600234439e+01  -1.6916382536e+00    0.3258784      0.26583  53.55  0.001430004    1.704    0.413
       107  -8.8114     93.1647    214.0820   1.0902396442e+02   1.7788154803e+01    0.3237244    0.1687831  56.22  0.001527701    1.955    0.489
       108  -9.5242     73.2482    212.0094   1.1302860291e+02   2.1054747359e+01    0.6457095    0.2502855  60.00   0.00240664    3.555    0.719
       109  -8.6756    161.5441    212.3677   9.4132604038e+01   6.9934428171e+00    0.2130619    0.1863867  75.90  0.000659872    1.442    0.306
       110  -8.3340    106.4870    212.9930   1.0602673959e+02   1.5982235198e+01    0.1805334    0.1287134 -67.02 0.0007120404    1.525    0.344
       111  -7.8660    224.6617    212.2646   8.1585958481e+01  -3.3634651983e+00      0.16934    0.1056387 -23.89 0.0007514867    1.568    0.362
       112  -9.5181    203.6851    210.8662   8.5317151704e+01   1.6690365150e-01    0.2979207    0.2560943  29.99   0.00111959    1.191    0.160
       113  -8.4022    192.1526    210.6033   8.7547654495e+01   2.1117458504e+00    0.2148257    0.1784194 -46.88 0.0009202011    1.461    0.316
       114  -9.2794    175.4555    209.9526   9.0830033967e+01   5.0437058068e+00     0.364404     0.278463  74.30  0.001339934    2.078    0.519
       115  -8.9125    147.8945    210.5444   9.6734189122e+01   9.6561209973e+00    0.3053643    0.2106206  67.79  0.001219662    2.012    0.503
       116  -8.9146    116.3687    210.6080   1.0356470614e+02   1.4895456642e+01    0.3271362    0.1943921  61.72  0.001174715    1.998    0.500
       117  -8.2465     32.9029    210.8130   1.2121998179e+02   2.6237730784e+01    0.2899256    0.1229936  66.07  0.001378002    2.453    0.592
       118  -9.2633      5.8252    208.0126   1.2628502182e+02   2.9483399006e+01     0.239727    0.1007309  71.23  0.001258789    2.174    0.540
       119  -8.4724     85.5216    209.6786   1.1014663963e+02   1.9819036267e+01      0.32137    0.1778165  68.66  0.001500746    2.212    0.548
       120  -8.1833     46.6300    209.5063   1.1834324200e+02   2.4964900712e+01    0.2490652    0.1166327  74.28  0.001148414    2.501    0.600
       121  -9.4228    246.3678    207.3327   7.6791386483e+01  -5.8860145477e+00    0.2449544     0.187555 -27.76 0.0006261239    1.323    0.244
       122  -8.3242    139.0031    207.8193   9.8224608864e+01   1.1689322736e+01    0.2213309    0.1751079 -80.88  0.000617684    1.595    0.373
       123  -8.2894    126.4975    208.5080   1.0105490995e+02   1.3656877592e+01    0.2605602    0.1688556  71.07 0.0006423293    2.141    0.533
       124  -7.9252    124.0442    205.9647   1.0121757880e+02   1.4572643317e+01    0.1812711    0.1452339  62.80            0    1.277    0.217
       125  -9.3580     99.3701    206.2482   1.0670148171e+02   1.8470549731e+01    0.3791574    0.2361277  82.23  0.001444071    2.136    0.532
       126  -8.6623     56.5953    205.6886   1.1591866153e+02   2.4571511083e+01    0.3168896      0.15752  64.52  0.001500952    2.147    0.534
       127  -9.2728    194.8562    203.4435   8.5723388359e+01   2.8429729220e+00    0.3259054    0.2547043 -45.69  0.001094918    1.496    0.331
       128  -9.3113    192.5902    197.5929   8.5101169879e+01   4.2269649070e+00    0.3777378    0.3014695 -69.85   0.00153196    1.927    0.481
       129  -8.9802    183.8856    204.0405   8.8058135614e+01   4.6210120464e+00    0.3027751    0.2434754  72.00 0.0009240546    1.863    0.463
       130  -8.9117    131.4463    204.1787   9.9314848135e+01   1.3688694712e+01    0.3027903    0.2130818  82.90 0.0009565282    2.023    0.506
       131  -8.1866    109.1831    205.2424   1.0439851920e+02   1.7142181427e+01    0.1875444    0.1442201  70.91 0.0005519672    1.368    0.269
       132  -9.6498    163.9306    203.1488   9.2080210632e+01   8.2574678973e+00    0.4425543    0.2785272  56.84 0.0009230074    2.016    0.504
       133  -9.4529    250.1288    202.0585   7.5160459134e+01  -5.6926480979e+00    0.3398747     0.160685 -32.45  0.001203526    1.935    0.483
       134  -7.6356     34.3316    203.6795   1.2038891688e+02   2.7595741006e+01    0.1306458   0.07104763  65.94    0.0007049    1.695    0.410
       135  -9.2662    243.1855    200.9667   7.6158091607e+01  -4.5228228671e+00    0.3082592    0.1896282 -39.42   0.00106116    1.753    0.430
       136  -8.5279    210.9931    202.0011   8.2281546722e+01   3.7558555834e-01    0.1834378    0.1681298  82.07 0.0004906636    1.671    0.401
       137  -8.9260    140.4901    201.1573   9.6838592272e+01   1.2738385499e+01     0.361452     0.243831  80.45  0.001049007    2.431    0.589
       138  -8.9544     80.1431    201.3238   1.1033821169e+02   2.2371119631e+01    0.3223909    0.1829564  70.78  0.001285579    2.129    0.530
       139  -7.5813     73.0012    202.4651   1.1204481991e+02   2.3120713127e+01    0.1874848    0.0841959  55.97 0.0006692679    2.352    0.575
       140  -8.3952     48.0050    201.9894   1.1739287250e+02   2.6414428982e+01    0.2277153    0.1077032  80.19  0.001010396    2.597    0.615
       141  -8.0534    222.1754    201.2750   8.0021704052e+01  -1.3260972976e+00    0.1611184     0.153532 -28.54 0.0006157446    1.373    0.272
       142  -9.2669    236.9927    198.7776   7.6839506700e+01  -3.2696748364e+00    0.3055302    0.1659084 -39.35  0.001080709    1.904    0.475
       143  -9.4907    149.5629    198.6752   9.4425823607e+01   1.1638291824e+01    0.4018383    0.2845025 -87.13  0.001227664    2.290    0.563
       144  -9.0659    124.0249    199.2887   1.0021248845e+02   1.5937861530e+01    0.3169681    0.2170046 -83.14  0.001048973    1.983    0.496
       145  -9.4227    112.8735    198.6026   1.0262407826e+02   1.7935264237e+01    0.4470438    0.2682358  69.43  0.001683157    2.330    0.571
       146  -9.2130     88.6265    198.4380   1.0808403790e+02   2.1764251412e+01    0.4114316    0.2430507  84.94  0.001512923    2.260    0.558
       147  -8.5898    176.9362    198.8401   8.8564055340e+01   6.7540329743e+00     0.229367     0.183646 -82.83 0.0007198364    1.937    0.484
       148  -8.3956    202.3005    197.7801   8.3189172062e+01   2.5219122623e+00    0.2217345    0.1609315 -39.29 0.0006242694    1.465    0.317
       149  -8.6111    133.2056    196.7208   9.7740236578e+01   1.4895409394e+01    0.3271978    0.1888354 -64.50  0.001317951    2.192    0.544
       150  -9.3031     61.5696    197.0874   1.1397151545e+02   2.5816695856e+01    0.4120144    0.2056304  71.51  0.001676084    2.535    0.606
       151  -9.1454     12.6004    197.3717   1.2434522324e+02   3.1113211346e+01    0.2902056    0.1085523  84.36  0.001283805    2.870    0.652
       152  -7.9990     29.4907    197.5273   1.2090690830e+02   2.9438782222e+01    0.1235648   0.09370386  75.64 0.0003232828    1.067    0.063
       153  -8.3988    172.2709    195.9606   8.9026744817e+01   8.1097452360e+00    0.1997045    0.1838961  47.62 0.0002988612    1.182    0.154
       154  -8.7828    172.4863    192.1070   8.8271371364e+01   8.7889936060e+00    0.2574777    0.2074618 -52.46  0.000964217    1.425    0.298
       155  -8.7588    224.2651    193.9346   7.8232641724e+01  -5.2109276566e-01    0.2523002    0.1660088 -43.60 0.0008611652    1.733    0.423
       156  -8.8568    185.1810    194.9363   8.6124492621e+01   5.9948657952e+00    0.2293895    0.2225976 -79.35 0.0006987645    1.297    0.229
       157  -9.0009    161.1414    194.5088   9.1161803406e+01   1.0381245959e+01    0.2790517    0.2218814  74.50  0.001053565    1.705    0.414
       158  -9.0089     44.1099    193.6275   1.1745698662e+02   2.8706707596e+01    0.4341829    0.1965718  64.18   0.00196559    2.468    0.595
       159  -8.1266    230.9798    194.2943   7.7065813140e+01  -1.6564243908e+00    0.1810681    0.1519348   0.78 0.0005005745    1.022    0.022
       160  -8.8598     77.1488    193.9677   1.1012011346e+02   2.4411064912e+01    0.2540139    0.1881833  62.07 0.0007036878    1.260    0.206
       161  -8.9395    241.2172    192.2090   7.4829453354e+01  -2.9423334578e+00    0.1561022    0.1478693  -5.24   0.00040111    1.342    0.255
       162  -7.9794    204.8433    191.7999   8.1544784723e+01   3.0899183329e+00      0.16667    0.1661222  24.08 0.0004619666    1.302    0.232
       163  -8.3185    198.9781    191.7641   8.2705673864e+01   4.1171808479e+00     0.227092     0.175392 -51.47 0.0005872477    1.600    0.375
       164  -8.7036    179.4670    191.0316   8.6585432994e+01   7.7261069478e+00     0.340346    0.1380721 -46.76 0.0009759244    2.704    0.630
       165  -9.2052    139.4704    190.5895   9.5295972915e+01   1.5053743728e+01    0.3728344    0.2690665 -88.87  0.001077127    2.021    0.505
       166 -10.5380     92.1125    188.7801   1.0598398932e+02   2.3371683046e+01    0.9571799    0.2924253  48.22   0.00321558    3.497    0.714
       167  -8.3772     21.0512    191.2971   1.2219516359e+02   3.1645132043e+01    0.2318462   0.08379336  68.51 0.0009026456    3.554    0.719
       168 -10.0174    245.7442    193.7501   7.4336702375e+01  -3.8591138803e+00    0.4012135    0.2517651 -50.98  0.002021556    2.468    0.595
       169  -8.9999    216.5345    187.9852   7.8528885385e+01   1.7214385016e+00    0.3507648    0.2026587 -36.69  0.001265686    1.696    0.410
       170  -8.8549    148.5220    189.3343   9.3029462998e+01   1.3683155236e+01    0.2405064     0.202956 -87.71 0.0007092936    1.472    0.321
       171  -8.9899    129.3038    188.7273   9.7305901312e+01   1.7241534511e+01    0.3129837    0.2248131  77.37 0.0008972835    1.858    0.462
       172  -9.3881    155.9697    187.3910   9.1008654417e+01   1.2716272720e+01    0.3685266    0.2333081 -59.59 0.0008679565    1.960    0.490
       173  -9.8232    120.8220    186.5383   9.8911270852e+01   1.9185711485e+01    0.5708683     0.312663 -72.92  0.002254965    2.759    0.638
       174  -9.2036     54.7444    187.1242   1.1443060623e+02   2.8911660058e+01    0.4216078    0.2063788  71.73  0.001575185    2.623    0.619
       175  -8.8268     34.2406    187.9003   1.1909156611e+02   3.1074600291e+01    0.3908879    0.1679121  80.32  0.001628428    2.974    0.664
       176  -8.7716    215.9272    195.7355   8.0150601033e+01   5.6279603126e-01    0.2687221    0.1765293 -53.31 0.0007848674    2.197    0.545
       177  -7.9320    237.3689    188.3168   7.4751208992e+01  -1.7528219655e+00    0.1714655    0.1121343 -38.28 0.0005529716    1.557    0.358
       178  -8.1541    230.5105    187.5487   7.5835344416e+01  -5.3314546608e-01    0.2206536    0.1165394 -45.39 0.0009223456    2.225    0.550
       179  -8.9220    191.1638    187.0237   8.3375074864e+01   6.3420093781e+00    0.3075821    0.2260699 -60.20  0.001095849    1.882    0.469
       180  -8.8136    164.9381    186.8521   8.8924228902e+01   1.1173441742e+01    0.2747438    0.2270084 -84.85  0.001126818    1.657    0.397
       181  -9.2434    109.6282    186.0896   1.0146753540e+02   2.1176928450e+01    0.3858736    0.2412118  72.63  0.001080098    2.229    0.551
       182  -9.1284    249.0771    185.5267   7.2163080361e+01  -3.1505149152e+00    0.2497262    0.2112203 -29.22   0.00111292    1.283    0.220
       183  -8.7261    182.7970    185.0992   8.4742988457e+01   8.2173425917e+00     0.304571    0.1938045 -44.80 0.0008084559    1.667    0.400
       184  -8.8752    210.2461    184.4194   7.9034704438e+01   3.4023068133e+00    0.2395213    0.2072914 -33.84 0.0006397648    1.233    0.189
       185  -8.8787    202.5828    184.7027   8.0602368962e+01   4.7056436178e+00    0.2490587    0.2227349 -51.34 0.0007865118    1.376    0.273
       186  -9.1823     66.5577    184.5520   1.1140828736e+02   2.7991577769e+01    0.3650047    0.2123562  68.03  0.001132113    1.918    0.479
       187  -8.2353     11.9984    185.2408   1.2366075654e+02   3.3811343608e+01    0.2266372   0.07918994  68.96 0.0008879535    3.577    0.720
       188  -8.1265    224.1536    183.8181   7.6265200414e+01   1.1150907987e+00    0.1869069    0.1705144 -18.95  0.000389491    1.187    0.157
       189  -8.3937    196.8491    183.5676   8.1531000403e+01   5.9342649750e+00    0.2592132    0.1839639 -55.72 0.0007196477    1.847    0.459
       190  -9.8032    192.0859    179.4464   8.1680825933e+01   7.5502096914e+00    0.4789627    0.3359588 -67.67  0.002144901    2.372    0.578
       191  -9.0532    174.2740    183.4633   8.6243050355e+01   1.0101070410e+01    0.2917982    0.2382772 -64.61  0.000838936    1.553    0.356
       192  -9.3865    147.5338    180.8527   9.1704081752e+01   1.5606761614e+01    0.3697762    0.2857063 -79.25  0.001049336    1.712    0.416
       193  -9.0760     44.3754    182.4518   1.1630428925e+02   3.1204834496e+01    0.3463944     0.189593  72.27  0.001037437    1.962    0.490
       194  -7.8812      1.8304    183.6618   1.2567475585e+02   3.5005431266e+01    0.1551602   0.08388201  46.79 0.0009365369    1.748    0.428
       195  -7.7884    235.3913    182.1508   7.3881452390e+01  -4.7786891671e-01     0.179152    0.1147211 -41.78 0.0009342307    1.663    0.399
       196  -9.0534     26.9952    181.2148   1.2010530649e+02   3.3325511770e+01    0.3621102    0.1523341  67.64   0.00147391    2.803    0.643
       197  -8.8321     24.3061    176.9520   1.2033829846e+02   3.4558256579e+01    0.2891283    0.1500375  77.24  0.001476043    1.938    0.484
       198  -8.0864     90.6471    181.7096   1.0531540018e+02   2.5197603199e+01    0.1333613    0.1098208 -17.22 0.0006129903    1.675    0.403
       199  -7.9903    240.5263    180.4728   7.2636477730e+01  -1.0447919434e+00    0.1324981    0.1113407  -9.01 0.0001274479    1.022    0.021
       200  -8.6667    137.5162    179.3683   9.3750687542e+01   1.7766232533e+01    0.3001862    0.2196209  81.05 0.0008873696    1.916    0.478
       201  -8.1536    169.3968    178.6434   8.6360664024e+01   1.1953095264e+01    0.2561795    0.1400468 -49.92  0.000733976    2.013    0.503
       202  -9.0400     35.8407    176.5916   1.1767644159e+02   3.3488915934e+01    0.5132719     0.204768  80.16  0.001760642    4.269    0.766
       203  -9.5761    248.3899    176.5692   7.0496815030e+01  -1.6916489032e+00    0.4267892    0.2713276 -46.81  0.002181909    1.915    0.478
       204  -8.7590    250.3890    172.8171   6.9401826451e+01  -1.4309736551e+00    0.2354922    0.1537601 -32.89 0.0004873507    1.366    0.268
       205  -8.5957    231.2164    177.0067   7.3593457707e+01   1.0335378231e+00     0.252842    0.1649789 -43.42 0.0006134727    1.659    0.397
       206  -8.5764    217.8050    177.5283   7.6187617226e+01   3.2487727369e+00    0.2589498    0.1749115 -51.76 0.0008302224    1.905    0.475
       207  -8.7082    205.1000    177.7049   7.8691357057e+01   5.4821888814e+00    0.2356168    0.1860335 -44.50 0.0006708227    1.394    0.283
       208  -9.0294    129.1439    177.5191   9.5389494860e+01   1.9687804064e+01    0.3019606      0.21982  89.22  0.001033892    1.873    0.466
       209  -8.1831     97.6198    177.6325   1.0301242733e+02   2.5042696461e+01    0.1988383    0.1661584 -21.61  0.000827509    1.559    0.358
       210  -9.0871     89.0860    176.9866   1.0499168498e+02   2.6525466994e+01    0.2945725    0.2098493  85.21 0.0008293202    1.577    0.366
       211  -9.3204    183.1851    175.8268   8.2812231733e+01   9.8911597897e+00    0.3982018    0.2227809 -41.35 0.0006796398    1.813    0.448
       212  -9.2068     58.9809    175.9809   1.1215504145e+02   3.0962928386e+01    0.4750263    0.2094817  61.11    0.0013329    2.989    0.665
       213  -9.5992     56.1910    171.5884   1.1228859328e+02   3.2346200199e+01    0.4936611    0.2439241  80.41  0.001946711    2.977    0.664
       214  -8.9758     12.9725    176.5849   1.2282495532e+02   3.5664381673e+01    0.3017082    0.1390924  77.04  0.001127218    2.191    0.544
       215  -7.6375    211.5235    176.4822   7.7179961794e+01   4.5399858957e+00    0.1404003    0.1243364  -3.01 3.291299e-05    1.003    0.003
       216  -9.2883    158.8719    175.3026   8.8049833917e+01   1.4623498581e+01    0.3911657    0.2881881  76.32  0.001439871    2.028    0.507
       217  -9.5910    104.3925    174.7561   1.0089428663e+02   2.4602750797e+01    0.5294883    0.3171671  67.61  0.001855281    2.289    0.563
       218 -10.7340     76.1682    171.2815   1.0732879070e+02   2.9770582765e+01     1.226015     0.514786 -74.32  0.004429122    3.140    0.682
       219  -9.5942     74.3627    160.3302   1.0614642725e+02   3.2650662384e+01    0.4994272    0.2789716   6.58  0.001685799    4.471    0.776
       220  -8.6733    224.4047    174.2690   7.4279845734e+01   2.6464174010e+00    0.1837978    0.1218698 -42.76 0.0004649315    1.588    0.370
       221  -9.7599    175.9554    171.7709   8.3537402752e+01   1.2057237525e+01    0.5401757    0.2886005 -32.06  0.002163775    2.160    0.537
       222  -8.2611    142.9854    172.7533   9.1220878520e+01   1.8171957736e+01      0.25705    0.1937889 -69.87 0.0006586144    1.615    0.381
       223  -8.0327    194.4901    172.4713   7.9756317161e+01   8.3887465419e+00    0.1461154    0.1301043   1.11 8.867569e-05    1.053    0.050
       224  -8.9327    134.6759    171.7944   9.3008888575e+01   1.9933383317e+01    0.2795191    0.2164387  83.52 0.0008620141    1.667    0.400
       225  -9.5478    121.4980    170.6066   9.5976154169e+01   2.2600821469e+01    0.4082357    0.2811607 -89.06  0.001082745    2.069    0.517
       226  -9.0574     44.9321    170.9607   1.1494058100e+02   3.3819584580e+01     0.381718    0.2038656  79.65  0.001364764    2.181    0.541
       227  -8.4113    205.8366    170.5560   7.7065376235e+01   6.6201446108e+00    0.2589987    0.1821449 -54.55 0.0009318557    1.815    0.449
       228  -8.5460    198.4834    170.3656   7.8500166512e+01   8.0264649075e+00    0.2679409    0.1989269 -56.92 0.0009417639    1.721    0.419
       229  -8.5327    237.1610    169.7541   7.1042722711e+01   1.2089580567e+00    0.2252856    0.1654894 -38.16 0.0005808603    1.357    0.263
       230  -8.9562    230.1998    170.1581   7.2367671660e+01   2.3280326568e+00    0.2146849    0.1646079  -7.36 0.0009572203    1.259    0.206
       231  -9.1554    167.0756    168.6168   8.4847939182e+01   1.4410202722e+01    0.3464073    0.2592523  77.10 0.0009054209    2.018    0.504
       232  -8.5536    149.7041    169.5265   8.9010457435e+01   1.7585923206e+01    0.2798841    0.2194603 -87.23 0.0007648431    1.732    0.422
       233  -7.5871     68.3580    170.6574   1.0917719170e+02   3.0999411734e+01    0.1501374   0.09321488  69.40 0.0007036096    1.827    0.453
       234  -8.3062    244.5811    169.3645   6.9677379323e+01   4.0497438740e-02    0.1753107    0.1539417 -54.02 0.0005486821    1.531    0.347
       235  -8.4733     88.5074    168.9787   1.0389760102e+02   2.8491290099e+01    0.2102569     0.134594 -65.64 0.0006733287    1.543    0.352
       236  -8.2748    218.8211    168.2335   7.4066347414e+01   4.6582325807e+00    0.1969149    0.1852834 -31.60 0.0005721982    1.211    0.174
       237  -8.7843    111.5279    167.3788   9.7852919149e+01   2.5096078306e+01    0.3214807     0.219131  79.86  0.001054127    2.017    0.504
       238  -8.9551    191.9014    166.4256   7.9020089991e+01   1.0015256102e+01    0.3294249    0.2008517 -46.32 0.0007776271    1.730    0.422
       239  -9.0561    185.0293    166.5628   8.0494283587e+01   1.1318788308e+01    0.2692032    0.2034632 -56.52 0.0007115286    1.586    0.370
       240 -10.2248     94.9991    162.9039   1.0124588396e+02   2.8912736102e+01    0.8807785    0.4767071  76.88  0.002862946    3.990    0.749
       241  -9.1032     20.4160    165.9913   1.2026280840e+02   3.7450385529e+01     0.338466    0.1560246  64.00  0.001323665    2.360    0.576
       242  -8.1814     13.3330    167.6721   1.2204558950e+02   3.7669183928e+01    0.1302849   0.07262629  67.99 0.0005561552    1.717    0.418
       243  -9.9275    136.8363    164.5276   9.1072254370e+01   2.1133727283e+01    0.6438626    0.3125749  56.41  0.002238056    2.931    0.659
       244  -8.2761    233.9601    164.9913   7.0613948129e+01   2.5339818184e+00    0.1958725    0.1619474 -56.86 0.0005689503    1.611    0.379
       245  -8.6845    159.5349    164.3820   8.5678041857e+01   1.6763089864e+01    0.2972627     0.230179 -89.49 0.0009642881    1.871    0.466
       246  -9.5736     33.5159    163.3901   1.1687383710e+02   3.6826985997e+01    0.5577172    0.2243963  59.09  0.002254335    3.095    0.677
       247  -9.6957    248.7732    149.6855   6.4849317186e+01   2.4929050262e+00    0.3622871    0.1889105 -35.32 0.0008853822    1.666    0.400
       248  -8.8151    246.0311    162.9935   6.8111885675e+01   8.1369054131e-01    0.3143042    0.1602963 -34.89 0.0005092879    1.733    0.423
       249  -9.1080    243.8918    159.3910   6.7716642451e+01   1.7512272092e+00     0.426943    0.2340771  19.09  0.001417383    2.699    0.629
       250  -9.8686    250.1388    157.8260   6.6349699003e+01   9.5610646084e-01     0.360716     0.201082 -40.82 0.0007422181    1.698    0.411
       251  -8.6241    246.5738    155.5195   6.6450357500e+01   1.9232739773e+00    0.2290516    0.1473269 -14.89 0.0005120475    1.660    0.398
       252  -8.0830    240.1553    164.1437   6.9352777080e+01   1.6131882640e+00    0.1741022    0.1528218 -42.21 0.0005771226    1.323    0.244
       253  -8.6132    213.0230    163.5914   7.4184644647e+01   6.5322476450e+00    0.2592478    0.1860734 -49.39 0.0006728775    1.593    0.372
       254  -8.4279    204.9457    162.8018   7.5592921282e+01   8.1926045822e+00    0.2419578    0.1770226 -50.17 0.0004667748    1.555    0.357
       255  -9.4106      3.3533    162.4149   1.2391250176e+02   3.9657512187e+01     0.374728     0.160711  56.84   0.00165518    2.345    0.574
       256  -8.7799    151.8164    161.3916   8.6847460999e+01   1.8918987616e+01     0.336908    0.2515548  78.95  0.001145475    1.928    0.481
       257  -9.0321     60.5697    160.6171   1.0974692490e+02   3.4428990372e+01     0.374754    0.2543687 -88.23  0.001357783    1.503    0.335
       258  -9.1247    177.6013    160.6312   8.0823667705e+01   1.3949812521e+01    0.3129101    0.2669924  82.81  0.001000953    1.550    0.355
       259  -8.6067    237.2357    159.3658   6.8849994566e+01   2.8969999057e+00    0.2344163    0.1510494 -48.68 0.0007725318    1.808    0.447
       260  -8.4925    227.4418    159.1790   7.0545342224e+01   4.6619584239e+00    0.2554592    0.1940682 -55.13   0.00100032    1.683    0.406
       261  -8.5330    128.4089    159.3695   9.2107911969e+01   2.3887296303e+01    0.3296424    0.2216961  78.31 0.0008289742    2.327    0.570
       262  -9.6243    105.9568    158.2253   9.7585609370e+01   2.8202076696e+01    0.4943005     0.321059  71.63  0.001362375    2.129    0.530
       263  -8.4571    196.6130    158.0757   7.6242263117e+01   1.0682678505e+01    0.2258952    0.1745493 -50.49 0.0007524947    1.435    0.303
       264  -8.1305    188.0898    157.8317   7.7958841700e+01   1.2414192352e+01    0.2137377    0.2016687 -77.32 0.0005551885    1.271    0.213
       265  -9.3072    167.5712    157.3713   8.2344623463e+01   1.6625794882e+01    0.3370367      0.27723 -87.60  0.001077696    1.641    0.391
       266  -8.5147    217.8850    156.7320   7.1776383488e+01   6.8436131284e+00    0.2627594    0.1773781 -58.72 0.0009014411    2.115    0.527
       267  -8.8270    157.5300    156.3118   8.4421875783e+01   1.8871845953e+01    0.2950858    0.2506945 -41.75 0.0008409932    1.184    0.155
       268  -9.3691    119.5500    155.2463   9.3513061930e+01   2.6484726490e+01    0.4138231    0.2915766 -81.76  0.001548944    1.889    0.471
       269  -9.3800     81.7809    154.7395   1.0329341533e+02   3.2931422521e+01    0.4963815    0.3077684  82.53  0.001681002    2.244    0.554
       270  -9.4931     49.8138    155.5174   1.1182390417e+02   3.6969775985e+01    0.4596702    0.2310375  65.24  0.001730677    2.617    0.618
       271  -8.9682    238.0023    150.1703   6.6743695129e+01   4.2936121914e+00    0.3246962    0.1621248  32.72  0.001148306    2.423    0.587
       272  -8.3450    242.7244    155.0081   6.6984180511e+01   2.6643411012e+00    0.2080053    0.1933395 -70.92 0.0004110537    1.461    0.316
       273  -8.0565    239.7101    153.3073   6.7130049661e+01   3.4687715534e+00    0.2048194    0.1550943 -36.11 0.0003854975    1.230    0.187
       274  -8.9134    144.4846    154.5271   8.7141799405e+01   2.1868265233e+01    0.3326547    0.2575212 -55.35  0.001138931    1.352    0.260
       275 -10.0113    132.8977    152.9635   8.9663735905e+01   2.4491252938e+01    0.5132868       0.3754  81.21  0.001488171    1.929    0.482
       276  -9.4437    133.5901    148.2127   8.8468658599e+01   2.5439558064e+01    0.3440534    0.2765837 -27.41   0.00123357    1.397    0.284
       277  -9.6445     67.7162    153.5127   1.0682681162e+02   3.5226451484e+01    0.4853736    0.2652997  89.14   0.00141124    2.657    0.624
       278  -7.8432    233.2887    154.5748   6.8511893222e+01   4.3945114938e+00    0.1387915     0.104487 -60.43 0.0003877195    1.863    0.463
       279  -8.7090    151.7309    152.5709   8.4972759354e+01   2.0847956492e+01    0.3160155    0.1823498 -58.37  0.001047118    2.106    0.525
       280  -8.7742     19.8912    152.8007   1.1913298650e+02   4.0605618970e+01    0.1724906    0.1233816  74.76 0.0005728111    1.307    0.235
       281  -8.6266      8.7586    153.3865   1.2191923053e+02   4.1351544885e+01    0.2027737    0.1076378  32.72  0.001097882    2.108    0.526
       282  -9.6013     29.3275    150.7077   1.1652123432e+02   4.0269640063e+01    0.4964316    0.2217902  71.02  0.001965807    3.211    0.689
       283  -8.7931      2.7449    150.5932   1.2313423411e+02   4.2433565974e+01    0.2876785    0.1182023 -85.07  0.001371039    2.128    0.530
       284  -8.6850    243.1352    150.0443   6.5852086978e+01   3.4085897680e+00    0.3170811    0.1713084 -35.97  0.001001791    1.631    0.387
       285  -8.7592    189.5850    150.4307   7.5992701101e+01   1.3559832998e+01    0.2927119    0.2391226 -64.48 0.0008737406    1.524    0.344
       286  -8.2057    182.0670    151.0557   7.7733236440e+01   1.4968287508e+01    0.2333505    0.1891353 -84.33  0.000769204    1.744    0.427
       287  -8.0130    162.8972    150.9278   8.1986428685e+01   1.8927781587e+01    0.2414909     0.191421  88.35 0.0009701619    1.762    0.432
       288  -8.5942     98.3210    150.8631   9.8195314003e+01   3.1256153520e+01    0.2834033    0.2121753  86.42  0.001048608    1.599    0.374
       289  -8.2110    212.8601    150.0852   7.1258884345e+01   8.9943165768e+00    0.2080182    0.1879221 -44.39 0.0003454744    1.200    0.167
       290  -9.8786     39.7402    147.9733   1.1347028373e+02   3.9910626657e+01    0.5356092    0.2613524  64.16  0.002025141    2.692    0.629
       291  -9.0771    233.3578    147.8868   6.7043920312e+01   5.5177346170e+00     0.320835    0.1470775 -32.71  0.001310202    2.047    0.512
       292  -8.5266    198.8695    149.0949   7.3779871742e+01   1.1941725401e+01    0.2196229    0.2005554 -66.46 0.0006257919    1.310    0.236
       293 -10.0567    139.6238    145.6870   8.6397403836e+01   2.4815179228e+01    0.6401551    0.4229225  87.11  0.001178137    2.879    0.653
       294 -10.3190     54.7605    144.7602   1.0896679262e+02   3.9025561532e+01    0.8364378    0.4126446  71.66  0.002994845    3.576    0.720
       295 -10.3985    106.7318    144.0811   9.4593690407e+01   3.1442253394e+01    0.8464465    0.5558696 -85.54  0.002054452    2.261    0.558
       296  -8.2306    223.4576    147.0707   6.8617542961e+01   7.5019409911e+00    0.2130549    0.1982057 -77.04 0.0006922521    1.373    0.272
       297 -10.2084    148.9463    145.0299   8.3955391618e+01   2.3069050523e+01    0.5447737     0.386259 -86.80  0.001727296    2.283    0.562
       298  -8.9591     78.0931    147.0582   1.0295506587e+02   3.5355108478e+01    0.2770692    0.2122635  78.72  0.001053491    1.440    0.306
       299  -9.6719     13.5805    146.4146   1.2008273540e+02   4.2633519070e+01     0.340309    0.1889226  65.18  0.001250596    1.899    0.473
       300  -8.9820    240.2066    145.2313   6.5297082214e+01   4.7264071442e+00    0.2660408    0.1767841 -39.84 0.0006328244    1.394    0.283
       301  -9.5462    242.6973    143.3090   6.4464715574e+01   4.6012989104e+00    0.3999395    0.2040709 -22.27   0.00166741    2.341    0.573
       302  -8.0892    206.6843    146.2567   7.1585816135e+01   1.0912548627e+01    0.2198548    0.1727755 -49.04   0.00069624    1.366    0.268
       303  -8.2805    175.6386    146.1848   7.8026294725e+01   1.7281848243e+01    0.2360142    0.1868152 -57.14 0.0006602179    1.422    0.297
       304  -9.0399    165.6173    144.3519   7.9861050268e+01   1.9755808788e+01    0.3273609    0.2612743  74.72  0.000728972    1.634    0.388
       305  -9.8278    125.0231    142.8403   8.9483312683e+01   2.8346513340e+01    0.5276415    0.3463173 -80.53  0.001404456    2.411    0.585
       306  -9.1104    246.9615    143.8880   6.3896048637e+01   3.7512980136e+00     0.234965     0.169736 -31.78  0.000498798    1.197    0.165
       307  -7.9528    194.2039    144.1351   7.3595004294e+01   1.3843174073e+01    0.2003866    0.1769131 -68.77 0.0004370194    1.370    0.270
       308 -10.9276     69.6910    141.2601   1.0425661618e+02   3.7975031921e+01    0.7939016    0.5234133 -81.85  0.003779917    1.684    0.406
       309  -9.3968      2.7199    142.0770   1.2241799052e+02   4.4428383529e+01    0.3209174    0.1642601  68.97  0.001494774    2.058    0.514
       310  -7.5486    230.5138    142.5211   6.6351323887e+01   6.9659842133e+00    0.1417311    0.1253197 -21.98 -1.410136e-05    1.013    0.012
       311  -8.2746    182.0131    141.9287   7.5645700906e+01   1.6814196259e+01    0.2283764    0.1883302 -80.98 0.0005255059    1.621    0.383
       312  -8.3127    250.1914    140.8774   6.2729546859e+01   3.6788144015e+00     0.200658    0.1682113 -41.45 0.0006655186    1.217    0.178
       313  -8.1642    238.6035    140.7478   6.4580331245e+01   5.7705507351e+00    0.1973236     0.116917 -42.67 0.0009433348    1.602    0.376
       314 -10.1386     89.3020    146.4994   9.9795423791e+01   3.3783401963e+01    0.6774931    0.3897105  86.34  0.002393165    3.269    0.694
       315  -9.9027     23.2885    138.0250   1.1663111591e+02   4.3872130204e+01    0.5351765    0.2696887  74.81  0.002214626    2.492    0.599
       316  -7.9680    218.7079    138.5443   6.7556397036e+01   9.9401340268e+00    0.2586859    0.1206988 -37.87 0.0008690011    1.973    0.493
       317  -9.3732    139.4525    137.6341   8.4596762866e+01   2.6668507450e+01     0.412057    0.2634626 -13.19  0.001485298    2.798    0.643
       318  -8.4448    207.2995    137.8055   6.9523248532e+01   1.2364777367e+01    0.2766549    0.2143494 -60.07 0.0009811484    1.574    0.365
       319  -8.6207    197.6371    137.5017   7.1351333347e+01   1.4414466729e+01    0.2817756    0.2100704 -62.55 0.0008080284    1.712    0.416
       320 -10.4881     83.2031    133.3567   9.8931866926e+01   3.7960367659e+01     0.690062    0.3670311 -58.41  0.001351139    1.768    0.434
       321  -9.1859     38.9555    136.1932   1.1207605579e+02   4.2878729714e+01    0.3000815     0.189764  76.93 0.0009225077    1.810    0.448
       322  -9.0605    248.4637    135.4745   6.1826154019e+01   4.8675056765e+00    0.2911593     0.198403 -44.32 0.0008029044    1.424    0.298
       323  -8.6462    246.8712    130.3550   6.0949236125e+01   5.9989650387e+00    0.2595865    0.1640573 -45.10 0.0006233152    1.528    0.345
       324  -7.9105    187.8492    135.7825   7.2952130909e+01   1.6810158780e+01    0.2054791    0.1800574 -69.77 0.0004381432    1.353    0.261
       325  -8.3286    162.4702    136.1344   7.8651708219e+01   2.2165688770e+01    0.2331367    0.1512848 -44.57 0.0005962979    1.524    0.344
       326  -8.9605    151.1102    135.7478   8.1262415146e+01   2.4663231633e+01    0.3093624    0.1977038  38.78  0.001323823    1.608    0.378
       327  -9.6301     56.5549    135.6449   1.0700650032e+02   4.1063581584e+01    0.4523691    0.2518977   1.04  0.001683025    3.810    0.738
       328  -8.6750    179.4870    133.9564   7.4297262213e+01   1.8964728102e+01    0.3310948    0.2030666 -55.57 0.0009049772    1.956    0.489
       329  -8.3836    237.6291    133.8516   6.3208474274e+01   7.1197864012e+00    0.2054213    0.1142945 -44.40 0.0009379993    1.737    0.424
       330  -8.1532    231.4421    133.9636   6.4269119286e+01   8.2724600570e+00    0.2149815    0.1260934 -35.33 0.0004226756    1.529    0.346
       331 -10.2248    132.5431    131.6115   8.4939415567e+01   2.9449129060e+01    0.6466324    0.4520349  89.93   0.00200917    2.318    0.569
       332  -9.0681    112.7717    133.3639   9.0626892940e+01   3.2905084633e+01    0.3397722    0.2475043  76.40  0.000979915    1.863    0.463
       333 -10.0777    142.2365    130.4193   8.2170551569e+01   2.7713319603e+01    0.6092225    0.3477691 -67.26  0.002078404    2.958    0.662
       334 -10.4770     98.0505    130.1879   9.4017801198e+01   3.6310947506e+01    0.7432945    0.2953668 -55.15  0.001731273    2.451    0.592
       335  -8.8489     99.5698    120.2882   9.1303698300e+01   3.8428518776e+01    0.4790865    0.2915464   7.20  0.001673218    3.272    0.694
       336  -9.0129    250.6957    129.9667   6.0274100495e+01   5.3714571021e+00    0.4507348    0.1101165 -35.76  0.001436369    3.620    0.724
       337 -10.0735     73.1696    129.2955   1.0102891517e+02   4.0448823872e+01    0.4585549    0.2987265  87.21  0.001151597    2.119    0.528
       338 -10.2292     12.8652    128.8344   1.1840395398e+02   4.6893758424e+01    0.5895597    0.2812527  85.12  0.002519925    2.412    0.585
       339  -8.1042    204.2332    130.2260   6.8328751703e+01   1.4420947430e+01    0.2018916    0.1772417 -72.56  0.001054917    1.376    0.273
       340  -7.9385    192.7975    130.5482   7.0672965587e+01   1.6783931472e+01    0.1991686    0.1490649  61.53 0.0006165354    1.599    0.375
       341  -9.1046    168.2910    129.4559   7.5686041581e+01   2.2319343765e+01     0.315992    0.2533875 -70.72 0.0008832625    1.546    0.353
       342  -9.5077    152.9919    129.0801   7.9184498219e+01   2.5720033941e+01    0.4544737    0.2429453 -54.69 0.0008131404    2.177    0.541
       343  -7.8024      1.5044    130.4569   1.2165998138e+02   4.7244178075e+01    0.1226472   0.09486025 -86.08 4.661816e-05    1.075    0.069
       344  -8.6902    172.3014    138.4315   7.6954698792e+01   1.9584323223e+01    0.3099885    0.2388219 -87.68 0.0007462053    1.905    0.475
       345  -8.1125    211.4563    129.2519   6.6730447762e+01   1.3098441530e+01    0.2076276    0.1306856 -48.15 0.0007549473    1.642    0.391
       346  -8.4233    161.3473    129.6735   7.7341681436e+01   2.3784885554e+01     0.161099    0.1266549 -87.58  0.000704977    1.751    0.429
       347 -10.7531     44.8204    123.5676   1.0840267253e+02   4.5387212201e+01     1.086249    0.5507115  78.92  0.003846782    3.827    0.739
       348 -10.6031     59.9207    125.0537   1.0413820900e+02   4.3272342419e+01    0.7011272    0.4095761  78.00  0.002413496    2.758    0.637
       349 -10.0774    118.1067    125.2413   8.7257173550e+01   3.3803134514e+01    0.5996466    0.4174303  84.14  0.001546382    2.287    0.563
       350  -8.4118    234.3680    124.1227   6.1540563820e+01   9.4058762028e+00    0.2995979    0.1239355 -29.91  0.001104255    2.595    0.615
       351  -7.6355    228.3662    125.2264   6.2790834111e+01   1.0393858835e+01    0.2078736    0.1195237 -44.13 0.0009390334    1.653    0.395
       352  -8.9472    179.2358    124.6944   7.2078984197e+01   2.0895866397e+01    0.2981915    0.2418284 -75.39 0.0005122221    1.571    0.363
       353 -10.1952     28.5662    122.6799   1.1310577763e+02   4.7163911699e+01    0.6485744    0.3236752  74.72  0.002637507    3.104    0.678
       354  -8.0595    243.6375    124.2628   6.0095733218e+01   7.6101706782e+00    0.1946515     0.116834 -28.65 0.0003608021    1.567    0.362
       355  -7.8107    188.5932    123.8498   6.9896369493e+01   1.9006117286e+01    0.2163111    0.1383025 -49.91 0.0009212961    1.645    0.392
       356 -10.1934    131.1984    119.0297   8.2172210147e+01   3.2587618407e+01    0.5938032     0.397983  85.56  0.002066753    2.767    0.639
       357  -8.7313     84.4063    123.0038   9.6391865476e+01   4.0310465121e+01    0.3629035     0.241919  -6.26  0.001497675    2.482    0.597
       358  -9.1511    158.7093    121.7563   7.5975212826e+01   2.6048228070e+01      0.39944    0.2890506 -80.46  0.001052663    2.100    0.524
       359  -7.9818    203.3420    122.2322   6.6573729623e+01   1.6114641950e+01     0.218158     0.128562 -46.30 0.0004143517    1.690    0.408
       360  -7.9800    194.9094    121.9921   6.8158081492e+01   1.7985788339e+01    0.2326883    0.1838032 -72.38 0.0005941258    1.635    0.388
       361  -8.6970    171.9632    121.7263   7.2926013815e+01   2.3111742657e+01    0.2694066     0.217678 -43.56 0.0004838503    1.213    0.175
       362  -9.8904    141.5946    118.5910   7.9359957546e+01   3.0478120972e+01    0.5147735    0.3345276 -70.58  0.001095794    2.362    0.577
       363  -9.5090     71.0193    119.8688   9.9743435045e+01   4.3074875327e+01    0.3750263    0.2537529  79.08  0.001092448    2.082    0.520
       364  -9.6406      2.7776    117.1992   1.1992644015e+02   5.0311007230e+01    0.4566214    0.2300637  73.85  0.002242215    2.385    0.581
       365  -8.0350    231.4879    117.9577   6.0587800800e+01   1.1035323386e+01    0.2051743    0.1076501 -54.31 0.0008086768    2.458    0.593
       366  -7.6589    219.4799    116.4849   6.2253215408e+01   1.3747113814e+01    0.1463999    0.1333222 -32.90 0.0006276637    1.008    0.007
       367  -8.2010    193.0827    115.4621   6.6893315697e+01   1.9643021493e+01    0.2441338    0.1881647 -38.27 0.0005093197    1.233    0.189
       368  -9.9865    109.3255    114.1527   8.6961743531e+01   3.8084374834e+01    0.5510333     0.368428 -75.26  0.001410942    2.186    0.543
       369  -9.1426    109.1675    107.8264   8.5357596677e+01   3.9575846482e+01    0.4628207    0.2895305   8.72  0.001656372    2.955    0.662
       370  -8.3633    250.0637    115.4259   5.7149546356e+01   7.8674682520e+00    0.1876772    0.1354594  49.89  0.001027236    1.610    0.379
       371 -10.3124     92.9186    111.5230   9.1139213201e+01   4.1675669367e+01    0.9350193    0.4090161 -53.37   0.00186917    2.200    0.545
       372  -9.9609     78.9854    112.5626   9.5663832043e+01   4.3686675366e+01    0.5373288    0.3651696  84.76  0.001771591    2.260    0.557
       373  -9.0277     59.3923    114.9561   1.0231287367e+02   4.5825918104e+01    0.2698671     0.187871  -2.46  0.001006085    2.007    0.502
       374  -7.9585    167.4973    114.5365   7.2077570671e+01   2.5589411054e+01    0.1556813    0.1519249 -40.07 0.0002420807    1.025    0.024
       375 -10.6669    128.1503    102.7240   7.8623921732e+01   3.6849242426e+01    0.6159927    0.4025399 -31.39  0.001960121    1.679    0.404
       376 -10.1544    121.9805    112.3624   8.2929897266e+01   3.5998362905e+01    0.4822881    0.2898387 -56.91 0.0007992909    1.850    0.460
       377 -10.6538    118.2788    104.8712   8.1948045779e+01   3.8438029623e+01    0.7875814    0.5084411  72.93  0.002928969    2.718    0.632
       378 -10.3299    108.7414     98.7691   8.3003106919e+01   4.1704353833e+01    0.6035543    0.4314806  83.16  0.001049834    2.295    0.564
       379  -9.0122    107.6297     92.6680   8.1584184147e+01   4.3264213367e+01    0.5948504    0.3043759  26.04  0.002055925    2.958    0.662
       380  -8.3883     27.0162    113.9621   1.1225100542e+02   4.9419318450e+01    0.2052859    0.1307152 -40.65 0.0005663969    1.636    0.389
       381 -10.0033    133.6445    109.6178   7.9047626105e+01   3.4165447488e+01    0.6568693    0.3341382 -49.52  0.001916028    2.016    0.504
       382  -9.9376     14.2728    111.2747   1.1577133166e+02   5.1019071371e+01    0.4081322     0.220301  79.18  0.001392527    2.345    0.573
       383 -10.7626    248.3697    108.0814   5.5747011945e+01   9.3872882168e+00    0.5180404    0.2995421 -40.69  0.002565884    1.490    0.329
       384 -10.4990    249.4692    102.9957   5.4445838774e+01   1.0001800198e+01    0.3999588    0.2746723 -33.86  0.001894103    1.277    0.217
       385  -8.5560    174.7601    111.8912   6.9778916601e+01   2.4475246348e+01     0.284867     0.206042 -58.03 0.0006043227    1.575    0.365
       386  -8.4613    159.1666    111.6993   7.3247512679e+01   2.8061837042e+01    0.2665659    0.2084699 -52.86 0.0005997328    1.331    0.248
       387 -10.3220     66.3715    109.6794   9.8970857806e+01   4.6202511572e+01    0.6681469    0.3374935 -57.28  0.002255473    1.786    0.440
       388  -8.7538     43.0383    109.4619   1.0641329323e+02   4.9034005810e+01    0.2834838    0.1419363  14.06  0.001210876    2.846    0.649
       389  -8.4958    189.1648    107.9737   6.5763287473e+01   2.1957142091e+01    0.2373679     0.200653 -63.72 0.0006190499    1.305    0.234
       390  -9.5498    150.6500    103.2222   7.2983304007e+01   3.1757321361e+01    0.5082452    0.3211627 -63.68  0.001745969    2.216    0.549
       391 -10.5521     45.7727    102.4216   1.0410912096e+02   5.0452676913e+01     0.756288    0.4368938  73.97  0.002968193    3.162    0.684
       392 -10.5902     22.9548    102.7571   1.1171585222e+02   5.2445285295e+01    0.7272845    0.3903578  74.35  0.002709402    2.935    0.659
       393  -8.6949    166.7125    104.3464   6.9545781504e+01   2.7833557743e+01    0.2865254    0.2033682 -43.31  0.000649611    1.379    0.275
       394  -9.3356    139.7098    104.5857   7.6093323042e+01   3.3930559924e+01    0.3397428     0.278863  87.98 0.0008489484    1.554    0.356
       395  -8.9745     78.6227    105.2406   9.4013671978e+01   4.5495584603e+01    0.3200862    0.1801101  24.77  0.001348311    2.185    0.542
       396  -8.8713      6.7039    102.9652   1.1697031703e+02   5.3463953576e+01    0.2577582    0.1725305  58.01  0.001530807    1.786    0.440
       397  -7.7700    175.5414    102.4734   6.7117440174e+01   2.6153847775e+01    0.1547818    0.1492881 -46.82 9.145847e-05    1.027    0.026
       398  -8.3599    159.8555    101.1090   7.0219154107e+01   3.0071480690e+01    0.2378294    0.2096476 -64.89 0.0004143383    1.231    0.188
       399  -9.3762     82.0788     99.5690   9.1459287635e+01   4.6286162415e+01    0.4931623    0.2639914 -61.86  0.001202328    2.168    0.539
       400 -10.1874     63.6886     95.7012   9.6533001744e+01   4.9899780657e+01    0.5949657    0.3647422 -82.66  0.001600274    2.785    0.641
       401  -9.1683     95.0926     97.0681   8.6662913587e+01   4.4648912204e+01    0.3254005    0.2328851 -59.06 0.0005045512    1.497    0.332
       402  -9.4532    120.4995     93.4457   7.8083769627e+01   4.0469450193e+01    0.2938087    0.2742614  51.31  0.001023994    1.128    0.114
       403 -10.4777    124.5605     91.0396   7.6245713360e+01   4.0109333635e+01     0.691021    0.3983089 -41.75  0.002066517    1.700    0.412
       404  -8.1857    185.8359    116.0963   6.8519839108e+01   2.1138356789e+01     0.238164    0.2007973 -61.67 0.0004854847    1.312    0.238
       405  -8.1712    188.6349     93.8520   6.2161865219e+01   2.4722494403e+01    0.2240506    0.1319785 -47.01 0.0006712044    1.699    0.411
       406  -8.4763    176.3756     93.2933   6.4452992635e+01   2.7713814162e+01    0.2761564    0.1842169 -47.52 0.0006457415    1.509    0.337
       407  -9.2702    139.1415     92.3224   7.2754422046e+01   3.6614091498e+01    0.3985724    0.2943166 -72.60  0.000869787    1.856    0.461
       408  -8.7338     46.3985     92.6509   1.0174236503e+02   5.2711468797e+01    0.3915552    0.1782916  17.33  0.001595834    3.021    0.669
       409  -9.4156      5.5809     92.4437   1.1580889527e+02   5.5995895634e+01    0.3203359    0.1820486  58.51  0.001279504    2.357    0.576
       410  -8.2003    157.5428     91.5668   6.8074185969e+01   3.2500469970e+01    0.2686123    0.1405347 -49.05 0.0006416368    2.063    0.515
       411  -9.6350     34.8392     90.0577   1.0522532016e+02   5.4473540191e+01    0.4571931    0.2655112 -87.56  0.001732167    2.633    0.620
       412  -9.0878     23.0921     90.2592   1.0941076716e+02   5.5399512104e+01    0.3038465    0.2243316   5.70  0.001516877    1.643    0.391
       413  -7.9269    151.1363     89.1371   6.8870774522e+01   3.4479486708e+01    0.2158744    0.1809256 -64.04 0.0004312447    1.337    0.252
       414  -9.5441    246.9507     88.3853   5.1474076197e+01   1.2834226741e+01    0.2840696    0.1323509  57.99  0.001257398    2.459    0.593
       415  -8.4054    164.8730     94.1406   6.7147901905e+01   3.0272439720e+01    0.2399905    0.2086838 -68.41 0.0005271684    1.270    0.213
       416 -10.3033     86.6394     85.6017   8.6071435252e+01   4.8684677210e+01    0.7712119    0.4601055 -44.61  0.002530457    1.567    0.362
       417  -8.5931     64.9557     87.5552   9.3973347132e+01   5.1610418273e+01     0.277301    0.1815125   4.96  0.001279942    2.071    0.517
       418  -7.6417    164.2644     87.6032   6.5435883661e+01   3.1664403372e+01    0.1626151    0.1178708 -65.64 0.0006974707    1.719    0.418
       419  -9.9757     48.4548     84.1232   9.8933193590e+01   5.4462751487e+01    0.5002733    0.3455501  82.54  0.002045231    2.348    0.574
       420  -7.4133    179.3186     85.6802   6.1761081243e+01   2.8415909249e+01    0.1582419    0.1183629 -71.79 0.0007042281    1.663    0.399
       421 -10.0678    104.6116     83.2292   7.9663221207e+01   4.5869441755e+01    0.4846937    0.3129743 -59.38  0.001144685    1.938    0.484
       422  -8.5321    157.9976     83.8499   6.5743840387e+01   3.3864915404e+01    0.2724333    0.2148736 -38.62  0.000458298    1.254    0.202
       423  -8.9337    140.8069     82.9977   6.9566600640e+01   3.8080071292e+01    0.2814803    0.2134643 -59.45 0.0005993258    1.527    0.345
       424  -7.7158    185.3334     82.6953   5.9777836080e+01   2.7508249105e+01    0.1566618    0.1164315 -72.74 0.0007038264    1.663    0.399
       425  -9.6725     24.6872     80.6462   1.0685579287e+02   5.7507328637e+01    0.4402552    0.2784777 -87.32   0.00134465    2.119    0.528
       426  -9.6115      9.9389     81.1106   1.1238105683e+02   5.8379656202e+01    0.3440062    0.1951335  58.30  0.001580758    2.614    0.617
       427  -8.6212    200.2471     79.9399   5.6374009069e+01   2.4443531679e+01    0.3962317    0.2365392 -16.96  0.001582039    2.386    0.581
       428  -8.4654    150.2879     80.6324   6.6563456286e+01   3.6302933210e+01    0.2892064    0.1744595 -47.79 0.0008973953    1.743    0.426
       429  -9.2176    119.4489     80.2256   7.4380085725e+01   4.3413884290e+01     0.406256    0.2361559 -52.47    0.0012601    1.983    0.496
       430  -8.8110     74.4930     80.3628   8.8605706065e+01   5.1813790354e+01    0.3285453    0.2221239 -64.70 0.0009830119    1.849    0.459
       431  -8.8749    249.5208     80.5089   4.9357302320e+01   1.3547688113e+01    0.1359604     0.114796 -48.62 -0.0001029099    1.028    0.028
       432  -8.3642    166.7377     79.7136   6.2641269743e+01   3.2521045314e+01    0.2559471    0.1835196 -34.41 0.0006213082    1.397    0.284
       433  -9.8960     63.5721     74.1811   9.0627277321e+01   5.4761958613e+01    0.6058665    0.3001919 -62.57  0.002271714    2.901    0.655
       434  -7.8518    157.1860     76.4405   6.3741576138e+01   3.5417894417e+01    0.2042765    0.1489902  70.21 0.0004862478    1.593    0.372
       435  -8.5474    140.2867     75.6304   6.7444002667e+01   3.9592287404e+01    0.2608856    0.2334715 -76.33 0.0006921265    1.274    0.215
       436  -9.2924    127.9847     75.1511   7.0444590441e+01   4.2513117939e+01    0.3549929    0.2469865 -56.11 0.0006647606    1.704    0.413
       437  -9.6551     82.5195     72.8080   8.3493623309e+01   5.2101593301e+01     0.405027    0.2950755 -72.31  0.001038204    2.083    0.520
       438  -8.8584    175.4297     71.4802   5.8525180239e+01   3.1839084970e+01    0.4462288    0.1482216 -34.04  0.001427165    3.067    0.674
       439  -8.1778    163.4086     73.2563   6.1456102942e+01   3.4471144462e+01    0.2159498    0.1386331 -46.44 0.0008389897    1.596    0.373
       440  -7.6873    151.5038     73.5332   6.4142324864e+01   3.7307006666e+01    0.1503037    0.1499398  74.68 0.0001757199    1.015    0.014
       441  -8.9420    115.6221     72.6731   7.3059246675e+01   4.5706567748e+01     0.325312    0.1802271 -40.21  0.001120113    1.783    0.439
       442  -9.6041    105.9296     71.2516   7.5443821101e+01   4.8009354652e+01     0.477622    0.2146414 -41.78  0.001591286    2.184    0.542
       443  -9.3940     95.1639     71.1849   7.8776503682e+01   5.0145114880e+01    0.3973058    0.2366075 -54.67 0.0008923983    2.044    0.511
       444  -8.3906     42.4405     72.7684   9.8162512998e+01   5.7665856796e+01    0.2574821       0.1205 -59.34 0.0008678549    2.086    0.521
       445  -9.4555     51.4989     69.6398   9.3775157796e+01   5.7314783536e+01      0.45628    0.2584928 -67.63  0.001422939    2.576    0.612
       446  -9.1858     29.3019     70.5862   1.0270340917e+02   5.9398532145e+01    0.4859349    0.2190848 -18.78  0.001822383    3.916    0.745
       447  -9.1018     16.6990     70.2333   1.0758622668e+02   6.0424647017e+01    0.2494338    0.1841037 -89.17   0.00087982    1.705    0.413
       448  -8.8057    147.1135     68.4083   6.3572170104e+01   3.9263345577e+01    0.2810833    0.2130045 -44.75 0.0005572632    1.352    0.260
       449  -8.8920    138.7774     66.1010   6.4815077171e+01   4.1652194989e+01    0.3893388    0.1960176 -47.46  0.001224379    2.229    0.551
       450  -8.8189    121.6386     66.1668   6.9243594178e+01   4.5591030109e+01    0.3299498    0.2353436 -59.39 0.0008973103    1.788    0.441
       451  -8.3614     82.6759     66.3415   8.1305337934e+01   5.3372383372e+01    0.2973568    0.1572129 -25.69  0.001162531    2.460    0.594
       452  -8.6919     95.4724     64.8424   7.6545173344e+01   5.1308782916e+01    0.2881907    0.1850019   6.92  0.001189028    2.336    0.572
       453  -8.7536     64.6580     63.5086   8.6824250417e+01   5.6823729358e+01    0.4072073    0.2266521 -13.77  0.001569722    3.042    0.671
       454  -8.7288     37.3112     64.5517   9.7854340304e+01   5.9969821754e+01    0.2466668     0.204503  86.87 0.0007885395    1.714    0.417
       455  -8.7952    110.2457     63.8822   7.1690993954e+01   4.8485362984e+01     0.256979    0.2468522 -89.61 0.0006118158    1.217    0.178
       456  -8.1561    158.2336     62.0196   5.9164141652e+01   3.7628159035e+01    0.2082507    0.1908366 -43.33 0.0004074318    1.104    0.094
       457  -9.2413     97.6959     60.6878   7.4399140485e+01   5.1640562129e+01    0.3059541     0.244882  55.05 0.0009299009    1.446    0.309
       458  -9.6664     73.3286     59.4347   8.2226301347e+01   5.6282125270e+01     0.434108    0.2293273 -49.42  0.001146393    2.026    0.506
       459  -7.7737    147.0000     59.0185   6.0644690918e+01   4.0860910089e+01    0.2392828    0.0852713 -33.88 0.0005738317    2.864    0.651
       460  -9.8529     23.4132     56.4997   1.0130247277e+02   6.2906743961e+01    0.4092128    0.2777123 -88.29  0.002124834    2.500    0.600
       461  -8.2628    130.8141     58.0588   6.4149453006e+01   4.4883234375e+01    0.2231479    0.2003033 -66.53  0.000545765    1.273    0.215
       462  -9.4974      7.4431     57.2350   1.0832606690e+02   6.3802552919e+01    0.2657284    0.1925295 -83.90 0.0009088829    1.708    0.414
       463  -9.3181    119.1267     55.8435   6.6432249935e+01   4.7930080352e+01    0.3500119    0.2253337 -51.52  0.001023113    1.878    0.468
       464  -7.3936    193.5065     56.5246   5.1199714059e+01   2.9796467311e+01    0.1461048    0.1323845 -70.35 -4.551958e-05    1.063    0.060
       465  -8.3441    140.1874     56.2151   6.1287924960e+01   4.2956582122e+01    0.2025753     0.172581 -65.15 0.0004213683    1.345    0.257
       466  -9.1657     54.0935     55.0974   8.8042654034e+01   5.9956809789e+01    0.3017492    0.1951425 -56.63 0.0008413955    1.831    0.454
       467  -8.7875     44.0396     55.5885   9.2302599580e+01   6.1101638758e+01    0.2373467    0.1743754 -60.35 0.0009767527    1.602    0.376
       468  -8.6052    105.9609     53.4358   6.9301212434e+01   5.1204215085e+01    0.2594526    0.1979592 -50.68 0.0006594494    1.531    0.347
       469  -9.6035     92.3709     50.5234   7.2435171690e+01   5.4460084550e+01    0.4215742    0.2431402 -46.38   0.00105858    1.968    0.492
       470  -8.3362     75.1094     51.6667   7.8772530828e+01   5.7419159158e+01    0.2978177    0.1600202  16.74  0.001151947    2.928    0.659
       471  -8.2427    144.6491     48.8987   5.7905085821e+01   4.2995690880e+01    0.2077601     0.127553 -43.78 0.0004612847    1.730    0.422
       472  -7.9885    129.8796     49.1735   6.1380198558e+01   4.6504694267e+01    0.2210716     0.197323 -77.73 0.0007263612    1.315    0.240
       473  -8.6516    120.8556     47.6410   6.3110956619e+01   4.8834806761e+01    0.2321949    0.1912577 -13.15 0.0003686481    1.269    0.212
       474  -8.5304    112.1748     46.9077   6.5171407697e+01   5.0900765902e+01    0.2093671     0.194539 -61.55 0.0005226859    1.271    0.213
       475  -8.9668     81.9575     46.5614   7.4419617855e+01   5.7090812685e+01    0.2551861    0.1935257 -42.04 0.0006934265    1.418    0.295
       476  -8.9571    133.1124     44.0051   5.8848859531e+01   4.6496072314e+01    0.4083433    0.2487241 -60.30  0.001688118    2.428    0.588
       477  -8.4525     45.1013     44.7041   8.8012682749e+01   6.3066314083e+01    0.2069537     0.160617 -44.77 0.0004460311    1.321    0.243
       478  -9.0664     16.7648     44.8765   1.0077266769e+02   6.5774144238e+01    0.2046519    0.1551744 -68.87 0.0007196549    1.614    0.380
       479  -8.5213     92.8360     42.7521   6.9347464765e+01   5.5616743304e+01    0.2422125    0.1402245  11.38 0.0009463156    2.772    0.639
       480  -9.3875     69.6827     41.6243   7.6907509098e+01   6.0048653225e+01    0.3856481    0.2619903 -55.80  0.001227601    2.154    0.536
       481  -8.8987     58.3036     42.6222   8.1724516400e+01   6.1662406308e+01     0.248227    0.2132259 -68.76 0.0009701357    1.771    0.435
       482  -9.2716      5.3321     42.2076   1.0530755763e+02   6.7019446020e+01    0.2762224    0.1829145 -79.16  0.001254481    2.080    0.519
       483  -8.6942    105.9489     41.3576   6.4873111035e+01   5.3092927617e+01    0.3003415    0.1860983 -47.05 0.0008227029    1.943    0.485
       484  -7.5848    140.4065     41.5011   5.6380197848e+01   4.5085172490e+01    0.1403212    0.1369541  56.18 0.0002779592    1.039    0.037
       485  -8.5950     36.8487     41.0441   9.0257715645e+01   6.4694269953e+01    0.1788043     0.159288 -38.66 0.0005111328    1.277    0.217
       486  -8.6646     95.4674     38.2051   6.6764096486e+01   5.5762859167e+01    0.2470366    0.2028529 -59.84 0.0007967922    1.646    0.393
       487  -8.7345     80.8096     36.7391   7.0941447625e+01   5.8851528094e+01    0.2417216    0.1687013 -54.25 0.0008416684    2.069    0.517
       488  -9.2831     26.2409     35.6646   9.3134219803e+01   6.6752299190e+01    0.2629989    0.1909841 -53.23  0.000893788    1.529    0.346
       489  -7.9132    132.9821     35.9589   5.6114264927e+01   4.7624999815e+01    0.2249943    0.1709355 -69.94  0.001121619    1.698    0.411
       490  -8.5403    218.6316    248.1049   8.8717873693e+01  -7.3522853025e+00    0.2047841    0.1391922 -43.23 0.0008733163    2.005    0.501
       491  -8.9545     48.4100     33.2605   8.2049687087e+01   6.4631616341e+01    0.2405061    0.1912693 -34.75 0.0006586601    1.277    0.217
       492  -8.8533    119.1509     32.7404   5.8181278435e+01   5.1308258744e+01    0.3178093    0.1522897 -33.73  0.001359527    2.155    0.536
       493  -8.8298     60.7255     32.6271   7.6668356675e+01   6.2929166698e+01    0.2297364    0.1964471 -38.43 0.0006657891    1.381    0.276
       494  -8.1537    125.8753     35.8153   5.7681011758e+01   4.9337718435e+01    0.2135733    0.1767276  28.55 0.0004197246    1.203    0.169
       495  -8.9098     72.0166     31.1658   7.1742388075e+01   6.1263337383e+01    0.1833186    0.1799522 -22.32 0.0006536932    1.341    0.254
       496  -9.1378     12.9636     30.2977   9.7664577103e+01   6.8828303326e+01    0.2593915    0.1532108 -60.16  0.001073381    1.968    0.492
       497  -8.2132    101.6349     29.4802   6.1528763469e+01   5.5648927198e+01    0.2161958    0.1277339 -26.88 0.0007209095    1.748    0.428
       498  -8.2141     42.1300     30.1432   8.3502958344e+01   6.5961770622e+01    0.1568788    0.1403174 -28.69 0.0004370605    1.313    0.238
       499  -8.9503     81.3959     27.4005   6.6873411480e+01   6.0055318548e+01    0.2740348    0.2144632 -48.21 0.0008557067    1.668    0.400
       500  -8.8266      3.7259     27.8879   1.0156239059e+02   6.9864862280e+01    0.1932585    0.1419122 -61.90 0.0009645214    1.561    0.359
       501  -7.7754    162.5678     27.4570   4.7735404176e+01   4.1373295475e+01    0.1376099    0.1279782  69.95 0.0001108003    1.014    0.013
       502  -7.9920     88.6622     34.2128   6.7313141269e+01   5.7707227230e+01    0.1946903    0.1207546 -19.45  0.000947657    1.705    0.414
       503  -8.8308     91.8324     26.4958   6.3182281013e+01   5.8094117518e+01    0.2784747    0.1824992 -37.91 0.0008165561    1.695    0.410
       504  -8.0381    104.6329     23.2865   5.8271813172e+01   5.5744467642e+01    0.1306089    0.1071133 -79.15 0.0007021051    1.700    0.412
       505  -8.1601     34.7384     23.1821   8.3887721808e+01   6.7974322314e+01    0.1677883    0.1396068  81.37 0.0009514479    2.754    0.637
       506  -8.0486    191.4746    249.5460   9.3940665771e+01  -3.6322253070e+00    0.1202862   0.09689572  27.08 0.0008068282    1.087    0.080
       507  -8.9095     48.3657     21.9101   7.7071188171e+01   6.6380299204e+01    0.2083117    0.1863582   0.33  0.000573112    1.235    0.190
       508  -7.8467    120.4725     21.2429   5.3642218793e+01   5.2358622824e+01    0.1830376    0.1239465 -40.00 0.0009372576    1.658    0.397
       509  -8.0195     19.5322     21.5287   9.0768218786e+01   6.9825941135e+01    0.1182573   0.09147154 -21.42 3.938117e-05    1.038    0.036
       510  -8.9723     74.0638     19.4784   6.5918888566e+01   6.2444218880e+01    0.2634692    0.1865018 -45.41 0.0007243006    1.879    0.468
       511  -7.7894     12.2842     20.6915   9.4253591454e+01   7.0573469219e+01   0.09469801   0.08965836 -51.93 0.0002397834    1.567    0.362
       512  -8.1273     87.8246     17.8020   6.0745611985e+01   5.9946487089e+01    0.1647517    0.1539247 -38.82 0.0005348335    1.329    0.247
       513  -8.2533     38.7299     18.2193   7.9699979654e+01   6.8226251743e+01    0.1794026    0.1417009 -36.29  0.000775399    1.460    0.315
       514  -8.0860    112.6268     16.7815   5.3755111379e+01   5.4650416394e+01     0.170693    0.1220907 -33.84 0.0002742372    1.543    0.352
       515  -8.3195     29.9715     16.1835   8.2976480622e+01   6.9593343693e+01    0.1662464    0.1475687 -10.18 0.0008019196    1.320    0.243
       516  -9.0023     63.5920     21.1184   7.0475101771e+01   6.4100964847e+01    0.2704044    0.1994778 -49.34 0.0007967852    1.961    0.490
       517  -8.1426     97.3321     15.2241   5.6961950429e+01   5.8221193859e+01    0.1784669    0.1139692 -32.59 0.0004875687    1.713    0.416
       518  -7.9065      7.5370     15.5214   9.4668073234e+01   7.1794667683e+01    0.1138228    0.0856609 -25.52  0.000160732    1.047    0.045
       519  -8.1089     17.1467     14.1908   8.8736500946e+01   7.1222159946e+01    0.1411406     0.123954 -16.45 0.0004798394    1.330    0.248
       520  -9.1182    175.6043    247.6723   9.6677840816e+01  -9.8703824102e-01    0.2770239     0.234871 -79.02  0.001077589    1.832    0.454
       521  -7.7750     83.5067     11.4767   5.9294610013e+01   6.1497647909e+01    0.1280292    0.1120628  24.42 0.0001172898    1.064    0.060
       522  -9.0712    156.1604    247.8588   1.0044892953e+02   1.9614689826e+00     0.222731    0.1843226 -48.13 0.0006802196    1.489    0.328
       523  -8.7067    140.1394    249.1270   1.0371621096e+02   4.2175417225e+00    0.1790557     0.145444  20.67 0.0004825422    1.285    0.222
       524  -8.8319    132.3243    248.2039   1.0512051212e+02   5.5552707485e+00    0.2458048    0.1593089  56.04 0.0007283388    1.573    0.364
       525  -8.5377    112.9485    248.8776   1.0894654176e+02   8.3434838413e+00    0.1994338    0.1583183 -83.85  0.001332139    1.470    0.320
       526  -9.4203    103.7432    246.8302   1.1050397059e+02   1.0039375064e+01    0.3983132    0.2063261 -77.43  0.001978342    2.820    0.645
       527  -8.9408    242.8369    246.7638   8.4227930720e+01  -1.0443337255e+01    0.3082547     0.139001 -33.31  0.001404798    2.293    0.564
       528  -8.5864    232.6578    247.0259   8.6044804118e+01  -9.1361114880e+00    0.1873575    0.1293827 -26.41 0.0006000704    1.513    0.339
       529 -10.0038    223.9643    244.1614   8.7135672395e+01  -7.5985017403e+00    0.4172115    0.2231058 -44.08  0.002274811    2.562    0.610
       530  -9.4358    147.2353    246.0731   1.0195103258e+02   3.6146806501e+00    0.3188595    0.2034974  64.54  0.001690981    2.221    0.550
       531  -9.1563    120.1283    245.3636   1.0716466529e+02   7.8714105871e+00    0.3304153    0.1911994  65.77  0.001677143    2.285    0.562
       532  -8.7965     67.6042    244.8049   1.1717682200e+02   1.5375718647e+01    0.1928397    0.1023189 -67.02  0.001120492    2.032    0.508
