#   1 NUMBER                 Running object number                                     
#   2 MAG_AUTO               Kron-like elliptical aperture magnitude                    [mag]
#   3 X_IMAGE                Object position along x                                    [pixel]
#   4 Y_IMAGE                Object position along y                                    [pixel]
#   5 X_WORLD                Barycenter position along world x axis                     [deg]
#   6 Y_WORLD                Barycenter position along world y axis                     [deg]
#   7 A_WORLD                Profile RMS along major axis (world units)                 [deg]
#   8 B_WORLD                Profile RMS along minor axis (world units)                 [deg]
#   9 THETA_WORLD            Position angle (CCW/world-x)                               [deg]
#  10 FWHM_WORLD             FWHM assuming a gaussian core                              [deg]
#  11 ELONGATION             A_IMAGE/B_IMAGE                                           
#  12 ELLIPTICITY            1 - B_IMAGE/A_IMAGE                                       
         1 -14.7130    189.0984     42.6279   4.8073301676e+01   3.2602273340e+01      1.26958    0.9783145  25.56  0.003995738    1.684    0.406
         2 -14.5110    213.9309     11.8979   3.7220115901e+01   3.0373062104e+01    0.8879789    0.7935317 -65.46  0.003859629    1.095    0.087
         3 -11.1723     71.4848    242.0175   1.1600526989e+02   1.5213676720e+01    0.1618797    0.1158755 -60.81 0.0009406996    1.656    0.396
         4 -14.1957    247.2944    242.5379   8.3067062896e+01  -1.0842530292e+01     1.307868    0.5211893 -27.62   0.00670098    2.552    0.608
         5 -18.3570     17.4182     96.7885   1.1175718804e+02   5.4238322025e+01     14.15996     2.940966 -68.12   0.04420904    4.349    0.770
         6 -10.7046     59.3890    220.5422   1.1643808171e+02   2.0964886848e+01    0.2412164    0.1881709 -38.45  0.001495997    1.955    0.489
         7  -9.6634     50.7413    214.1809   1.1759580679e+02   2.3360068665e+01    0.1111071   0.07010779  60.17            0    1.368    0.269
         8 -11.4634     89.5338    211.5944   1.0931181007e+02   1.8633170393e+01    0.2392419    0.1902117  77.32  0.000726849    1.196    0.164
         9  99.0000     43.3870    207.5765   1.1850658478e+02   2.5634072610e+01    0.4466685    0.1608117 -74.92  0.001984298    2.704    0.630
        10 -11.9126     65.7736    205.4905   1.1366090794e+02   2.3276101811e+01    0.3837985    0.1795429 -73.36   0.00182245    2.190    0.543
        11 -10.8173     93.7465    205.4176   1.0764515318e+02   1.9290460758e+01    0.2762802    0.2034118  19.56  0.001049286    1.808    0.447
        12 -11.5587     96.4804    202.4900   1.0666744181e+02   1.9491135568e+01    0.2407787    0.2080676 -69.94   0.00111948    1.201    0.168
        13 -10.1624     56.2032    200.8313   1.1521245373e+02   2.5529372868e+01    0.2804847    0.1704705 -39.59  0.001376315    2.682    0.627
        14 -11.7027    192.9292    195.0121   8.4690535704e+01   4.2973714979e+00    0.8950061    0.4390568 -61.30  0.002329379    7.800    0.872
        15 -10.2823     81.9334    194.6578   1.0887403878e+02   2.3382523659e+01    0.1943536    0.1549848  58.50  0.001140436    1.145    0.126
        16 -12.3646    150.3216    192.6683   9.3221059950e+01   1.2402372433e+01     0.279689    0.2291261  55.58  0.001531923    1.273    0.214
        17 -13.8617    147.4937    188.1078   9.3031569405e+01   1.3833293784e+01    0.8001106    0.3659006 -55.11    0.0031608    2.556    0.609
        18 -12.5133     60.3962    192.6969   1.1344114141e+02   2.6793591655e+01    0.3549634     0.265157 -44.01  0.001249421    1.743    0.426
        19 -10.7450     28.3269    184.9194   1.1970286336e+02   3.2276311537e+01    0.1531418    0.1220407  86.28 0.0004254201    1.019    0.019
        20 -11.6664     69.5888    182.6218   1.1015074437e+02   2.7859701186e+01    0.4553359    0.2580684  53.75  0.001554645    1.744    0.426
        21 -12.9237     72.4063    178.4961   1.0894588690e+02   2.8425634666e+01    0.7004919    0.5821319  45.46   0.00415905    1.241    0.194
        22 -11.9239    186.5379    174.6143   8.1969224882e+01   9.1673300025e+00    0.3503646     0.340246 -63.54  0.001049603    1.206    0.171
        23 -11.3829     30.4664    170.1602   1.1784004482e+02   3.5456414224e+01    0.2247022    0.1935905 -26.58  0.001455825    1.633    0.388
        24 -12.6494    147.1383    173.2733   9.0327978457e+01   1.6987045048e+01    0.5705091    0.3450563 -72.31  0.002193179    2.789    0.641
        25  99.0000     61.6042    231.4414   1.1696273977e+02   1.8513527613e+01      11.3077     4.027172  31.92   0.03364146    3.395    0.705
        26 -11.7534     75.1608    249.5805   1.1597166361e+02   1.3353944184e+01    0.2875927     0.135406 -59.66  0.001585921    2.432    0.589
        27 -11.2066     52.3870    250.0953   1.2009230950e+02   1.6184813619e+01    0.1465504   0.09459917 -83.34 0.0008644548    1.517    0.341
        28 -11.8596     91.3799    156.2539   1.0075573932e+02   3.0870521901e+01    0.2539895    0.2474473 -67.32 0.0003296854    1.104    0.094
        29 -12.2637    133.7717    145.3985   8.7707145188e+01   2.5767092547e+01     1.217222     0.272255 -53.79  0.002563644    6.956    0.856
        30 -11.1082    174.7185    149.1914   7.8980154889e+01   1.6541928657e+01    0.2406978    0.1925565 -60.93 0.0006753814    1.443    0.307
        31 -11.5203    109.0412    147.2105   9.4417395440e+01   3.0037260732e+01     0.253362    0.2146617 -80.42 0.0003587593    1.243    0.195
        32 -12.1488    108.2540    136.6021   9.2364718861e+01   3.2716768170e+01    0.4904429    0.3089767 -32.19   0.00204014    2.024    0.506
        33 -12.0621    105.9213    130.9016   9.1720472851e+01   3.4507746728e+01    0.4287496    0.3381796 -63.53  0.001192656    1.274    0.215
        34 -12.4453     96.5428    136.1816   9.5459346161e+01   3.4887629860e+01    0.3257159    0.2566422 -55.28 0.0004318346    1.200    0.167
        35 -12.9096     96.8836    150.1165   9.8182709412e+01   3.1449755897e+01    0.5810385    0.4358263 -25.40  0.002067435    1.765    0.433
        36 -11.6071    115.2624    128.3264   8.8578184583e+01   3.3370704218e+01    0.3106029    0.2450316 -15.36  0.000741565    1.607    0.378
        37  99.0000     29.1694    205.8376   1.2122288153e+02   2.7596298330e+01     12.21572          nan -62.41    0.0235822   15.912    0.937
        38 -11.2960    102.9281    123.8293   9.0908615111e+01   3.6744774725e+01    0.3074362    0.2501388 -16.75  0.000871853    1.496    0.332
        39 -10.6443    135.0000    119.9904   8.1304879547e+01   3.1295041143e+01    0.2661349   0.08793845 -45.70 0.0008020409    2.940    0.660
        40 -10.4053    110.3493    117.9274   8.7386706147e+01   3.6758305289e+01    0.2173418     0.186276 -48.06 0.0003634138    1.114    0.102
        41 -10.7885    231.1356    113.9534   5.9882887864e+01   1.1467904634e+01    0.2208415    0.2151525  37.28  0.000786263    1.154    0.133
        42 -10.7956    167.8327    112.7200   7.1538567780e+01   2.5585663480e+01    0.3111627    0.2033836 -65.44  0.001230708    2.127    0.530
        43 -12.5395    118.7930    110.6658   8.3164971781e+01   3.6768348408e+01    0.5399829    0.3797171  80.71  0.002197806    2.239    0.553
        44 -10.4345    205.3800    110.1794   6.3340833637e+01   1.7598974986e+01    0.2457813    0.2064361  36.05 0.0007897238    1.302    0.232
        45 -13.4971    174.0961     56.3250   5.4381966918e+01   3.4334911681e+01    0.4871807    0.4628478  19.63 0.0008186685    1.156    0.135
        46 -11.2677     62.1442    243.7672   1.1787338540e+02   1.6112455731e+01     0.134871   0.09543549 -75.34 0.0006653832    1.473    0.321
        47 -13.2928    194.1890     36.8188   4.5778946293e+01   3.2128706037e+01    0.4777852    0.4577717  67.14  0.001254597    1.128    0.114
