#   1 NUMBER                 Running object number                                     
#   2 MAG_AUTO               Kron-like elliptical aperture magnitude                    [mag]
#   3 X_IMAGE                Object position along x                                    [pixel]
#   4 Y_IMAGE                Object position along y                                    [pixel]
#   5 X_WORLD                Barycenter position along world x axis                     [deg]
#   6 Y_WORLD                Barycenter position along world y axis                     [deg]
#   7 A_WORLD                Profile RMS along major axis (world units)                 [deg]
#   8 B_WORLD                Profile RMS along minor axis (world units)                 [deg]
#   9 THETA_WORLD            Position angle (CCW/world-x)                               [deg]
#  10 FWHM_WORLD             FWHM assuming a gaussian core                              [deg]
#  11 ELONGATION             A_IMAGE/B_IMAGE                                           
#  12 ELLIPTICITY            1 - B_IMAGE/A_IMAGE                                       
         1 -13.4994     68.6116    144.4442   9.6612557117e+01   3.7487829123e+01     3.244157     1.619812 -87.44  0.006221748    5.098    0.804
         2 -13.4482    218.0523     30.5022   3.5436378512e+01   2.7577011033e+01      1.01203    0.8068157  46.58  0.006447807    1.685    0.407
         3 -13.6071    205.2779     41.9418   3.9290009749e+01   2.8888855031e+01     1.665383     1.293712  36.22  0.008146766    1.822    0.451
         4 -12.7141    244.2729      5.8194   2.8524947454e+01   2.5093745277e+01    0.7503348    0.5202736 -84.16  0.005222894    1.189    0.159
         5  -9.8776      2.5740      3.0816   8.2338496388e+01   7.3934524827e+01    0.2202383    0.1057331 -28.13  0.001315404    1.834    0.455
         6  -9.9610     51.9704      4.4557   5.8681814265e+01   6.7072479448e+01    0.2074725    0.1611432  52.88 0.0009615037    1.476    0.322
         7  -9.9745     47.7574      2.5496   5.9379344393e+01   6.7978448555e+01     0.235442     0.181104  44.58 0.0007817854    1.330    0.248
         8  -9.7306    111.0522    203.3499   9.5206307462e+01   1.6516857122e+01    0.2042708    0.1679555  43.49 0.0005480063    1.132    0.117
         9 -12.1480     65.8205    170.5308   1.0175561687e+02   3.1313443631e+01     1.162067    0.5703421 -30.15  0.003467364    5.066    0.803
        10 -14.8151      5.8749    140.7635   1.1468837792e+02   4.5071486010e+01     6.837617     1.569328 -76.37   0.02124482    4.437    0.775
        11 -10.0650    192.4021    193.6054   7.5134491259e+01   4.5517215692e+00    0.3569514    0.2341728 -64.14  0.001608323    2.470    0.595
        12  -9.5366    122.3519    199.2444   9.1840813727e+01   1.5533317237e+01    0.2973694    0.2516333 -86.52  0.001175051    1.363    0.266
        13  -8.2677     66.5186    196.5153   1.0513407077e+02   2.4885206556e+01    0.1403525    0.1216104  70.53 0.0008095576    1.056    0.053
        14  -9.2777    146.4208    186.1974   8.3811282771e+01   1.4138734441e+01    0.1946988    0.1429186 -63.97 0.0003804072    1.620    0.383
        15  -9.3071     99.3414    180.7825   9.4498881274e+01   2.3661310204e+01    0.2576098    0.2349283  31.16 0.0006181594    1.134    0.118
        16  -9.9549    186.8836    175.0406   7.2635723765e+01   9.0560009566e+00    0.3329147    0.2931398 -45.97  0.001255699    1.189    0.159
        17  -9.6212     86.4819    175.5563   9.6999107098e+01   2.7004498136e+01    0.2647945    0.1438452 -65.43 0.0006290308    1.933    0.483
        18 -13.5644     47.2442    187.7980   1.0887807119e+02   2.9472423757e+01     1.493239     1.038467  70.80  0.008048053    1.431    0.301
        19 -12.3968    101.1164    170.9176   9.2320159711e+01   2.5737084669e+01      2.89189     0.680464  47.78  0.006285275    7.024    0.858
        20 -12.7507     65.2388    154.8517   9.9432798153e+01   3.5335838468e+01    0.5261031    0.4488285 -35.34  0.001062712    1.305    0.234
        21 -13.6993     14.8144    214.4790   1.1876179535e+02   2.6819752829e+01      1.05712    0.4846754  30.21  0.003023695    2.291    0.563
        22 -12.2553     77.5963    158.7485   9.6585009199e+01   3.2551193339e+01    0.9644811    0.5970261  60.40 0.0005704206    1.949    0.487
        23  -9.7346     46.2685    167.0720   1.0657901241e+02   3.4697582601e+01    0.2402926    0.1881936  49.45 0.0004079701    1.284    0.221
        24  -9.0822     53.7432    161.7308   1.0377288925e+02   3.5124608467e+01     0.262877    0.1863643   1.41  0.001269421    1.992    0.498
        25  -9.6971     32.4871    155.5247   1.0887909582e+02   3.9117557428e+01    0.2879713    0.1816773 -52.33  0.001118332    1.551    0.355
        26 -10.2646     29.2977    155.6746   1.0979184361e+02   3.9399978392e+01    0.2555099    0.1749824  62.98  0.001021844    1.535    0.349
        27 -11.6295     85.3355    152.6591   9.3280875976e+01   3.2861804196e+01    0.6646969    0.4829736 -18.41  0.001778973    1.901    0.474
        28 -10.3671    133.6378    144.6965   7.8421162362e+01   2.5923008269e+01     1.211445     0.284649 -53.92  0.002608377    6.569    0.848
        29  -9.0559    175.1530    149.1671   6.9649612897e+01   1.6531113998e+01    0.2021923    0.1799046 -79.24 0.0005335943    1.311    0.237
        30 -10.6551     23.6794    147.8478   1.1040659457e+02   4.1891266399e+01    0.4323726    0.2320746  62.52  0.001976212    2.243    0.554
        31 -10.6430     54.2885    146.9256   1.0130686466e+02   3.8801776377e+01    0.4415348    0.2634387 -52.74  0.002072736    1.584    0.369
        32  -8.9226     34.6105    145.2054   1.0686909950e+02   4.1497619347e+01    0.2220948    0.1852631 -39.48  0.001285791    1.303    0.232
        33  -9.3509     31.8745    142.8873   1.0734909093e+02   4.2358289683e+01    0.3585027    0.2095949 -58.95  0.001306265    1.505    0.336
        34 -11.6939     87.1483    138.2189   8.9863695764e+01   3.6158305491e+01    0.3245243    0.2761463 -45.87 0.0004278032    1.167    0.143
        35  -9.7534    105.9595    130.7217   8.2707339159e+01   3.4630884840e+01    0.3426067    0.3287095 -27.99  0.001345719    1.065    0.061
        36  -9.6019    109.9653    129.5237   8.1286820600e+01   3.4151045921e+01    0.3569777    0.2610051  -4.58 0.0009055253    1.977    0.494
        37 -10.3709     99.9608    139.0833   8.6315545002e+01   3.3720159873e+01    0.5788275    0.3617179 -24.40  0.002230022    2.441    0.590
        38  -9.8313    135.5872    129.3014   7.4333623908e+01   2.9028967104e+01    0.3075358     0.150363 -50.82   0.00113929    2.104    0.525
        39 -16.5327     15.9060    242.7746   1.2028719131e+02   2.0732798163e+01     6.893298      2.70485  23.34   0.02995617    3.886    0.743
        40 -10.2499    240.2771    169.3763   6.1609086523e+01   1.1178157847e+00    0.2163308    0.1430938 -51.74 0.0005346316    1.725    0.420
        41  -9.7763     97.0754    125.2433   8.4011433121e+01   3.7587680002e+01    0.3061033    0.2533858   5.02 0.0008778068    1.431    0.301
        42  -8.7894    116.1729    123.8717   7.8184383955e+01   3.4251366316e+01    0.2163288    0.1858041 -14.15 0.0005735543    1.331    0.249
        43  -9.1510    106.8666    118.5913   7.9516995785e+01   3.7309469318e+01    0.2349495    0.2032762 -36.47 0.0003578632    1.173    0.147
        44  -9.8845    231.1565    113.7641   5.1709750954e+01   1.2262398021e+01    0.2485912    0.2336953  70.88 0.0007248178    1.201    0.168
        45 -10.1879    247.7742    110.2169   4.8677946218e+01   9.8481461638e+00    0.1997781    0.1473394  -2.19  0.001071432    2.118    0.528
        46  -9.3618    205.3441    110.2226   5.4984709674e+01   1.7971830669e+01    0.2766972     0.201006  47.14 0.0008934569    1.514    0.340
        47  -9.2954     28.5127    107.7185   1.0266383367e+02   5.1398706793e+01    0.3143771    0.1280653  13.48   0.00120348    3.399    0.706
        48  -8.9488     31.6766     95.6768   9.9071315909e+01   5.3961585292e+01    0.2625946     0.139451  46.97  0.001179253    2.459    0.593
        49 -10.9263    246.2847     94.2948   4.5641791857e+01   1.2694384070e+01    0.3569259   0.08621348 -42.21  0.001267348    3.284    0.696
        50  -8.9295     53.3112     91.3094   9.0009798755e+01   5.2491068279e+01    0.1454172    0.1000162 -23.62 0.0003722096    1.624    0.384
        51  -9.3451     18.0197     90.0069   1.0301433425e+02   5.6457126248e+01    0.1862022    0.1490975  72.28 0.0003790109    1.583    0.368
        52  -8.6934     72.0653     83.1021   8.0971657324e+01   5.1496476956e+01    0.2082744    0.1735311  72.90 0.0005149696    1.614    0.381
        53 -14.4621     37.0610    196.5986   1.1229551194e+02   2.8561186070e+01     3.121155      1.56077  76.48  0.003348886    2.395    0.582
        54 -10.6397    194.9888    198.2329   7.5481116420e+01   3.2759488599e+00    0.3661148    0.2453089 -67.16  0.001643475    2.682    0.627
        55  -8.7865     48.6973     62.7385   8.3464252622e+01   5.9103072364e+01    0.1584444    0.1536276  52.31 0.0004333323    1.316    0.240
        56 -10.4266     13.4745     59.9848   9.7810096403e+01   6.3336293386e+01    0.2548616    0.2066011 -56.76 0.0004305546    1.272    0.214
        57 -14.4021     10.2636    206.5453   1.1920077609e+02   2.9024966499e+01     1.026111    0.9234251  28.37  0.003691653    1.411    0.291
        58 -12.3653    195.8173     48.5296   4.1976331407e+01   3.0115792517e+01    0.7092611    0.5205007  51.34  0.001310819    1.535    0.348
        59  -9.8948    193.4570    205.4553   7.7120102536e+01   2.2256723641e+00    0.2429667    0.1186145  46.41  0.001038858    2.428    0.588
        60 -10.2690      2.2574     24.2129   9.1884419717e+01   7.0781191398e+01    0.2086534    0.1133556 -42.41  0.001279531    1.534    0.348
        61  -8.9352    198.0321     23.5346   3.5894991717e+01   3.2795541540e+01    0.2085786    0.1785678 -11.82  0.000876192    1.630    0.387
        62  -8.8128    189.5126     14.9630   3.4797400234e+01   3.5672783372e+01    0.1725147    0.1164729 -39.18 0.0007854864    1.557    0.358
        63 -10.7445     95.0665    241.1210   1.0386336735e+02   1.1066256140e+01    0.3498606    0.1886936 -64.26  0.001767277    2.122    0.529
        64  -8.8554    168.9738    235.8593   8.7302327057e+01   7.4368296020e-01    0.1902881    0.1530749   3.12 0.0003257256    1.222    0.182
        65  -8.3045     33.2365    210.3481   1.1443278904e+02   2.5810181065e+01    0.1179395   0.08847243 -53.89 0.0001760953    1.564    0.361
